Data from WStandard_LampEnergy5.5LIBS07252019.E.O._I.C._HRD10591_16-06-39-919.txt Node
Date: Thu Jul 25 16:06:39 EDT 2019
User: cochatt
Spectrometer: HR+D1059
Trigger mode: 1
Integration Time (sec): 1.000000E-1
Scans to average: 1
Electric dark correction enabled: true
Nonlinearity correction enabled: false
Boxcar width: 0
XAxis mode: Wavelengths
Number of Pixels in Spectrum: 2048
>>>>>Begin Spectral Data<<<<<
223.165	-16.12
223.4	-16.12
223.635	-16.12
223.869	-16.12
224.104	-25.12
224.338	-25.12
224.573	-23.12
224.808	-13.12
225.042	-7.12
225.277	-10.12
225.511	-0.12
225.746	7.88
225.98	7.88
226.215	19.88
226.449	11.88
226.683	27.88
226.918	29.88
227.152	30.88
227.387	40.88
227.621	33.88
227.856	32.88
228.09	52.88
228.324	39.88
228.559	59.88
228.793	152.88
229.027	360.88
229.262	377.88
229.496	415.88
229.73	385.88
229.964	443.88
230.199	451.88
230.433	452.88
230.667	517.88
230.901	521.88
231.136	497.88
231.37	456.88
231.604	451.88
231.838	458.88
232.072	479.88
232.306	432.88
232.541	466.88
232.775	561.88
233.009	604.88
233.243	595.88
233.477	540.88
233.711	541.88
233.945	542.88
234.179	529.88
234.413	597.88
234.647	647.88
234.881	613.88
235.115	546.88
235.349	558.88
235.583	536.88
235.817	552.88
236.051	531.88
236.285	557.88
236.519	566.88
236.753	669.88
236.987	674.88
237.221	674.88
237.455	755.88
237.689	727.88
237.922	689.88
238.156	655.88
238.39	646.88
238.624	694.88
238.858	724.88
239.091	752.88
239.325	771.88
239.559	912.88
239.793	937.88
240.027	1021.88
240.26	1033.88
240.494	781.88
240.728	681.88
240.961	688.88
241.195	727.88
241.429	834.88
241.662	838.88
241.896	767.88
242.13	782.88
242.363	862.88
242.597	898.88
242.83	851.88
243.064	895.88
243.298	994.88
243.531	943.88
243.765	919.88
243.998	901.88
244.232	797.88
244.465	763.88
244.699	791.88
244.932	887.88
245.166	1031.88
245.399	978.88
245.633	893.88
245.866	858.88
246.099	928.88
246.333	951.88
246.566	971.88
246.8	1047.88
247.033	1165.88
247.266	1092.88
247.5	1046.88
247.733	1035.88
247.966	1088.88
248.2	1212.88
248.433	1183.88
248.666	1222.88
248.899	1329.88
249.133	1501.88
249.366	1743.88
249.599	1410.88
249.832	1238.88
250.066	1254.88
250.299	1263.88
250.532	1221.88
250.765	1086.88
250.998	1120.88
251.231	1192.88
251.465	1254.88
251.698	1161.88
251.931	1153.88
252.164	1188.88
252.397	1209.88
252.63	1251.88
252.863	1084.88
253.096	1036.88
253.329	1165.88
253.562	1175.88
253.795	1264.88
254.028	1232.88
254.261	1173.88
254.494	1155.88
254.727	1081.88
254.96	1129.88
255.193	1235.88
255.426	1409.88
255.659	1657.88
255.892	1659.88
256.124	1370.88
256.357	1287.88
256.59	1433.88
256.823	1409.88
257.056	1406.88
257.289	1721.88
257.521	1905.88
257.754	1650.88
257.987	1542.88
258.22	1757.88
258.452	1703.88
258.685	1395.88
258.918	1346.88
259.151	1360.88
259.383	1308.88
259.616	1203.88
259.849	1269.88
260.081	1390.88
260.314	1540.88
260.547	1691.88
260.779	1734.88
261.012	1629.88
261.244	1463.88
261.477	1361.88
261.71	1393.88
261.942	1401.88
262.175	1382.88
262.407	1409.88
262.64	1357.88
262.872	1263.88
263.105	1221.88
263.337	1285.88
263.57	1305.88
263.802	1286.88
264.035	1207.88
264.267	1153.88
264.499	1134.88
264.732	1221.88
264.964	1297.88
265.197	1302.88
265.429	1403.88
265.661	1553.88
265.894	1710.88
266.126	1785.88
266.358	1581.88
266.591	1621.88
266.823	1804.88
267.055	1606.88
267.287	1574.88
267.52	1561.88
267.752	1547.88
267.984	1557.88
268.216	1577.88
268.448	1658.88
268.681	1620.88
268.913	1498.88
269.145	1434.88
269.377	1360.88
269.609	1497.88
269.841	1729.88
270.073	1953.88
270.306	2242.88
270.538	2409.88
270.77	2014.88
271.002	1723.88
271.234	1642.88
271.466	1640.88
271.698	1813.88
271.93	2218.88
272.162	2178.88
272.394	1939.88
272.626	1861.88
272.858	1651.88
273.09	1465.88
273.322	1415.88
273.553	1356.88
273.785	1388.88
274.017	1429.88
274.249	1537.88
274.481	1568.88
274.713	1416.88
274.945	1395.88
275.176	1389.88
275.408	1434.88
275.64	1383.88
275.872	1354.88
276.104	1401.88
276.335	1648.88
276.567	1878.88
276.799	1912.88
277.031	1667.88
277.262	1578.88
277.494	1669.88
277.726	1848.88
277.957	1826.88
278.189	1662.88
278.421	1505.88
278.652	1455.88
278.884	1479.88
279.115	1453.88
279.347	1477.88
279.579	1459.88
279.81	1451.88
280.042	1591.88
280.273	1777.88
280.505	1774.88
280.736	1801.88
280.968	1709.88
281.199	1518.88
281.431	1455.88
281.662	1423.88
281.894	1420.88
282.125	1482.88
282.356	1547.88
282.588	1557.88
282.819	1502.88
283.051	1655.88
283.282	1761.88
283.513	1720.88
283.745	1498.88
283.976	1398.88
284.207	1382.88
284.439	1477.88
284.67	1471.88
284.901	1512.88
285.132	1559.88
285.364	1507.88
285.595	1533.88
285.826	1511.88
286.057	1490.88
286.288	1469.88
286.52	1571.88
286.751	1679.88
286.982	1715.88
287.213	1579.88
287.444	1442.88
287.675	1447.88
287.906	1496.88
288.138	1617.88
288.369	1622.88
288.6	1498.88
288.831	1456.88
289.062	1493.88
289.293	1498.88
289.524	1513.88
289.755	1564.88
289.986	1562.88
290.217	1438.88
290.448	1477.88
290.679	1521.88
290.91	1523.88
291.141	1562.88
291.371	1611.88
291.602	1617.88
291.833	1574.88
292.064	1645.88
292.295	1605.88
292.526	1670.88
292.757	1737.88
292.987	1634.88
293.218	1567.88
293.449	1642.88
293.68	1878.88
293.91	2033.88
294.141	1858.88
294.372	1770.88
294.603	1765.88
294.833	1863.88
295.064	1809.88
295.295	1637.88
295.525	1629.88
295.756	1479.88
295.987	1377.88
296.217	1450.88
296.448	1488.88
296.679	1517.88
296.909	1501.88
297.14	1459.88
297.37	1503.88
297.601	1581.88
297.831	1711.88
298.062	1733.88
298.292	1605.88
298.523	1493.88
298.753	1482.88
298.984	1494.88
299.214	1519.88
299.445	1533.88
299.675	1601.88
299.905	1574.88
300.136	1560.88
300.366	1526.88
300.597	1481.88
300.827	1461.88
301.057	1522.88
301.288	1618.88
301.518	1622.88
301.748	1619.88
301.979	1728.88
302.209	1715.88
302.439	1861.88
302.669	1949.88
302.9	1839.88
303.13	1633.88
303.36	1624.88
303.59	1656.88
303.82	1644.88
304.051	1600.88
304.281	1648.88
304.511	1619.88
304.741	1702.88
304.971	1917.88
305.201	2083.88
305.431	1944.88
305.661	1588.88
305.891	1453.88
306.121	1454.88
306.352	1482.88
306.582	1575.88
306.812	1711.88
307.042	1802.88
307.272	1791.88
307.502	1845.88
307.731	2001.88
307.961	2160.88
308.191	1998.88
308.421	1732.88
308.651	1600.88
308.881	1537.88
309.111	1561.88
309.341	1529.88
309.571	1573.88
309.8	1559.88
310.03	1565.88
310.26	1566.88
310.49	1565.88
310.72	1587.88
310.949	1655.88
311.179	1654.88
311.409	1640.88
311.639	1631.88
311.868	1563.88
312.098	1587.88
312.328	1606.88
312.557	1595.88
312.787	1572.88
313.017	1649.88
313.246	1668.88
313.476	1619.88
313.706	1693.88
313.935	1687.88
314.165	1652.88
314.394	1715.88
314.624	1810.88
314.853	1903.88
315.083	2022.88
315.312	2086.88
315.542	1913.88
315.771	1695.88
316.001	1666.88
316.23	1803.88
316.46	1765.88
316.689	1736.88
316.919	1671.88
317.148	1593.88
317.377	1618.88
317.607	1728.88
317.836	1999.88
318.065	2037.88
318.295	2001.88
318.524	1856.88
318.753	1807.88
318.983	1758.88
319.212	1727.88
319.441	1700.88
319.67	1697.88
319.9	1716.88
320.129	1805.88
320.358	1909.88
320.587	1937.88
320.816	1915.88
321.046	1899.88
321.275	1809.88
321.504	1763.88
321.733	1938.88
321.962	1876.88
322.191	1746.88
322.42	1703.88
322.649	1683.88
322.878	1709.88
323.108	1713.88
323.337	1785.88
323.566	1794.88
323.795	1789.88
324.024	1797.88
324.253	1726.88
324.482	1789.88
324.71	1734.88
324.939	1601.88
325.168	1638.88
325.397	1728.88
325.626	1777.88
325.855	1780.88
326.084	1743.88
326.313	1724.88
326.542	1777.88
326.77	1793.88
326.999	1811.88
327.228	1771.88
327.457	1648.88
327.686	1647.88
327.914	1685.88
328.143	1736.88
328.372	1719.88
328.6	1716.88
328.829	1709.88
329.058	1688.88
329.287	1667.88
329.515	1728.88
329.744	1763.88
329.972	1824.88
330.201	1866.88
330.43	1888.88
330.658	1828.88
330.887	1805.88
331.115	1846.88
331.344	1862.88
331.572	1814.88
331.801	1809.88
332.03	1786.88
332.258	1822.88
332.486	1829.88
332.715	1860.88
332.943	1850.88
333.172	1817.88
333.4	1854.88
333.629	1885.88
333.857	1993.88
334.085	2180.88
334.314	2468.88
334.542	2741.88
334.771	2548.88
334.999	2210.88
335.227	2073.88
335.455	1994.88
335.684	1953.88
335.912	1980.88
336.14	2067.88
336.369	2059.88
336.597	1855.88
336.825	1853.88
337.053	1954.88
337.281	1989.88
337.51	2104.88
337.738	2160.88
337.966	2109.88
338.194	1939.88
338.422	1826.88
338.65	1822.88
338.878	1829.88
339.106	1739.88
339.334	1706.88
339.562	1735.88
339.79	1758.88
340.018	1859.88
340.246	1941.88
340.474	1941.88
340.702	1861.88
340.93	1888.88
341.158	1887.88
341.386	1868.88
341.614	1801.88
341.842	1823.88
342.07	1804.88
342.298	1833.88
342.526	1826.88
342.754	1807.88
342.981	1776.88
343.209	1791.88
343.437	1752.88
343.665	1781.88
343.893	1842.88
344.12	1910.88
344.348	1921.88
344.576	1869.88
344.804	1802.88
345.031	1797.88
345.259	1800.88
345.487	1742.88
345.714	1681.88
345.942	1665.88
346.17	1667.88
346.397	1706.88
346.625	1731.88
346.853	1667.88
347.08	1594.88
347.308	1626.88
347.535	1669.88
347.763	1719.88
347.99	1687.88
348.218	1655.88
348.445	1660.88
348.673	1643.88
348.9	1715.88
349.128	1722.88
349.355	1825.88
349.583	1778.88
349.81	1743.88
350.037	1581.88
350.265	1554.88
350.492	1569.88
350.72	1654.88
350.947	1637.88
351.174	1729.88
351.402	1634.88
351.629	1555.88
351.856	1534.88
352.083	1557.88
352.311	1557.88
352.538	1593.88
352.765	1678.88
352.992	1744.88
353.22	1641.88
353.447	1586.88
353.674	1665.88
353.901	1674.88
354.128	1603.88
354.355	1587.88
354.583	1654.88
354.81	1719.88
355.037	1702.88
355.264	1693.88
355.491	1672.88
355.718	1677.88
355.945	1658.88
356.172	1615.88
356.399	1580.88
356.626	1562.88
356.853	1651.88
357.08	1737.88
357.307	1965.88
357.534	1982.88
357.761	1717.88
357.988	1572.88
358.215	1566.88
358.441	1570.88
358.668	1588.88
358.895	1581.88
359.122	1650.88
359.349	1829.88
359.576	1854.88
359.802	1678.88
360.029	1616.88
360.256	1596.88
360.483	1639.88
360.709	1653.88
360.936	1693.88
361.163	1757.88
361.39	1953.88
361.616	2073.88
361.843	2071.88
362.07	1903.88
362.296	1669.88
362.523	1639.88
362.749	1636.88
362.976	1665.88
363.203	1656.88
363.429	1621.88
363.656	1581.88
363.882	1608.88
364.109	1821.88
364.335	2011.88
364.562	1824.88
364.788	1736.88
365.015	1666.88
365.241	1594.88
365.468	1670.88
365.694	1712.88
365.92	1809.88
366.147	1769.88
366.373	1608.88
366.599	1537.88
366.826	1592.88
367.052	1603.88
367.278	1631.88
367.505	1613.88
367.731	1678.88
367.957	1685.88
368.184	1673.88
368.41	1809.88
368.636	1837.88
368.862	1808.88
369.089	1851.88
369.315	1824.88
369.541	1741.88
369.767	1670.88
369.993	1599.88
370.219	1619.88
370.445	1706.88
370.672	1729.88
370.898	1843.88
371.124	1865.88
371.35	1719.88
371.576	1799.88
371.802	1839.88
372.028	1774.88
372.254	1706.88
372.48	1693.88
372.706	1658.88
372.932	1633.88
373.158	1694.88
373.384	1731.88
373.61	1743.88
373.835	1833.88
374.061	1773.88
374.287	1738.88
374.513	1704.88
374.739	1771.88
374.965	1762.88
375.191	1759.88
375.416	1801.88
375.642	1777.88
375.868	1867.88
376.094	1923.88
376.319	1846.88
376.545	1719.88
376.771	1733.88
376.997	1851.88
377.222	1813.88
377.448	1761.88
377.674	1816.88
377.899	1778.88
378.125	1865.88
378.35	1878.88
378.576	1769.88
378.802	1694.88
379.027	1670.88
379.253	1687.88
379.478	1710.88
379.704	1721.88
379.929	1713.88
380.155	1734.88
380.38	1725.88
380.606	1766.88
380.831	1725.88
381.057	1795.88
381.282	1857.88
381.507	1781.88
381.733	1918.88
381.958	1975.88
382.184	1855.88
382.409	1768.88
382.634	1817.88
382.86	1769.88
383.085	1744.88
383.31	1825.88
383.535	1960.88
383.761	2091.88
383.986	2034.88
384.211	1980.88
384.436	1898.88
384.662	1984.88
384.887	2106.88
385.112	1978.88
385.337	2008.88
385.562	1978.88
385.787	1965.88
386.013	2055.88
386.238	2031.88
386.463	1997.88
386.688	2102.88
386.913	2222.88
387.138	2227.88
387.363	2063.88
387.588	2042.88
387.813	2021.88
388.038	2043.88
388.263	2089.88
388.488	2015.88
388.713	1863.88
388.938	1894.88
389.163	1907.88
389.387	1947.88
389.612	1941.88
389.837	2004.88
390.062	2002.88
390.287	1972.88
390.512	1985.88
390.736	1915.88
390.961	1902.88
391.186	1864.88
391.411	1903.88
391.636	1951.88
391.86	1986.88
392.085	1957.88
392.31	1939.88
392.534	1936.88
392.759	1988.88
392.984	1956.88
393.208	1997.88
393.433	2086.88
393.658	2200.88
393.882	2179.88
394.107	2006.88
394.331	1977.88
394.556	1949.88
394.78	1994.88
395.005	2073.88
395.229	2086.88
395.454	2227.88
395.678	2255.88
395.903	2206.88
396.127	2085.88
396.352	2082.88
396.576	2159.88
396.801	2181.88
397.025	2165.88
397.249	2177.88
397.474	2183.88
397.698	2106.88
397.922	2200.88
398.147	2250.88
398.371	2349.88
398.595	2310.88
398.82	2286.88
399.044	2349.88
399.268	2405.88
399.492	2583.88
399.717	2676.88
399.941	2708.88
400.165	2572.88
400.389	2525.88
400.613	2466.88
400.837	2757.88
401.062	3155.88
401.286	2728.88
401.51	2458.88
401.734	2535.88
401.958	2443.88
402.182	2346.88
402.406	2296.88
402.63	2225.88
402.854	2218.88
403.078	2274.88
403.302	2352.88
403.526	2377.88
403.75	2376.88
403.974	2359.88
404.198	2309.88
404.422	2443.88
404.645	2527.88
404.869	2542.88
405.093	2310.88
405.317	2265.88
405.541	2357.88
405.765	2403.88
405.988	2341.88
406.212	2427.88
406.436	2451.88
406.66	2553.88
406.883	2533.88
407.107	2801.88
407.331	3045.88
407.555	3286.88
407.778	3073.88
408.002	2534.88
408.226	2494.88
408.449	2520.88
408.673	2394.88
408.896	2418.88
409.12	2449.88
409.344	2385.88
409.567	2314.88
409.791	2331.88
410.014	2380.88
410.238	2499.88
410.461	2623.88
410.685	2428.88
410.908	2279.88
411.132	2337.88
411.355	2346.88
411.578	2249.88
411.802	2261.88
412.025	2324.88
412.249	2260.88
412.472	2233.88
412.695	2194.88
412.919	2250.88
413.142	2225.88
413.365	2213.88
413.589	2355.88
413.812	2385.88
414.035	2467.88
414.258	2291.88
414.482	2253.88
414.705	2267.88
414.928	2227.88
415.151	2237.88
415.374	2297.88
415.597	2303.88
415.821	2290.88
416.044	2424.88
416.267	2422.88
416.49	2216.88
416.713	2122.88
416.936	2167.88
417.159	2303.88
417.382	2329.88
417.605	2237.88
417.828	2277.88
418.051	2308.88
418.274	2262.88
418.497	2193.88
418.72	2167.88
418.943	2138.88
419.166	2259.88
419.389	2404.88
419.611	2274.88
419.834	2213.88
420.057	2238.88
420.28	2125.88
420.503	2178.88
420.726	2222.88
420.948	2226.88
421.171	2118.88
421.394	2156.88
421.617	2208.88
421.839	2229.88
422.062	2201.88
422.285	2115.88
422.507	2117.88
422.73	2102.88
422.953	2091.88
423.175	2074.88
423.398	2150.88
423.621	2176.88
423.843	2153.88
424.066	2223.88
424.288	2278.88
424.511	2297.88
424.733	2271.88
424.956	2077.88
425.178	2009.88
425.401	2101.88
425.623	2115.88
425.846	2115.88
426.068	2197.88
426.291	2241.88
426.513	2195.88
426.735	2182.88
426.958	2335.88
427.18	2461.88
427.402	2270.88
427.625	2312.88
427.847	2339.88
428.069	2174.88
428.292	2150.88
428.514	2070.88
428.736	2025.88
428.958	2082.88
429.181	2111.88
429.403	2329.88
429.625	2912.88
429.847	2542.88
430.069	2173.88
430.292	2346.88
430.514	2462.88
430.736	2243.88
430.958	2345.88
431.18	2250.88
431.402	2088.88
431.624	2065.88
431.846	2116.88
432.068	2029.88
432.29	2066.88
432.512	2089.88
432.734	2144.88
432.956	2173.88
433.178	2251.88
433.4	2242.88
433.622	2249.88
433.844	2097.88
434.066	2025.88
434.287	2078.88
434.509	2149.88
434.731	2278.88
434.953	2384.88
435.175	2385.88
435.397	2197.88
435.618	2239.88
435.84	2230.88
436.062	2183.88
436.284	2186.88
436.505	2234.88
436.727	2224.88
436.949	2175.88
437.17	2113.88
437.392	2077.88
437.614	2136.88
437.835	2072.88
438.057	2168.88
438.278	2270.88
438.5	2122.88
438.721	2085.88
438.943	2129.88
439.165	2077.88
439.386	1982.88
439.608	2043.88
439.829	2081.88
440.05	2094.88
440.272	2099.88
440.493	2020.88
440.715	2055.88
440.936	2182.88
441.158	2468.88
441.379	2350.88
441.6	2305.88
441.822	2284.88
442.043	2285.88
442.264	2201.88
442.486	2061.88
442.707	2065.88
442.928	2047.88
443.149	2107.88
443.371	2290.88
443.592	2378.88
443.813	2319.88
444.034	2285.88
444.255	2302.88
444.476	2323.88
444.698	2387.88
444.919	2332.88
445.14	2458.88
445.361	2438.88
445.582	2487.88
445.803	2362.88
446.024	2278.88
446.245	2407.88
446.466	2330.88
446.687	2217.88
446.908	2207.88
447.129	2146.88
447.35	2155.88
447.571	2154.88
447.792	2011.88
448.013	2019.88
448.234	2064.88
448.455	2213.88
448.675	2217.88
448.896	2012.88
449.117	1969.88
449.338	1993.88
449.559	2079.88
449.779	2217.88
450	2438.88
450.221	2646.88
450.442	2586.88
450.662	2238.88
450.883	1984.88
451.104	1950.88
451.324	2011.88
451.545	2034.88
451.766	2010.88
451.986	1952.88
452.207	1937.88
452.428	1841.88
452.648	1881.88
452.869	1862.88
453.089	2006.88
453.31	2043.88
453.53	2120.88
453.751	1978.88
453.971	1906.88
454.192	1952.88
454.412	2056.88
454.633	2006.88
454.853	1919.88
455.073	1810.88
455.294	1841.88
455.514	1830.88
455.734	1817.88
455.955	1859.88
456.175	1819.88
456.395	1862.88
456.616	1924.88
456.836	1955.88
457.056	1887.88
457.276	1944.88
457.497	1857.88
457.717	1809.88
457.937	1855.88
458.157	1862.88
458.377	1864.88
458.598	1900.88
458.818	1849.88
459.038	2001.88
459.258	2117.88
459.478	2095.88
459.698	2022.88
459.918	2120.88
460.138	2198.88
460.358	2220.88
460.578	2259.88
460.798	2328.88
461.018	2459.88
461.238	2329.88
461.458	2239.88
461.678	2288.88
461.898	2196.88
462.118	2128.88
462.338	2213.88
462.558	2268.88
462.777	2230.88
462.997	2358.88
463.217	2502.88
463.437	2477.88
463.657	2306.88
463.876	2247.88
464.096	2165.88
464.316	2243.88
464.536	2319.88
464.755	2327.88
464.975	2362.88
465.195	2276.88
465.414	2392.88
465.634	2333.88
465.854	2203.88
466.073	2339.88
466.293	2305.88
466.512	2059.88
466.732	2032.88
466.951	2120.88
467.171	2121.88
467.391	2034.88
467.61	1969.88
467.829	1984.88
468.049	2192.88
468.268	2408.88
468.488	2245.88
468.707	2141.88
468.927	2102.88
469.146	2073.88
469.365	2018.88
469.585	2037.88
469.804	2055.88
470.023	2034.88
470.243	2085.88
470.462	2033.88
470.681	2007.88
470.901	2025.88
471.12	2092.88
471.339	2002.88
471.558	1933.88
471.777	1944.88
471.997	1989.88
472.216	1980.88
472.435	1901.88
472.654	1986.88
472.873	2043.88
473.092	2178.88
473.311	2129.88
473.53	1939.88
473.749	1915.88
473.968	2045.88
474.187	2093.88
474.406	2235.88
474.625	2134.88
474.844	2074.88
475.063	2044.88
475.282	2119.88
475.501	2059.88
475.72	2054.88
475.939	2187.88
476.158	2129.88
476.377	2077.88
476.596	2081.88
476.814	2143.88
477.033	2158.88
477.252	2268.88
477.471	2316.88
477.69	2151.88
477.908	2147.88
478.127	2258.88
478.346	2438.88
478.564	2479.88
478.783	2439.88
479.002	2483.88
479.22	2437.88
479.439	2533.88
479.658	2842.88
479.876	2789.88
480.095	2461.88
480.313	2399.88
480.532	2309.88
480.751	2339.88
480.969	2414.88
481.188	2351.88
481.406	2275.88
481.624	2227.88
481.843	2259.88
482.061	2342.88
482.28	2376.88
482.498	2384.88
482.717	2390.88
482.935	2262.88
483.153	2253.88
483.372	2291.88
483.59	2213.88
483.808	2285.88
484.027	2341.88
484.245	2449.88
484.463	2849.88
484.681	3270.88
484.9	2479.88
485.118	2302.88
485.336	2305.88
485.554	2365.88
485.772	2519.88
485.99	2477.88
486.209	2475.88
486.427	2444.88
486.645	2488.88
486.863	2384.88
487.081	2504.88
487.299	2495.88
