Data from WStandard_LampEnergy8_LIBS07252019.E.O._I.C._HRD10591_15-57-54-929.txt Node
Date: Thu Jul 25 15:57:54 EDT 2019
User: cochatt
Spectrometer: HR+D1059
Trigger mode: 1
Integration Time (sec): 1.000000E-1
Scans to average: 1
Electric dark correction enabled: true
Nonlinearity correction enabled: false
Boxcar width: 0
XAxis mode: Wavelengths
Number of Pixels in Spectrum: 2048
>>>>>Begin Spectral Data<<<<<
223.165	-20.31
223.4	-20.31
223.635	-20.31
223.869	-12.31
224.104	-9.31
224.338	-9.31
224.573	-11.31
224.808	-12.31
225.042	-17.31
225.277	-17.31
225.511	-4.31
225.746	16.69
225.98	12.69
226.215	4.69
226.449	12.69
226.683	20.69
226.918	21.69
227.152	24.69
227.387	32.69
227.621	36.69
227.856	46.69
228.09	54.69
228.324	40.69
228.559	53.69
228.793	99.69
229.027	203.69
229.262	216.69
229.496	201.69
229.73	238.69
229.964	260.69
230.199	272.69
230.433	266.69
230.667	280.69
230.901	296.69
231.136	283.69
231.37	266.69
231.604	261.69
231.838	251.69
232.072	265.69
232.306	255.69
232.541	293.69
232.775	302.69
233.009	331.69
233.243	321.69
233.477	292.69
233.711	307.69
233.945	311.69
234.179	320.69
234.413	343.69
234.647	345.69
234.881	309.69
235.115	290.69
235.349	298.69
235.583	301.69
235.817	316.69
236.051	305.69
236.285	297.69
236.519	318.69
236.753	354.69
236.987	379.69
237.221	374.69
237.455	386.69
237.689	390.69
237.922	355.69
238.156	343.69
238.39	347.69
238.624	396.69
238.858	405.69
239.091	405.69
239.325	403.69
239.559	451.69
239.793	509.69
240.027	529.69
240.26	509.69
240.494	379.69
240.728	378.69
240.961	390.69
241.195	380.69
241.429	435.69
241.662	429.69
241.896	387.69
242.13	398.69
242.363	433.69
242.597	467.69
242.83	466.69
243.064	458.69
243.298	477.69
243.531	448.69
243.765	477.69
243.998	466.69
244.232	415.69
244.465	427.69
244.699	429.69
244.932	450.69
245.166	517.69
245.399	489.69
245.633	454.69
245.866	476.69
246.099	480.69
246.333	491.69
246.566	509.69
246.8	543.69
247.033	583.69
247.266	529.69
247.5	534.69
247.733	552.69
247.966	585.69
248.2	614.69
248.433	595.69
248.666	599.69
248.899	651.69
249.133	753.69
249.366	820.69
249.599	686.69
249.832	616.69
250.066	639.69
250.299	633.69
250.532	606.69
250.765	533.69
250.998	577.69
251.231	595.69
251.465	609.69
251.698	597.69
251.931	582.69
252.164	605.69
252.397	590.69
252.63	582.69
252.863	558.69
253.096	562.69
253.329	561.69
253.562	595.69
253.795	661.69
254.028	589.69
254.261	586.69
254.494	578.69
254.727	565.69
254.96	585.69
255.193	639.69
255.426	709.69
255.659	788.69
255.892	789.69
256.124	677.69
256.357	690.69
256.59	716.69
256.823	714.69
257.056	716.69
257.289	855.69
257.521	906.69
257.754	858.69
257.987	781.69
258.22	841.69
258.452	817.69
258.685	663.69
258.918	657.69
259.151	667.69
259.383	629.69
259.616	591.69
259.849	621.69
260.081	691.69
260.314	777.69
260.547	825.69
260.779	831.69
261.012	758.69
261.244	713.69
261.477	645.69
261.71	690.69
261.942	713.69
262.175	697.69
262.407	711.69
262.64	677.69
262.872	651.69
263.105	634.69
263.337	646.69
263.57	634.69
263.802	636.69
264.035	602.69
264.267	579.69
264.499	585.69
264.732	617.69
264.964	645.69
265.197	661.69
265.429	703.69
265.661	793.69
265.894	843.69
266.126	825.69
266.358	798.69
266.591	799.69
266.823	860.69
267.055	798.69
267.287	789.69
267.52	769.69
267.752	770.69
267.984	776.69
268.216	791.69
268.448	809.69
268.681	793.69
268.913	734.69
269.145	727.69
269.377	678.69
269.609	779.69
269.841	899.69
270.073	1013.69
270.306	1107.69
270.538	1143.69
270.77	988.69
271.002	856.69
271.234	814.69
271.466	823.69
271.698	961.69
271.93	1027.69
272.162	1044.69
272.394	959.69
272.626	917.69
272.858	786.69
273.09	695.69
273.322	713.69
273.553	679.69
273.785	685.69
274.017	734.69
274.249	777.69
274.481	753.69
274.713	716.69
274.945	692.69
275.176	694.69
275.408	696.69
275.64	686.69
275.872	689.69
276.104	732.69
276.335	836.69
276.567	949.69
276.799	929.69
277.031	843.69
277.262	809.69
277.494	877.69
277.726	906.69
277.957	917.69
278.189	821.69
278.421	756.69
278.652	767.69
278.884	730.69
279.115	721.69
279.347	764.69
279.579	746.69
279.81	753.69
280.042	825.69
280.273	883.69
280.505	893.69
280.736	894.69
280.968	827.69
281.199	753.69
281.431	732.69
281.662	711.69
281.894	749.69
282.125	747.69
282.356	756.69
282.588	762.69
282.819	782.69
283.051	855.69
283.282	895.69
283.513	857.69
283.745	767.69
283.976	705.69
284.207	709.69
284.439	757.69
284.67	772.69
284.901	779.69
285.132	781.69
285.364	777.69
285.595	780.69
285.826	761.69
286.057	768.69
286.288	744.69
286.52	794.69
286.751	866.69
286.982	834.69
287.213	789.69
287.444	762.69
287.675	753.69
287.906	793.69
288.138	831.69
288.369	810.69
288.6	773.69
288.831	728.69
289.062	757.69
289.293	748.69
289.524	777.69
289.755	776.69
289.986	798.69
290.217	771.69
290.448	745.69
290.679	802.69
290.91	799.69
291.141	811.69
291.371	828.69
291.602	807.69
291.833	839.69
292.064	837.69
292.295	838.69
292.526	867.69
292.757	863.69
292.987	822.69
293.218	824.69
293.449	876.69
293.68	986.69
293.91	995.69
294.141	943.69
294.372	916.69
294.603	978.69
294.833	983.69
295.064	906.69
295.295	872.69
295.525	837.69
295.756	793.69
295.987	734.69
296.217	743.69
296.448	775.69
296.679	792.69
296.909	781.69
297.14	792.69
297.37	781.69
297.601	825.69
297.831	887.69
298.062	861.69
298.292	815.69
298.523	794.69
298.753	777.69
298.984	789.69
299.214	810.69
299.445	824.69
299.675	827.69
299.905	844.69
300.136	828.69
300.366	799.69
300.597	763.69
300.827	781.69
301.057	809.69
301.288	852.69
301.518	847.69
301.748	890.69
301.979	906.69
302.209	931.69
302.439	977.69
302.669	1046.69
302.9	943.69
303.13	867.69
303.36	878.69
303.59	883.69
303.82	843.69
304.051	860.69
304.281	856.69
304.511	865.69
304.741	942.69
304.971	1035.69
305.201	1094.69
305.431	959.69
305.661	833.69
305.891	775.69
306.121	783.69
306.352	795.69
306.582	850.69
306.812	899.69
307.042	977.69
307.272	981.69
307.502	1000.69
307.731	1062.69
307.961	1107.69
308.191	1005.69
308.421	864.69
308.651	862.69
308.881	855.69
309.111	834.69
309.341	841.69
309.571	857.69
309.8	828.69
310.03	838.69
310.26	799.69
310.49	827.69
310.72	847.69
310.949	925.69
311.179	881.69
311.409	851.69
311.639	850.69
311.868	837.69
312.098	833.69
312.328	853.69
312.557	872.69
312.787	855.69
313.017	866.69
313.246	872.69
313.476	861.69
313.706	901.69
313.935	913.69
314.165	913.69
314.394	910.69
314.624	1022.69
314.853	1061.69
315.083	1074.69
315.312	1067.69
315.542	973.69
315.771	880.69
316.001	913.69
316.23	980.69
316.46	959.69
316.689	926.69
316.919	879.69
317.148	841.69
317.377	915.69
317.607	955.69
317.836	1047.69
318.065	1082.69
318.295	1044.69
318.524	1007.69
318.753	956.69
318.983	951.69
319.212	942.69
319.441	903.69
319.67	920.69
319.9	955.69
320.129	969.69
320.358	1016.69
320.587	1059.69
320.816	1057.69
321.046	1017.69
321.275	958.69
321.504	990.69
321.733	1060.69
321.962	987.69
322.191	923.69
322.42	937.69
322.649	919.69
322.878	933.69
323.108	929.69
323.337	969.69
323.566	978.69
323.795	964.69
324.024	954.69
324.253	939.69
324.482	952.69
324.71	923.69
324.939	871.69
325.168	911.69
325.397	933.69
325.626	963.69
325.855	933.69
326.084	933.69
326.313	938.69
326.542	937.69
326.77	977.69
326.999	993.69
327.228	918.69
327.457	895.69
327.686	854.69
327.914	906.69
328.143	921.69
328.372	943.69
328.6	911.69
328.829	922.69
329.058	907.69
329.287	941.69
329.515	917.69
329.744	967.69
329.972	1010.69
330.201	1021.69
330.43	1001.69
330.658	983.69
330.887	991.69
331.115	983.69
331.344	969.69
331.572	978.69
331.801	974.69
332.03	979.69
332.258	996.69
332.486	999.69
332.715	975.69
332.943	985.69
333.172	1006.69
333.4	995.69
333.629	1030.69
333.857	1080.69
334.085	1223.69
334.314	1393.69
334.542	1448.69
334.771	1317.69
334.999	1159.69
335.227	1112.69
335.455	1017.69
335.684	1047.69
335.912	1068.69
336.14	1065.69
336.369	1049.69
336.597	1010.69
336.825	999.69
337.053	1047.69
337.281	1135.69
337.51	1165.69
337.738	1180.69
337.966	1114.69
338.194	1017.69
338.422	1010.69
338.65	992.69
338.878	941.69
339.106	924.69
339.334	945.69
339.562	897.69
339.79	964.69
340.018	1015.69
340.246	1055.69
340.474	1065.69
340.702	1009.69
340.93	1051.69
341.158	1002.69
341.386	996.69
341.614	1002.69
341.842	1004.69
342.07	999.69
342.298	1009.69
342.526	969.69
342.754	968.69
342.981	967.69
343.209	968.69
343.437	956.69
343.665	962.69
343.893	1049.69
344.12	1047.69
344.348	1035.69
344.576	1004.69
344.804	986.69
345.031	981.69
345.259	972.69
345.487	914.69
345.714	897.69
345.942	924.69
346.17	919.69
346.397	919.69
346.625	902.69
346.853	883.69
347.08	861.69
347.308	913.69
347.535	914.69
347.763	960.69
347.99	938.69
348.218	889.69
348.445	924.69
348.673	951.69
348.9	963.69
349.128	985.69
349.355	1010.69
349.583	956.69
349.81	937.69
350.037	851.69
350.265	861.69
350.492	867.69
350.72	894.69
350.947	939.69
351.174	955.69
351.402	895.69
351.629	841.69
351.856	877.69
352.083	837.69
352.311	854.69
352.538	899.69
352.765	947.69
352.992	947.69
353.22	912.69
353.447	877.69
353.674	917.69
353.901	909.69
354.128	903.69
354.355	902.69
354.583	927.69
354.81	953.69
355.037	964.69
355.264	965.69
355.491	932.69
355.718	913.69
355.945	900.69
356.172	895.69
356.399	884.69
356.626	899.69
356.853	936.69
357.08	1028.69
357.307	1128.69
357.534	1079.69
357.761	946.69
357.988	895.69
358.215	865.69
358.441	830.69
358.668	877.69
358.895	905.69
359.122	955.69
359.349	1035.69
359.576	1002.69
359.802	924.69
360.029	899.69
360.256	900.69
360.483	925.69
360.709	952.69
360.936	965.69
361.163	1010.69
361.39	1117.69
361.616	1173.69
361.843	1141.69
362.07	1077.69
362.296	956.69
362.523	922.69
362.749	905.69
362.976	945.69
363.203	945.69
363.429	922.69
363.656	878.69
363.882	953.69
364.109	1083.69
364.335	1110.69
364.562	1015.69
364.788	964.69
365.015	939.69
365.241	903.69
365.468	931.69
365.694	976.69
365.92	1014.69
366.147	959.69
366.373	910.69
366.599	898.69
366.826	911.69
367.052	930.69
367.278	912.69
367.505	902.69
367.731	959.69
367.957	960.69
368.184	1002.69
368.41	1068.69
368.636	1061.69
368.862	1061.69
369.089	1033.69
369.315	1031.69
369.541	978.69
369.767	926.69
369.993	923.69
370.219	911.69
370.445	918.69
370.672	1039.69
370.898	1052.69
371.124	1027.69
371.35	998.69
371.576	1033.69
371.802	1031.69
372.028	986.69
372.254	967.69
372.48	955.69
372.706	932.69
372.932	929.69
373.158	929.69
373.384	998.69
373.61	1011.69
373.835	1025.69
374.061	975.69
374.287	963.69
374.513	945.69
374.739	1014.69
374.965	988.69
375.191	993.69
375.416	983.69
375.642	1025.69
375.868	1096.69
376.094	1086.69
376.319	1028.69
376.545	966.69
376.771	1013.69
376.997	1076.69
377.222	1056.69
377.448	1043.69
377.674	1032.69
377.899	1086.69
378.125	1107.69
378.35	1056.69
378.576	957.69
378.802	949.69
379.027	956.69
379.253	965.69
379.478	952.69
379.704	983.69
379.929	976.69
380.155	972.69
380.38	997.69
380.606	1001.69
380.831	993.69
381.057	1089.69
381.282	1046.69
381.507	1060.69
381.733	1112.69
381.958	1135.69
382.184	1051.69
382.409	1031.69
382.634	1067.69
382.86	1042.69
383.085	1039.69
383.31	1087.69
383.535	1181.69
383.761	1238.69
383.986	1150.69
384.211	1112.69
384.436	1123.69
384.662	1169.69
384.887	1203.69
385.112	1139.69
385.337	1165.69
385.562	1096.69
385.787	1141.69
386.013	1126.69
386.238	1157.69
386.463	1146.69
386.688	1246.69
386.913	1287.69
387.138	1267.69
387.363	1191.69
387.588	1154.69
387.813	1139.69
388.038	1168.69
388.263	1159.69
388.488	1131.69
388.713	1085.69
388.938	1066.69
389.163	1077.69
389.387	1099.69
389.612	1133.69
389.837	1128.69
390.062	1138.69
390.287	1147.69
390.512	1094.69
390.736	1102.69
390.961	1092.69
391.186	1062.69
391.411	1057.69
391.636	1115.69
391.86	1144.69
392.085	1125.69
392.31	1103.69
392.534	1099.69
392.759	1142.69
392.984	1095.69
393.208	1136.69
393.433	1183.69
393.658	1237.69
393.882	1209.69
394.107	1144.69
394.331	1113.69
394.556	1115.69
394.78	1144.69
395.005	1191.69
395.229	1245.69
395.454	1303.69
395.678	1299.69
395.903	1207.69
396.127	1194.69
396.352	1205.69
396.576	1198.69
396.801	1219.69
397.025	1235.69
397.249	1216.69
397.474	1196.69
397.698	1204.69
397.922	1269.69
398.147	1289.69
398.371	1375.69
398.595	1339.69
398.82	1234.69
399.044	1299.69
399.268	1374.69
399.492	1434.69
399.717	1483.69
399.941	1462.69
400.165	1447.69
400.389	1402.69
400.613	1418.69
400.837	1654.69
401.062	1755.69
401.286	1529.69
401.51	1447.69
401.734	1470.69
401.958	1391.69
402.182	1319.69
402.406	1273.69
402.63	1242.69
402.854	1269.69
403.078	1267.69
403.302	1288.69
403.526	1329.69
403.75	1339.69
403.974	1382.69
404.198	1353.69
404.422	1419.69
404.645	1447.69
404.869	1422.69
405.093	1333.69
405.317	1287.69
405.541	1309.69
405.765	1338.69
405.988	1338.69
406.212	1345.69
406.436	1377.69
406.66	1415.69
406.883	1463.69
407.107	1625.69
407.331	1769.69
407.555	1898.69
407.778	1702.69
408.002	1436.69
408.226	1431.69
408.449	1382.69
408.673	1341.69
408.896	1366.69
409.12	1407.69
409.344	1341.69
409.567	1301.69
409.791	1362.69
410.014	1384.69
410.238	1470.69
410.461	1505.69
410.685	1378.69
410.908	1302.69
411.132	1337.69
411.355	1377.69
411.578	1326.69
411.802	1348.69
412.025	1370.69
412.249	1294.69
412.472	1259.69
412.695	1305.69
412.919	1256.69
413.142	1260.69
413.365	1273.69
413.589	1335.69
413.812	1395.69
414.035	1429.69
414.258	1307.69
414.482	1286.69
414.705	1291.69
414.928	1293.69
415.151	1257.69
415.374	1313.69
415.597	1299.69
415.821	1335.69
416.044	1361.69
416.267	1325.69
416.49	1224.69
416.713	1249.69
416.936	1298.69
417.159	1388.69
417.382	1350.69
417.605	1310.69
417.828	1317.69
418.051	1318.69
418.274	1301.69
418.497	1252.69
418.72	1259.69
418.943	1259.69
419.166	1325.69
419.389	1332.69
419.611	1259.69
419.834	1249.69
420.057	1287.69
420.28	1274.69
420.503	1302.69
420.726	1287.69
420.948	1292.69
421.171	1243.69
421.394	1292.69
421.617	1335.69
421.839	1279.69
422.062	1299.69
422.285	1265.69
422.507	1270.69
422.73	1241.69
422.953	1211.69
423.175	1225.69
423.398	1263.69
423.621	1287.69
423.843	1247.69
424.066	1309.69
424.288	1381.69
424.511	1404.69
424.733	1374.69
424.956	1234.69
425.178	1180.69
425.401	1227.69
425.623	1263.69
425.846	1245.69
426.068	1318.69
426.291	1324.69
426.513	1291.69
426.735	1332.69
426.958	1449.69
427.18	1485.69
427.402	1370.69
427.625	1447.69
427.847	1374.69
428.069	1277.69
428.292	1239.69
428.514	1251.69
428.736	1234.69
428.958	1238.69
429.181	1274.69
429.403	1458.69
429.625	1745.69
429.847	1462.69
430.069	1293.69
430.292	1423.69
430.514	1460.69
430.736	1326.69
430.958	1377.69
431.18	1270.69
431.402	1217.69
431.624	1201.69
431.846	1170.69
432.068	1103.69
432.29	1150.69
432.512	1186.69
432.734	1221.69
432.956	1288.69
433.178	1313.69
433.4	1290.69
433.622	1275.69
433.844	1247.69
434.066	1198.69
434.287	1161.69
434.509	1173.69
434.731	1267.69
434.953	1348.69
435.175	1341.69
435.397	1294.69
435.618	1253.69
435.84	1251.69
436.062	1209.69
436.284	1262.69
436.505	1325.69
436.727	1307.69
436.949	1279.69
437.17	1223.69
437.392	1205.69
437.614	1197.69
437.835	1129.69
438.057	1215.69
438.278	1208.69
438.5	1220.69
438.721	1207.69
438.943	1241.69
439.165	1184.69
439.386	1195.69
439.608	1240.69
439.829	1249.69
440.05	1238.69
440.272	1208.69
440.493	1221.69
440.715	1242.69
440.936	1361.69
441.158	1400.69
441.379	1385.69
441.6	1366.69
441.822	1337.69
442.043	1317.69
442.264	1270.69
442.486	1246.69
442.707	1276.69
442.928	1230.69
443.149	1263.69
443.371	1350.69
443.592	1390.69
443.813	1389.69
444.034	1345.69
444.255	1354.69
444.476	1366.69
444.698	1363.69
444.919	1362.69
445.14	1447.69
445.361	1442.69
445.582	1441.69
445.803	1399.69
446.024	1362.69
446.245	1405.69
446.466	1366.69
446.687	1333.69
446.908	1309.69
447.129	1298.69
447.35	1319.69
447.571	1309.69
447.792	1239.69
448.013	1236.69
448.234	1241.69
448.455	1293.69
448.675	1324.69
448.896	1220.69
449.117	1190.69
449.338	1261.69
449.559	1285.69
449.779	1337.69
450	1433.69
450.221	1459.69
450.442	1434.69
450.662	1284.69
450.883	1153.69
451.104	1171.69
451.324	1194.69
451.545	1213.69
451.766	1185.69
451.986	1171.69
452.207	1135.69
452.428	1095.69
452.648	1067.69
452.869	1082.69
453.089	1115.69
453.31	1141.69
453.53	1151.69
453.751	1088.69
453.971	1051.69
454.192	1079.69
454.412	1157.69
454.633	1114.69
454.853	1093.69
455.073	1071.69
455.294	1061.69
455.514	1045.69
455.734	1068.69
455.955	1088.69
456.175	1065.69
456.395	1060.69
456.616	1064.69
456.836	1095.69
457.056	1099.69
457.276	1076.69
457.497	1025.69
457.717	991.69
457.937	1026.69
458.157	1057.69
458.377	1025.69
458.598	1036.69
458.818	1027.69
459.038	1063.69
459.258	1125.69
459.478	1150.69
459.698	1079.69
459.918	1138.69
460.138	1186.69
460.358	1210.69
460.578	1229.69
460.798	1284.69
461.018	1314.69
461.238	1295.69
461.458	1233.69
461.678	1223.69
461.898	1199.69
462.118	1187.69
462.338	1215.69
462.558	1244.69
462.777	1208.69
462.997	1307.69
463.217	1380.69
463.437	1333.69
463.657	1238.69
463.876	1236.69
464.096	1238.69
464.316	1248.69
464.536	1285.69
464.755	1286.69
464.975	1274.69
465.195	1249.69
465.414	1287.69
465.634	1312.69
465.854	1285.69
466.073	1407.69
466.293	1358.69
466.512	1171.69
466.732	1187.69
466.951	1211.69
467.171	1239.69
467.391	1185.69
467.61	1199.69
467.829	1220.69
468.049	1333.69
468.268	1426.69
468.488	1305.69
468.707	1268.69
468.927	1231.69
469.146	1194.69
469.365	1209.69
469.585	1227.69
469.804	1195.69
470.023	1210.69
470.243	1225.69
470.462	1217.69
470.681	1195.69
470.901	1193.69
471.12	1225.69
471.339	1222.69
471.558	1181.69
471.777	1209.69
471.997	1221.69
472.216	1186.69
472.435	1128.69
472.654	1130.69
472.873	1196.69
473.092	1211.69
473.311	1157.69
473.53	1123.69
473.749	1130.69
473.968	1186.69
474.187	1217.69
474.406	1214.69
474.625	1211.69
474.844	1195.69
475.063	1197.69
475.282	1210.69
475.501	1186.69
475.72	1187.69
475.939	1266.69
476.158	1249.69
476.377	1226.69
476.596	1191.69
476.814	1205.69
477.033	1201.69
477.252	1255.69
477.471	1263.69
477.69	1252.69
477.908	1254.69
478.127	1343.69
478.346	1423.69
478.564	1415.69
478.783	1406.69
479.002	1442.69
479.22	1393.69
479.439	1454.69
479.658	1594.69
479.876	1495.69
480.095	1347.69
480.313	1323.69
480.532	1257.69
480.751	1254.69
480.969	1297.69
481.188	1244.69
481.406	1213.69
481.624	1158.69
481.843	1253.69
482.061	1281.69
482.28	1304.69
482.498	1322.69
482.717	1320.69
482.935	1258.69
483.153	1312.69
483.372	1311.69
483.59	1333.69
483.808	1355.69
484.027	1326.69
484.245	1416.69
484.463	1729.69
484.681	1892.69
484.9	1502.69
485.118	1372.69
485.336	1305.69
485.554	1361.69
485.772	1382.69
485.99	1345.69
486.209	1368.69
486.427	1349.69
486.645	1395.69
486.863	1401.69
487.081	1455.69
487.299	1439.69
487.517	1423.69
487.735	1431.69
487.953	1471.69
488.171	1473.69
488.389	1450.69
488.607	1415.69
488.825	1615.69
489.043	1503.69
489.261	1379.69
489.479	1438.69
489.696	1454.69
489.914	1463.69
490.132	1414.69
490.35	1453.69
490.568	1501.69
490.786	1490.69
491.003	1448.69
491.221	1500.69
491.439	1576.69
491.657	1632.69
491.874	1617.69
492.092	1632.69
492.31	1690.69
492.527	1666.69
492.745	1619.69
492.963	1563.69
493.18	1582.69
493.398	1662.69
493.615	1702.69
