Data from WStandard_LampEnergy8_LIBS07252019.E.O._I.C._HRD10591_16-00-25-930.txt Node
Date: Thu Jul 25 16:00:25 EDT 2019
User: cochatt
Spectrometer: HR+D1059
Trigger mode: 1
Integration Time (sec): 1.000000E-1
Scans to average: 1
Electric dark correction enabled: true
Nonlinearity correction enabled: false
Boxcar width: 0
XAxis mode: Wavelengths
Number of Pixels in Spectrum: 2048
>>>>>Begin Spectral Data<<<<<
223.165	-13.38
223.4	-13.38
223.635	-13.38
223.869	-17.38
224.104	-17.38
224.338	-15.38
224.573	-9.38
224.808	2.62
225.042	-9.38
225.277	-18.38
225.511	-15.38
225.746	-4.38
225.98	2.62
226.215	18.62
226.449	20.62
226.683	17.62
226.918	30.62
227.152	27.62
227.387	43.62
227.621	41.62
227.856	47.62
228.09	47.62
228.324	45.62
228.559	63.62
228.793	91.62
229.027	193.62
229.262	190.62
229.496	199.62
229.73	210.62
229.964	215.62
230.199	250.62
230.433	258.62
230.667	269.62
230.901	279.62
231.136	253.62
231.37	245.62
231.604	231.62
231.838	258.62
232.072	249.62
232.306	257.62
232.541	267.62
232.775	295.62
233.009	313.62
233.243	304.62
233.477	281.62
233.711	273.62
233.945	293.62
234.179	289.62
234.413	285.62
234.647	321.62
234.881	312.62
235.115	292.62
235.349	275.62
235.583	299.62
235.817	283.62
236.051	295.62
236.285	278.62
236.519	316.62
236.753	326.62
236.987	346.62
237.221	336.62
237.455	331.62
237.689	338.62
237.922	334.62
238.156	335.62
238.39	325.62
238.624	367.62
238.858	383.62
239.091	385.62
239.325	395.62
239.559	441.62
239.793	443.62
240.027	483.62
240.26	474.62
240.494	369.62
240.728	364.62
240.961	353.62
241.195	369.62
241.429	401.62
241.662	395.62
241.896	377.62
242.13	367.62
242.363	428.62
242.597	423.62
242.83	439.62
243.064	436.62
243.298	437.62
243.531	451.62
243.765	422.62
243.998	438.62
244.232	383.62
244.465	369.62
244.699	388.62
244.932	453.62
245.166	462.62
245.399	435.62
245.633	438.62
245.866	453.62
246.099	451.62
246.333	472.62
246.566	465.62
246.8	514.62
247.033	547.62
247.266	508.62
247.5	486.62
247.733	521.62
247.966	531.62
248.2	585.62
248.433	583.62
248.666	610.62
248.899	648.62
249.133	695.62
249.366	766.62
249.599	651.62
249.832	584.62
250.066	599.62
250.299	605.62
250.532	558.62
250.765	530.62
250.998	523.62
251.231	552.62
251.465	564.62
251.698	546.62
251.931	549.62
252.164	574.62
252.397	589.62
252.63	573.62
252.863	530.62
253.096	534.62
253.329	531.62
253.562	565.62
253.795	574.62
254.028	589.62
254.261	556.62
254.494	552.62
254.727	555.62
254.96	568.62
255.193	620.62
255.426	669.62
255.659	744.62
255.892	730.62
256.124	633.62
256.357	626.62
256.59	640.62
256.823	658.62
257.056	682.62
257.289	780.62
257.521	832.62
257.754	786.62
257.987	715.62
258.22	803.62
258.452	736.62
258.685	635.62
258.918	637.62
259.151	643.62
259.383	612.62
259.616	557.62
259.849	580.62
260.081	666.62
260.314	725.62
260.547	741.62
260.779	758.62
261.012	714.62
261.244	681.62
261.477	640.62
261.71	672.62
261.942	648.62
262.175	642.62
262.407	685.62
262.64	648.62
262.872	594.62
263.105	603.62
263.337	587.62
263.57	598.62
263.802	604.62
264.035	576.62
264.267	546.62
264.499	539.62
264.732	586.62
264.964	611.62
265.197	631.62
265.429	673.62
265.661	738.62
265.894	803.62
266.126	790.62
266.358	742.62
266.591	765.62
266.823	787.62
267.055	735.62
267.287	743.62
267.52	717.62
267.752	712.62
267.984	713.62
268.216	742.62
268.448	770.62
268.681	752.62
268.913	683.62
269.145	665.62
269.377	666.62
269.609	733.62
269.841	834.62
270.073	941.62
270.306	1010.62
270.538	1006.62
270.77	890.62
271.002	785.62
271.234	747.62
271.466	779.62
271.698	868.62
271.93	1003.62
272.162	999.62
272.394	888.62
272.626	856.62
272.858	768.62
273.09	689.62
273.322	655.62
273.553	651.62
273.785	661.62
274.017	699.62
274.249	713.62
274.481	710.62
274.713	680.62
274.945	667.62
275.176	660.62
275.408	657.62
275.64	657.62
275.872	656.62
276.104	704.62
276.335	794.62
276.567	871.62
276.799	857.62
277.031	786.62
277.262	765.62
277.494	805.62
277.726	863.62
277.957	834.62
278.189	751.62
278.421	724.62
278.652	686.62
278.884	685.62
279.115	688.62
279.347	726.62
279.579	686.62
279.81	698.62
280.042	763.62
280.273	818.62
280.505	832.62
280.736	855.62
280.968	773.62
281.199	705.62
281.431	694.62
281.662	689.62
281.894	690.62
282.125	714.62
282.356	714.62
282.588	749.62
282.819	746.62
283.051	806.62
283.282	802.62
283.513	801.62
283.745	724.62
283.976	709.62
284.207	711.62
284.439	720.62
284.67	712.62
284.901	725.62
285.132	760.62
285.364	730.62
285.595	713.62
285.826	724.62
286.057	727.62
286.288	725.62
286.52	755.62
286.751	799.62
286.982	821.62
287.213	773.62
287.444	715.62
287.675	729.62
287.906	763.62
288.138	807.62
288.369	784.62
288.6	760.62
288.831	740.62
289.062	728.62
289.293	737.62
289.524	735.62
289.755	775.62
289.986	751.62
290.217	719.62
290.448	702.62
290.679	756.62
290.91	740.62
291.141	764.62
291.371	786.62
291.602	800.62
291.833	762.62
292.064	801.62
292.295	793.62
292.526	788.62
292.757	846.62
292.987	791.62
293.218	744.62
293.449	829.62
293.68	917.62
293.91	965.62
294.141	898.62
294.372	863.62
294.603	941.62
294.833	921.62
295.064	872.62
295.295	804.62
295.525	780.62
295.756	723.62
295.987	682.62
296.217	709.62
296.448	741.62
296.679	752.62
296.909	736.62
297.14	741.62
297.37	757.62
297.601	792.62
297.831	850.62
298.062	804.62
298.292	780.62
298.523	742.62
298.753	761.62
298.984	762.62
299.214	785.62
299.445	784.62
299.675	796.62
299.905	811.62
300.136	772.62
300.366	755.62
300.597	748.62
300.827	737.62
301.057	769.62
301.288	811.62
301.518	831.62
301.748	849.62
301.979	895.62
302.209	889.62
302.439	925.62
302.669	970.62
302.9	898.62
303.13	796.62
303.36	816.62
303.59	818.62
303.82	817.62
304.051	810.62
304.281	829.62
304.511	834.62
304.741	921.62
304.971	970.62
305.201	1005.62
305.431	899.62
305.661	763.62
305.891	727.62
306.121	729.62
306.352	752.62
306.582	800.62
306.812	873.62
307.042	916.62
307.272	933.62
307.502	940.62
307.731	1016.62
307.961	1029.62
308.191	961.62
308.421	835.62
308.651	821.62
308.881	793.62
309.111	827.62
309.341	797.62
309.571	801.62
309.8	810.62
310.03	807.62
310.26	783.62
310.49	790.62
310.72	816.62
310.949	858.62
311.179	848.62
311.409	800.62
311.639	826.62
311.868	814.62
312.098	827.62
312.328	842.62
312.557	813.62
312.787	848.62
313.017	808.62
313.246	822.62
313.476	835.62
313.706	856.62
313.935	821.62
314.165	871.62
314.394	878.62
314.624	952.62
314.853	953.62
315.083	1005.62
315.312	987.62
315.542	922.62
315.771	878.62
316.001	857.62
316.23	905.62
316.46	898.62
316.689	889.62
316.919	857.62
317.148	831.62
317.377	843.62
317.607	929.62
317.836	1046.62
318.065	1015.62
318.295	995.62
318.524	937.62
318.753	901.62
318.983	888.62
319.212	877.62
319.441	867.62
319.67	864.62
319.9	886.62
320.129	939.62
320.358	986.62
320.587	1002.62
320.816	990.62
321.046	972.62
321.275	946.62
321.504	956.62
321.733	994.62
321.962	934.62
322.191	907.62
322.42	864.62
322.649	896.62
322.878	909.62
323.108	892.62
323.337	906.62
323.566	916.62
323.795	913.62
324.024	930.62
324.253	879.62
324.482	900.62
324.71	873.62
324.939	829.62
325.168	867.62
325.397	914.62
325.626	949.62
325.855	919.62
326.084	890.62
326.313	915.62
326.542	907.62
326.77	954.62
326.999	923.62
327.228	894.62
327.457	864.62
327.686	864.62
327.914	883.62
328.143	891.62
328.372	895.62
328.6	920.62
328.829	909.62
329.058	876.62
329.287	870.62
329.515	887.62
329.744	916.62
329.972	970.62
330.201	1007.62
330.43	973.62
330.658	953.62
330.887	914.62
331.115	963.62
331.344	986.62
331.572	943.62
331.801	941.62
332.03	939.62
332.258	965.62
332.486	975.62
332.715	975.62
332.943	974.62
333.172	966.62
333.4	973.62
333.629	1009.62
333.857	1037.62
334.085	1146.62
334.314	1325.62
334.542	1323.62
334.771	1240.62
334.999	1117.62
335.227	1035.62
335.455	1004.62
335.684	1000.62
335.912	1031.62
336.14	1057.62
336.369	1004.62
336.597	977.62
336.825	942.62
337.053	982.62
337.281	1022.62
337.51	1084.62
337.738	1110.62
337.966	1017.62
338.194	1000.62
338.422	917.62
338.65	945.62
338.878	906.62
339.106	914.62
339.334	886.62
339.562	919.62
339.79	930.62
340.018	962.62
340.246	1013.62
340.474	999.62
340.702	968.62
340.93	966.62
341.158	979.62
341.386	971.62
341.614	961.62
341.842	946.62
342.07	955.62
342.298	941.62
342.526	961.62
342.754	911.62
342.981	942.62
343.209	926.62
343.437	920.62
343.665	918.62
343.893	957.62
344.12	1032.62
344.348	1003.62
344.576	951.62
344.804	943.62
345.031	934.62
345.259	955.62
345.487	894.62
345.714	864.62
345.942	882.62
346.17	889.62
346.397	905.62
346.625	910.62
346.853	875.62
347.08	839.62
347.308	887.62
347.535	901.62
347.763	916.62
347.99	912.62
348.218	892.62
348.445	872.62
348.673	907.62
348.9	918.62
349.128	949.62
349.355	968.62
349.583	927.62
349.81	898.62
350.037	834.62
350.265	850.62
350.492	855.62
350.72	873.62
350.947	908.62
351.174	919.62
351.402	861.62
351.629	844.62
351.856	832.62
352.083	815.62
352.311	856.62
352.538	850.62
352.765	909.62
352.992	895.62
353.22	905.62
353.447	856.62
353.674	875.62
353.901	878.62
354.128	873.62
354.355	889.62
354.583	893.62
354.81	929.62
355.037	905.62
355.264	921.62
355.491	899.62
355.718	889.62
355.945	889.62
356.172	859.62
356.399	851.62
356.626	889.62
356.853	892.62
357.08	979.62
357.307	1087.62
357.534	1034.62
357.761	915.62
357.988	849.62
358.215	825.62
358.441	854.62
358.668	860.62
358.895	888.62
359.122	935.62
359.349	1014.62
359.576	987.62
359.802	909.62
360.029	860.62
360.256	839.62
360.483	855.62
360.709	901.62
360.936	915.62
361.163	975.62
361.39	1057.62
361.616	1103.62
361.843	1077.62
362.07	1013.62
362.296	891.62
362.523	862.62
362.749	870.62
362.976	913.62
363.203	903.62
363.429	895.62
363.656	859.62
363.882	922.62
364.109	977.62
364.335	1072.62
364.562	983.62
364.788	927.62
365.015	914.62
365.241	883.62
365.468	912.62
365.694	944.62
365.92	977.62
366.147	903.62
366.373	870.62
366.599	867.62
366.826	866.62
367.052	865.62
367.278	904.62
367.505	897.62
367.731	944.62
367.957	933.62
368.184	955.62
368.41	1031.62
368.636	1018.62
368.862	1022.62
369.089	1002.62
369.315	958.62
369.541	949.62
369.767	920.62
369.993	901.62
370.219	917.62
370.445	934.62
370.672	960.62
370.898	1006.62
371.124	1013.62
371.35	954.62
371.576	984.62
371.802	1035.62
372.028	944.62
372.254	965.62
372.48	901.62
372.706	895.62
372.932	898.62
373.158	921.62
373.384	945.62
373.61	988.62
373.835	997.62
374.061	956.62
374.287	905.62
374.513	951.62
374.739	960.62
374.965	986.62
375.191	958.62
375.416	973.62
375.642	999.62
375.868	1057.62
376.094	1056.62
376.319	965.62
376.545	966.62
376.771	976.62
376.997	1040.62
377.222	1013.62
377.448	952.62
377.674	998.62
377.899	997.62
378.125	1078.62
378.35	1029.62
378.576	971.62
378.802	937.62
379.027	961.62
379.253	958.62
379.478	972.62
379.704	949.62
379.929	954.62
380.155	979.62
380.38	948.62
380.606	1002.62
380.831	975.62
381.057	1035.62
381.282	1015.62
381.507	1033.62
381.733	1062.62
381.958	1074.62
382.184	1002.62
382.409	988.62
382.634	1009.62
382.86	1000.62
383.085	989.62
383.31	1041.62
383.535	1135.62
383.761	1171.62
383.986	1119.62
384.211	1082.62
384.436	1069.62
384.662	1118.62
384.887	1153.62
385.112	1092.62
385.337	1101.62
385.562	1062.62
385.787	1094.62
386.013	1136.62
386.238	1139.62
386.463	1094.62
386.688	1227.62
386.913	1257.62
387.138	1195.62
387.363	1133.62
387.588	1131.62
387.813	1127.62
388.038	1127.62
388.263	1190.62
388.488	1119.62
388.713	1045.62
388.938	1094.62
389.163	1090.62
389.387	1057.62
389.612	1069.62
389.837	1089.62
390.062	1098.62
390.287	1093.62
390.512	1087.62
390.736	1067.62
390.961	1081.62
391.186	1051.62
391.411	1071.62
391.636	1081.62
391.86	1103.62
392.085	1076.62
392.31	1084.62
392.534	1096.62
392.759	1084.62
392.984	1081.62
393.208	1104.62
393.433	1123.62
393.658	1173.62
393.882	1166.62
394.107	1107.62
394.331	1093.62
394.556	1118.62
394.78	1093.62
395.005	1141.62
395.229	1209.62
395.454	1274.62
395.678	1249.62
395.903	1185.62
396.127	1134.62
396.352	1191.62
396.576	1202.62
396.801	1172.62
397.025	1185.62
397.249	1185.62
397.474	1176.62
397.698	1166.62
397.922	1226.62
398.147	1292.62
398.371	1316.62
398.595	1283.62
398.82	1271.62
399.044	1309.62
399.268	1320.62
399.492	1397.62
399.717	1423.62
399.941	1427.62
400.165	1389.62
400.389	1391.62
400.613	1425.62
400.837	1581.62
401.062	1716.62
401.286	1469.62
401.51	1405.62
401.734	1410.62
401.958	1366.62
402.182	1305.62
402.406	1261.62
402.63	1227.62
402.854	1259.62
403.078	1280.62
403.302	1280.62
403.526	1309.62
403.75	1332.62
403.974	1353.62
404.198	1297.62
404.422	1378.62
404.645	1390.62
404.869	1403.62
405.093	1275.62
405.317	1215.62
405.541	1271.62
405.765	1295.62
405.988	1306.62
406.212	1330.62
406.436	1346.62
406.66	1361.62
406.883	1436.62
407.107	1611.62
407.331	1751.62
407.555	1869.62
407.778	1602.62
408.002	1388.62
408.226	1360.62
408.449	1379.62
408.673	1339.62
408.896	1336.62
409.12	1347.62
409.344	1305.62
409.567	1289.62
409.791	1325.62
410.014	1361.62
410.238	1415.62
410.461	1487.62
410.685	1344.62
410.908	1271.62
411.132	1289.62
411.355	1296.62
411.578	1250.62
411.802	1290.62
412.025	1302.62
412.249	1297.62
412.472	1265.62
412.695	1257.62
412.919	1248.62
413.142	1272.62
413.365	1314.62
413.589	1313.62
413.812	1359.62
414.035	1385.62
414.258	1342.62
414.482	1228.62
414.705	1231.62
414.928	1241.62
415.151	1247.62
415.374	1271.62
415.597	1245.62
415.821	1262.62
416.044	1296.62
416.267	1279.62
416.49	1235.62
416.713	1194.62
416.936	1276.62
417.159	1312.62
417.382	1303.62
417.605	1263.62
417.828	1277.62
418.051	1274.62
418.274	1265.62
418.497	1235.62
418.72	1255.62
418.943	1236.62
419.166	1274.62
419.389	1311.62
419.611	1255.62
419.834	1235.62
420.057	1240.62
420.28	1243.62
420.503	1247.62
420.726	1294.62
420.948	1287.62
421.171	1237.62
421.394	1233.62
421.617	1283.62
421.839	1306.62
422.062	1305.62
422.285	1232.62
422.507	1242.62
422.73	1196.62
422.953	1168.62
423.175	1190.62
423.398	1231.62
423.621	1236.62
423.843	1217.62
424.066	1261.62
424.288	1349.62
424.511	1331.62
424.733	1303.62
424.956	1222.62
425.178	1179.62
425.401	1206.62
425.623	1217.62
425.846	1224.62
426.068	1279.62
426.291	1269.62
426.513	1271.62
426.735	1263.62
426.958	1358.62
427.18	1370.62
427.402	1299.62
427.625	1341.62
427.847	1303.62
428.069	1253.62
428.292	1189.62
428.514	1185.62
428.736	1164.62
428.958	1203.62
429.181	1205.62
429.403	1407.62
429.625	1695.62
429.847	1425.62
430.069	1261.62
430.292	1428.62
430.514	1376.62
430.736	1278.62
430.958	1295.62
431.18	1234.62
431.402	1199.62
431.624	1192.62
431.846	1124.62
432.068	1108.62
432.29	1107.62
432.512	1123.62
432.734	1214.62
432.956	1235.62
433.178	1272.62
433.4	1262.62
433.622	1238.62
433.844	1217.62
434.066	1168.62
434.287	1133.62
434.509	1125.62
434.731	1193.62
434.953	1288.62
435.175	1254.62
435.397	1202.62
435.618	1209.62
435.84	1187.62
436.062	1175.62
436.284	1235.62
436.505	1238.62
436.727	1237.62
436.949	1186.62
437.17	1200.62
437.392	1173.62
437.614	1195.62
437.835	1110.62
438.057	1177.62
438.278	1227.62
438.5	1177.62
438.721	1197.62
438.943	1196.62
439.165	1172.62
439.386	1147.62
439.608	1205.62
439.829	1201.62
440.05	1203.62
440.272	1207.62
440.493	1206.62
440.715	1230.62
440.936	1296.62
441.158	1353.62
441.379	1339.62
441.6	1339.62
441.822	1308.62
442.043	1279.62
442.264	1257.62
442.486	1223.62
442.707	1241.62
442.928	1200.62
443.149	1249.62
443.371	1325.62
443.592	1329.62
443.813	1343.62
444.034	1291.62
444.255	1324.62
444.476	1319.62
444.698	1373.62
444.919	1382.62
445.14	1432.62
445.361	1383.62
445.582	1401.62
445.803	1330.62
446.024	1321.62
446.245	1352.62
446.466	1316.62
446.687	1296.62
446.908	1309.62
447.129	1301.62
447.35	1279.62
447.571	1262.62
447.792	1191.62
448.013	1185.62
448.234	1218.62
448.455	1310.62
448.675	1266.62
448.896	1150.62
449.117	1171.62
449.338	1181.62
449.559	1239.62
449.779	1292.62
450	1347.62
450.221	1402.62
450.442	1353.62
450.662	1229.62
450.883	1118.62
451.104	1109.62
451.324	1143.62
451.545	1132.62
451.766	1142.62
451.986	1123.62
452.207	1077.62
452.428	1058.62
452.648	1063.62
452.869	1073.62
453.089	1106.62
453.31	1071.62
453.53	1089.62
453.751	1108.62
453.971	998.62
454.192	1060.62
454.412	1092.62
454.633	1099.62
454.853	1057.62
455.073	1001.62
455.294	1029.62
455.514	1022.62
455.734	1007.62
455.955	1048.62
456.175	1033.62
456.395	1013.62
456.616	1048.62
456.836	1043.62
457.056	1038.62
457.276	1033.62
457.497	1025.62
457.717	986.62
457.937	1004.62
458.157	1023.62
458.377	997.62
458.598	989.62
458.818	985.62
459.038	1097.62
459.258	1085.62
459.478	1114.62
459.698	1055.62
459.918	1126.62
460.138	1185.62
460.358	1192.62
460.578	1222.62
460.798	1231.62
461.018	1285.62
461.238	1223.62
461.458	1179.62
461.678	1204.62
461.898	1153.62
462.118	1149.62
462.338	1206.62
462.558	1223.62
462.777	1225.62
462.997	1250.62
463.217	1321.62
463.437	1271.62
463.657	1254.62
463.876	1211.62
464.096	1179.62
464.316	1222.62
464.536	1231.62
464.755	1258.62
464.975	1196.62
465.195	1241.62
465.414	1233.62
465.634	1239.62
465.854	1228.62
466.073	1315.62
466.293	1273.62
466.512	1197.62
466.732	1157.62
466.951	1185.62
467.171	1182.62
467.391	1143.62
467.61	1131.62
467.829	1165.62
468.049	1272.62
468.268	1386.62
468.488	1294.62
468.707	1237.62
468.927	1182.62
469.146	1184.62
469.365	1169.62
469.585	1199.62
469.804	1163.62
470.023	1196.62
470.243	1191.62
470.462	1152.62
470.681	1203.62
470.901	1177.62
471.12	1192.62
471.339	1193.62
471.558	1168.62
471.777	1172.62
471.997	1163.62
472.216	1120.62
472.435	1081.62
472.654	1061.62
472.873	1108.62
473.092	1176.62
473.311	1163.62
473.53	1120.62
473.749	1086.62
473.968	1114.62
474.187	1167.62
474.406	1175.62
474.625	1152.62
474.844	1133.62
475.063	1151.62
475.282	1154.62
475.501	1138.62
475.72	1171.62
475.939	1236.62
476.158	1191.62
476.377	1176.62
476.596	1175.62
476.814	1196.62
477.033	1154.62
477.252	1201.62
477.471	1240.62
477.69	1240.62
477.908	1251.62
478.127	1287.62
478.346	1368.62
478.564	1355.62
478.783	1336.62
479.002	1394.62
479.22	1352.62
479.439	1421.62
479.658	1529.62
479.876	1442.62
480.095	1314.62
480.313	1292.62
480.532	1242.62
480.751	1242.62
480.969	1264.62
481.188	1235.62
481.406	1217.62
481.624	1189.62
481.843	1210.62
482.061	1236.62
482.28	1259.62
482.498	1282.62
482.717	1234.62
482.935	1256.62
483.153	1294.62
483.372	1341.62
483.59	1319.62
483.808	1307.62
484.027	1310.62
484.245	1388.62
484.463	1639.62
484.681	1759.62
484.9	1391.62
485.118	1311.62
485.336	1277.62
485.554	1311.62
485.772	1303.62
485.99	1295.62
486.209	1320.62
486.427	1328.62
486.645	1322.62
486.863	1367.62
487.081	1379.62
487.299	1393.62
487.517	1397.62
487.735	1393.62
487.953	1451.62
488.171	1431.62
488.389	1409.62
488.607	1437.62
488.825	1508.62
489.043	1477.62
489.261	1345.62
489.479	1419.62
489.696	1415.62
489.914	1405.62
490.132	1371.62
490.35	1422.62
490.568	1506.62
490.786	1467.62
491.003	1404.62
491.221	1475.62
491.439	1540.62
491.657	1522.62
491.874	1578.62
492.092	1636.62
492.31	1654.62
492.527	1638.62
492.745	1532.62
492.963	1483.62
493.18	1568.62
493.398	1619.62
493.615	1592.62
493.833	1512.62
494.05	1490.62
494.268	1534.62
494.485	1503.62
