Data from WStandard_LampEnergy10_LIBS07252019.E.O._I.C._HRD10591_15-52-51-928.txt Node
Date: Thu Jul 25 15:52:51 EDT 2019
User: cochatt
Spectrometer: HR+D1059
Trigger mode: 1
Integration Time (sec): 1.000000E-1
Scans to average: 1
Electric dark correction enabled: true
Nonlinearity correction enabled: false
Boxcar width: 0
XAxis mode: Wavelengths
Number of Pixels in Spectrum: 2048
>>>>>Begin Spectral Data<<<<<
223.165	-7.19
223.4	-7.19
223.635	-7.19
223.869	-12.19
224.104	-30.19
224.338	-10.19
224.573	-5.19
224.808	-7.19
225.042	-8.19
225.277	-11.19
225.511	-8.19
225.746	8.81
225.98	8.81
226.215	12.81
226.449	8.81
226.683	9.81
226.918	13.81
227.152	36.81
227.387	34.81
227.621	38.81
227.856	32.81
228.09	40.81
228.324	55.81
228.559	64.81
228.793	93.81
229.027	161.81
229.262	182.81
229.496	177.81
229.73	186.81
229.964	208.81
230.199	225.81
230.433	213.81
230.667	223.81
230.901	235.81
231.136	213.81
231.37	226.81
231.604	214.81
231.838	221.81
232.072	231.81
232.306	212.81
232.541	211.81
232.775	252.81
233.009	279.81
233.243	265.81
233.477	246.81
233.711	244.81
233.945	254.81
234.179	241.81
234.413	257.81
234.647	278.81
234.881	267.81
235.115	232.81
235.349	240.81
235.583	261.81
235.817	243.81
236.051	235.81
236.285	248.81
236.519	256.81
236.753	300.81
236.987	287.81
237.221	290.81
237.455	326.81
237.689	289.81
237.922	276.81
238.156	276.81
238.39	275.81
238.624	294.81
238.858	313.81
239.091	323.81
239.325	331.81
239.559	363.81
239.793	398.81
240.027	403.81
240.26	378.81
240.494	314.81
240.728	302.81
240.961	300.81
241.195	338.81
241.429	331.81
241.662	332.81
241.896	323.81
242.13	337.81
242.363	356.81
242.597	371.81
242.83	354.81
243.064	392.81
243.298	385.81
243.531	375.81
243.765	369.81
243.998	356.81
244.232	336.81
244.465	314.81
244.699	351.81
244.932	375.81
245.166	415.81
245.399	391.81
245.633	365.81
245.866	365.81
246.099	398.81
246.333	387.81
246.566	380.81
246.8	412.81
247.033	468.81
247.266	435.81
247.5	424.81
247.733	435.81
247.966	449.81
248.2	471.81
248.433	470.81
248.666	493.81
248.899	535.81
249.133	608.81
249.366	643.81
249.599	552.81
249.832	487.81
250.066	485.81
250.299	507.81
250.532	476.81
250.765	424.81
250.998	456.81
251.231	446.81
251.465	462.81
251.698	467.81
251.931	455.81
252.164	467.81
252.397	484.81
252.63	466.81
252.863	419.81
253.096	429.81
253.329	467.81
253.562	465.81
253.795	476.81
254.028	479.81
254.261	454.81
254.494	460.81
254.727	431.81
254.96	441.81
255.193	515.81
255.426	551.81
255.659	603.81
255.892	612.81
256.124	537.81
256.357	500.81
256.59	554.81
256.823	553.81
257.056	554.81
257.289	647.81
257.521	693.81
257.754	629.81
257.987	611.81
258.22	655.81
258.452	606.81
258.685	544.81
258.918	508.81
259.151	525.81
259.383	523.81
259.616	479.81
259.849	498.81
260.081	537.81
260.314	599.81
260.547	640.81
260.779	611.81
261.012	587.81
261.244	557.81
261.477	521.81
261.71	532.81
261.942	546.81
262.175	518.81
262.407	536.81
262.64	526.81
262.872	493.81
263.105	480.81
263.337	487.81
263.57	496.81
263.802	505.81
264.035	465.81
264.267	453.81
264.499	462.81
264.732	520.81
264.964	515.81
265.197	532.81
265.429	553.81
265.661	604.81
265.894	673.81
266.126	666.81
266.358	631.81
266.591	642.81
266.823	667.81
267.055	620.81
267.287	585.81
267.52	594.81
267.752	575.81
267.984	593.81
268.216	617.81
268.448	658.81
268.681	603.81
268.913	572.81
269.145	563.81
269.377	550.81
269.609	615.81
269.841	699.81
270.073	797.81
270.306	844.81
270.538	855.81
270.77	737.81
271.002	642.81
271.234	637.81
271.466	668.81
271.698	725.81
271.93	804.81
272.162	786.81
272.394	731.81
272.626	679.81
272.858	634.81
273.09	576.81
273.322	554.81
273.553	539.81
273.785	548.81
274.017	570.81
274.249	591.81
274.481	599.81
274.713	555.81
274.945	543.81
275.176	544.81
275.408	526.81
275.64	537.81
275.872	544.81
276.104	582.81
276.335	646.81
276.567	724.81
276.799	707.81
277.031	653.81
277.262	628.81
277.494	661.81
277.726	709.81
277.957	683.81
278.189	619.81
278.421	597.81
278.652	566.81
278.884	552.81
279.115	584.81
279.347	570.81
279.579	585.81
279.81	582.81
280.042	641.81
280.273	703.81
280.505	700.81
280.736	689.81
280.968	633.81
281.199	595.81
281.431	557.81
281.662	567.81
281.894	565.81
282.125	586.81
282.356	621.81
282.588	625.81
282.819	631.81
283.051	645.81
283.282	679.81
283.513	667.81
283.745	600.81
283.976	574.81
284.207	577.81
284.439	593.81
284.67	583.81
284.901	608.81
285.132	606.81
285.364	612.81
285.595	613.81
285.826	584.81
286.057	579.81
286.288	612.81
286.52	641.81
286.751	658.81
286.982	672.81
287.213	637.81
287.444	588.81
287.675	593.81
287.906	634.81
288.138	664.81
288.369	637.81
288.6	600.81
288.831	581.81
289.062	587.81
289.293	604.81
289.524	589.81
289.755	626.81
289.986	615.81
290.217	579.81
290.448	595.81
290.679	619.81
290.91	613.81
291.141	635.81
291.371	659.81
291.602	651.81
291.833	628.81
292.064	667.81
292.295	663.81
292.526	665.81
292.757	641.81
292.987	658.81
293.218	632.81
293.449	707.81
293.68	756.81
293.91	802.81
294.141	752.81
294.372	739.81
294.603	748.81
294.833	757.81
295.064	719.81
295.295	657.81
295.525	635.81
295.756	620.81
295.987	591.81
296.217	584.81
296.448	608.81
296.679	619.81
296.909	625.81
297.14	615.81
297.37	631.81
297.601	681.81
297.831	731.81
298.062	714.81
298.292	652.81
298.523	629.81
298.753	627.81
298.984	619.81
299.214	643.81
299.445	685.81
299.675	666.81
299.905	647.81
300.136	628.81
300.366	642.81
300.597	616.81
300.827	620.81
301.057	671.81
301.288	667.81
301.518	668.81
301.748	697.81
301.979	745.81
302.209	729.81
302.439	763.81
302.669	780.81
302.9	759.81
303.13	668.81
303.36	690.81
303.59	701.81
303.82	681.81
304.051	681.81
304.281	693.81
304.511	702.81
304.741	753.81
304.971	849.81
305.201	848.81
305.431	743.81
305.661	630.81
305.891	608.81
306.121	601.81
306.352	628.81
306.582	695.81
306.812	713.81
307.042	776.81
307.272	779.81
307.502	804.81
307.731	870.81
307.961	877.81
308.191	792.81
308.421	698.81
308.651	661.81
308.881	646.81
309.111	643.81
309.341	668.81
309.571	657.81
309.8	653.81
310.03	636.81
310.26	645.81
310.49	667.81
310.72	682.81
310.949	730.81
311.179	688.81
311.409	685.81
311.639	672.81
311.868	667.81
312.098	677.81
312.328	658.81
312.557	675.81
312.787	687.81
313.017	692.81
313.246	713.81
313.476	683.81
313.706	706.81
313.935	711.81
314.165	735.81
314.394	765.81
314.624	783.81
314.853	819.81
315.083	815.81
315.312	831.81
315.542	780.81
315.771	716.81
316.001	735.81
316.23	772.81
316.46	758.81
316.689	739.81
316.919	703.81
317.148	688.81
317.377	723.81
317.607	787.81
317.836	837.81
318.065	885.81
318.295	818.81
318.524	790.81
318.753	764.81
318.983	732.81
319.212	752.81
319.441	732.81
319.67	763.81
319.9	762.81
320.129	796.81
320.358	848.81
320.587	831.81
320.816	804.81
321.046	812.81
321.275	817.81
321.504	815.81
321.733	856.81
321.962	775.81
322.191	764.81
322.42	731.81
322.649	726.81
322.878	741.81
323.108	772.81
323.337	772.81
323.566	787.81
323.795	763.81
324.024	771.81
324.253	746.81
324.482	738.81
324.71	699.81
324.939	704.81
325.168	713.81
325.397	740.81
325.626	795.81
325.855	762.81
326.084	750.81
326.313	753.81
326.542	769.81
326.77	801.81
326.999	804.81
327.228	737.81
327.457	703.81
327.686	692.81
327.914	743.81
328.143	731.81
328.372	755.81
328.6	767.81
328.829	721.81
329.058	730.81
329.287	725.81
329.515	750.81
329.744	784.81
329.972	808.81
330.201	828.81
330.43	778.81
330.658	794.81
330.887	812.81
331.115	785.81
331.344	813.81
331.572	774.81
331.801	779.81
332.03	779.81
332.258	813.81
332.486	816.81
332.715	796.81
332.943	806.81
333.172	788.81
333.4	801.81
333.629	836.81
333.857	902.81
334.085	1003.81
334.314	1121.81
334.542	1142.81
334.771	1041.81
334.999	913.81
335.227	862.81
335.455	824.81
335.684	886.81
335.912	872.81
336.14	897.81
336.369	823.81
336.597	810.81
336.825	794.81
337.053	850.81
337.281	891.81
337.51	940.81
337.738	962.81
337.966	872.81
338.194	818.81
338.422	797.81
338.65	779.81
338.878	764.81
339.106	744.81
339.334	771.81
339.562	735.81
339.79	793.81
340.018	832.81
340.246	830.81
340.474	886.81
340.702	843.81
340.93	831.81
341.158	798.81
341.386	810.81
341.614	790.81
341.842	817.81
342.07	794.81
342.298	823.81
342.526	815.81
342.754	771.81
342.981	793.81
343.209	757.81
343.437	784.81
343.665	820.81
343.893	837.81
344.12	853.81
344.348	865.81
344.576	827.81
344.804	799.81
345.031	811.81
345.259	810.81
345.487	743.81
345.714	737.81
345.942	744.81
346.17	720.81
346.397	722.81
346.625	737.81
346.853	729.81
347.08	704.81
347.308	715.81
347.535	746.81
347.763	774.81
347.99	740.81
348.218	720.81
348.445	723.81
348.673	754.81
348.9	787.81
349.128	762.81
349.355	826.81
349.583	804.81
349.81	724.81
350.037	707.81
350.265	705.81
350.492	706.81
350.72	729.81
350.947	763.81
351.174	760.81
351.402	717.81
351.629	726.81
351.856	685.81
352.083	707.81
352.311	711.81
352.538	720.81
352.765	773.81
352.992	773.81
353.22	734.81
353.447	705.81
353.674	743.81
353.901	759.81
354.128	736.81
354.355	756.81
354.583	778.81
354.81	801.81
355.037	753.81
355.264	749.81
355.491	757.81
355.718	757.81
355.945	741.81
356.172	713.81
356.399	740.81
356.626	724.81
356.853	796.81
357.08	855.81
357.307	884.81
357.534	832.81
357.761	771.81
357.988	731.81
358.215	704.81
358.441	713.81
358.668	696.81
358.895	720.81
359.122	810.81
359.349	853.81
359.576	791.81
359.802	753.81
360.029	740.81
360.256	707.81
360.483	736.81
360.709	766.81
360.936	796.81
361.163	844.81
361.39	911.81
361.616	907.81
361.843	921.81
362.07	841.81
362.296	752.81
362.523	763.81
362.749	732.81
362.976	742.81
363.203	769.81
363.429	732.81
363.656	730.81
363.882	801.81
364.109	875.81
364.335	883.81
364.562	820.81
364.788	794.81
365.015	755.81
365.241	732.81
365.468	779.81
365.694	819.81
365.92	840.81
366.147	775.81
366.373	729.81
366.599	738.81
366.826	732.81
367.052	771.81
367.278	791.81
367.505	749.81
367.731	779.81
367.957	807.81
368.184	832.81
368.41	865.81
368.636	850.81
368.862	890.81
369.089	847.81
369.315	846.81
369.541	815.81
369.767	780.81
369.993	743.81
370.219	790.81
370.445	808.81
370.672	827.81
370.898	872.81
371.124	875.81
371.35	844.81
371.576	841.81
371.802	869.81
372.028	833.81
372.254	810.81
372.48	792.81
372.706	785.81
372.932	767.81
373.158	784.81
373.384	808.81
373.61	843.81
373.835	829.81
374.061	794.81
374.287	828.81
374.513	817.81
374.739	827.81
374.965	825.81
375.191	852.81
375.416	849.81
375.642	862.81
375.868	934.81
376.094	925.81
376.319	895.81
376.545	838.81
376.771	880.81
376.997	901.81
377.222	887.81
377.448	851.81
377.674	846.81
377.899	889.81
378.125	923.81
378.35	898.81
378.576	826.81
378.802	804.81
379.027	803.81
379.253	798.81
379.478	821.81
379.704	818.81
379.929	840.81
380.155	831.81
380.38	844.81
380.606	834.81
380.831	874.81
381.057	920.81
381.282	903.81
381.507	890.81
381.733	962.81
381.958	955.81
382.184	892.81
382.409	865.81
382.634	871.81
382.86	849.81
383.085	873.81
383.31	932.81
383.535	1000.81
383.761	1024.81
383.986	987.81
384.211	934.81
384.436	943.81
384.662	1005.81
384.887	997.81
385.112	958.81
385.337	955.81
385.562	956.81
385.787	964.81
386.013	1020.81
386.238	976.81
386.463	979.81
386.688	1051.81
386.913	1081.81
387.138	1051.81
387.363	982.81
387.588	994.81
387.813	961.81
388.038	1039.81
388.263	1037.81
388.488	980.81
388.713	909.81
388.938	940.81
389.163	941.81
389.387	969.81
389.612	952.81
389.837	967.81
390.062	967.81
390.287	952.81
390.512	963.81
390.736	946.81
390.961	943.81
391.186	933.81
391.411	941.81
391.636	969.81
391.86	969.81
392.085	929.81
392.31	923.81
392.534	984.81
392.759	977.81
392.984	998.81
393.208	993.81
393.433	985.81
393.658	1085.81
393.882	1027.81
394.107	996.81
394.331	979.81
394.556	942.81
394.78	1003.81
395.005	1007.81
395.229	1059.81
395.454	1126.81
395.678	1129.81
395.903	1093.81
396.127	1004.81
396.352	1068.81
396.576	1066.81
396.801	1096.81
397.025	1081.81
397.249	1053.81
397.474	1062.81
397.698	1075.81
397.922	1081.81
398.147	1127.81
398.371	1193.81
398.595	1149.81
398.82	1118.81
399.044	1132.81
399.268	1167.81
399.492	1253.81
399.717	1303.81
399.941	1245.81
400.165	1231.81
400.389	1227.81
400.613	1270.81
400.837	1436.81
401.062	1553.81
401.286	1296.81
401.51	1245.81
401.734	1242.81
401.958	1225.81
402.182	1161.81
402.406	1111.81
402.63	1131.81
402.854	1119.81
403.078	1146.81
403.302	1119.81
403.526	1186.81
403.75	1157.81
403.974	1201.81
404.198	1193.81
404.422	1269.81
404.645	1275.81
404.869	1215.81
405.093	1138.81
405.317	1158.81
405.541	1161.81
405.765	1169.81
405.988	1231.81
406.212	1212.81
406.436	1202.81
406.66	1256.81
406.883	1283.81
407.107	1440.81
407.331	1555.81
407.555	1613.81
407.778	1473.81
408.002	1225.81
408.226	1220.81
408.449	1237.81
408.673	1234.81
408.896	1202.81
409.12	1210.81
409.344	1216.81
409.567	1175.81
409.791	1174.81
410.014	1284.81
410.238	1315.81
410.461	1343.81
410.685	1199.81
410.908	1163.81
411.132	1166.81
411.355	1165.81
411.578	1165.81
411.802	1203.81
412.025	1197.81
412.249	1163.81
412.472	1167.81
412.695	1146.81
412.919	1159.81
413.142	1151.81
413.365	1145.81
413.589	1209.81
413.812	1236.81
414.035	1256.81
414.258	1183.81
414.482	1154.81
414.705	1195.81
414.928	1142.81
415.151	1137.81
415.374	1125.81
415.597	1165.81
415.821	1194.81
416.044	1187.81
416.267	1165.81
416.49	1118.81
416.713	1103.81
416.936	1180.81
417.159	1219.81
417.382	1198.81
417.605	1171.81
417.828	1167.81
418.051	1213.81
418.274	1195.81
418.497	1173.81
418.72	1181.81
418.943	1120.81
419.166	1199.81
419.389	1201.81
419.611	1179.81
419.834	1151.81
420.057	1173.81
420.28	1166.81
420.503	1135.81
420.726	1164.81
420.948	1182.81
421.171	1181.81
421.394	1161.81
421.617	1207.81
421.839	1223.81
422.062	1214.81
422.285	1141.81
422.507	1146.81
422.73	1126.81
422.953	1086.81
423.175	1115.81
423.398	1145.81
423.621	1135.81
423.843	1159.81
424.066	1176.81
424.288	1271.81
424.511	1288.81
424.733	1280.81
424.956	1151.81
425.178	1136.81
425.401	1161.81
425.623	1162.81
425.846	1161.81
426.068	1205.81
426.291	1240.81
426.513	1177.81
426.735	1184.81
426.958	1294.81
427.18	1361.81
427.402	1253.81
427.625	1309.81
427.847	1263.81
428.069	1131.81
428.292	1140.81
428.514	1130.81
428.736	1094.81
428.958	1097.81
429.181	1156.81
429.403	1320.81
429.625	1542.81
429.847	1310.81
430.069	1186.81
430.292	1306.81
430.514	1281.81
430.736	1210.81
430.958	1219.81
431.18	1171.81
431.402	1110.81
431.624	1069.81
431.846	1008.81
432.068	943.81
432.29	959.81
432.512	1029.81
432.734	1091.81
432.956	1148.81
433.178	1181.81
433.4	1179.81
433.622	1166.81
433.844	1142.81
434.066	1063.81
434.287	1014.81
434.509	1037.81
434.731	1083.81
434.953	1180.81
435.175	1156.81
435.397	1140.81
435.618	1124.81
435.84	1047.81
436.062	1054.81
436.284	1100.81
436.505	1163.81
436.727	1209.81
436.949	1137.81
437.17	1107.81
437.392	1130.81
437.614	1053.81
437.835	1019.81
438.057	1036.81
438.278	1050.81
438.5	1096.81
438.721	1110.81
438.943	1147.81
439.165	1120.81
439.386	1123.81
439.608	1138.81
439.829	1176.81
440.05	1151.81
440.272	1171.81
440.493	1165.81
440.715	1189.81
440.936	1249.81
441.158	1290.81
441.379	1308.81
441.6	1250.81
441.822	1244.81
442.043	1220.81
442.264	1221.81
442.486	1196.81
442.707	1164.81
442.928	1176.81
443.149	1222.81
443.371	1253.81
443.592	1288.81
443.813	1281.81
444.034	1240.81
444.255	1247.81
444.476	1263.81
444.698	1279.81
444.919	1292.81
445.14	1395.81
445.361	1335.81
445.582	1341.81
445.803	1304.81
446.024	1264.81
446.245	1304.81
446.466	1289.81
446.687	1277.81
446.908	1247.81
447.129	1273.81
447.35	1224.81
447.571	1199.81
447.792	1155.81
448.013	1153.81
448.234	1159.81
448.455	1229.81
448.675	1206.81
448.896	1124.81
449.117	1104.81
449.338	1153.81
449.559	1186.81
449.779	1186.81
450	1264.81
450.221	1327.81
450.442	1301.81
450.662	1169.81
450.883	1068.81
451.104	1071.81
451.324	1083.81
451.545	1128.81
451.766	1104.81
451.986	1030.81
452.207	1017.81
452.428	973.81
452.648	985.81
452.869	1000.81
453.089	999.81
453.31	984.81
453.53	1011.81
453.751	915.81
453.971	910.81
454.192	948.81
454.412	981.81
454.633	974.81
454.853	991.81
455.073	958.81
455.294	959.81
455.514	932.81
455.734	937.81
455.955	979.81
456.175	929.81
456.395	925.81
456.616	917.81
456.836	940.81
457.056	921.81
457.276	919.81
457.497	921.81
457.717	884.81
457.937	895.81
458.157	902.81
458.377	885.81
458.598	872.81
458.818	893.81
459.038	920.81
459.258	921.81
459.478	956.81
459.698	932.81
459.918	941.81
460.138	1037.81
460.358	1075.81
460.578	1060.81
460.798	1094.81
461.018	1142.81
461.238	1115.81
461.458	1094.81
461.678	1068.81
461.898	1041.81
462.118	1049.81
462.338	1081.81
462.558	1071.81
462.777	1106.81
462.997	1111.81
463.217	1127.81
463.437	1128.81
463.657	1080.81
463.876	1062.81
464.096	1060.81
464.316	1090.81
464.536	1117.81
464.755	1109.81
464.975	1127.81
465.195	1089.81
465.414	1116.81
465.634	1106.81
465.854	1121.81
466.073	1207.81
466.293	1178.81
466.512	1097.81
466.732	1092.81
466.951	1121.81
467.171	1114.81
467.391	1084.81
467.61	1082.81
467.829	1081.81
468.049	1213.81
468.268	1294.81
468.488	1199.81
468.707	1141.81
468.927	1117.81
469.146	1116.81
469.365	1093.81
469.585	1126.81
469.804	1113.81
470.023	1178.81
470.243	1149.81
470.462	1141.81
470.681	1147.81
470.901	1123.81
471.12	1136.81
471.339	1111.81
471.558	1116.81
471.777	1106.81
471.997	1096.81
472.216	1055.81
472.435	975.81
472.654	964.81
472.873	1008.81
473.092	1028.81
473.311	1056.81
473.53	1011.81
473.749	1032.81
473.968	1043.81
474.187	1049.81
474.406	1077.81
474.625	1084.81
474.844	1068.81
475.063	1063.81
475.282	1074.81
475.501	1041.81
475.72	1071.81
475.939	1153.81
476.158	1102.81
476.377	1107.81
476.596	1063.81
476.814	1028.81
477.033	1039.81
477.252	1065.81
477.471	1131.81
477.69	1138.81
477.908	1162.81
478.127	1227.81
478.346	1265.81
478.564	1242.81
478.783	1284.81
479.002	1306.81
479.22	1241.81
479.439	1296.81
479.658	1371.81
479.876	1269.81
480.095	1175.81
480.313	1151.81
480.532	1099.81
480.751	1110.81
480.969	1068.81
481.188	1055.81
481.406	1048.81
481.624	1011.81
481.843	1048.81
482.061	1089.81
482.28	1126.81
482.498	1148.81
482.717	1121.81
482.935	1130.81
483.153	1231.81
483.372	1283.81
483.59	1261.81
483.808	1198.81
484.027	1183.81
484.245	1255.81
484.463	1541.81
484.681	1627.81
484.9	1316.81
485.118	1210.81
485.336	1167.81
485.554	1147.81
485.772	1161.81
485.99	1146.81
486.209	1180.81
486.427	1166.81
486.645	1185.81
486.863	1252.81
487.081	1295.81
487.299	1258.81
487.517	1272.81
487.735	1405.81
487.953	1410.81
488.171	1430.81
488.389	1361.81
488.607	1315.81
488.825	1424.81
489.043	1376.81
489.261	1261.81
489.479	1322.81
489.696	1321.81
489.914	1302.81
490.132	1293.81
490.35	1361.81
490.568	1435.81
490.786	1414.81
491.003	1453.81
491.221	1528.81
491.439	1551.81
491.657	1543.81
491.874	1614.81
492.092	1671.81
492.31	1759.81
492.527	1735.81
492.745	1667.81
492.963	1568.81
493.18	1603.81
493.398	1648.81
493.615	1621.81
493.833	1511.81
494.05	1499.81
494.268	1500.81
494.485	1482.81
494.703	1522.81
494.92	1493.81
495.138	1508.81
495.355	1479.81
495.573	1536.81
495.79	1571.81
496.008	1567.81
496.225	1479.81
