Data from WStandard_LampEnergy8_LIBS07252019.E.O._I.C._HRD10591_15-58-25-929.txt Node
Date: Thu Jul 25 15:58:25 EDT 2019
User: cochatt
Spectrometer: HR+D1059
Trigger mode: 1
Integration Time (sec): 1.000000E-1
Scans to average: 1
Electric dark correction enabled: true
Nonlinearity correction enabled: false
Boxcar width: 0
XAxis mode: Wavelengths
Number of Pixels in Spectrum: 2048
>>>>>Begin Spectral Data<<<<<
223.165	-19.44
223.4	-19.44
223.635	-19.44
223.869	-22.44
224.104	-10.44
224.338	-21.44
224.573	-13.44
224.808	-13.44
225.042	-19.44
225.277	-5.44
225.511	-1.44
225.746	-0.44
225.98	14.56
226.215	20.56
226.449	22.56
226.683	14.56
226.918	15.56
227.152	39.56
227.387	30.56
227.621	32.56
227.856	44.56
228.09	34.56
228.324	43.56
228.559	49.56
228.793	105.56
229.027	196.56
229.262	212.56
229.496	206.56
229.73	226.56
229.964	246.56
230.199	244.56
230.433	253.56
230.667	267.56
230.901	289.56
231.136	270.56
231.37	264.56
231.604	269.56
231.838	268.56
232.072	262.56
232.306	233.56
232.541	270.56
232.775	293.56
233.009	316.56
233.243	302.56
233.477	286.56
233.711	291.56
233.945	290.56
234.179	296.56
234.413	309.56
234.647	323.56
234.881	312.56
235.115	277.56
235.349	307.56
235.583	282.56
235.817	295.56
236.051	307.56
236.285	300.56
236.519	317.56
236.753	345.56
236.987	348.56
237.221	363.56
237.455	386.56
237.689	356.56
237.922	338.56
238.156	341.56
238.39	352.56
238.624	367.56
238.858	395.56
239.091	408.56
239.325	432.56
239.559	445.56
239.793	482.56
240.027	500.56
240.26	488.56
240.494	386.56
240.728	371.56
240.961	394.56
241.195	398.56
241.429	438.56
241.662	431.56
241.896	394.56
242.13	389.56
242.363	410.56
242.597	449.56
242.83	452.56
243.064	440.56
243.298	473.56
243.531	454.56
243.765	446.56
243.998	446.56
244.232	399.56
244.465	394.56
244.699	415.56
244.932	466.56
245.166	479.56
245.399	497.56
245.633	458.56
245.866	464.56
246.099	462.56
246.333	480.56
246.566	481.56
246.8	521.56
247.033	564.56
247.266	530.56
247.5	524.56
247.733	539.56
247.966	560.56
248.2	601.56
248.433	578.56
248.666	601.56
248.899	650.56
249.133	748.56
249.366	790.56
249.599	639.56
249.832	587.56
250.066	610.56
250.299	593.56
250.532	569.56
250.765	524.56
250.998	572.56
251.231	573.56
251.465	608.56
251.698	582.56
251.931	569.56
252.164	594.56
252.397	615.56
252.63	612.56
252.863	532.56
253.096	550.56
253.329	552.56
253.562	563.56
253.795	616.56
254.028	589.56
254.261	574.56
254.494	554.56
254.727	541.56
254.96	564.56
255.193	626.56
255.426	699.56
255.659	759.56
255.892	757.56
256.124	679.56
256.357	634.56
256.59	675.56
256.823	683.56
257.056	680.56
257.289	826.56
257.521	887.56
257.754	807.56
257.987	779.56
258.22	822.56
258.452	794.56
258.685	654.56
258.918	672.56
259.151	653.56
259.383	612.56
259.616	593.56
259.849	614.56
260.081	696.56
260.314	743.56
260.547	810.56
260.779	792.56
261.012	755.56
261.244	678.56
261.477	674.56
261.71	677.56
261.942	690.56
262.175	670.56
262.407	700.56
262.64	663.56
262.872	607.56
263.105	600.56
263.337	613.56
263.57	603.56
263.802	630.56
264.035	596.56
264.267	573.56
264.499	573.56
264.732	637.56
264.964	643.56
265.197	678.56
265.429	689.56
265.661	788.56
265.894	815.56
266.126	866.56
266.358	794.56
266.591	794.56
266.823	845.56
267.055	770.56
267.287	760.56
267.52	742.56
267.752	753.56
267.984	756.56
268.216	781.56
268.448	800.56
268.681	801.56
268.913	724.56
269.145	691.56
269.377	689.56
269.609	759.56
269.841	884.56
270.073	988.56
270.306	1094.56
270.538	1097.56
270.77	956.56
271.002	814.56
271.234	800.56
271.466	828.56
271.698	910.56
271.93	1052.56
272.162	1003.56
272.394	946.56
272.626	892.56
272.858	807.56
273.09	706.56
273.322	686.56
273.553	662.56
273.785	668.56
274.017	715.56
274.249	747.56
274.481	757.56
274.713	698.56
274.945	666.56
275.176	682.56
275.408	674.56
275.64	689.56
275.872	693.56
276.104	735.56
276.335	811.56
276.567	886.56
276.799	900.56
277.031	815.56
277.262	820.56
277.494	809.56
277.726	916.56
277.957	867.56
278.189	807.56
278.421	754.56
278.652	710.56
278.884	739.56
279.115	745.56
279.347	756.56
279.579	713.56
279.81	762.56
280.042	794.56
280.273	860.56
280.505	866.56
280.736	843.56
280.968	814.56
281.199	740.56
281.431	680.56
281.662	721.56
281.894	715.56
282.125	733.56
282.356	745.56
282.588	754.56
282.819	768.56
283.051	849.56
283.282	868.56
283.513	816.56
283.745	752.56
283.976	702.56
284.207	737.56
284.439	699.56
284.67	760.56
284.901	743.56
285.132	745.56
285.364	744.56
285.595	762.56
285.826	746.56
286.057	746.56
286.288	752.56
286.52	781.56
286.751	832.56
286.982	836.56
287.213	766.56
287.444	720.56
287.675	740.56
287.906	769.56
288.138	830.56
288.369	798.56
288.6	726.56
288.831	720.56
289.062	729.56
289.293	761.56
289.524	755.56
289.755	781.56
289.986	790.56
290.217	741.56
290.448	726.56
290.679	766.56
290.91	792.56
291.141	791.56
291.371	816.56
291.602	794.56
291.833	823.56
292.064	831.56
292.295	794.56
292.526	835.56
292.757	837.56
292.987	821.56
293.218	803.56
293.449	862.56
293.68	976.56
293.91	1015.56
294.141	939.56
294.372	891.56
294.603	914.56
294.833	974.56
295.064	890.56
295.295	841.56
295.525	788.56
295.756	747.56
295.987	744.56
296.217	727.56
296.448	771.56
296.679	770.56
296.909	777.56
297.14	770.56
297.37	828.56
297.601	843.56
297.831	880.56
298.062	859.56
298.292	808.56
298.523	750.56
298.753	776.56
298.984	776.56
299.214	810.56
299.445	841.56
299.675	823.56
299.905	815.56
300.136	783.56
300.366	793.56
300.597	747.56
300.827	776.56
301.057	808.56
301.288	834.56
301.518	836.56
301.748	886.56
301.979	899.56
302.209	890.56
302.439	971.56
302.669	983.56
302.9	932.56
303.13	819.56
303.36	840.56
303.59	844.56
303.82	858.56
304.051	849.56
304.281	854.56
304.511	878.56
304.741	900.56
304.971	1011.56
305.201	1067.56
305.431	938.56
305.661	795.56
305.891	743.56
306.121	743.56
306.352	801.56
306.582	826.56
306.812	901.56
307.042	936.56
307.272	906.56
307.502	968.56
307.731	1042.56
307.961	1087.56
308.191	989.56
308.421	851.56
308.651	852.56
308.881	823.56
309.111	808.56
309.341	820.56
309.571	812.56
309.8	818.56
310.03	834.56
310.26	812.56
310.49	806.56
310.72	834.56
310.949	871.56
311.179	869.56
311.409	841.56
311.639	827.56
311.868	831.56
312.098	835.56
312.328	863.56
312.557	852.56
312.787	852.56
313.017	873.56
313.246	884.56
313.476	861.56
313.706	902.56
313.935	855.56
314.165	890.56
314.394	938.56
314.624	948.56
314.853	1024.56
315.083	1039.56
315.312	1036.56
315.542	956.56
315.771	898.56
316.001	907.56
316.23	941.56
316.46	935.56
316.689	890.56
316.919	850.56
317.148	867.56
317.377	863.56
317.607	961.56
317.836	1064.56
318.065	1052.56
318.295	1036.56
318.524	1023.56
318.753	913.56
318.983	951.56
319.212	930.56
319.441	902.56
319.67	902.56
319.9	929.56
320.129	965.56
320.358	1018.56
320.587	1034.56
320.816	1000.56
321.046	983.56
321.275	916.56
321.504	962.56
321.733	1042.56
321.962	999.56
322.191	918.56
322.42	942.56
322.649	911.56
322.878	925.56
323.108	942.56
323.337	971.56
323.566	930.56
323.795	961.56
324.024	986.56
324.253	935.56
324.482	917.56
324.71	871.56
324.939	867.56
325.168	897.56
325.397	919.56
325.626	929.56
325.855	932.56
326.084	947.56
326.313	933.56
326.542	928.56
326.77	972.56
326.999	947.56
327.228	902.56
327.457	862.56
327.686	875.56
327.914	910.56
328.143	922.56
328.372	926.56
328.6	907.56
328.829	926.56
329.058	898.56
329.287	903.56
329.515	928.56
329.744	984.56
329.972	974.56
330.201	1037.56
330.43	1012.56
330.658	971.56
330.887	979.56
331.115	977.56
331.344	1001.56
331.572	945.56
331.801	951.56
332.03	972.56
332.258	953.56
332.486	1006.56
332.715	1027.56
332.943	961.56
333.172	979.56
333.4	1018.56
333.629	1026.56
333.857	1067.56
334.085	1196.56
334.314	1339.56
334.542	1398.56
334.771	1253.56
334.999	1115.56
335.227	1082.56
335.455	1038.56
335.684	1048.56
335.912	1071.56
336.14	1085.56
336.369	1044.56
336.597	985.56
336.825	984.56
337.053	1031.56
337.281	1084.56
337.51	1136.56
337.738	1129.56
337.966	1062.56
338.194	984.56
338.422	955.56
338.65	972.56
338.878	953.56
339.106	939.56
339.334	929.56
339.562	921.56
339.79	938.56
340.018	987.56
340.246	1015.56
340.474	1003.56
340.702	990.56
340.93	995.56
341.158	1018.56
341.386	986.56
341.614	965.56
341.842	971.56
342.07	1001.56
342.298	1023.56
342.526	984.56
342.754	973.56
342.981	972.56
343.209	970.56
343.437	929.56
343.665	961.56
343.893	1006.56
344.12	1057.56
344.348	1037.56
344.576	1016.56
344.804	990.56
345.031	974.56
345.259	964.56
345.487	946.56
345.714	886.56
345.942	903.56
346.17	916.56
346.397	930.56
346.625	916.56
346.853	873.56
347.08	851.56
347.308	904.56
347.535	922.56
347.763	920.56
347.99	909.56
348.218	908.56
348.445	909.56
348.673	937.56
348.9	932.56
349.128	974.56
349.355	1017.56
349.583	976.56
349.81	931.56
350.037	858.56
350.265	849.56
350.492	870.56
350.72	911.56
350.947	912.56
351.174	941.56
351.402	905.56
351.629	882.56
351.856	885.56
352.083	855.56
352.311	844.56
352.538	890.56
352.765	904.56
352.992	926.56
353.22	895.56
353.447	879.56
353.674	894.56
353.901	916.56
354.128	878.56
354.355	903.56
354.583	944.56
354.81	972.56
355.037	954.56
355.264	956.56
355.491	918.56
355.718	928.56
355.945	891.56
356.172	880.56
356.399	881.56
356.626	891.56
356.853	908.56
357.08	1020.56
357.307	1094.56
357.534	1035.56
357.761	938.56
357.988	878.56
358.215	880.56
358.441	869.56
358.668	877.56
358.895	922.56
359.122	956.56
359.349	1031.56
359.576	998.56
359.802	927.56
360.029	859.56
360.256	884.56
360.483	923.56
360.709	961.56
360.936	966.56
361.163	1008.56
361.39	1105.56
361.616	1130.56
361.843	1129.56
362.07	1014.56
362.296	917.56
362.523	909.56
362.749	909.56
362.976	950.56
363.203	932.56
363.429	898.56
363.656	874.56
363.882	982.56
364.109	1035.56
364.335	1068.56
364.562	1012.56
364.788	974.56
365.015	904.56
365.241	906.56
365.468	922.56
365.694	935.56
365.92	1004.56
366.147	934.56
366.373	912.56
366.599	884.56
366.826	878.56
367.052	888.56
367.278	913.56
367.505	902.56
367.731	937.56
367.957	942.56
368.184	986.56
368.41	1050.56
368.636	1059.56
368.862	1056.56
369.089	1068.56
369.315	1008.56
369.541	983.56
369.767	943.56
369.993	926.56
370.219	900.56
370.445	971.56
370.672	1013.56
370.898	1032.56
371.124	1034.56
371.35	952.56
371.576	1022.56
371.802	1014.56
372.028	963.56
372.254	947.56
372.48	951.56
372.706	929.56
372.932	947.56
373.158	922.56
373.384	939.56
373.61	970.56
373.835	1033.56
374.061	1007.56
374.287	960.56
374.513	966.56
374.739	974.56
374.965	978.56
375.191	1007.56
375.416	995.56
375.642	1044.56
375.868	1072.56
376.094	1127.56
376.319	1054.56
376.545	997.56
376.771	1002.56
376.997	1071.56
377.222	1061.56
377.448	1019.56
377.674	1037.56
377.899	1059.56
378.125	1082.56
378.35	1077.56
378.576	966.56
378.802	949.56
379.027	949.56
379.253	987.56
379.478	988.56
379.704	981.56
379.929	948.56
380.155	966.56
380.38	975.56
380.606	975.56
380.831	1017.56
381.057	1054.56
381.282	1040.56
381.507	1024.56
381.733	1110.56
381.958	1122.56
382.184	1044.56
382.409	1005.56
382.634	1013.56
382.86	1009.56
383.085	1013.56
383.31	1050.56
383.535	1169.56
383.761	1211.56
383.986	1139.56
384.211	1094.56
384.436	1128.56
384.662	1160.56
384.887	1190.56
385.112	1149.56
385.337	1158.56
385.562	1104.56
385.787	1116.56
386.013	1159.56
386.238	1142.56
386.463	1184.56
386.688	1243.56
386.913	1286.56
387.138	1259.56
387.363	1174.56
387.588	1178.56
387.813	1172.56
388.038	1154.56
388.263	1221.56
388.488	1129.56
388.713	1056.56
388.938	1070.56
389.163	1061.56
389.387	1111.56
389.612	1117.56
389.837	1128.56
390.062	1119.56
390.287	1106.56
390.512	1112.56
390.736	1114.56
390.961	1110.56
391.186	1060.56
391.411	1096.56
391.636	1143.56
391.86	1127.56
392.085	1117.56
392.31	1096.56
392.534	1101.56
392.759	1140.56
392.984	1110.56
393.208	1151.56
393.433	1199.56
393.658	1194.56
393.882	1196.56
394.107	1172.56
394.331	1116.56
394.556	1099.56
394.78	1154.56
395.005	1170.56
395.229	1244.56
395.454	1286.56
395.678	1278.56
395.903	1217.56
396.127	1200.56
396.352	1208.56
396.576	1262.56
396.801	1227.56
397.025	1256.56
397.249	1238.56
397.474	1217.56
397.698	1202.56
397.922	1241.56
398.147	1344.56
398.371	1318.56
398.595	1329.56
398.82	1266.56
399.044	1323.56
399.268	1386.56
399.492	1428.56
399.717	1485.56
399.941	1480.56
400.165	1458.56
400.389	1406.56
400.613	1473.56
400.837	1656.56
401.062	1814.56
401.286	1524.56
401.51	1442.56
401.734	1484.56
401.958	1416.56
402.182	1318.56
402.406	1290.56
402.63	1257.56
402.854	1274.56
403.078	1290.56
403.302	1297.56
403.526	1302.56
403.75	1369.56
403.974	1343.56
404.198	1360.56
404.422	1445.56
404.645	1462.56
404.869	1395.56
405.093	1314.56
405.317	1288.56
405.541	1324.56
405.765	1332.56
405.988	1356.56
406.212	1396.56
406.436	1410.56
406.66	1442.56
406.883	1464.56
407.107	1646.56
407.331	1788.56
407.555	1870.56
407.778	1659.56
408.002	1465.56
408.226	1410.56
408.449	1385.56
408.673	1378.56
408.896	1347.56
409.12	1380.56
409.344	1383.56
409.567	1346.56
409.791	1355.56
410.014	1376.56
410.238	1458.56
410.461	1522.56
410.685	1363.56
410.908	1319.56
411.132	1356.56
411.355	1337.56
411.578	1326.56
411.802	1343.56
412.025	1361.56
412.249	1323.56
412.472	1321.56
412.695	1292.56
412.919	1252.56
413.142	1297.56
413.365	1280.56
413.589	1316.56
413.812	1426.56
414.035	1436.56
414.258	1316.56
414.482	1313.56
414.705	1296.56
414.928	1259.56
415.151	1242.56
415.374	1294.56
415.597	1323.56
415.821	1308.56
416.044	1346.56
416.267	1339.56
416.49	1239.56
416.713	1283.56
416.936	1322.56
417.159	1354.56
417.382	1328.56
417.605	1318.56
417.828	1318.56
418.051	1340.56
418.274	1286.56
418.497	1230.56
418.72	1270.56
418.943	1294.56
419.166	1318.56
419.389	1378.56
419.611	1256.56
419.834	1282.56
420.057	1297.56
420.28	1278.56
420.503	1274.56
420.726	1296.56
420.948	1288.56
421.171	1264.56
421.394	1251.56
421.617	1315.56
421.839	1334.56
422.062	1303.56
422.285	1262.56
422.507	1261.56
422.73	1237.56
422.953	1233.56
423.175	1201.56
423.398	1249.56
423.621	1278.56
423.843	1283.56
424.066	1357.56
424.288	1354.56
424.511	1403.56
424.733	1358.56
424.956	1202.56
425.178	1223.56
425.401	1259.56
425.623	1260.56
425.846	1274.56
426.068	1312.56
426.291	1344.56
426.513	1319.56
426.735	1332.56
426.958	1436.56
427.18	1451.56
427.402	1399.56
427.625	1447.56
427.847	1354.56
428.069	1264.56
428.292	1235.56
428.514	1225.56
428.736	1184.56
428.958	1198.56
429.181	1270.56
429.403	1483.56
429.625	1734.56
429.847	1421.56
430.069	1300.56
430.292	1454.56
430.514	1436.56
430.736	1359.56
430.958	1379.56
431.18	1267.56
431.402	1210.56
431.624	1198.56
431.846	1179.56
432.068	1090.56
432.29	1129.56
432.512	1171.56
432.734	1225.56
432.956	1240.56
433.178	1332.56
433.4	1308.56
433.622	1275.56
433.844	1238.56
434.066	1184.56
434.287	1220.56
434.509	1176.56
434.731	1254.56
434.953	1340.56
435.175	1348.56
435.397	1276.56
435.618	1256.56
435.84	1221.56
436.062	1224.56
436.284	1273.56
436.505	1290.56
436.727	1291.56
436.949	1239.56
437.17	1214.56
437.392	1230.56
437.614	1202.56
437.835	1150.56
438.057	1191.56
438.278	1258.56
438.5	1205.56
438.721	1210.56
438.943	1216.56
439.165	1250.56
439.386	1175.56
439.608	1243.56
439.829	1210.56
440.05	1226.56
440.272	1239.56
440.493	1264.56
440.715	1254.56
440.936	1341.56
441.158	1412.56
441.379	1387.56
441.6	1358.56
441.822	1361.56
442.043	1316.56
442.264	1311.56
442.486	1238.56
442.707	1258.56
442.928	1268.56
443.149	1319.56
443.371	1373.56
443.592	1394.56
443.813	1378.56
444.034	1333.56
444.255	1326.56
444.476	1350.56
444.698	1385.56
444.919	1383.56
445.14	1439.56
445.361	1428.56
445.582	1408.56
445.803	1364.56
446.024	1376.56
446.245	1417.56
446.466	1339.56
446.687	1314.56
446.908	1319.56
447.129	1261.56
447.35	1299.56
447.571	1280.56
447.792	1232.56
448.013	1217.56
448.234	1236.56
448.455	1311.56
448.675	1295.56
448.896	1196.56
449.117	1194.56
449.338	1267.56
449.559	1302.56
449.779	1323.56
450	1398.56
450.221	1408.56
450.442	1398.56
450.662	1256.56
450.883	1176.56
451.104	1156.56
451.324	1201.56
451.545	1225.56
451.766	1166.56
451.986	1137.56
452.207	1110.56
452.428	1076.56
452.648	1056.56
452.869	1104.56
453.089	1127.56
453.31	1142.56
453.53	1129.56
453.751	1130.56
453.971	1055.56
454.192	1072.56
454.412	1138.56
454.633	1126.56
454.853	1118.56
455.073	1076.56
455.294	1068.56
455.514	1054.56
455.734	1022.56
455.955	1063.56
456.175	1040.56
456.395	1073.56
456.616	1071.56
456.836	1082.56
457.056	1070.56
457.276	1077.56
457.497	1044.56
457.717	1006.56
457.937	1061.56
458.157	1018.56
458.377	1044.56
458.598	1028.56
458.818	1020.56
459.038	1119.56
459.258	1127.56
459.478	1145.56
459.698	1080.56
459.918	1138.56
460.138	1235.56
460.358	1235.56
460.578	1263.56
460.798	1266.56
461.018	1335.56
461.238	1247.56
461.458	1273.56
461.678	1235.56
461.898	1212.56
462.118	1209.56
462.338	1211.56
462.558	1260.56
462.777	1206.56
462.997	1271.56
463.217	1361.56
463.437	1301.56
463.657	1291.56
463.876	1245.56
464.096	1262.56
464.316	1223.56
464.536	1275.56
464.755	1282.56
464.975	1306.56
465.195	1262.56
465.414	1282.56
465.634	1280.56
465.854	1250.56
466.073	1375.56
466.293	1319.56
466.512	1195.56
466.732	1200.56
466.951	1248.56
467.171	1224.56
467.391	1176.56
467.61	1189.56
467.829	1208.56
468.049	1312.56
468.268	1456.56
468.488	1322.56
468.707	1222.56
468.927	1225.56
469.146	1176.56
469.365	1193.56
469.585	1234.56
469.804	1191.56
470.023	1227.56
470.243	1201.56
470.462	1208.56
470.681	1186.56
470.901	1230.56
471.12	1222.56
471.339	1207.56
471.558	1192.56
471.777	1191.56
471.997	1194.56
472.216	1163.56
472.435	1105.56
472.654	1116.56
472.873	1150.56
473.092	1211.56
473.311	1165.56
473.53	1129.56
473.749	1114.56
473.968	1154.56
474.187	1173.56
474.406	1222.56
474.625	1198.56
474.844	1209.56
475.063	1188.56
475.282	1211.56
475.501	1187.56
475.72	1214.56
475.939	1267.56
476.158	1246.56
476.377	1219.56
476.596	1180.56
476.814	1204.56
477.033	1194.56
477.252	1248.56
477.471	1293.56
477.69	1268.56
477.908	1291.56
478.127	1321.56
478.346	1386.56
478.564	1373.56
478.783	1385.56
479.002	1423.56
479.22	1418.56
479.439	1438.56
479.658	1541.56
479.876	1463.56
480.095	1366.56
480.313	1297.56
480.532	1300.56
480.751	1293.56
480.969	1280.56
481.188	1229.56
481.406	1224.56
481.624	1198.56
481.843	1291.56
482.061	1266.56
482.28	1306.56
482.498	1323.56
482.717	1310.56
482.935	1313.56
483.153	1307.56
483.372	1401.56
483.59	1346.56
483.808	1334.56
484.027	1362.56
484.245	1443.56
484.463	1770.56
484.681	1870.56
484.9	1455.56
485.118	1367.56
485.336	1323.56
485.554	1300.56
485.772	1369.56
485.99	1339.56
486.209	1364.56
486.427	1348.56
486.645	1370.56
486.863	1405.56
487.081	1462.56
487.299	1422.56
487.517	1392.56
487.735	1439.56
487.953	1465.56
488.171	1467.56
488.389	1443.56
488.607	1451.56
488.825	1576.56
489.043	1537.56
489.261	1371.56
489.479	1445.56
489.696	1430.56
489.914	1420.56
490.132	1375.56
490.35	1440.56
490.568	1530.56
490.786	1511.56
491.003	1434.56
491.221	1518.56
491.439	1569.56
491.657	1547.56
491.874	1614.56
492.092	1651.56
492.31	1658.56
492.527	1660.56
492.745	1613.56
492.963	1558.56
493.18	1626.56
493.398	1670.56
493.615	1658.56
493.833	1580.56
