Data from WStandard_LampEnergy5.5LIBS07252019.E.O._I.C._HRD10591_16-08-39-920.txt Node
Date: Thu Jul 25 16:08:39 EDT 2019
User: cochatt
Spectrometer: HR+D1059
Trigger mode: 1
Integration Time (sec): 1.000000E-1
Scans to average: 1
Electric dark correction enabled: true
Nonlinearity correction enabled: false
Boxcar width: 0
XAxis mode: Wavelengths
Number of Pixels in Spectrum: 2048
>>>>>Begin Spectral Data<<<<<
223.165	-17.31
223.4	-17.31
223.635	-17.31
223.869	-20.31
224.104	-28.31
224.338	-12.31
224.573	-17.31
224.808	-16.31
225.042	5.69
225.277	-3.31
225.511	4.69
225.746	2.69
225.98	4.69
226.215	11.69
226.449	10.69
226.683	23.69
226.918	26.69
227.152	24.69
227.387	29.69
227.621	29.69
227.856	40.69
228.09	36.69
228.324	34.69
228.559	64.69
228.793	146.69
229.027	363.69
229.262	364.69
229.496	350.69
229.73	385.69
229.964	438.69
230.199	454.69
230.433	462.69
230.667	480.69
230.901	510.69
231.136	471.69
231.37	462.69
231.604	448.69
231.838	458.69
232.072	448.69
232.306	430.69
232.541	450.69
232.775	527.69
233.009	574.69
233.243	571.69
233.477	532.69
233.711	542.69
233.945	545.69
234.179	507.69
234.413	579.69
234.647	623.69
234.881	561.69
235.115	520.69
235.349	540.69
235.583	545.69
235.817	552.69
236.051	531.69
236.285	556.69
236.519	583.69
236.753	683.69
236.987	688.69
237.221	648.69
237.455	721.69
237.689	726.69
237.922	636.69
238.156	616.69
238.39	662.69
238.624	697.69
238.858	736.69
239.091	768.69
239.325	802.69
239.559	898.69
239.793	960.69
240.027	1001.69
240.26	1000.69
240.494	745.69
240.728	697.69
240.961	709.69
241.195	727.69
241.429	816.69
241.662	784.69
241.896	757.69
242.13	748.69
242.363	795.69
242.597	893.69
242.83	849.69
243.064	858.69
243.298	919.69
243.531	921.69
243.765	896.69
243.998	940.69
244.232	785.69
244.465	766.69
244.699	741.69
244.932	886.69
245.166	1042.69
245.399	955.69
245.633	946.69
245.866	872.69
246.099	902.69
246.333	918.69
246.566	927.69
246.8	1018.69
247.033	1152.69
247.266	1054.69
247.5	1020.69
247.733	1028.69
247.966	1097.69
248.2	1211.69
248.433	1127.69
248.666	1187.69
248.899	1301.69
249.133	1472.69
249.366	1682.69
249.599	1386.69
249.832	1193.69
250.066	1255.69
250.299	1255.69
250.532	1194.69
250.765	1042.69
250.998	1098.69
251.231	1165.69
251.465	1225.69
251.698	1154.69
251.931	1138.69
252.164	1156.69
252.397	1217.69
252.63	1210.69
252.863	1049.69
253.096	1035.69
253.329	1129.69
253.562	1168.69
253.795	1230.69
254.028	1240.69
254.261	1169.69
254.494	1160.69
254.727	1079.69
254.96	1119.69
255.193	1209.69
255.426	1385.69
255.659	1573.69
255.892	1660.69
256.124	1370.69
256.357	1296.69
256.59	1401.69
256.823	1410.69
257.056	1364.69
257.289	1630.69
257.521	1823.69
257.754	1674.69
257.987	1576.69
258.22	1743.69
258.452	1684.69
258.685	1373.69
258.918	1327.69
259.151	1372.69
259.383	1323.69
259.616	1164.69
259.849	1201.69
260.081	1348.69
260.314	1484.69
260.547	1658.69
260.779	1663.69
261.012	1570.69
261.244	1366.69
261.477	1313.69
261.71	1411.69
261.942	1363.69
262.175	1321.69
262.407	1418.69
262.64	1381.69
262.872	1256.69
263.105	1204.69
263.337	1274.69
263.57	1262.69
263.802	1270.69
264.035	1193.69
264.267	1146.69
264.499	1103.69
264.732	1160.69
264.964	1290.69
265.197	1290.69
265.429	1359.69
265.661	1531.69
265.894	1716.69
266.126	1792.69
266.358	1543.69
266.591	1583.69
266.823	1791.69
267.055	1589.69
267.287	1547.69
267.52	1519.69
267.752	1495.69
267.984	1499.69
268.216	1587.69
268.448	1613.69
268.681	1595.69
268.913	1479.69
269.145	1383.69
269.377	1334.69
269.609	1484.69
269.841	1695.69
270.073	1991.69
270.306	2180.69
270.538	2390.69
270.77	1976.69
271.002	1703.69
271.234	1618.69
271.466	1575.69
271.698	1767.69
271.93	2115.69
272.162	2153.69
272.394	1917.69
272.626	1886.69
272.858	1624.69
273.09	1415.69
273.322	1412.69
273.553	1338.69
273.785	1354.69
274.017	1395.69
274.249	1502.69
274.481	1534.69
274.713	1411.69
274.945	1340.69
275.176	1410.69
275.408	1367.69
275.64	1351.69
275.872	1334.69
276.104	1406.69
276.335	1614.69
276.567	1837.69
276.799	1863.69
277.031	1652.69
277.262	1601.69
277.494	1610.69
277.726	1807.69
277.957	1805.69
278.189	1634.69
278.421	1442.69
278.652	1461.69
278.884	1430.69
279.115	1442.69
279.347	1468.69
279.579	1437.69
279.81	1410.69
280.042	1587.69
280.273	1721.69
280.505	1720.69
280.736	1755.69
280.968	1668.69
281.199	1451.69
281.431	1426.69
281.662	1433.69
281.894	1440.69
282.125	1437.69
282.356	1484.69
282.588	1507.69
282.819	1493.69
283.051	1610.69
283.282	1751.69
283.513	1703.69
283.745	1491.69
283.976	1367.69
284.207	1400.69
284.439	1434.69
284.67	1441.69
284.901	1455.69
285.132	1496.69
285.364	1508.69
285.595	1471.69
285.826	1518.69
286.057	1459.69
286.288	1464.69
286.52	1521.69
286.751	1663.69
286.982	1661.69
287.213	1553.69
287.444	1410.69
287.675	1406.69
287.906	1494.69
288.138	1622.69
288.369	1557.69
288.6	1496.69
288.831	1443.69
289.062	1435.69
289.293	1474.69
289.524	1499.69
289.755	1520.69
289.986	1558.69
290.217	1408.69
290.448	1429.69
290.679	1499.69
290.91	1450.69
291.141	1510.69
291.371	1595.69
291.602	1586.69
291.833	1556.69
292.064	1608.69
292.295	1576.69
292.526	1652.69
292.757	1663.69
292.987	1572.69
293.218	1530.69
293.449	1651.69
293.68	1826.69
293.91	1974.69
294.141	1875.69
294.372	1737.69
294.603	1768.69
294.833	1902.69
295.064	1748.69
295.295	1572.69
295.525	1560.69
295.756	1423.69
295.987	1356.69
296.217	1412.69
296.448	1495.69
296.679	1484.69
296.909	1470.69
297.14	1450.69
297.37	1486.69
297.601	1572.69
297.831	1658.69
298.062	1718.69
298.292	1563.69
298.523	1458.69
298.753	1446.69
298.984	1545.69
299.214	1497.69
299.445	1513.69
299.675	1578.69
299.905	1573.69
300.136	1546.69
300.366	1491.69
300.597	1477.69
300.827	1446.69
301.057	1524.69
301.288	1623.69
301.518	1607.69
301.748	1608.69
301.979	1684.69
302.209	1697.69
302.439	1831.69
302.669	1880.69
302.9	1814.69
303.13	1603.69
303.36	1642.69
303.59	1619.69
303.82	1613.69
304.051	1601.69
304.281	1632.69
304.511	1593.69
304.741	1666.69
304.971	1871.69
305.201	2024.69
305.431	1922.69
305.661	1571.69
305.891	1430.69
306.121	1461.69
306.352	1445.69
306.582	1557.69
306.812	1618.69
307.042	1783.69
307.272	1738.69
307.502	1780.69
307.731	1883.69
307.961	2048.69
308.191	1931.69
308.421	1678.69
308.651	1615.69
308.881	1540.69
309.111	1542.69
309.341	1502.69
309.571	1541.69
309.8	1558.69
310.03	1525.69
310.26	1514.69
310.49	1546.69
310.72	1578.69
310.949	1595.69
311.179	1650.69
311.409	1620.69
311.639	1555.69
311.868	1539.69
312.098	1563.69
312.328	1613.69
312.557	1578.69
312.787	1573.69
313.017	1638.69
313.246	1657.69
313.476	1596.69
313.706	1656.69
313.935	1621.69
314.165	1646.69
314.394	1698.69
314.624	1753.69
314.853	1890.69
315.083	1940.69
315.312	2040.69
315.542	1864.69
315.771	1660.69
316.001	1662.69
316.23	1734.69
316.46	1737.69
316.689	1742.69
316.919	1618.69
317.148	1601.69
317.377	1591.69
317.607	1690.69
317.836	1882.69
318.065	1985.69
318.295	1858.69
318.524	1803.69
318.753	1752.69
318.983	1733.69
319.212	1685.69
319.441	1696.69
319.67	1648.69
319.9	1693.69
320.129	1812.69
320.358	1842.69
320.587	1914.69
320.816	1861.69
321.046	1848.69
321.275	1721.69
321.504	1796.69
321.733	1950.69
321.962	1870.69
322.191	1730.69
322.42	1723.69
322.649	1688.69
322.878	1683.69
323.108	1696.69
323.337	1761.69
323.566	1781.69
323.795	1730.69
324.024	1739.69
324.253	1747.69
324.482	1715.69
324.71	1649.69
324.939	1596.69
325.168	1628.69
325.397	1716.69
325.626	1805.69
325.855	1752.69
326.084	1705.69
326.313	1678.69
326.542	1710.69
326.77	1789.69
326.999	1768.69
327.228	1680.69
327.457	1577.69
327.686	1595.69
327.914	1644.69
328.143	1706.69
328.372	1699.69
328.6	1703.69
328.829	1680.69
329.058	1620.69
329.287	1670.69
329.515	1718.69
329.744	1744.69
329.972	1816.69
330.201	1871.69
330.43	1818.69
330.658	1812.69
330.887	1817.69
331.115	1793.69
331.344	1814.69
331.572	1766.69
331.801	1778.69
332.03	1794.69
332.258	1808.69
332.486	1806.69
332.715	1833.69
332.943	1851.69
333.172	1767.69
333.4	1807.69
333.629	1818.69
333.857	1932.69
334.085	2158.69
334.314	2342.69
334.542	2639.69
334.771	2491.69
334.999	2166.69
335.227	2009.69
335.455	1915.69
335.684	1893.69
335.912	1958.69
336.14	2054.69
336.369	1977.69
336.597	1811.69
336.825	1805.69
337.053	1846.69
337.281	1942.69
337.51	2052.69
337.738	2133.69
337.966	2015.69
338.194	1862.69
338.422	1812.69
338.65	1735.69
338.878	1776.69
339.106	1756.69
339.334	1690.69
339.562	1685.69
339.79	1695.69
340.018	1806.69
340.246	1872.69
340.474	1931.69
340.702	1851.69
340.93	1843.69
341.158	1846.69
341.386	1828.69
341.614	1779.69
341.842	1794.69
342.07	1743.69
342.298	1784.69
342.526	1770.69
342.754	1760.69
342.981	1711.69
343.209	1792.69
343.437	1755.69
343.665	1734.69
343.893	1828.69
344.12	1920.69
344.348	1924.69
344.576	1857.69
344.804	1747.69
345.031	1730.69
345.259	1792.69
345.487	1714.69
345.714	1641.69
345.942	1598.69
346.17	1626.69
346.397	1660.69
346.625	1702.69
346.853	1632.69
347.08	1562.69
347.308	1607.69
347.535	1658.69
347.763	1710.69
347.99	1654.69
348.218	1610.69
348.445	1586.69
348.673	1659.69
348.9	1675.69
349.128	1728.69
349.355	1785.69
349.583	1740.69
349.81	1692.69
350.037	1567.69
350.265	1530.69
350.492	1568.69
350.72	1615.69
350.947	1657.69
351.174	1701.69
351.402	1639.69
351.629	1549.69
351.856	1518.69
352.083	1531.69
352.311	1573.69
352.538	1619.69
352.765	1638.69
352.992	1706.69
353.22	1641.69
353.447	1570.69
353.674	1602.69
353.901	1611.69
354.128	1589.69
354.355	1620.69
354.583	1624.69
354.81	1693.69
355.037	1669.69
355.264	1672.69
355.491	1601.69
355.718	1662.69
355.945	1644.69
356.172	1583.69
356.399	1592.69
356.626	1588.69
356.853	1582.69
357.08	1739.69
357.307	1910.69
357.534	1942.69
357.761	1677.69
357.988	1584.69
358.215	1537.69
358.441	1554.69
358.668	1552.69
358.895	1563.69
359.122	1651.69
359.349	1797.69
359.576	1810.69
359.802	1665.69
360.029	1597.69
360.256	1548.69
360.483	1572.69
360.709	1630.69
360.936	1684.69
361.163	1699.69
361.39	1866.69
361.616	2000.69
361.843	1976.69
362.07	1894.69
362.296	1658.69
362.523	1589.69
362.749	1583.69
362.976	1607.69
363.203	1698.69
363.429	1632.69
363.656	1562.69
363.882	1579.69
364.109	1749.69
364.335	1912.69
364.562	1817.69
364.788	1723.69
365.015	1646.69
365.241	1616.69
365.468	1620.69
365.694	1702.69
365.92	1760.69
366.147	1703.69
366.373	1613.69
366.599	1590.69
366.826	1549.69
367.052	1589.69
367.278	1609.69
367.505	1591.69
367.731	1692.69
367.957	1652.69
368.184	1705.69
368.41	1799.69
368.636	1827.69
368.862	1808.69
369.089	1818.69
369.315	1806.69
369.541	1698.69
369.767	1667.69
369.993	1612.69
370.219	1608.69
370.445	1655.69
370.672	1762.69
370.898	1836.69
371.124	1819.69
371.35	1683.69
371.576	1744.69
371.802	1804.69
372.028	1768.69
372.254	1695.69
372.48	1632.69
372.706	1602.69
372.932	1606.69
373.158	1655.69
373.384	1677.69
373.61	1705.69
373.835	1765.69
374.061	1678.69
374.287	1678.69
374.513	1702.69
374.739	1727.69
374.965	1764.69
375.191	1705.69
375.416	1742.69
375.642	1774.69
375.868	1854.69
376.094	1910.69
376.319	1828.69
376.545	1720.69
376.771	1671.69
376.997	1821.69
377.222	1794.69
377.448	1730.69
377.674	1754.69
377.899	1740.69
378.125	1796.69
378.35	1855.69
378.576	1685.69
378.802	1642.69
379.027	1642.69
379.253	1667.69
379.478	1719.69
379.704	1714.69
379.929	1714.69
380.155	1720.69
380.38	1697.69
380.606	1739.69
380.831	1723.69
381.057	1789.69
381.282	1820.69
381.507	1751.69
381.733	1883.69
381.958	1946.69
382.184	1813.69
382.409	1744.69
382.634	1738.69
382.86	1794.69
383.085	1815.69
383.31	1822.69
383.535	1964.69
383.761	2087.69
383.986	1987.69
384.211	1943.69
384.436	1882.69
384.662	1955.69
384.887	2068.69
385.112	1947.69
385.337	1998.69
385.562	1929.69
385.787	1930.69
386.013	1954.69
386.238	2034.69
386.463	1990.69
386.688	2077.69
386.913	2212.69
387.138	2198.69
387.363	2001.69
387.588	1976.69
387.813	1961.69
388.038	2020.69
388.263	2088.69
388.488	2034.69
388.713	1821.69
388.938	1861.69
389.163	1868.69
389.387	1903.69
389.612	1930.69
389.837	1976.69
390.062	1973.69
390.287	1968.69
390.512	1960.69
390.736	1932.69
390.961	1858.69
391.186	1867.69
391.411	1938.69
391.636	1940.69
391.86	1960.69
392.085	1971.69
392.31	1916.69
392.534	1907.69
392.759	1979.69
392.984	1967.69
393.208	1935.69
393.433	2018.69
393.658	2014.69
393.882	2111.69
394.107	1993.69
394.331	1924.69
394.556	1899.69
394.78	2002.69
395.005	2056.69
395.229	2109.69
395.454	2217.69
395.678	2198.69
395.903	2169.69
396.127	2038.69
396.352	2078.69
396.576	2104.69
396.801	2121.69
397.025	2065.69
397.249	2091.69
397.474	2096.69
397.698	2087.69
397.922	2140.69
398.147	2226.69
398.371	2342.69
398.595	2297.69
398.82	2274.69
399.044	2281.69
399.268	2356.69
399.492	2466.69
399.717	2585.69
399.941	2668.69
400.165	2574.69
400.389	2498.69
400.613	2440.69
400.837	2713.69
401.062	3058.69
401.286	2653.69
401.51	2383.69
401.734	2544.69
401.958	2450.69
402.182	2296.69
402.406	2250.69
402.63	2208.69
402.854	2238.69
403.078	2202.69
403.302	2259.69
403.526	2318.69
403.75	2318.69
403.974	2351.69
404.198	2301.69
404.422	2400.69
404.645	2476.69
404.869	2470.69
405.093	2236.69
405.317	2231.69
405.541	2316.69
405.765	2344.69
405.988	2291.69
406.212	2322.69
406.436	2368.69
406.66	2452.69
406.883	2498.69
407.107	2768.69
407.331	2962.69
407.555	3253.69
407.778	2994.69
408.002	2522.69
408.226	2432.69
408.449	2466.69
408.673	2398.69
408.896	2364.69
409.12	2416.69
409.344	2347.69
409.567	2294.69
409.791	2325.69
410.014	2388.69
410.238	2452.69
410.461	2625.69
410.685	2392.69
410.908	2228.69
411.132	2256.69
411.355	2282.69
411.578	2264.69
411.802	2274.69
412.025	2306.69
412.249	2256.69
412.472	2186.69
412.695	2230.69
412.919	2240.69
413.142	2192.69
413.365	2222.69
413.589	2283.69
413.812	2321.69
414.035	2415.69
414.258	2243.69
414.482	2195.69
414.705	2201.69
414.928	2161.69
415.151	2197.69
415.374	2218.69
415.597	2209.69
415.821	2245.69
416.044	2367.69
416.267	2355.69
416.49	2136.69
416.713	2123.69
416.936	2180.69
417.159	2270.69
417.382	2324.69
417.605	2158.69
417.828	2215.69
418.051	2272.69
418.274	2197.69
418.497	2106.69
418.72	2138.69
418.943	2082.69
419.166	2257.69
419.389	2377.69
419.611	2222.69
419.834	2219.69
420.057	2214.69
420.28	2108.69
420.503	2108.69
420.726	2181.69
420.948	2122.69
421.171	2078.69
421.394	2108.69
421.617	2222.69
421.839	2186.69
422.062	2154.69
422.285	2072.69
422.507	2098.69
422.73	2043.69
422.953	2025.69
423.175	2046.69
423.398	2146.69
423.621	2111.69
423.843	2144.69
424.066	2134.69
424.288	2190.69
424.511	2268.69
424.733	2198.69
424.956	1961.69
425.178	2027.69
425.401	2057.69
425.623	2084.69
425.846	2044.69
426.068	2171.69
426.291	2170.69
426.513	2129.69
426.735	2145.69
426.958	2253.69
427.18	2423.69
427.402	2200.69
427.625	2288.69
427.847	2331.69
428.069	2145.69
428.292	2085.69
428.514	2019.69
428.736	2038.69
428.958	2059.69
429.181	2057.69
429.403	2343.69
429.625	2910.69
429.847	2530.69
430.069	2116.69
430.292	2326.69
430.514	2388.69
430.736	2249.69
430.958	2339.69
431.18	2218.69
431.402	2046.69
431.624	2058.69
431.846	2066.69
432.068	1994.69
432.29	2070.69
432.512	2024.69
432.734	2070.69
432.956	2130.69
433.178	2254.69
433.4	2216.69
433.622	2194.69
433.844	2106.69
434.066	1999.69
434.287	2069.69
434.509	2124.69
434.731	2192.69
434.953	2295.69
435.175	2314.69
435.397	2154.69
435.618	2139.69
435.84	2198.69
436.062	2170.69
436.284	2154.69
436.505	2167.69
436.727	2228.69
436.949	2116.69
437.17	2056.69
437.392	2036.69
437.614	2122.69
437.835	2069.69
438.057	2159.69
438.278	2241.69
438.5	2113.69
438.721	2051.69
438.943	2063.69
439.165	2058.69
439.386	2028.69
439.608	2051.69
439.829	2038.69
440.05	2038.69
440.272	2027.69
440.493	1995.69
440.715	2049.69
440.936	2146.69
441.158	2382.69
441.379	2326.69
441.6	2275.69
441.822	2262.69
442.043	2189.69
442.264	2165.69
442.486	2038.69
442.707	2034.69
442.928	2035.69
443.149	2138.69
443.371	2230.69
443.592	2279.69
443.813	2195.69
444.034	2248.69
444.255	2269.69
444.476	2260.69
444.698	2340.69
444.919	2254.69
445.14	2404.69
445.361	2370.69
445.582	2439.69
445.803	2347.69
446.024	2246.69
446.245	2342.69
446.466	2238.69
446.687	2114.69
446.908	2097.69
447.129	2047.69
447.35	2123.69
447.571	2126.69
447.792	2038.69
448.013	1982.69
448.234	2061.69
448.455	2160.69
448.675	2118.69
448.896	1974.69
449.117	1958.69
449.338	1966.69
449.559	2064.69
449.779	2196.69
450	2387.69
450.221	2597.69
450.442	2546.69
450.662	2196.69
450.883	1957.69
451.104	1916.69
451.324	1977.69
451.545	2033.69
451.766	2054.69
451.986	1890.69
452.207	1908.69
452.428	1891.69
452.648	1820.69
452.869	1862.69
453.089	1984.69
453.31	1968.69
453.53	2062.69
453.751	2022.69
453.971	1869.69
454.192	1896.69
454.412	2064.69
454.633	1989.69
454.853	1885.69
455.073	1770.69
455.294	1786.69
455.514	1803.69
455.734	1810.69
455.955	1835.69
456.175	1859.69
456.395	1846.69
456.616	1904.69
456.836	1906.69
457.056	1880.69
457.276	1888.69
457.497	1825.69
457.717	1795.69
457.937	1769.69
458.157	1888.69
458.377	1818.69
458.598	1826.69
458.818	1833.69
459.038	1970.69
459.258	2090.69
459.478	2070.69
459.698	1989.69
459.918	2077.69
460.138	2169.69
460.358	2158.69
460.578	2167.69
460.798	2232.69
461.018	2401.69
461.238	2298.69
461.458	2167.69
461.678	2214.69
461.898	2162.69
462.118	2075.69
462.338	2202.69
462.558	2169.69
462.777	2173.69
462.997	2302.69
463.217	2439.69
463.437	2426.69
463.657	2238.69
463.876	2226.69
464.096	2147.69
464.316	2174.69
464.536	2243.69
464.755	2273.69
464.975	2335.69
465.195	2208.69
465.414	2337.69
465.634	2337.69
465.854	2156.69
466.073	2312.69
466.293	2265.69
466.512	2048.69
466.732	1992.69
466.951	2102.69
467.171	2064.69
467.391	2031.69
467.61	1961.69
467.829	1982.69
468.049	2147.69
468.268	2364.69
468.488	2227.69
468.707	2129.69
468.927	2073.69
469.146	2000.69
469.365	1986.69
469.585	1981.69
469.804	1956.69
470.023	1975.69
470.243	2028.69
470.462	1995.69
470.681	1947.69
470.901	2038.69
471.12	2008.69
471.339	2012.69
471.558	1925.69
471.777	1915.69
471.997	1947.69
472.216	1967.69
472.435	1911.69
472.654	1914.69
472.873	1990.69
473.092	2121.69
473.311	2035.69
473.53	1924.69
473.749	1902.69
473.968	1986.69
474.187	2074.69
474.406	2166.69
474.625	2068.69
474.844	2026.69
475.063	2018.69
475.282	2064.69
475.501	2029.69
475.72	2026.69
475.939	2154.69
476.158	2086.69
476.377	2040.69
476.596	2028.69
476.814	2099.69
477.033	2108.69
477.252	2202.69
477.471	2223.69
477.69	2120.69
477.908	2110.69
478.127	2217.69
478.346	2426.69
478.564	2439.69
478.783	2400.69
479.002	2486.69
479.22	2398.69
479.439	2484.69
479.658	2793.69
479.876	2805.69
480.095	2459.69
480.313	2295.69
480.532	2241.69
480.751	2227.69
480.969	2325.69
481.188	2224.69
481.406	2251.69
481.624	2216.69
481.843	2214.69
482.061	2282.69
482.28	2281.69
482.498	2321.69
482.717	2320.69
482.935	2194.69
483.153	2276.69
483.372	2242.69
483.59	2194.69
483.808	2242.69
484.027	2269.69
484.245	2433.69
484.463	2798.69
484.681	3151.69
484.9	2485.69
485.118	2334.69
485.336	2270.69
485.554	2375.69
485.772	2500.69
485.99	2423.69
486.209	2500.69
486.427	2437.69
486.645	2398.69
486.863	2379.69
487.081	2428.69
487.299	2475.69
487.517	2426.69
