Data from WStandard_LampEnergy5.5LIBS07252019.E.O._I.C._HRD10591_16-09-30-920.txt Node
Date: Thu Jul 25 16:09:30 EDT 2019
User: cochatt
Spectrometer: HR+D1059
Trigger mode: 1
Integration Time (sec): 1.000000E-1
Scans to average: 1
Electric dark correction enabled: true
Nonlinearity correction enabled: false
Boxcar width: 0
XAxis mode: Wavelengths
Number of Pixels in Spectrum: 2048
>>>>>Begin Spectral Data<<<<<
223.165	-14.56
223.4	-14.56
223.635	-14.56
223.869	-28.56
224.104	-24.56
224.338	-14.56
224.573	1.44
224.808	-15.56
225.042	-15.56
225.277	-5.56
225.511	-5.56
225.746	2.44
225.98	10.44
226.215	5.44
226.449	12.44
226.683	14.44
226.918	31.44
227.152	46.44
227.387	32.44
227.621	41.44
227.856	37.44
228.09	44.44
228.324	36.44
228.559	63.44
228.793	149.44
229.027	348.44
229.262	383.44
229.496	367.44
229.73	392.44
229.964	413.44
230.199	455.44
230.433	459.44
230.667	479.44
230.901	517.44
231.136	471.44
231.37	461.44
231.604	437.44
231.838	454.44
232.072	466.44
232.306	435.44
232.541	450.44
232.775	534.44
233.009	629.44
233.243	595.44
233.477	517.44
233.711	524.44
233.945	543.44
234.179	532.44
234.413	580.44
234.647	632.44
234.881	573.44
235.115	531.44
235.349	533.44
235.583	530.44
235.817	546.44
236.051	525.44
236.285	532.44
236.519	589.44
236.753	628.44
236.987	645.44
237.221	649.44
237.455	736.44
237.689	708.44
237.922	642.44
238.156	629.44
238.39	646.44
238.624	700.44
238.858	709.44
239.091	751.44
239.325	803.44
239.559	883.44
239.793	931.44
240.027	1012.44
240.26	1018.44
240.494	746.44
240.728	711.44
240.961	711.44
241.195	726.44
241.429	804.44
241.662	788.44
241.896	737.44
242.13	752.44
242.363	845.44
242.597	891.44
242.83	863.44
243.064	872.44
243.298	937.44
243.531	924.44
243.765	907.44
243.998	902.44
244.232	789.44
244.465	779.44
244.699	789.44
244.932	915.44
245.166	994.44
245.399	959.44
245.633	892.44
245.866	874.44
246.099	938.44
246.333	913.44
246.566	963.44
246.8	1020.44
247.033	1131.44
247.266	1069.44
247.5	999.44
247.733	1060.44
247.966	1066.44
248.2	1219.44
248.433	1169.44
248.666	1190.44
248.899	1278.44
249.133	1516.44
249.366	1739.44
249.599	1380.44
249.832	1211.44
250.066	1217.44
250.299	1282.44
250.532	1153.44
250.765	1047.44
250.998	1120.44
251.231	1177.44
251.465	1204.44
251.698	1149.44
251.931	1151.44
252.164	1179.44
252.397	1240.44
252.63	1264.44
252.863	1079.44
253.096	1043.44
253.329	1107.44
253.562	1136.44
253.795	1249.44
254.028	1254.44
254.261	1126.44
254.494	1138.44
254.727	1107.44
254.96	1136.44
255.193	1215.44
255.426	1362.44
255.659	1587.44
255.892	1660.44
256.124	1371.44
256.357	1293.44
256.59	1422.44
256.823	1403.44
257.056	1380.44
257.289	1665.44
257.521	1871.44
257.754	1667.44
257.987	1544.44
258.22	1759.44
258.452	1705.44
258.685	1384.44
258.918	1317.44
259.151	1337.44
259.383	1310.44
259.616	1117.44
259.849	1218.44
260.081	1340.44
260.314	1504.44
260.547	1657.44
260.779	1701.44
261.012	1563.44
261.244	1371.44
261.477	1315.44
261.71	1411.44
261.942	1396.44
262.175	1327.44
262.407	1425.44
262.64	1378.44
262.872	1295.44
263.105	1233.44
263.337	1254.44
263.57	1266.44
263.802	1283.44
264.035	1238.44
264.267	1139.44
264.499	1106.44
264.732	1194.44
264.964	1244.44
265.197	1288.44
265.429	1358.44
265.661	1516.44
265.894	1661.44
266.126	1763.44
266.358	1539.44
266.591	1604.44
266.823	1818.44
267.055	1578.44
267.287	1541.44
267.52	1530.44
267.752	1514.44
267.984	1506.44
268.216	1599.44
268.448	1667.44
268.681	1613.44
268.913	1494.44
269.145	1393.44
269.377	1347.44
269.609	1492.44
269.841	1735.44
270.073	1988.44
270.306	2190.44
270.538	2370.44
270.77	1977.44
271.002	1675.44
271.234	1607.44
271.466	1572.44
271.698	1768.44
271.93	2125.44
272.162	2154.44
272.394	1954.44
272.626	1850.44
272.858	1652.44
273.09	1441.44
273.322	1413.44
273.553	1334.44
273.785	1362.44
274.017	1421.44
274.249	1539.44
274.481	1546.44
274.713	1427.44
274.945	1389.44
275.176	1383.44
275.408	1404.44
275.64	1364.44
275.872	1340.44
276.104	1411.44
276.335	1625.44
276.567	1799.44
276.799	1892.44
277.031	1700.44
277.262	1580.44
277.494	1666.44
277.726	1855.44
277.957	1810.44
278.189	1667.44
278.421	1511.44
278.652	1455.44
278.884	1468.44
279.115	1430.44
279.347	1498.44
279.579	1410.44
279.81	1410.44
280.042	1587.44
280.273	1757.44
280.505	1689.44
280.736	1731.44
280.968	1714.44
281.199	1473.44
281.431	1433.44
281.662	1459.44
281.894	1431.44
282.125	1443.44
282.356	1523.44
282.588	1524.44
282.819	1506.44
283.051	1642.44
283.282	1736.44
283.513	1756.44
283.745	1541.44
283.976	1417.44
284.207	1415.44
284.439	1471.44
284.67	1474.44
284.901	1514.44
285.132	1544.44
285.364	1510.44
285.595	1491.44
285.826	1502.44
286.057	1483.44
286.288	1524.44
286.52	1547.44
286.751	1663.44
286.982	1748.44
287.213	1615.44
287.444	1427.44
287.675	1475.44
287.906	1543.44
288.138	1642.44
288.369	1584.44
288.6	1491.44
288.831	1437.44
289.062	1464.44
289.293	1507.44
289.524	1490.44
289.755	1531.44
289.986	1562.44
290.217	1438.44
290.448	1427.44
290.679	1509.44
290.91	1542.44
291.141	1563.44
291.371	1653.44
291.602	1611.44
291.833	1543.44
292.064	1651.44
292.295	1611.44
292.526	1694.44
292.757	1688.44
292.987	1634.44
293.218	1516.44
293.449	1643.44
293.68	1850.44
293.91	2010.44
294.141	1843.44
294.372	1780.44
294.603	1852.44
294.833	1913.44
295.064	1776.44
295.295	1624.44
295.525	1547.44
295.756	1405.44
295.987	1398.44
296.217	1452.44
296.448	1459.44
296.679	1494.44
296.909	1486.44
297.14	1488.44
297.37	1487.44
297.601	1592.44
297.831	1687.44
298.062	1706.44
298.292	1564.44
298.523	1533.44
298.753	1525.44
298.984	1525.44
299.214	1540.44
299.445	1560.44
299.675	1645.44
299.905	1602.44
300.136	1570.44
300.366	1495.44
300.597	1474.44
300.827	1465.44
301.057	1539.44
301.288	1636.44
301.518	1617.44
301.748	1637.44
301.979	1749.44
302.209	1735.44
302.439	1819.44
302.669	1911.44
302.9	1808.44
303.13	1615.44
303.36	1623.44
303.59	1677.44
303.82	1604.44
304.051	1597.44
304.281	1632.44
304.511	1599.44
304.741	1719.44
304.971	1907.44
305.201	1989.44
305.431	1929.44
305.661	1595.44
305.891	1447.44
306.121	1417.44
306.352	1476.44
306.582	1565.44
306.812	1665.44
307.042	1795.44
307.272	1780.44
307.502	1827.44
307.731	1964.44
307.961	2111.44
308.191	1963.44
308.421	1699.44
308.651	1611.44
308.881	1547.44
309.111	1562.44
309.341	1571.44
309.571	1581.44
309.8	1587.44
310.03	1572.44
310.26	1544.44
310.49	1542.44
310.72	1574.44
310.949	1633.44
311.179	1672.44
311.409	1666.44
311.639	1584.44
311.868	1594.44
312.098	1555.44
312.328	1569.44
312.557	1545.44
312.787	1616.44
313.017	1673.44
313.246	1640.44
313.476	1609.44
313.706	1656.44
313.935	1619.44
314.165	1653.44
314.394	1701.44
314.624	1807.44
314.853	1861.44
315.083	1947.44
315.312	2035.44
315.542	1905.44
315.771	1660.44
316.001	1690.44
316.23	1775.44
316.46	1745.44
316.689	1745.44
316.919	1645.44
317.148	1609.44
317.377	1594.44
317.607	1714.44
317.836	1993.44
318.065	1997.44
318.295	1973.44
318.524	1871.44
318.753	1732.44
318.983	1785.44
319.212	1704.44
319.441	1683.44
319.67	1666.44
319.9	1725.44
320.129	1792.44
320.358	1876.44
320.587	1919.44
320.816	1920.44
321.046	1845.44
321.275	1796.44
321.504	1748.44
321.733	1968.44
321.962	1933.44
322.191	1732.44
322.42	1727.44
322.649	1690.44
322.878	1708.44
323.108	1684.44
323.337	1741.44
323.566	1768.44
323.795	1754.44
324.024	1783.44
324.253	1755.44
324.482	1785.44
324.71	1749.44
324.939	1617.44
325.168	1691.44
325.397	1700.44
325.626	1783.44
325.855	1796.44
326.084	1713.44
326.313	1688.44
326.542	1723.44
326.77	1768.44
326.999	1779.44
327.228	1701.44
327.457	1643.44
327.686	1625.44
327.914	1649.44
328.143	1728.44
328.372	1712.44
328.6	1711.44
328.829	1693.44
329.058	1655.44
329.287	1704.44
329.515	1751.44
329.744	1785.44
329.972	1809.44
330.201	1924.44
330.43	1855.44
330.658	1829.44
330.887	1819.44
331.115	1804.44
331.344	1832.44
331.572	1825.44
331.801	1777.44
332.03	1824.44
332.258	1798.44
332.486	1832.44
332.715	1839.44
332.943	1874.44
333.172	1801.44
333.4	1852.44
333.629	1896.44
333.857	1953.44
334.085	2172.44
334.314	2431.44
334.542	2655.44
334.771	2471.44
334.999	2187.44
335.227	2035.44
335.455	1969.44
335.684	1939.44
335.912	1951.44
336.14	2017.44
336.369	1988.44
336.597	1833.44
336.825	1857.44
337.053	1882.44
337.281	1964.44
337.51	2038.44
337.738	2169.44
337.966	2085.44
338.194	1889.44
338.422	1854.44
338.65	1839.44
338.878	1810.44
339.106	1762.44
339.334	1745.44
339.562	1706.44
339.79	1752.44
340.018	1853.44
340.246	1876.44
340.474	1960.44
340.702	1854.44
340.93	1879.44
341.158	1832.44
341.386	1842.44
341.614	1816.44
341.842	1767.44
342.07	1817.44
342.298	1824.44
342.526	1834.44
342.754	1790.44
342.981	1819.44
343.209	1765.44
343.437	1777.44
343.665	1781.44
343.893	1827.44
344.12	1937.44
344.348	1958.44
344.576	1883.44
344.804	1791.44
345.031	1736.44
345.259	1804.44
345.487	1797.44
345.714	1691.44
345.942	1652.44
346.17	1632.44
346.397	1700.44
346.625	1717.44
346.853	1613.44
347.08	1599.44
347.308	1601.44
347.535	1687.44
347.763	1692.44
347.99	1690.44
348.218	1613.44
348.445	1657.44
348.673	1634.44
348.9	1714.44
349.128	1741.44
349.355	1841.44
349.583	1776.44
349.81	1701.44
350.037	1578.44
350.265	1564.44
350.492	1625.44
350.72	1634.44
350.947	1672.44
351.174	1727.44
351.402	1643.44
351.629	1567.44
351.856	1536.44
352.083	1540.44
352.311	1581.44
352.538	1611.44
352.765	1661.44
352.992	1720.44
353.22	1695.44
353.447	1610.44
353.674	1627.44
353.901	1689.44
354.128	1597.44
354.355	1610.44
354.583	1703.44
354.81	1729.44
355.037	1703.44
355.264	1701.44
355.491	1642.44
355.718	1677.44
355.945	1655.44
356.172	1615.44
356.399	1603.44
356.626	1645.44
356.853	1652.44
357.08	1759.44
357.307	1936.44
357.534	1971.44
357.761	1732.44
357.988	1588.44
358.215	1542.44
358.441	1603.44
358.668	1594.44
358.895	1576.44
359.122	1663.44
359.349	1845.44
359.576	1848.44
359.802	1671.44
360.029	1594.44
360.256	1599.44
360.483	1602.44
360.709	1680.44
360.936	1717.44
361.163	1745.44
361.39	1919.44
361.616	2074.44
361.843	2043.44
362.07	1932.44
362.296	1695.44
362.523	1609.44
362.749	1646.44
362.976	1655.44
363.203	1658.44
363.429	1672.44
363.656	1624.44
363.882	1634.44
364.109	1781.44
364.335	1984.44
364.562	1799.44
364.788	1707.44
365.015	1660.44
365.241	1593.44
365.468	1657.44
365.694	1711.44
365.92	1807.44
366.147	1720.44
366.373	1606.44
366.599	1621.44
366.826	1619.44
367.052	1593.44
367.278	1638.44
367.505	1656.44
367.731	1662.44
367.957	1683.44
368.184	1708.44
368.41	1794.44
368.636	1867.44
368.862	1863.44
369.089	1842.44
369.315	1817.44
369.541	1758.44
369.767	1640.44
369.993	1641.44
370.219	1659.44
370.445	1676.44
370.672	1740.44
370.898	1831.44
371.124	1881.44
371.35	1755.44
371.576	1792.44
371.802	1821.44
372.028	1805.44
372.254	1724.44
372.48	1677.44
372.706	1650.44
372.932	1663.44
373.158	1683.44
373.384	1701.44
373.61	1760.44
373.835	1847.44
374.061	1735.44
374.287	1717.44
374.513	1734.44
374.739	1755.44
374.965	1741.44
375.191	1761.44
375.416	1789.44
375.642	1795.44
375.868	1878.44
376.094	1945.44
376.319	1897.44
376.545	1711.44
376.771	1731.44
376.997	1841.44
377.222	1859.44
377.448	1801.44
377.674	1853.44
377.899	1799.44
378.125	1869.44
378.35	1869.44
378.576	1754.44
378.802	1685.44
379.027	1683.44
379.253	1696.44
379.478	1707.44
379.704	1731.44
379.929	1724.44
380.155	1734.44
380.38	1753.44
380.606	1763.44
380.831	1732.44
381.057	1822.44
381.282	1845.44
381.507	1796.44
381.733	1908.44
381.958	1985.44
382.184	1834.44
382.409	1789.44
382.634	1821.44
382.86	1773.44
383.085	1822.44
383.31	1853.44
383.535	1959.44
383.761	2114.44
383.986	2047.44
384.211	1948.44
384.436	1952.44
384.662	2005.44
384.887	2121.44
385.112	1967.44
385.337	2011.44
385.562	1968.44
385.787	1947.44
386.013	2022.44
386.238	2060.44
386.463	1994.44
386.688	2111.44
386.913	2241.44
387.138	2228.44
387.363	2056.44
387.588	2082.44
387.813	2032.44
388.038	2058.44
388.263	2089.44
388.488	2051.44
388.713	1947.44
388.938	1873.44
389.163	1882.44
389.387	1964.44
389.612	1972.44
389.837	2003.44
390.062	1987.44
390.287	1991.44
390.512	1975.44
390.736	1979.44
390.961	1924.44
391.186	1852.44
391.411	1905.44
391.636	1955.44
391.86	2032.44
392.085	2020.44
392.31	1956.44
392.534	2016.44
392.759	2018.44
392.984	1969.44
393.208	1980.44
393.433	2026.44
393.658	2116.44
393.882	2136.44
394.107	1991.44
394.331	1984.44
394.556	1962.44
394.78	2009.44
395.005	2048.44
395.229	2095.44
395.454	2227.44
395.678	2234.44
395.903	2204.44
396.127	2071.44
396.352	2109.44
396.576	2223.44
396.801	2191.44
397.025	2151.44
397.249	2123.44
397.474	2100.44
397.698	2135.44
397.922	2159.44
398.147	2270.44
398.371	2361.44
398.595	2339.44
398.82	2276.44
399.044	2340.44
399.268	2462.44
399.492	2565.44
399.717	2706.44
399.941	2693.44
400.165	2642.44
400.389	2535.44
400.613	2522.44
400.837	2777.44
401.062	3195.44
401.286	2735.44
401.51	2444.44
401.734	2565.44
401.958	2579.44
402.182	2380.44
402.406	2227.44
402.63	2211.44
402.854	2258.44
403.078	2294.44
403.302	2353.44
403.526	2356.44
403.75	2357.44
403.974	2398.44
404.198	2372.44
404.422	2401.44
404.645	2548.44
404.869	2479.44
405.093	2326.44
405.317	2329.44
405.541	2343.44
405.765	2395.44
405.988	2347.44
406.212	2425.44
406.436	2465.44
406.66	2519.44
406.883	2558.44
407.107	2817.44
407.331	3078.44
407.555	3259.44
407.778	3074.44
408.002	2579.44
408.226	2493.44
408.449	2524.44
408.673	2468.44
408.896	2394.44
409.12	2474.44
409.344	2452.44
409.567	2364.44
409.791	2401.44
410.014	2409.44
410.238	2525.44
410.461	2689.44
410.685	2391.44
410.908	2301.44
411.132	2333.44
411.355	2323.44
411.578	2338.44
411.802	2318.44
412.025	2352.44
412.249	2287.44
412.472	2236.44
412.695	2225.44
412.919	2264.44
413.142	2263.44
413.365	2244.44
413.589	2329.44
413.812	2438.44
414.035	2446.44
414.258	2246.44
414.482	2252.44
414.705	2320.44
414.928	2269.44
415.151	2208.44
415.374	2260.44
415.597	2284.44
415.821	2287.44
416.044	2357.44
416.267	2408.44
416.49	2158.44
416.713	2122.44
416.936	2199.44
417.159	2328.44
417.382	2309.44
417.605	2187.44
417.828	2260.44
418.051	2329.44
418.274	2226.44
418.497	2151.44
418.72	2178.44
418.943	2139.44
419.166	2307.44
419.389	2428.44
419.611	2297.44
419.834	2233.44
420.057	2245.44
420.28	2198.44
420.503	2167.44
420.726	2240.44
420.948	2209.44
421.171	2148.44
421.394	2155.44
421.617	2229.44
421.839	2247.44
422.062	2174.44
422.285	2154.44
422.507	2143.44
422.73	2079.44
422.953	2072.44
423.175	2071.44
423.398	2168.44
423.621	2169.44
423.843	2204.44
424.066	2209.44
424.288	2291.44
424.511	2301.44
424.733	2244.44
424.956	2079.44
425.178	2060.44
425.401	2108.44
425.623	2121.44
425.846	2071.44
426.068	2195.44
426.291	2223.44
426.513	2218.44
426.735	2179.44
426.958	2324.44
427.18	2509.44
427.402	2266.44
427.625	2332.44
427.847	2301.44
428.069	2170.44
428.292	2122.44
428.514	2020.44
428.736	2043.44
428.958	2121.44
429.181	2099.44
429.403	2376.44
429.625	2956.44
429.847	2561.44
430.069	2160.44
430.292	2353.44
430.514	2453.44
430.736	2233.44
430.958	2381.44
431.18	2222.44
431.402	2104.44
431.624	2034.44
431.846	2115.44
432.068	2073.44
432.29	2032.44
432.512	2113.44
432.734	2190.44
432.956	2195.44
433.178	2275.44
433.4	2236.44
433.622	2240.44
433.844	2181.44
434.066	2122.44
434.287	2067.44
434.509	2163.44
434.731	2241.44
434.953	2404.44
435.175	2373.44
435.397	2247.44
435.618	2265.44
435.84	2242.44
436.062	2187.44
436.284	2166.44
436.505	2207.44
436.727	2285.44
436.949	2187.44
437.17	2128.44
437.392	2129.44
437.614	2179.44
437.835	2047.44
438.057	2150.44
438.278	2274.44
438.5	2112.44
438.721	2092.44
438.943	2132.44
439.165	2067.44
439.386	2029.44
439.608	2072.44
439.829	2075.44
440.05	2090.44
440.272	2034.44
440.493	2025.44
440.715	2021.44
440.936	2203.44
441.158	2457.44
441.379	2323.44
441.6	2297.44
441.822	2219.44
442.043	2251.44
442.264	2183.44
442.486	2096.44
442.707	2099.44
442.928	2047.44
443.149	2177.44
443.371	2258.44
443.592	2395.44
443.813	2278.44
444.034	2268.44
444.255	2311.44
444.476	2376.44
444.698	2372.44
444.919	2353.44
445.14	2396.44
445.361	2433.44
445.582	2476.44
445.803	2378.44
446.024	2275.44
446.245	2332.44
446.466	2269.44
446.687	2171.44
446.908	2181.44
447.129	2114.44
447.35	2201.44
447.571	2161.44
447.792	2028.44
448.013	2040.44
448.234	2106.44
448.455	2205.44
448.675	2186.44
448.896	2016.44
449.117	1979.44
449.338	2019.44
449.559	2140.44
449.779	2230.44
450	2476.44
450.221	2631.44
450.442	2604.44
450.662	2223.44
450.883	1989.44
451.104	1954.44
451.324	2010.44
451.545	2060.44
451.766	1980.44
451.986	1924.44
452.207	1979.44
452.428	1896.44
452.648	1837.44
452.869	1891.44
453.089	2040.44
453.31	2032.44
453.53	2108.44
453.751	2030.44
453.971	1892.44
454.192	1959.44
454.412	2062.44
454.633	2026.44
454.853	1957.44
455.073	1815.44
455.294	1785.44
455.514	1847.44
455.734	1849.44
455.955	1872.44
456.175	1899.44
456.395	1852.44
456.616	1878.44
456.836	1978.44
457.056	1888.44
457.276	1938.44
457.497	1864.44
457.717	1826.44
457.937	1804.44
458.157	1882.44
458.377	1880.44
458.598	1877.44
458.818	1880.44
459.038	1995.44
459.258	2152.44
459.478	2077.44
459.698	2048.44
459.918	2093.44
460.138	2184.44
460.358	2200.44
460.578	2208.44
460.798	2306.44
461.018	2454.44
461.238	2333.44
461.458	2229.44
461.678	2263.44
461.898	2246.44
462.118	2171.44
462.338	2248.44
462.558	2263.44
462.777	2273.44
462.997	2342.44
463.217	2501.44
463.437	2501.44
463.657	2335.44
463.876	2244.44
464.096	2254.44
464.316	2272.44
464.536	2357.44
464.755	2354.44
464.975	2359.44
465.195	2282.44
465.414	2367.44
465.634	2357.44
465.854	2207.44
466.073	2330.44
466.293	2330.44
466.512	2054.44
466.732	2076.44
466.951	2152.44
467.171	2108.44
467.391	1978.44
467.61	1991.44
467.829	2027.44
468.049	2172.44
468.268	2403.44
468.488	2260.44
468.707	2168.44
468.927	2066.44
469.146	2021.44
469.365	2029.44
469.585	2029.44
469.804	1997.44
470.023	2048.44
470.243	2104.44
470.462	2064.44
470.681	1988.44
470.901	2051.44
471.12	2049.44
471.339	2060.44
471.558	1964.44
471.777	1956.44
471.997	2019.44
472.216	1975.44
472.435	1940.44
472.654	1956.44
472.873	2070.44
473.092	2130.44
473.311	2084.44
473.53	1956.44
473.749	1964.44
473.968	2003.44
474.187	2145.44
474.406	2218.44
474.625	2111.44
474.844	2062.44
475.063	2105.44
475.282	2113.44
475.501	2059.44
475.72	2071.44
475.939	2171.44
476.158	2122.44
476.377	2079.44
476.596	2110.44
476.814	2129.44
477.033	2155.44
477.252	2223.44
477.471	2304.44
477.69	2176.44
477.908	2166.44
478.127	2249.44
478.346	2487.44
478.564	2455.44
478.783	2412.44
479.002	2533.44
479.22	2450.44
479.439	2536.44
479.658	2874.44
479.876	2867.44
480.095	2479.44
480.313	2423.44
480.532	2305.44
480.751	2306.44
480.969	2368.44
481.188	2309.44
481.406	2296.44
481.624	2223.44
481.843	2256.44
482.061	2355.44
482.28	2394.44
482.498	2399.44
482.717	2397.44
482.935	2282.44
483.153	2314.44
483.372	2286.44
483.59	2255.44
483.808	2289.44
484.027	2317.44
484.245	2481.44
484.463	2832.44
484.681	3283.44
484.9	2565.44
485.118	2390.44
485.336	2303.44
485.554	2443.44
485.772	2512.44
485.99	2483.44
486.209	2490.44
486.427	2505.44
486.645	2464.44
486.863	2414.44
487.081	2500.44
487.299	2552.44
487.517	2513.44
