Data from WStandard_LampEnergy5.5LIBS07252019.E.O._I.C._HRD10591_16-08-54-920.txt Node
Date: Thu Jul 25 16:08:54 EDT 2019
User: cochatt
Spectrometer: HR+D1059
Trigger mode: 1
Integration Time (sec): 1.000000E-1
Scans to average: 1
Electric dark correction enabled: true
Nonlinearity correction enabled: false
Boxcar width: 0
XAxis mode: Wavelengths
Number of Pixels in Spectrum: 2048
>>>>>Begin Spectral Data<<<<<
223.165	-11
223.4	-11
223.635	-11
223.869	-11
224.104	-19
224.338	1
224.573	-12
224.808	-4
225.042	-13
225.277	-30
225.511	7
225.746	7
225.98	-4
226.215	17
226.449	9
226.683	23
226.918	19
227.152	21
227.387	31
227.621	51
227.856	47
228.09	55
228.324	53
228.559	61
228.793	140
229.027	349
229.262	349
229.496	356
229.73	377
229.964	389
230.199	431
230.433	449
230.667	455
230.901	514
231.136	475
231.37	446
231.604	440
231.838	440
232.072	431
232.306	406
232.541	463
232.775	504
233.009	592
233.243	545
233.477	501
233.711	505
233.945	546
234.179	508
234.413	531
234.647	605
234.881	541
235.115	520
235.349	529
235.583	542
235.817	527
236.051	520
236.285	523
236.519	553
236.753	629
236.987	625
237.221	635
237.455	696
237.689	705
237.922	646
238.156	613
238.39	614
238.624	644
238.858	709
239.091	728
239.325	749
239.559	857
239.793	897
240.027	979
240.26	955
240.494	696
240.728	644
240.961	671
241.195	699
241.429	760
241.662	770
241.896	717
242.13	700
242.363	761
242.597	847
242.83	835
243.064	812
243.298	909
243.531	901
243.765	870
243.998	854
244.232	749
244.465	728
244.699	736
244.932	862
245.166	943
245.399	937
245.633	842
245.866	853
246.099	901
246.333	886
246.566	907
246.8	981
247.033	1071
247.266	999
247.5	1000
247.733	993
247.966	1045
248.2	1150
248.433	1087
248.666	1119
248.899	1223
249.133	1442
249.366	1625
249.599	1323
249.832	1174
250.066	1175
250.299	1210
250.532	1134
250.765	978
250.998	1076
251.231	1108
251.465	1137
251.698	1110
251.931	1110
252.164	1119
252.397	1177
252.63	1179
252.863	1045
253.096	1026
253.329	1073
253.562	1102
253.795	1219
254.028	1197
254.261	1118
254.494	1089
254.727	1033
254.96	1036
255.193	1181
255.426	1321
255.659	1562
255.892	1627
256.124	1302
256.357	1259
256.59	1352
256.823	1345
257.056	1331
257.289	1595
257.521	1767
257.754	1582
257.987	1479
258.22	1690
258.452	1600
258.685	1335
258.918	1271
259.151	1314
259.383	1213
259.616	1103
259.849	1138
260.081	1300
260.314	1439
260.547	1605
260.779	1636
261.012	1525
261.244	1366
261.477	1294
261.71	1347
261.942	1294
262.175	1261
262.407	1358
262.64	1265
262.872	1199
263.105	1177
263.337	1194
263.57	1167
263.802	1240
264.035	1163
264.267	1109
264.499	1089
264.732	1130
264.964	1161
265.197	1230
265.429	1311
265.661	1461
265.894	1645
266.126	1660
266.358	1459
266.591	1542
266.823	1709
267.055	1497
267.287	1496
267.52	1481
267.752	1425
267.984	1420
268.216	1488
268.448	1532
268.681	1551
268.913	1413
269.145	1307
269.377	1305
269.609	1408
269.841	1617
270.073	1889
270.306	2125
270.538	2264
270.77	1896
271.002	1606
271.234	1514
271.466	1525
271.698	1740
271.93	2020
272.162	2033
272.394	1845
272.626	1774
272.858	1597
273.09	1390
273.322	1354
273.553	1283
273.785	1311
274.017	1363
274.249	1458
274.481	1471
274.713	1357
274.945	1315
275.176	1339
275.408	1333
275.64	1287
275.872	1279
276.104	1355
276.335	1514
276.567	1777
276.799	1773
277.031	1628
277.262	1522
277.494	1557
277.726	1717
277.957	1719
278.189	1561
278.421	1488
278.652	1395
278.884	1372
279.115	1361
279.347	1422
279.579	1386
279.81	1338
280.042	1535
280.273	1641
280.505	1637
280.736	1671
280.968	1590
281.199	1409
281.431	1352
281.662	1324
281.894	1335
282.125	1358
282.356	1427
282.588	1466
282.819	1420
283.051	1546
283.282	1696
283.513	1630
283.745	1437
283.976	1318
284.207	1348
284.439	1391
284.67	1430
284.901	1423
285.132	1452
285.364	1420
285.595	1450
285.826	1409
286.057	1413
286.288	1400
286.52	1444
286.751	1579
286.982	1628
287.213	1493
287.444	1375
287.675	1351
287.906	1418
288.138	1529
288.369	1503
288.6	1403
288.831	1339
289.062	1385
289.293	1404
289.524	1429
289.755	1472
289.986	1474
290.217	1354
290.448	1396
290.679	1425
290.91	1432
291.141	1468
291.371	1520
291.602	1482
291.833	1472
292.064	1572
292.295	1537
292.526	1586
292.757	1614
292.987	1514
293.218	1458
293.449	1578
293.68	1736
293.91	1920
294.141	1765
294.372	1677
294.603	1701
294.833	1783
295.064	1687
295.295	1524
295.525	1522
295.756	1370
295.987	1317
296.217	1349
296.448	1400
296.679	1385
296.909	1397
297.14	1435
297.37	1417
297.601	1486
297.831	1599
298.062	1627
298.292	1485
298.523	1414
298.753	1401
298.984	1432
299.214	1423
299.445	1439
299.675	1510
299.905	1486
300.136	1450
300.366	1454
300.597	1431
300.827	1346
301.057	1427
301.288	1527
301.518	1521
301.748	1543
301.979	1612
302.209	1621
302.439	1732
302.669	1834
302.9	1749
303.13	1525
303.36	1560
303.59	1575
303.82	1522
304.051	1509
304.281	1527
304.511	1550
304.741	1587
304.971	1739
305.201	1948
305.431	1821
305.661	1477
305.891	1375
306.121	1344
306.352	1389
306.582	1472
306.812	1552
307.042	1708
307.272	1696
307.502	1746
307.731	1853
307.961	1993
308.191	1883
308.421	1641
308.651	1525
308.881	1475
309.111	1496
309.341	1460
309.571	1461
309.8	1501
310.03	1508
310.26	1446
310.49	1468
310.72	1497
310.949	1540
311.179	1591
311.409	1554
311.639	1555
311.868	1482
312.098	1507
312.328	1516
312.557	1459
312.787	1506
313.017	1557
313.246	1549
313.476	1537
313.706	1593
313.935	1571
314.165	1588
314.394	1642
314.624	1701
314.853	1778
315.083	1877
315.312	1899
315.542	1804
315.771	1587
316.001	1575
316.23	1688
316.46	1675
316.689	1685
316.919	1555
317.148	1521
317.377	1549
317.607	1632
317.836	1829
318.065	1895
318.295	1810
318.524	1731
318.753	1703
318.983	1682
319.212	1630
319.441	1590
319.67	1587
319.9	1657
320.129	1672
320.358	1773
320.587	1845
320.816	1817
321.046	1771
321.275	1707
321.504	1696
321.733	1832
321.962	1785
322.191	1652
322.42	1653
322.649	1604
322.878	1601
323.108	1633
323.337	1713
323.566	1658
323.795	1650
324.024	1653
324.253	1631
324.482	1669
324.71	1608
324.939	1601
325.168	1549
325.397	1639
325.626	1691
325.855	1692
326.084	1565
326.313	1613
326.542	1632
326.77	1691
326.999	1663
327.228	1636
327.457	1585
327.686	1558
327.914	1602
328.143	1638
328.372	1630
328.6	1598
328.829	1630
329.058	1572
329.287	1567
329.515	1597
329.744	1638
329.972	1706
330.201	1782
330.43	1792
330.658	1737
330.887	1723
331.115	1725
331.344	1672
331.572	1681
331.801	1664
332.03	1702
332.258	1750
332.486	1764
332.715	1750
332.943	1726
333.172	1645
333.4	1717
333.629	1738
333.857	1845
334.085	2024
334.314	2293
334.542	2473
334.771	2349
334.999	2035
335.227	1925
335.455	1818
335.684	1813
335.912	1858
336.14	1947
336.369	1838
336.597	1763
336.825	1716
337.053	1777
337.281	1838
337.51	1910
337.738	2000
337.966	1951
338.194	1817
338.422	1707
338.65	1685
338.878	1653
339.106	1667
339.334	1616
339.562	1591
339.79	1663
340.018	1717
340.246	1780
340.474	1839
340.702	1785
340.93	1797
341.158	1747
341.386	1680
341.614	1708
341.842	1671
342.07	1693
342.298	1723
342.526	1697
342.754	1674
342.981	1637
343.209	1685
343.437	1657
343.665	1679
343.893	1688
344.12	1805
344.348	1838
344.576	1732
344.804	1670
345.031	1680
345.259	1702
345.487	1657
345.714	1562
345.942	1580
346.17	1573
346.397	1645
346.625	1636
346.853	1505
347.08	1478
347.308	1531
347.535	1578
347.763	1651
347.99	1601
348.218	1499
348.445	1555
348.673	1596
348.9	1649
349.128	1642
349.355	1747
349.583	1702
349.81	1591
350.037	1473
350.265	1471
350.492	1511
350.72	1531
350.947	1573
351.174	1577
351.402	1534
351.629	1479
351.856	1470
352.083	1436
352.311	1449
352.538	1521
352.765	1566
352.992	1612
353.22	1571
353.447	1508
353.674	1521
353.901	1580
354.128	1478
354.355	1508
354.583	1574
354.81	1626
355.037	1663
355.264	1613
355.491	1543
355.718	1602
355.945	1520
356.172	1546
356.399	1521
356.626	1498
356.853	1567
357.08	1670
357.307	1808
357.534	1851
357.761	1644
357.988	1523
358.215	1470
358.441	1468
358.668	1459
358.895	1511
359.122	1554
359.349	1701
359.576	1724
359.802	1591
360.029	1490
360.256	1459
360.483	1479
360.709	1557
360.936	1596
361.163	1654
361.39	1804
361.616	1898
361.843	1879
362.07	1789
362.296	1613
362.523	1519
362.749	1521
362.976	1547
363.203	1573
363.429	1553
363.656	1496
363.882	1545
364.109	1698
364.335	1836
364.562	1744
364.788	1630
365.015	1608
365.241	1514
365.468	1565
365.694	1649
365.92	1684
366.147	1633
366.373	1513
366.599	1476
366.826	1513
367.052	1506
367.278	1558
367.505	1524
367.731	1568
367.957	1545
368.184	1621
368.41	1679
368.636	1754
368.862	1750
369.089	1715
369.315	1728
369.541	1623
369.767	1605
369.993	1545
370.219	1537
370.445	1569
370.672	1637
370.898	1737
371.124	1731
371.35	1639
371.576	1665
371.802	1735
372.028	1686
372.254	1627
372.48	1585
372.706	1580
372.932	1556
373.158	1576
373.384	1595
373.61	1660
373.835	1749
374.061	1646
374.287	1630
374.513	1644
374.739	1663
374.965	1646
375.191	1679
375.416	1676
375.642	1667
375.868	1752
376.094	1797
376.319	1751
376.545	1601
376.771	1653
376.997	1670
377.222	1722
377.448	1657
377.674	1694
377.899	1672
378.125	1790
378.35	1799
378.576	1621
378.802	1578
379.027	1554
379.253	1613
379.478	1622
379.704	1634
379.929	1644
380.155	1671
380.38	1658
380.606	1625
380.831	1636
381.057	1698
381.282	1749
381.507	1724
381.733	1795
381.958	1845
382.184	1719
382.409	1697
382.634	1693
382.86	1689
383.085	1685
383.31	1732
383.535	1865
383.761	1969
383.986	1868
384.211	1817
384.436	1809
384.662	1858
384.887	1983
385.112	1861
385.337	1899
385.562	1882
385.787	1866
386.013	1878
386.238	1882
386.463	1861
386.688	1986
386.913	2099
387.138	2031
387.363	1878
387.588	1893
387.813	1930
388.038	1934
388.263	1999
388.488	1931
388.713	1784
388.938	1799
389.163	1811
389.387	1857
389.612	1796
389.837	1886
390.062	1876
390.287	1866
390.512	1886
390.736	1807
390.961	1767
391.186	1766
391.411	1749
391.636	1868
391.86	1834
392.085	1837
392.31	1845
392.534	1836
392.759	1841
392.984	1863
393.208	1885
393.433	1897
393.658	1992
393.882	2005
394.107	1875
394.331	1802
394.556	1826
394.78	1847
395.005	1915
395.229	1975
395.454	2070
395.678	2126
395.903	2010
396.127	1917
396.352	1964
396.576	2058
396.801	2042
397.025	2054
397.249	2029
397.474	2018
397.698	1989
397.922	2021
398.147	2120
398.371	2182
398.595	2199
398.82	2129
399.044	2163
399.268	2232
399.492	2414
399.717	2501
399.941	2473
400.165	2388
400.389	2382
400.613	2325
400.837	2557
401.062	2959
401.286	2535
401.51	2296
401.734	2435
401.958	2352
402.182	2175
402.406	2113
402.63	2101
402.854	2082
403.078	2117
403.302	2171
403.526	2198
403.75	2201
403.974	2214
404.198	2216
404.422	2275
404.645	2370
404.869	2335
405.093	2174
405.317	2129
405.541	2222
405.765	2248
405.988	2196
406.212	2248
406.436	2275
406.66	2341
406.883	2359
407.107	2653
407.331	2851
407.555	3009
407.778	2867
408.002	2430
408.226	2329
408.449	2329
408.673	2248
408.896	2274
409.12	2328
409.344	2229
409.567	2176
409.791	2207
410.014	2251
410.238	2328
410.461	2483
410.685	2249
410.908	2129
411.132	2256
411.355	2252
411.578	2137
411.802	2130
412.025	2209
412.249	2168
412.472	2105
412.695	2110
412.919	2103
413.142	2094
413.365	2133
413.589	2135
413.812	2225
414.035	2334
414.258	2149
414.482	2067
414.705	2163
414.928	2102
415.151	2097
415.374	2102
415.597	2122
415.821	2166
416.044	2229
416.267	2247
416.49	2022
416.713	2053
416.936	2055
417.159	2171
417.382	2195
417.605	2065
417.828	2152
418.051	2155
418.274	2121
418.497	2038
418.72	2074
418.943	2009
419.166	2219
419.389	2265
419.611	2167
419.834	2050
420.057	2123
420.28	1995
420.503	2054
420.726	2068
420.948	2091
421.171	1994
421.394	2057
421.617	2086
421.839	2033
422.062	2079
422.285	1994
422.507	2004
422.73	1946
422.953	1937
423.175	1921
423.398	2024
423.621	2033
423.843	2012
424.066	2040
424.288	2116
424.511	2183
424.733	2125
424.956	1929
425.178	1919
425.401	1940
425.623	1951
425.846	1928
426.068	2097
426.291	2078
426.513	2114
426.735	2068
426.958	2183
427.18	2291
427.402	2111
427.625	2162
427.847	2207
428.069	2101
428.292	1989
428.514	1945
428.736	1949
428.958	1996
429.181	1993
429.403	2215
429.625	2723
429.847	2402
430.069	2025
430.292	2196
430.514	2342
430.736	2165
430.958	2239
431.18	2113
431.402	1973
431.624	1962
431.846	2009
432.068	1896
432.29	1960
432.512	1940
432.734	2034
432.956	2012
433.178	2131
433.4	2097
433.622	2073
433.844	1975
434.066	1919
434.287	1914
434.509	2023
434.731	2113
434.953	2241
435.175	2196
435.397	2059
435.618	2060
435.84	2063
436.062	2090
436.284	2066
436.505	2089
436.727	2113
436.949	2040
437.17	1987
437.392	2004
437.614	2003
437.835	1928
438.057	2038
438.278	2122
438.5	2029
438.721	1927
438.943	1970
439.165	1957
439.386	1926
439.608	1958
439.829	1938
440.05	1995
440.272	1925
440.493	1887
440.715	1978
440.936	2065
441.158	2333
441.379	2199
441.6	2152
441.822	2137
442.043	2067
442.264	2046
442.486	1981
442.707	1962
442.928	1950
443.149	2005
443.371	2129
443.592	2253
443.813	2150
444.034	2127
444.255	2150
444.476	2206
444.698	2175
444.919	2221
445.14	2286
445.361	2264
445.582	2348
445.803	2244
446.024	2166
446.245	2256
446.466	2183
446.687	2051
446.908	2051
447.129	1940
447.35	2038
447.571	2013
447.792	1916
448.013	1898
448.234	1993
448.455	2060
448.675	2018
448.896	1889
449.117	1862
449.338	1931
449.559	1998
449.779	2099
450	2285
450.221	2440
450.442	2427
450.662	2099
450.883	1868
451.104	1825
451.324	1887
451.545	1973
451.766	1939
451.986	1809
452.207	1838
452.428	1752
452.648	1708
452.869	1815
453.089	1921
453.31	1917
453.53	2002
453.751	1920
453.971	1809
454.192	1834
454.412	1970
454.633	1871
454.853	1853
455.073	1690
455.294	1710
455.514	1717
455.734	1687
455.955	1735
456.175	1740
456.395	1745
456.616	1755
456.836	1863
457.056	1796
457.276	1797
457.497	1773
457.717	1710
457.937	1735
458.157	1810
458.377	1800
458.598	1765
458.818	1774
459.038	1884
459.258	1969
459.478	2009
459.698	1900
459.918	1918
460.138	2033
460.358	2092
460.578	2114
460.798	2136
461.018	2235
461.238	2127
461.458	2065
461.678	2069
461.898	2090
462.118	1997
462.338	2115
462.558	2111
462.777	2071
462.997	2201
463.217	2311
463.437	2273
463.657	2158
463.876	2100
464.096	2051
464.316	2107
464.536	2163
464.755	2179
464.975	2148
465.195	2132
465.414	2199
465.634	2213
465.854	2076
466.073	2239
466.293	2142
466.512	1944
466.732	1886
466.951	1972
467.171	2001
467.391	1901
467.61	1851
467.829	1890
468.049	2055
468.268	2245
468.488	2107
468.707	1998
468.927	1988
469.146	1931
469.365	1861
469.585	1902
469.804	1866
470.023	1905
470.243	1941
470.462	1934
470.681	1883
470.901	1878
471.12	1932
471.339	1929
471.558	1850
471.777	1839
471.997	1860
472.216	1859
472.435	1829
472.654	1852
472.873	1930
473.092	2059
473.311	1954
473.53	1817
473.749	1847
473.968	1882
474.187	1995
474.406	2121
474.625	1987
474.844	1951
475.063	1926
475.282	1996
475.501	1955
475.72	1946
475.939	2060
476.158	1984
476.377	1947
476.596	1961
476.814	2014
477.033	2036
477.252	2107
477.471	2097
477.69	2060
477.908	2048
478.127	2135
478.346	2289
478.564	2300
478.783	2289
479.002	2365
479.22	2312
479.439	2373
479.658	2744
479.876	2694
480.095	2350
480.313	2250
480.532	2145
480.751	2178
480.969	2230
481.188	2153
481.406	2169
481.624	2100
481.843	2115
482.061	2184
482.28	2209
482.498	2263
482.717	2239
482.935	2150
483.153	2147
483.372	2145
483.59	2111
483.808	2148
484.027	2173
484.245	2337
484.463	2682
484.681	3010
484.9	2405
485.118	2193
485.336	2219
485.554	2257
485.772	2331
485.99	2336
486.209	2371
486.427	2303
486.645	2264
486.863	2305
487.081	2361
487.299	2375
487.517	2306
487.735	2222
487.953	2234
488.171	2249
488.389	2207
488.607	2217
488.825	2474
489.043	2514
489.261	2267
489.479	2350
489.696	2441
489.914	2389
490.132	2317
490.35	2248
490.568	2344
490.786	2310
491.003	2188
491.221	2253
491.439	2351
491.657	2348
491.874	2286
492.092	2372
492.31	2368
492.527	2323
492.745	2301
492.963	2261
493.18	2366
493.398	2545
493.615	2629
493.833	2392
494.05	2337
494.268	2359
494.485	2393
494.703	2367
494.92	2292
495.138	2329
495.355	2333
495.573	2421
495.79	2585
496.008	2635
496.225	2445
496.442	2467
496.66	2540
496.877	2451
497.094	2564
497.312	2598
497.529	2567
497.746	2620
497.963	2986
498.181	3342
498.398	3176
498.615	3005
498.832	2970
499.049	2956
499.267	2949
499.484	3141
499.701	3377
499.918	3365
500.135	3626
500.352	3914
500.569	3857
500.786	4048
501.003	3800
501.22	3531
501.437	3431
501.654	3398
501.871	3352
502.088	2919
502.305	2954
502.522	2862
502.739	2647
502.956	2585
503.172	2579
503.389	2499
503.606	2431
503.823	2513
504.04	2436
504.256	2451
504.473	2524
504.69	2551
504.907	2445
505.123	2357
505.34	2378
505.557	3075
505.773	2652
505.99	2266
506.207	2171
506.423	2117
506.64	2078
506.856	2117
507.073	2432
507.289	2583
507.506	2472
507.722	2130
507.939	2010
508.155	2068
508.372	2027
508.588	2015
508.805	1926
509.021	1932
509.238	1913
509.454	1953
509.67	1940
509.887	1918
510.103	1914
510.319	1966
510.536	2050
510.752	2075
510.968	2071
511.184	2187
511.401	2191
511.617	1922
511.833	1866
512.049	1863
512.265	1845
512.481	1834
512.698	1927
512.914	2045
513.13	1987
513.346	1917
513.562	1829
513.778	1885
513.994	1974
514.21	2004
514.426	2051
514.642	2247
514.858	2114
515.074	1918
515.29	1908
515.506	1981
515.721	1954
515.937	2012
516.153	2196
516.369	2186
516.585	2038
516.801	1927
517.016	1974
517.232	2001
517.448	2023
517.664	2045
517.879	2062
518.095	2172
518.311	2081
518.527	1989
518.742	1953
518.958	1903
519.173	1911
519.389	1907
519.605	1921
519.82	1896
520.036	1971
520.251	1905
520.467	1916
520.682	2065
520.898	2110
521.113	1922
521.329	1885
521.544	2007
521.76	1927
521.975	1847
522.19	1822
522.406	1796
522.621	2163
522.836	2158
523.052	1781
523.267	1817
523.482	1781
523.698	1730
523.913	1699
524.128	1701
524.343	1834
524.559	1865
524.774	1703
524.989	1747
525.204	1733
525.419	1706
525.634	1687
525.849	1729
526.064	1685
526.28	1747
526.495	1658
526.71	1622
526.925	1661
527.14	1666
527.355	1624
527.57	1637
527.785	1699
527.999	1639
528.214	1659
528.429	1582
528.644	1638
528.859	1658
529.074	1634
529.289	1662
529.503	1632
529.718	1635
529.933	1614
530.148	1590
530.363	1607
530.577	1591
530.792	1671
531.007	1650
531.221	1637
531.436	1660
531.651	1664
531.865	1753
532.08	1703
532.295	1595
532.509	1545
532.724	1562
532.938	1648
533.153	1767
533.367	1686
533.582	1642
533.796	1587
534.011	1623
534.225	1642
534.44	1606
534.654	1567
534.868	1597
535.083	1620
535.297	1654
535.511	1605
535.726	1581
535.94	1585
536.154	1567
536.369	1573
536.583	1555
536.797	1548
537.011	1576
537.225	1548
537.44	1501
537.654	1573
537.868	1513
538.082	1479
538.296	1454
538.51	1446
538.724	1466
538.938	1472
539.153	1555
539.367	1549
539.581	1514
539.795	1605
540.009	1576
540.222	1551
540.436	1545
540.65	1706
540.864	1700
541.078	1609
541.292	1494
541.506	1505
541.72	1516
541.934	1538
