Data from WStandard_LampEnergy10_LIBS07252019.E.O._I.C._HRD10591_15-55-22-928.txt Node
Date: Thu Jul 25 15:55:22 EDT 2019
User: cochatt
Spectrometer: HR+D1059
Trigger mode: 1
Integration Time (sec): 1.000000E-1
Scans to average: 1
Electric dark correction enabled: true
Nonlinearity correction enabled: false
Boxcar width: 0
XAxis mode: Wavelengths
Number of Pixels in Spectrum: 2048
>>>>>Begin Spectral Data<<<<<
223.165	-15.5
223.4	-15.5
223.635	-15.5
223.869	-28.5
224.104	-22.5
224.338	-10.5
224.573	-18.5
224.808	-14.5
225.042	-6.5
225.277	0.5
225.511	3.5
225.746	2.5
225.98	2.5
226.215	8.5
226.449	26.5
226.683	22.5
226.918	22.5
227.152	27.5
227.387	35.5
227.621	39.5
227.856	44.5
228.09	48.5
228.324	54.5
228.559	40.5
228.793	80.5
229.027	124.5
229.262	146.5
229.496	128.5
229.73	144.5
229.964	173.5
230.199	160.5
230.433	168.5
230.667	172.5
230.901	185.5
231.136	156.5
231.37	168.5
231.604	165.5
231.838	166.5
232.072	164.5
232.306	177.5
232.541	168.5
232.775	206.5
233.009	211.5
233.243	208.5
233.477	187.5
233.711	188.5
233.945	201.5
234.179	190.5
234.413	205.5
234.647	212.5
234.881	210.5
235.115	189.5
235.349	186.5
235.583	182.5
235.817	181.5
236.051	183.5
236.285	210.5
236.519	208.5
236.753	213.5
236.987	228.5
237.221	231.5
237.455	237.5
237.689	217.5
237.922	224.5
238.156	186.5
238.39	222.5
238.624	225.5
238.858	251.5
239.091	238.5
239.325	254.5
239.559	285.5
239.793	288.5
240.027	301.5
240.26	288.5
240.494	240.5
240.728	230.5
240.961	210.5
241.195	223.5
241.429	238.5
241.662	260.5
241.896	245.5
242.13	225.5
242.363	266.5
242.597	265.5
242.83	279.5
243.064	270.5
243.298	273.5
243.531	278.5
243.765	266.5
243.998	259.5
244.232	225.5
244.465	236.5
244.699	258.5
244.932	271.5
245.166	315.5
245.399	297.5
245.633	277.5
245.866	284.5
246.099	282.5
246.333	268.5
246.566	299.5
246.8	322.5
247.033	321.5
247.266	308.5
247.5	312.5
247.733	316.5
247.966	314.5
248.2	348.5
248.433	341.5
248.666	344.5
248.899	379.5
249.133	406.5
249.366	442.5
249.599	388.5
249.832	356.5
250.066	363.5
250.299	343.5
250.532	349.5
250.765	333.5
250.998	319.5
251.231	337.5
251.465	348.5
251.698	323.5
251.931	343.5
252.164	348.5
252.397	358.5
252.63	339.5
252.863	317.5
253.096	329.5
253.329	325.5
253.562	334.5
253.795	359.5
254.028	347.5
254.261	327.5
254.494	328.5
254.727	310.5
254.96	352.5
255.193	357.5
255.426	387.5
255.659	446.5
255.892	434.5
256.124	370.5
256.357	384.5
256.59	388.5
256.823	394.5
257.056	426.5
257.289	481.5
257.521	471.5
257.754	461.5
257.987	447.5
258.22	465.5
258.452	451.5
258.685	396.5
258.918	386.5
259.151	370.5
259.383	381.5
259.616	358.5
259.849	348.5
260.081	393.5
260.314	432.5
260.547	439.5
260.779	463.5
261.012	425.5
261.244	397.5
261.477	382.5
261.71	382.5
261.942	401.5
262.175	399.5
262.407	403.5
262.64	369.5
262.872	349.5
263.105	344.5
263.337	375.5
263.57	360.5
263.802	352.5
264.035	373.5
264.267	344.5
264.499	336.5
264.732	349.5
264.964	372.5
265.197	376.5
265.429	399.5
265.661	434.5
265.894	479.5
266.126	461.5
266.358	435.5
266.591	441.5
266.823	464.5
267.055	460.5
267.287	442.5
267.52	423.5
267.752	420.5
267.984	438.5
268.216	459.5
268.448	452.5
268.681	438.5
268.913	416.5
269.145	393.5
269.377	406.5
269.609	434.5
269.841	508.5
270.073	544.5
270.306	604.5
270.538	597.5
270.77	530.5
271.002	473.5
271.234	461.5
271.466	448.5
271.698	508.5
271.93	547.5
272.162	560.5
272.394	510.5
272.626	471.5
272.858	449.5
273.09	380.5
273.322	419.5
273.553	391.5
273.785	389.5
274.017	405.5
274.249	428.5
274.481	460.5
274.713	404.5
274.945	398.5
275.176	409.5
275.408	381.5
275.64	402.5
275.872	382.5
276.104	414.5
276.335	478.5
276.567	504.5
276.799	503.5
277.031	483.5
277.262	455.5
277.494	482.5
277.726	514.5
277.957	487.5
278.189	460.5
278.421	428.5
278.652	416.5
278.884	405.5
279.115	424.5
279.347	416.5
279.579	404.5
279.81	424.5
280.042	482.5
280.273	510.5
280.505	492.5
280.736	471.5
280.968	471.5
281.199	423.5
281.431	394.5
281.662	416.5
281.894	433.5
282.125	418.5
282.356	450.5
282.588	465.5
282.819	449.5
283.051	474.5
283.282	483.5
283.513	467.5
283.745	433.5
283.976	403.5
284.207	421.5
284.439	419.5
284.67	430.5
284.901	427.5
285.132	440.5
285.364	436.5
285.595	419.5
285.826	442.5
286.057	438.5
286.288	450.5
286.52	471.5
286.751	492.5
286.982	477.5
287.213	443.5
287.444	424.5
287.675	443.5
287.906	452.5
288.138	485.5
288.369	475.5
288.6	452.5
288.831	388.5
289.062	439.5
289.293	423.5
289.524	436.5
289.755	435.5
289.986	442.5
290.217	421.5
290.448	426.5
290.679	438.5
290.91	449.5
291.141	478.5
291.371	460.5
291.602	451.5
291.833	452.5
292.064	477.5
292.295	484.5
292.526	515.5
292.757	494.5
292.987	475.5
293.218	450.5
293.449	521.5
293.68	586.5
293.91	578.5
294.141	535.5
294.372	539.5
294.603	538.5
294.833	569.5
295.064	521.5
295.295	486.5
295.525	456.5
295.756	438.5
295.987	423.5
296.217	427.5
296.448	440.5
296.679	444.5
296.909	448.5
297.14	453.5
297.37	465.5
297.601	504.5
297.831	510.5
298.062	512.5
298.292	486.5
298.523	448.5
298.753	472.5
298.984	456.5
299.214	463.5
299.445	467.5
299.675	501.5
299.905	469.5
300.136	469.5
300.366	447.5
300.597	455.5
300.827	438.5
301.057	468.5
301.288	492.5
301.518	478.5
301.748	508.5
301.979	535.5
302.209	523.5
302.439	549.5
302.669	583.5
302.9	523.5
303.13	506.5
303.36	499.5
303.59	496.5
303.82	490.5
304.051	496.5
304.281	506.5
304.511	533.5
304.741	560.5
304.971	586.5
305.201	590.5
305.431	521.5
305.661	465.5
305.891	424.5
306.121	434.5
306.352	459.5
306.582	484.5
306.812	517.5
307.042	545.5
307.272	558.5
307.502	582.5
307.731	596.5
307.961	613.5
308.191	562.5
308.421	521.5
308.651	490.5
308.881	475.5
309.111	488.5
309.341	475.5
309.571	473.5
309.8	483.5
310.03	485.5
310.26	472.5
310.49	483.5
310.72	510.5
310.949	511.5
311.179	523.5
311.409	496.5
311.639	506.5
311.868	473.5
312.098	488.5
312.328	498.5
312.557	518.5
312.787	485.5
313.017	504.5
313.246	525.5
313.476	522.5
313.706	524.5
313.935	552.5
314.165	514.5
314.394	560.5
314.624	572.5
314.853	588.5
315.083	596.5
315.312	608.5
315.542	557.5
315.771	538.5
316.001	518.5
316.23	556.5
316.46	546.5
316.689	555.5
316.919	528.5
317.148	521.5
317.377	516.5
317.607	574.5
317.836	612.5
318.065	622.5
318.295	599.5
318.524	566.5
318.753	547.5
318.983	544.5
319.212	532.5
319.441	551.5
319.67	546.5
319.9	551.5
320.129	581.5
320.358	602.5
320.587	613.5
320.816	588.5
321.046	592.5
321.275	571.5
321.504	580.5
321.733	621.5
321.962	573.5
322.191	538.5
322.42	538.5
322.649	555.5
322.878	537.5
323.108	556.5
323.337	566.5
323.566	578.5
323.795	548.5
324.024	586.5
324.253	548.5
324.482	555.5
324.71	530.5
324.939	496.5
325.168	553.5
325.397	539.5
325.626	576.5
325.855	553.5
326.084	545.5
326.313	555.5
326.542	550.5
326.77	577.5
326.999	557.5
327.228	559.5
327.457	515.5
327.686	510.5
327.914	547.5
328.143	545.5
328.372	552.5
328.6	541.5
328.829	533.5
329.058	529.5
329.287	547.5
329.515	545.5
329.744	563.5
329.972	562.5
330.201	614.5
330.43	578.5
330.658	560.5
330.887	565.5
331.115	588.5
331.344	587.5
331.572	566.5
331.801	560.5
332.03	573.5
332.258	599.5
332.486	596.5
332.715	597.5
332.943	586.5
333.172	570.5
333.4	588.5
333.629	604.5
333.857	662.5
334.085	717.5
334.314	774.5
334.542	814.5
334.771	722.5
334.999	659.5
335.227	633.5
335.455	590.5
335.684	614.5
335.912	627.5
336.14	662.5
336.369	624.5
336.597	593.5
336.825	591.5
337.053	608.5
337.281	647.5
337.51	684.5
337.738	672.5
337.966	628.5
338.194	603.5
338.422	596.5
338.65	570.5
338.878	556.5
339.106	560.5
339.334	551.5
339.562	564.5
339.79	554.5
340.018	574.5
340.246	617.5
340.474	585.5
340.702	627.5
340.93	587.5
341.158	576.5
341.386	582.5
341.614	604.5
341.842	574.5
342.07	600.5
342.298	596.5
342.526	571.5
342.754	587.5
342.981	578.5
343.209	584.5
343.437	564.5
343.665	572.5
343.893	618.5
344.12	622.5
344.348	590.5
344.576	587.5
344.804	578.5
345.031	594.5
345.259	576.5
345.487	536.5
345.714	555.5
345.942	548.5
346.17	552.5
346.397	540.5
346.625	546.5
346.853	532.5
347.08	520.5
347.308	545.5
347.535	557.5
347.763	558.5
347.99	565.5
348.218	545.5
348.445	557.5
348.673	552.5
348.9	594.5
349.128	596.5
349.355	610.5
349.583	587.5
349.81	544.5
350.037	513.5
350.265	532.5
350.492	496.5
350.72	551.5
350.947	575.5
351.174	565.5
351.402	501.5
351.629	525.5
351.856	516.5
352.083	518.5
352.311	521.5
352.538	549.5
352.765	572.5
352.992	585.5
353.22	568.5
353.447	538.5
353.674	537.5
353.901	525.5
354.128	529.5
354.355	544.5
354.583	582.5
354.81	578.5
355.037	583.5
355.264	573.5
355.491	553.5
355.718	557.5
355.945	570.5
356.172	530.5
356.399	524.5
356.626	524.5
356.853	570.5
357.08	616.5
357.307	666.5
357.534	630.5
357.761	562.5
357.988	514.5
358.215	532.5
358.441	541.5
358.668	549.5
358.895	540.5
359.122	581.5
359.349	619.5
359.576	608.5
359.802	550.5
360.029	538.5
360.256	529.5
360.483	545.5
360.709	562.5
360.936	586.5
361.163	618.5
361.39	651.5
361.616	707.5
361.843	665.5
362.07	644.5
362.296	561.5
362.523	544.5
362.749	536.5
362.976	570.5
363.203	580.5
363.429	530.5
363.656	529.5
363.882	580.5
364.109	655.5
364.335	662.5
364.562	608.5
364.788	573.5
365.015	550.5
365.241	547.5
365.468	556.5
365.694	592.5
365.92	598.5
366.147	584.5
366.373	564.5
366.599	531.5
366.826	533.5
367.052	553.5
367.278	560.5
367.505	602.5
367.731	575.5
367.957	596.5
368.184	634.5
368.41	640.5
368.636	628.5
368.862	634.5
369.089	647.5
369.315	631.5
369.541	601.5
369.767	595.5
369.993	556.5
370.219	577.5
370.445	614.5
370.672	665.5
370.898	660.5
371.124	636.5
371.35	607.5
371.576	631.5
371.802	643.5
372.028	614.5
372.254	607.5
372.48	588.5
372.706	580.5
372.932	587.5
373.158	616.5
373.384	610.5
373.61	623.5
373.835	654.5
374.061	624.5
374.287	613.5
374.513	605.5
374.739	614.5
374.965	621.5
375.191	616.5
375.416	625.5
375.642	662.5
375.868	715.5
376.094	696.5
376.319	637.5
376.545	598.5
376.771	673.5
376.997	669.5
377.222	664.5
377.448	630.5
377.674	660.5
377.899	665.5
378.125	700.5
378.35	688.5
378.576	610.5
378.802	618.5
379.027	636.5
379.253	608.5
379.478	632.5
379.704	620.5
379.929	628.5
380.155	632.5
380.38	643.5
380.606	628.5
380.831	621.5
381.057	680.5
381.282	669.5
381.507	654.5
381.733	724.5
381.958	709.5
382.184	664.5
382.409	677.5
382.634	658.5
382.86	662.5
383.085	662.5
383.31	704.5
383.535	772.5
383.761	774.5
383.986	728.5
384.211	720.5
384.436	729.5
384.662	757.5
384.887	743.5
385.112	706.5
385.337	727.5
385.562	712.5
385.787	728.5
386.013	742.5
386.238	736.5
386.463	737.5
386.688	779.5
386.913	839.5
387.138	793.5
387.363	745.5
387.588	760.5
387.813	756.5
388.038	793.5
388.263	789.5
388.488	726.5
388.713	707.5
388.938	692.5
389.163	701.5
389.387	732.5
389.612	741.5
389.837	757.5
390.062	742.5
390.287	724.5
390.512	725.5
390.736	706.5
390.961	693.5
391.186	699.5
391.411	708.5
391.636	734.5
391.86	734.5
392.085	745.5
392.31	742.5
392.534	737.5
392.759	752.5
392.984	724.5
393.208	762.5
393.433	787.5
393.658	804.5
393.882	825.5
394.107	766.5
394.331	747.5
394.556	780.5
394.78	786.5
395.005	770.5
395.229	837.5
395.454	855.5
395.678	846.5
395.903	788.5
396.127	808.5
396.352	820.5
396.576	830.5
396.801	835.5
397.025	830.5
397.249	798.5
397.474	810.5
397.698	797.5
397.922	830.5
398.147	832.5
398.371	886.5
398.595	872.5
398.82	832.5
399.044	889.5
399.268	926.5
399.492	961.5
399.717	961.5
399.941	957.5
400.165	972.5
400.389	939.5
400.613	954.5
400.837	1088.5
401.062	1143.5
401.286	1022.5
401.51	932.5
401.734	952.5
401.958	926.5
402.182	889.5
402.406	883.5
402.63	848.5
402.854	851.5
403.078	880.5
403.302	875.5
403.526	906.5
403.75	900.5
403.974	934.5
404.198	890.5
404.422	964.5
404.645	1001.5
404.869	964.5
405.093	866.5
405.317	877.5
405.541	896.5
405.765	910.5
405.988	883.5
406.212	944.5
406.436	950.5
406.66	977.5
406.883	1004.5
407.107	1109.5
407.331	1208.5
407.555	1243.5
407.778	1105.5
408.002	952.5
408.226	918.5
408.449	949.5
408.673	937.5
408.896	914.5
409.12	933.5
409.344	931.5
409.567	886.5
409.791	907.5
410.014	953.5
410.238	1006.5
410.461	1031.5
410.685	943.5
410.908	894.5
411.132	917.5
411.355	915.5
411.578	939.5
411.802	921.5
412.025	933.5
412.249	918.5
412.472	868.5
412.695	890.5
412.919	904.5
413.142	891.5
413.365	923.5
413.589	930.5
413.812	954.5
414.035	949.5
414.258	915.5
414.482	901.5
414.705	925.5
414.928	883.5
415.151	883.5
415.374	905.5
415.597	916.5
415.821	897.5
416.044	906.5
416.267	926.5
416.49	863.5
416.713	874.5
416.936	917.5
417.159	962.5
417.382	950.5
417.605	904.5
417.828	898.5
418.051	940.5
418.274	925.5
418.497	910.5
418.72	909.5
418.943	909.5
419.166	944.5
419.389	971.5
419.611	940.5
419.834	901.5
420.057	896.5
420.28	916.5
420.503	941.5
420.726	946.5
420.948	904.5
421.171	904.5
421.394	908.5
421.617	964.5
421.839	959.5
422.062	944.5
422.285	938.5
422.507	916.5
422.73	868.5
422.953	875.5
423.175	907.5
423.398	881.5
423.621	898.5
423.843	892.5
424.066	929.5
424.288	1036.5
424.511	1010.5
424.733	971.5
424.956	930.5
425.178	923.5
425.401	908.5
425.623	918.5
425.846	887.5
426.068	972.5
426.291	969.5
426.513	948.5
426.735	960.5
426.958	1019.5
427.18	1024.5
427.402	976.5
427.625	993.5
427.847	966.5
428.069	915.5
428.292	882.5
428.514	883.5
428.736	868.5
428.958	874.5
429.181	944.5
429.403	1052.5
429.625	1204.5
429.847	1048.5
430.069	916.5
430.292	1022.5
430.514	1003.5
430.736	954.5
430.958	971.5
431.18	906.5
431.402	835.5
431.624	832.5
431.846	790.5
432.068	738.5
432.29	730.5
432.512	774.5
432.734	873.5
432.956	917.5
433.178	992.5
433.4	945.5
433.622	906.5
433.844	896.5
434.066	848.5
434.287	800.5
434.509	756.5
434.731	799.5
434.953	894.5
435.175	904.5
435.397	880.5
435.618	835.5
435.84	822.5
436.062	831.5
436.284	882.5
436.505	936.5
436.727	936.5
436.949	882.5
437.17	892.5
437.392	858.5
437.614	819.5
437.835	777.5
438.057	804.5
438.278	808.5
438.5	837.5
438.721	876.5
438.943	910.5
439.165	894.5
439.386	930.5
439.608	910.5
439.829	934.5
440.05	935.5
440.272	934.5
440.493	941.5
440.715	961.5
440.936	1001.5
441.158	1051.5
441.379	986.5
441.6	1031.5
441.822	1024.5
442.043	1012.5
442.264	942.5
442.486	919.5
442.707	944.5
442.928	957.5
443.149	965.5
443.371	990.5
443.592	983.5
443.813	988.5
444.034	1000.5
444.255	1023.5
444.476	987.5
444.698	1038.5
444.919	1013.5
445.14	1142.5
445.361	1084.5
445.582	1048.5
445.803	1012.5
446.024	1019.5
446.245	1049.5
446.466	1032.5
446.687	1028.5
446.908	1038.5
447.129	998.5
447.35	1003.5
447.571	974.5
447.792	974.5
448.013	941.5
448.234	955.5
448.455	970.5
448.675	979.5
448.896	898.5
449.117	886.5
449.338	913.5
449.559	936.5
449.779	950.5
450	985.5
450.221	1044.5
450.442	1014.5
450.662	920.5
450.883	875.5
451.104	849.5
451.324	875.5
451.545	889.5
451.766	842.5
451.986	821.5
452.207	800.5
452.428	796.5
452.648	745.5
452.869	770.5
453.089	785.5
453.31	753.5
453.53	763.5
453.751	708.5
453.971	667.5
454.192	724.5
454.412	776.5
454.633	748.5
454.853	749.5
455.073	753.5
455.294	774.5
455.514	756.5
455.734	730.5
455.955	751.5
456.175	738.5
456.395	716.5
456.616	731.5
456.836	732.5
457.056	697.5
457.276	701.5
457.497	683.5
457.717	676.5
457.937	705.5
458.157	712.5
458.377	673.5
458.598	645.5
458.818	656.5
459.038	681.5
459.258	713.5
459.478	722.5
459.698	698.5
459.918	768.5
460.138	773.5
460.358	825.5
460.578	840.5
460.798	820.5
461.018	854.5
461.238	864.5
461.458	836.5
461.678	818.5
461.898	796.5
462.118	795.5
462.338	837.5
462.558	810.5
462.777	823.5
462.997	854.5
463.217	870.5
463.437	849.5
463.657	832.5
463.876	835.5
464.096	789.5
464.316	800.5
464.536	844.5
464.755	858.5
464.975	889.5
465.195	833.5
465.414	856.5
465.634	844.5
465.854	871.5
466.073	938.5
466.293	923.5
466.512	832.5
466.732	869.5
466.951	892.5
467.171	886.5
467.391	861.5
467.61	846.5
467.829	849.5
468.049	955.5
468.268	1024.5
468.488	962.5
468.707	896.5
468.927	888.5
469.146	852.5
469.365	908.5
469.585	892.5
469.804	891.5
470.023	900.5
470.243	925.5
470.462	937.5
470.681	933.5
470.901	884.5
471.12	918.5
471.339	910.5
471.558	885.5
471.777	887.5
471.997	887.5
472.216	837.5
472.435	763.5
472.654	741.5
472.873	768.5
473.092	831.5
473.311	800.5
473.53	784.5
473.749	779.5
473.968	832.5
474.187	846.5
474.406	837.5
474.625	820.5
474.844	863.5
475.063	886.5
475.282	873.5
475.501	786.5
475.72	824.5
475.939	877.5
476.158	872.5
476.377	844.5
476.596	844.5
476.814	830.5
477.033	779.5
477.252	826.5
477.471	904.5
477.69	907.5
477.908	925.5
478.127	958.5
478.346	1020.5
478.564	1000.5
478.783	963.5
479.002	1023.5
479.22	996.5
479.439	1012.5
479.658	1031.5
479.876	980.5
480.095	889.5
480.313	891.5
480.532	854.5
480.751	882.5
480.969	798.5
481.188	782.5
481.406	748.5
481.624	752.5
481.843	755.5
482.061	794.5
482.28	856.5
482.498	851.5
482.717	858.5
482.935	873.5
483.153	926.5
483.372	998.5
483.59	984.5
483.808	946.5
484.027	924.5
484.245	1001.5
484.463	1168.5
484.681	1265.5
484.9	1037.5
485.118	937.5
485.336	898.5
485.554	883.5
485.772	880.5
485.99	865.5
486.209	890.5
486.427	892.5
486.645	920.5
486.863	1003.5
487.081	1021.5
487.299	993.5
487.517	956.5
487.735	1094.5
487.953	1153.5
488.171	1163.5
488.389	1105.5
488.607	1064.5
488.825	1095.5
489.043	1062.5
489.261	965.5
489.479	1038.5
489.696	1034.5
489.914	1019.5
490.132	1025.5
490.35	1077.5
490.568	1149.5
490.786	1161.5
491.003	1174.5
491.221	1212.5
491.439	1288.5
491.657	1288.5
491.874	1324.5
492.092	1436.5
492.31	1450.5
492.527	1440.5
492.745	1331.5
492.963	1325.5
493.18	1305.5
493.398	1346.5
493.615	1321.5
493.833	1270.5
494.05	1199.5
494.268	1205.5
494.485	1237.5
494.703	1203.5
494.92	1195.5
495.138	1194.5
495.355	1208.5
495.573	1236.5
495.79	1267.5
496.008	1249.5
496.225	1221.5
496.442	1210.5
496.66	1204.5
496.877	1190.5
497.094	1194.5
497.312	1206.5
497.529	1152.5
497.746	1180.5
497.963	1275.5
498.181	1284.5
498.398	1207.5
498.615	1168.5
498.832	1108.5
499.049	1128.5
499.267	1152.5
499.484	1202.5
499.701	1328.5
499.918	1320.5
500.135	1460.5
500.352	1564.5
500.569	1552.5
500.786	1697.5
501.003	1491.5
501.22	1397.5
501.437	1373.5
501.654	1392.5
501.871	1323.5
502.088	1200.5
502.305	1154.5
502.522	1141.5
502.739	1086.5
502.956	1058.5
503.172	1008.5
503.389	1001.5
503.606	971.5
503.823	981.5
504.04	977.5
504.256	994.5
504.473	992.5
504.69	1018.5
504.907	956.5
505.123	928.5
505.34	1054.5
505.557	1321.5
505.773	1068.5
505.99	962.5
506.207	894.5
506.423	875.5
506.64	885.5
506.856	890.5
507.073	1020.5
507.289	1036.5
507.506	994.5
507.722	860.5
507.939	863.5
508.155	843.5
508.372	804.5
508.588	793.5
508.805	798.5
509.021	776.5
509.238	762.5
509.454	729.5
509.67	746.5
509.887	702.5
510.103	700.5
510.319	741.5
510.536	738.5
510.752	736.5
510.968	741.5
511.184	783.5
511.401	761.5
511.617	697.5
511.833	675.5
512.049	699.5
512.265	718.5
512.481	688.5
512.698	731.5
512.914	756.5
513.13	741.5
513.346	708.5
513.562	705.5
513.778	697.5
513.994	728.5
514.21	754.5
514.426	747.5
514.642	782.5
514.858	760.5
515.074	700.5
515.29	683.5
515.506	737.5
515.721	752.5
515.937	707.5
516.153	790.5
516.369	758.5
516.585	731.5
516.801	704.5
517.016	720.5
517.232	716.5
517.448	760.5
517.664	789.5
517.879	744.5
518.095	815.5
