Data from WStandard_LampEnergy10_LIBS07252019.E.O._I.C._HRD10591_15-55-15-928.txt Node
Date: Thu Jul 25 15:55:15 EDT 2019
User: cochatt
Spectrometer: HR+D1059
Trigger mode: 1
Integration Time (sec): 1.000000E-1
Scans to average: 1
Electric dark correction enabled: true
Nonlinearity correction enabled: false
Boxcar width: 0
XAxis mode: Wavelengths
Number of Pixels in Spectrum: 2048
>>>>>Begin Spectral Data<<<<<
223.165	-29.25
223.4	-29.25
223.635	-29.25
223.869	-17.25
224.104	3.75
224.338	-10.25
224.573	-23.25
224.808	-18.25
225.042	-6.25
225.277	-2.25
225.511	-5.25
225.746	21.75
225.98	10.75
226.215	7.75
226.449	15.75
226.683	11.75
226.918	25.75
227.152	14.75
227.387	25.75
227.621	30.75
227.856	53.75
228.09	46.75
228.324	54.75
228.559	58.75
228.793	71.75
229.027	113.75
229.262	131.75
229.496	139.75
229.73	137.75
229.964	159.75
230.199	173.75
230.433	156.75
230.667	184.75
230.901	185.75
231.136	147.75
231.37	151.75
231.604	167.75
231.838	178.75
232.072	165.75
232.306	167.75
232.541	172.75
232.775	187.75
233.009	208.75
233.243	174.75
233.477	181.75
233.711	181.75
233.945	205.75
234.179	179.75
234.413	195.75
234.647	203.75
234.881	194.75
235.115	192.75
235.349	185.75
235.583	191.75
235.817	195.75
236.051	199.75
236.285	189.75
236.519	201.75
236.753	221.75
236.987	225.75
237.221	229.75
237.455	225.75
237.689	227.75
237.922	226.75
238.156	201.75
238.39	219.75
238.624	233.75
238.858	233.75
239.091	239.75
239.325	233.75
239.559	266.75
239.793	285.75
240.027	293.75
240.26	277.75
240.494	215.75
240.728	231.75
240.961	229.75
241.195	242.75
241.429	262.75
241.662	242.75
241.896	243.75
242.13	229.75
242.363	267.75
242.597	269.75
242.83	283.75
243.064	276.75
243.298	269.75
243.531	276.75
243.765	272.75
243.998	262.75
244.232	259.75
244.465	241.75
244.699	259.75
244.932	267.75
245.166	309.75
245.399	283.75
245.633	265.75
245.866	299.75
246.099	262.75
246.333	282.75
246.566	302.75
246.8	315.75
247.033	355.75
247.266	305.75
247.5	275.75
247.733	294.75
247.966	329.75
248.2	364.75
248.433	337.75
248.666	360.75
248.899	365.75
249.133	412.75
249.366	457.75
249.599	407.75
249.832	341.75
250.066	354.75
250.299	348.75
250.532	344.75
250.765	324.75
250.998	316.75
251.231	347.75
251.465	342.75
251.698	334.75
251.931	341.75
252.164	333.75
252.397	356.75
252.63	356.75
252.863	328.75
253.096	317.75
253.329	336.75
253.562	333.75
253.795	341.75
254.028	352.75
254.261	343.75
254.494	342.75
254.727	325.75
254.96	352.75
255.193	376.75
255.426	413.75
255.659	443.75
255.892	429.75
256.124	382.75
256.357	368.75
256.59	386.75
256.823	402.75
257.056	412.75
257.289	442.75
257.521	489.75
257.754	439.75
257.987	445.75
258.22	456.75
258.452	449.75
258.685	383.75
258.918	381.75
259.151	388.75
259.383	358.75
259.616	354.75
259.849	361.75
260.081	394.75
260.314	441.75
260.547	457.75
260.779	459.75
261.012	417.75
261.244	405.75
261.477	387.75
261.71	402.75
261.942	401.75
262.175	364.75
262.407	387.75
262.64	383.75
262.872	352.75
263.105	359.75
263.337	348.75
263.57	369.75
263.802	359.75
264.035	351.75
264.267	349.75
264.499	326.75
264.732	369.75
264.964	377.75
265.197	394.75
265.429	421.75
265.661	437.75
265.894	478.75
266.126	465.75
266.358	447.75
266.591	470.75
266.823	473.75
267.055	456.75
267.287	449.75
267.52	433.75
267.752	430.75
267.984	433.75
268.216	466.75
268.448	444.75
268.681	427.75
268.913	405.75
269.145	394.75
269.377	393.75
269.609	434.75
269.841	502.75
270.073	563.75
270.306	617.75
270.538	650.75
270.77	513.75
271.002	469.75
271.234	448.75
271.466	461.75
271.698	527.75
271.93	579.75
272.162	571.75
272.394	537.75
272.626	478.75
272.858	461.75
273.09	401.75
273.322	415.75
273.553	393.75
273.785	405.75
274.017	389.75
274.249	439.75
274.481	423.75
274.713	406.75
274.945	399.75
275.176	393.75
275.408	399.75
275.64	391.75
275.872	372.75
276.104	429.75
276.335	469.75
276.567	528.75
276.799	514.75
277.031	474.75
277.262	449.75
277.494	481.75
277.726	503.75
277.957	487.75
278.189	457.75
278.421	415.75
278.652	408.75
278.884	415.75
279.115	411.75
279.347	441.75
279.579	426.75
279.81	425.75
280.042	463.75
280.273	507.75
280.505	527.75
280.736	504.75
280.968	471.75
281.199	426.75
281.431	407.75
281.662	391.75
281.894	417.75
282.125	444.75
282.356	426.75
282.588	427.75
282.819	451.75
283.051	478.75
283.282	513.75
283.513	509.75
283.745	450.75
283.976	403.75
284.207	420.75
284.439	435.75
284.67	437.75
284.901	433.75
285.132	445.75
285.364	435.75
285.595	435.75
285.826	457.75
286.057	445.75
286.288	419.75
286.52	457.75
286.751	490.75
286.982	485.75
287.213	442.75
287.444	408.75
287.675	403.75
287.906	451.75
288.138	481.75
288.369	458.75
288.6	438.75
288.831	429.75
289.062	416.75
289.293	460.75
289.524	443.75
289.755	453.75
289.986	451.75
290.217	422.75
290.448	458.75
290.679	448.75
290.91	464.75
291.141	471.75
291.371	485.75
291.602	470.75
291.833	474.75
292.064	484.75
292.295	486.75
292.526	486.75
292.757	493.75
292.987	487.75
293.218	479.75
293.449	528.75
293.68	566.75
293.91	581.75
294.141	538.75
294.372	529.75
294.603	554.75
294.833	572.75
295.064	537.75
295.295	487.75
295.525	449.75
295.756	472.75
295.987	417.75
296.217	431.75
296.448	437.75
296.679	469.75
296.909	442.75
297.14	474.75
297.37	475.75
297.601	495.75
297.831	494.75
298.062	519.75
298.292	486.75
298.523	465.75
298.753	463.75
298.984	473.75
299.214	453.75
299.445	473.75
299.675	494.75
299.905	498.75
300.136	487.75
300.366	449.75
300.597	476.75
300.827	455.75
301.057	473.75
301.288	495.75
301.518	512.75
301.748	505.75
301.979	535.75
302.209	559.75
302.439	574.75
302.669	578.75
302.9	551.75
303.13	502.75
303.36	492.75
303.59	478.75
303.82	509.75
304.051	535.75
304.281	527.75
304.511	522.75
304.741	581.75
304.971	592.75
305.201	626.75
305.431	554.75
305.661	456.75
305.891	422.75
306.121	460.75
306.352	484.75
306.582	494.75
306.812	530.75
307.042	561.75
307.272	530.75
307.502	586.75
307.731	631.75
307.961	612.75
308.191	577.75
308.421	507.75
308.651	486.75
308.881	490.75
309.111	485.75
309.341	496.75
309.571	484.75
309.8	499.75
310.03	484.75
310.26	478.75
310.49	497.75
310.72	511.75
310.949	515.75
311.179	524.75
311.409	481.75
311.639	486.75
311.868	491.75
312.098	497.75
312.328	495.75
312.557	488.75
312.787	493.75
313.017	501.75
313.246	532.75
313.476	513.75
313.706	534.75
313.935	527.75
314.165	528.75
314.394	537.75
314.624	577.75
314.853	601.75
315.083	611.75
315.312	613.75
315.542	578.75
315.771	537.75
316.001	545.75
316.23	553.75
316.46	542.75
316.689	542.75
316.919	507.75
317.148	515.75
317.377	531.75
317.607	579.75
317.836	617.75
318.065	624.75
318.295	598.75
318.524	576.75
318.753	579.75
318.983	545.75
319.212	537.75
319.441	543.75
319.67	542.75
319.9	533.75
320.129	591.75
320.358	621.75
320.587	591.75
320.816	614.75
321.046	570.75
321.275	578.75
321.504	608.75
321.733	629.75
321.962	581.75
322.191	542.75
322.42	539.75
322.649	548.75
322.878	566.75
323.108	569.75
323.337	539.75
323.566	574.75
323.795	564.75
324.024	571.75
324.253	550.75
324.482	554.75
324.71	543.75
324.939	532.75
325.168	546.75
325.397	569.75
325.626	580.75
325.855	560.75
326.084	541.75
326.313	565.75
326.542	580.75
326.77	576.75
326.999	577.75
327.228	532.75
327.457	532.75
327.686	530.75
327.914	542.75
328.143	555.75
328.372	547.75
328.6	549.75
328.829	535.75
329.058	541.75
329.287	539.75
329.515	559.75
329.744	570.75
329.972	598.75
330.201	618.75
330.43	598.75
330.658	580.75
330.887	607.75
331.115	577.75
331.344	563.75
331.572	570.75
331.801	562.75
332.03	564.75
332.258	586.75
332.486	628.75
332.715	618.75
332.943	586.75
333.172	581.75
333.4	612.75
333.629	613.75
333.857	677.75
334.085	753.75
334.314	810.75
334.542	837.75
334.771	744.75
334.999	685.75
335.227	627.75
335.455	617.75
335.684	615.75
335.912	652.75
336.14	641.75
336.369	608.75
336.597	580.75
336.825	581.75
337.053	599.75
337.281	636.75
337.51	673.75
337.738	665.75
337.966	619.75
338.194	593.75
338.422	592.75
338.65	587.75
338.878	568.75
339.106	568.75
339.334	561.75
339.562	530.75
339.79	591.75
340.018	625.75
340.246	633.75
340.474	631.75
340.702	621.75
340.93	610.75
341.158	606.75
341.386	602.75
341.614	584.75
341.842	583.75
342.07	579.75
342.298	602.75
342.526	597.75
342.754	581.75
342.981	568.75
343.209	594.75
343.437	565.75
343.665	581.75
343.893	603.75
344.12	618.75
344.348	639.75
344.576	589.75
344.804	593.75
345.031	587.75
345.259	584.75
345.487	572.75
345.714	551.75
345.942	555.75
346.17	565.75
346.397	553.75
346.625	552.75
346.853	532.75
347.08	530.75
347.308	532.75
347.535	554.75
347.763	575.75
347.99	557.75
348.218	529.75
348.445	543.75
348.673	558.75
348.9	575.75
349.128	582.75
349.355	602.75
349.583	584.75
349.81	559.75
350.037	510.75
350.265	523.75
350.492	567.75
350.72	539.75
350.947	565.75
351.174	546.75
351.402	550.75
351.629	539.75
351.856	519.75
352.083	508.75
352.311	543.75
352.538	576.75
352.765	586.75
352.992	545.75
353.22	534.75
353.447	539.75
353.674	544.75
353.901	569.75
354.128	554.75
354.355	563.75
354.583	577.75
354.81	583.75
355.037	577.75
355.264	578.75
355.491	554.75
355.718	542.75
355.945	561.75
356.172	551.75
356.399	537.75
356.626	536.75
356.853	593.75
357.08	617.75
357.307	648.75
357.534	635.75
357.761	561.75
357.988	531.75
358.215	541.75
358.441	539.75
358.668	529.75
358.895	564.75
359.122	597.75
359.349	621.75
359.576	609.75
359.802	568.75
360.029	562.75
360.256	538.75
360.483	539.75
360.709	567.75
360.936	583.75
361.163	636.75
361.39	647.75
361.616	698.75
361.843	680.75
362.07	622.75
362.296	565.75
362.523	576.75
362.749	562.75
362.976	564.75
363.203	564.75
363.429	547.75
363.656	544.75
363.882	601.75
364.109	641.75
364.335	665.75
364.562	635.75
364.788	587.75
365.015	568.75
365.241	539.75
365.468	570.75
365.694	606.75
365.92	623.75
366.147	596.75
366.373	551.75
366.599	561.75
366.826	563.75
367.052	576.75
367.278	589.75
367.505	596.75
367.731	587.75
367.957	571.75
368.184	638.75
368.41	669.75
368.636	641.75
368.862	659.75
369.089	655.75
369.315	626.75
369.541	603.75
369.767	593.75
369.993	574.75
370.219	599.75
370.445	608.75
370.672	632.75
370.898	687.75
371.124	647.75
371.35	623.75
371.576	644.75
371.802	647.75
372.028	623.75
372.254	615.75
372.48	609.75
372.706	590.75
372.932	593.75
373.158	602.75
373.384	629.75
373.61	636.75
373.835	657.75
374.061	625.75
374.287	615.75
374.513	601.75
374.739	639.75
374.965	633.75
375.191	645.75
375.416	618.75
375.642	653.75
375.868	707.75
376.094	703.75
376.319	662.75
376.545	645.75
376.771	643.75
376.997	674.75
377.222	663.75
377.448	650.75
377.674	667.75
377.899	670.75
378.125	731.75
378.35	704.75
378.576	652.75
378.802	639.75
379.027	642.75
379.253	626.75
379.478	635.75
379.704	633.75
379.929	642.75
380.155	637.75
380.38	660.75
380.606	639.75
380.831	669.75
381.057	695.75
381.282	688.75
381.507	701.75
381.733	712.75
381.958	745.75
382.184	667.75
382.409	650.75
382.634	698.75
382.86	643.75
383.085	661.75
383.31	720.75
383.535	779.75
383.761	783.75
383.986	728.75
384.211	739.75
384.436	735.75
384.662	773.75
384.887	758.75
385.112	707.75
385.337	726.75
385.562	729.75
385.787	726.75
386.013	751.75
386.238	755.75
386.463	745.75
386.688	830.75
386.913	866.75
387.138	834.75
387.363	741.75
387.588	769.75
387.813	763.75
388.038	783.75
388.263	787.75
388.488	749.75
388.713	697.75
388.938	709.75
389.163	725.75
389.387	741.75
389.612	705.75
389.837	754.75
390.062	749.75
390.287	747.75
390.512	737.75
390.736	690.75
390.961	717.75
391.186	675.75
391.411	700.75
391.636	746.75
391.86	746.75
392.085	736.75
392.31	734.75
392.534	730.75
392.759	760.75
392.984	756.75
393.208	772.75
393.433	772.75
393.658	825.75
393.882	815.75
394.107	746.75
394.331	788.75
394.556	775.75
394.78	751.75
395.005	805.75
395.229	813.75
395.454	857.75
395.678	849.75
395.903	830.75
396.127	793.75
396.352	799.75
396.576	840.75
396.801	873.75
397.025	844.75
397.249	829.75
397.474	794.75
397.698	822.75
397.922	832.75
398.147	886.75
398.371	913.75
398.595	879.75
398.82	878.75
399.044	865.75
399.268	903.75
399.492	934.75
399.717	963.75
399.941	977.75
400.165	954.75
400.389	941.75
400.613	1009.75
400.837	1109.75
401.062	1177.75
401.286	995.75
401.51	941.75
401.734	973.75
401.958	948.75
402.182	899.75
402.406	850.75
402.63	844.75
402.854	874.75
403.078	874.75
403.302	913.75
403.526	891.75
403.75	932.75
403.974	928.75
404.198	922.75
404.422	956.75
404.645	1003.75
404.869	963.75
405.093	885.75
405.317	896.75
405.541	912.75
405.765	921.75
405.988	927.75
406.212	914.75
406.436	949.75
406.66	975.75
406.883	1002.75
407.107	1120.75
407.331	1235.75
407.555	1240.75
407.778	1115.75
408.002	952.75
408.226	926.75
408.449	957.75
408.673	937.75
408.896	961.75
409.12	941.75
409.344	936.75
409.567	893.75
409.791	951.75
410.014	934.75
410.238	996.75
410.461	1022.75
410.685	941.75
410.908	903.75
411.132	923.75
411.355	930.75
411.578	933.75
411.802	949.75
412.025	965.75
412.249	935.75
412.472	901.75
412.695	908.75
412.919	904.75
413.142	895.75
413.365	933.75
413.589	906.75
413.812	957.75
414.035	983.75
414.258	919.75
414.482	899.75
414.705	927.75
414.928	902.75
415.151	895.75
415.374	904.75
415.597	928.75
415.821	918.75
416.044	920.75
416.267	929.75
416.49	887.75
416.713	907.75
416.936	935.75
417.159	966.75
417.382	943.75
417.605	919.75
417.828	900.75
418.051	968.75
418.274	918.75
418.497	916.75
418.72	889.75
418.943	915.75
419.166	954.75
419.389	967.75
419.611	936.75
419.834	921.75
420.057	918.75
420.28	902.75
420.503	916.75
420.726	943.75
420.948	939.75
421.171	905.75
421.394	938.75
421.617	974.75
421.839	974.75
422.062	961.75
422.285	892.75
422.507	912.75
422.73	906.75
422.953	871.75
423.175	878.75
423.398	901.75
423.621	908.75
423.843	899.75
424.066	959.75
424.288	999.75
424.511	1025.75
424.733	988.75
424.956	913.75
425.178	925.75
425.401	891.75
425.623	945.75
425.846	919.75
426.068	945.75
426.291	945.75
426.513	946.75
426.735	948.75
426.958	1056.75
427.18	1050.75
427.402	974.75
427.625	993.75
427.847	968.75
428.069	910.75
428.292	912.75
428.514	893.75
428.736	879.75
428.958	886.75
429.181	910.75
429.403	1058.75
429.625	1220.75
429.847	1017.75
430.069	961.75
430.292	1027.75
430.514	992.75
430.736	962.75
430.958	932.75
431.18	910.75
431.402	847.75
431.624	865.75
431.846	789.75
432.068	724.75
432.29	751.75
432.512	799.75
432.734	875.75
432.956	893.75
433.178	959.75
433.4	917.75
433.622	949.75
433.844	901.75
434.066	853.75
434.287	811.75
434.509	765.75
434.731	817.75
434.953	904.75
435.175	921.75
435.397	897.75
435.618	880.75
435.84	838.75
436.062	813.75
436.284	849.75
436.505	909.75
436.727	919.75
436.949	895.75
437.17	886.75
437.392	870.75
437.614	827.75
437.835	788.75
438.057	800.75
438.278	811.75
438.5	861.75
438.721	909.75
438.943	895.75
439.165	901.75
439.386	920.75
439.608	938.75
439.829	931.75
440.05	929.75
440.272	940.75
440.493	949.75
440.715	966.75
440.936	1001.75
441.158	1036.75
441.379	1033.75
441.6	1002.75
441.822	999.75
442.043	997.75
442.264	971.75
442.486	939.75
442.707	908.75
442.928	957.75
443.149	941.75
443.371	978.75
443.592	1017.75
443.813	1024.75
444.034	1009.75
444.255	989.75
444.476	1009.75
444.698	1011.75
444.919	1023.75
445.14	1110.75
445.361	1095.75
445.582	1062.75
445.803	1034.75
446.024	1012.75
446.245	1036.75
446.466	1061.75
446.687	1009.75
446.908	1036.75
447.129	981.75
447.35	986.75
447.571	971.75
447.792	945.75
448.013	959.75
448.234	945.75
448.455	990.75
448.675	950.75
448.896	908.75
449.117	882.75
449.338	914.75
449.559	917.75
449.779	963.75
450	1003.75
450.221	1042.75
450.442	995.75
450.662	952.75
450.883	874.75
451.104	859.75
451.324	870.75
451.545	878.75
451.766	877.75
451.986	831.75
452.207	833.75
452.428	782.75
452.648	787.75
452.869	731.75
453.089	773.75
453.31	799.75
453.53	726.75
453.751	733.75
453.971	723.75
454.192	749.75
454.412	755.75
454.633	743.75
454.853	765.75
455.073	760.75
455.294	759.75
455.514	777.75
455.734	768.75
455.955	768.75
456.175	731.75
456.395	728.75
456.616	745.75
456.836	726.75
457.056	721.75
457.276	677.75
457.497	712.75
457.717	680.75
457.937	697.75
458.157	730.75
458.377	698.75
458.598	678.75
458.818	697.75
459.038	708.75
459.258	724.75
459.478	715.75
459.698	726.75
459.918	713.75
460.138	787.75
460.358	821.75
460.578	841.75
460.798	840.75
461.018	871.75
461.238	863.75
461.458	840.75
461.678	840.75
461.898	832.75
462.118	820.75
462.338	842.75
462.558	860.75
462.777	827.75
462.997	857.75
463.217	865.75
463.437	889.75
463.657	815.75
463.876	835.75
464.096	827.75
464.316	832.75
464.536	869.75
464.755	838.75
464.975	867.75
465.195	856.75
465.414	880.75
465.634	850.75
465.854	850.75
466.073	953.75
466.293	943.75
466.512	861.75
466.732	883.75
466.951	889.75
467.171	874.75
467.391	866.75
467.61	872.75
467.829	897.75
468.049	971.75
468.268	1020.75
468.488	931.75
468.707	889.75
468.927	892.75
469.146	873.75
469.365	915.75
469.585	931.75
469.804	907.75
470.023	934.75
470.243	903.75
470.462	912.75
470.681	909.75
470.901	903.75
471.12	925.75
471.339	926.75
471.558	918.75
471.777	930.75
471.997	898.75
472.216	808.75
472.435	769.75
472.654	753.75
472.873	742.75
473.092	806.75
473.311	810.75
473.53	797.75
473.749	815.75
473.968	803.75
474.187	838.75
474.406	851.75
474.625	840.75
474.844	891.75
475.063	878.75
475.282	867.75
475.501	807.75
475.72	819.75
475.939	897.75
476.158	892.75
476.377	841.75
476.596	850.75
476.814	793.75
477.033	807.75
477.252	834.75
477.471	886.75
477.69	903.75
477.908	897.75
478.127	957.75
478.346	981.75
478.564	1004.75
478.783	1010.75
479.002	1013.75
479.22	980.75
479.439	1020.75
479.658	1036.75
479.876	985.75
480.095	895.75
480.313	878.75
480.532	873.75
480.751	868.75
480.969	818.75
481.188	791.75
481.406	774.75
481.624	754.75
481.843	805.75
482.061	807.75
482.28	863.75
482.498	871.75
482.717	851.75
482.935	899.75
483.153	965.75
483.372	1025.75
483.59	1013.75
483.808	957.75
484.027	961.75
484.245	996.75
484.463	1173.75
484.681	1253.75
484.9	1025.75
485.118	969.75
485.336	943.75
485.554	888.75
485.772	884.75
485.99	867.75
486.209	895.75
486.427	913.75
486.645	882.75
486.863	992.75
487.081	1010.75
487.299	1021.75
487.517	1004.75
487.735	1086.75
487.953	1207.75
488.171	1154.75
488.389	1120.75
488.607	1076.75
488.825	1135.75
489.043	1016.75
489.261	974.75
489.479	1033.75
489.696	1023.75
489.914	1023.75
490.132	1018.75
490.35	1054.75
490.568	1149.75
490.786	1149.75
491.003	1163.75
491.221	1224.75
491.439	1268.75
491.657	1318.75
491.874	1348.75
492.092	1405.75
492.31	1493.75
492.527	1460.75
492.745	1361.75
492.963	1312.75
493.18	1314.75
493.398	1329.75
493.615	1334.75
493.833	1288.75
494.05	1197.75
494.268	1230.75
494.485	1206.75
494.703	1222.75
494.92	1199.75
495.138	1182.75
495.355	1244.75
495.573	1280.75
495.79	1262.75
496.008	1276.75
496.225	1236.75
496.442	1246.75
496.66	1222.75
496.877	1229.75
497.094	1215.75
497.312	1221.75
497.529	1183.75
497.746	1207.75
497.963	1280.75
498.181	1299.75
498.398	1228.75
498.615	1171.75
498.832	1142.75
499.049	1147.75
499.267	1149.75
499.484	1231.75
499.701	1336.75
499.918	1331.75
500.135	1482.75
500.352	1552.75
500.569	1575.75
