Data from WStandard_LampEnergy5.5LIBS07252019.E.O._I.C._HRD10591_16-09-20-920.txt Node
Date: Thu Jul 25 16:09:20 EDT 2019
User: cochatt
Spectrometer: HR+D1059
Trigger mode: 1
Integration Time (sec): 1.000000E-1
Scans to average: 1
Electric dark correction enabled: true
Nonlinearity correction enabled: false
Boxcar width: 0
XAxis mode: Wavelengths
Number of Pixels in Spectrum: 2048
>>>>>Begin Spectral Data<<<<<
223.165	-18.5
223.4	-18.5
223.635	-18.5
223.869	-17.5
224.104	-23.5
224.338	3.5
224.573	-10.5
224.808	-6.5
225.042	-1.5
225.277	-8.5
225.511	-7.5
225.746	2.5
225.98	5.5
226.215	14.5
226.449	10.5
226.683	11.5
226.918	21.5
227.152	24.5
227.387	41.5
227.621	40.5
227.856	52.5
228.09	52.5
228.324	69.5
228.559	69.5
228.793	145.5
229.027	357.5
229.262	353.5
229.496	390.5
229.73	372.5
229.964	420.5
230.199	440.5
230.433	457.5
230.667	501.5
230.901	502.5
231.136	477.5
231.37	478.5
231.604	453.5
231.838	465.5
232.072	455.5
232.306	439.5
232.541	476.5
232.775	552.5
233.009	598.5
233.243	564.5
233.477	509.5
233.711	538.5
233.945	559.5
234.179	548.5
234.413	554.5
234.647	623.5
234.881	569.5
235.115	532.5
235.349	554.5
235.583	553.5
235.817	569.5
236.051	519.5
236.285	530.5
236.519	575.5
236.753	665.5
236.987	654.5
237.221	664.5
237.455	740.5
237.689	712.5
237.922	666.5
238.156	640.5
238.39	625.5
238.624	679.5
238.858	702.5
239.091	705.5
239.325	782.5
239.559	892.5
239.793	934.5
240.027	991.5
240.26	990.5
240.494	741.5
240.728	706.5
240.961	696.5
241.195	701.5
241.429	803.5
241.662	773.5
241.896	746.5
242.13	740.5
242.363	812.5
242.597	875.5
242.83	863.5
243.064	860.5
243.298	907.5
243.531	887.5
243.765	898.5
243.998	899.5
244.232	790.5
244.465	765.5
244.699	779.5
244.932	868.5
245.166	1010.5
245.399	970.5
245.633	882.5
245.866	865.5
246.099	896.5
246.333	906.5
246.566	934.5
246.8	1026.5
247.033	1137.5
247.266	1060.5
247.5	1012.5
247.733	1024.5
247.966	1059.5
248.2	1187.5
248.433	1157.5
248.666	1185.5
248.899	1284.5
249.133	1464.5
249.366	1697.5
249.599	1408.5
249.832	1175.5
250.066	1202.5
250.299	1268.5
250.532	1158.5
250.765	1022.5
250.998	1106.5
251.231	1160.5
251.465	1196.5
251.698	1111.5
251.931	1107.5
252.164	1159.5
252.397	1234.5
252.63	1187.5
252.863	1035.5
253.096	1034.5
253.329	1088.5
253.562	1163.5
253.795	1242.5
254.028	1231.5
254.261	1148.5
254.494	1088.5
254.727	1070.5
254.96	1119.5
255.193	1188.5
255.426	1348.5
255.659	1574.5
255.892	1638.5
256.124	1334.5
256.357	1298.5
256.59	1405.5
256.823	1356.5
257.056	1355.5
257.289	1612.5
257.521	1864.5
257.754	1639.5
257.987	1510.5
258.22	1696.5
258.452	1697.5
258.685	1331.5
258.918	1290.5
259.151	1337.5
259.383	1287.5
259.616	1124.5
259.849	1189.5
260.081	1329.5
260.314	1468.5
260.547	1600.5
260.779	1680.5
261.012	1537.5
261.244	1393.5
261.477	1332.5
261.71	1398.5
261.942	1348.5
262.175	1284.5
262.407	1423.5
262.64	1326.5
262.872	1252.5
263.105	1198.5
263.337	1259.5
263.57	1275.5
263.802	1272.5
264.035	1207.5
264.267	1114.5
264.499	1079.5
264.732	1189.5
264.964	1254.5
265.197	1289.5
265.429	1332.5
265.661	1505.5
265.894	1684.5
266.126	1737.5
266.358	1509.5
266.591	1621.5
266.823	1719.5
267.055	1540.5
267.287	1534.5
267.52	1533.5
267.752	1481.5
267.984	1506.5
268.216	1614.5
268.448	1647.5
268.681	1595.5
268.913	1416.5
269.145	1392.5
269.377	1356.5
269.609	1437.5
269.841	1660.5
270.073	1942.5
270.306	2129.5
270.538	2327.5
270.77	1992.5
271.002	1680.5
271.234	1605.5
271.466	1604.5
271.698	1732.5
271.93	2092.5
272.162	2102.5
272.394	1881.5
272.626	1836.5
272.858	1639.5
273.09	1378.5
273.322	1415.5
273.553	1304.5
273.785	1348.5
274.017	1388.5
274.249	1515.5
274.481	1555.5
274.713	1415.5
274.945	1375.5
275.176	1369.5
275.408	1350.5
275.64	1349.5
275.872	1318.5
276.104	1383.5
276.335	1555.5
276.567	1762.5
276.799	1850.5
277.031	1638.5
277.262	1568.5
277.494	1647.5
277.726	1816.5
277.957	1752.5
278.189	1600.5
278.421	1474.5
278.652	1450.5
278.884	1414.5
279.115	1410.5
279.347	1462.5
279.579	1414.5
279.81	1431.5
280.042	1549.5
280.273	1710.5
280.505	1665.5
280.736	1767.5
280.968	1652.5
281.199	1453.5
281.431	1398.5
281.662	1382.5
281.894	1412.5
282.125	1440.5
282.356	1481.5
282.588	1531.5
282.819	1498.5
283.051	1613.5
283.282	1766.5
283.513	1697.5
283.745	1502.5
283.976	1387.5
284.207	1332.5
284.439	1424.5
284.67	1428.5
284.901	1477.5
285.132	1542.5
285.364	1541.5
285.595	1506.5
285.826	1460.5
286.057	1462.5
286.288	1454.5
286.52	1544.5
286.751	1657.5
286.982	1704.5
287.213	1540.5
287.444	1415.5
287.675	1444.5
287.906	1498.5
288.138	1602.5
288.369	1559.5
288.6	1411.5
288.831	1434.5
289.062	1405.5
289.293	1464.5
289.524	1492.5
289.755	1562.5
289.986	1529.5
290.217	1419.5
290.448	1458.5
290.679	1513.5
290.91	1495.5
291.141	1529.5
291.371	1602.5
291.602	1580.5
291.833	1566.5
292.064	1589.5
292.295	1574.5
292.526	1600.5
292.757	1658.5
292.987	1613.5
293.218	1484.5
293.449	1617.5
293.68	1799.5
293.91	1969.5
294.141	1794.5
294.372	1738.5
294.603	1780.5
294.833	1878.5
295.064	1806.5
295.295	1620.5
295.525	1572.5
295.756	1470.5
295.987	1414.5
296.217	1406.5
296.448	1474.5
296.679	1505.5
296.909	1462.5
297.14	1428.5
297.37	1434.5
297.601	1563.5
297.831	1662.5
298.062	1668.5
298.292	1588.5
298.523	1485.5
298.753	1489.5
298.984	1503.5
299.214	1464.5
299.445	1545.5
299.675	1562.5
299.905	1565.5
300.136	1591.5
300.366	1476.5
300.597	1439.5
300.827	1463.5
301.057	1472.5
301.288	1601.5
301.518	1609.5
301.748	1595.5
301.979	1659.5
302.209	1698.5
302.439	1820.5
302.669	1917.5
302.9	1774.5
303.13	1632.5
303.36	1609.5
303.59	1649.5
303.82	1646.5
304.051	1610.5
304.281	1597.5
304.511	1581.5
304.741	1734.5
304.971	1842.5
305.201	2001.5
305.431	1872.5
305.661	1574.5
305.891	1444.5
306.121	1412.5
306.352	1480.5
306.582	1540.5
306.812	1622.5
307.042	1760.5
307.272	1762.5
307.502	1790.5
307.731	1925.5
307.961	2091.5
308.191	1926.5
308.421	1638.5
308.651	1570.5
308.881	1549.5
309.111	1546.5
309.341	1519.5
309.571	1512.5
309.8	1518.5
310.03	1541.5
310.26	1551.5
310.49	1508.5
310.72	1582.5
310.949	1650.5
311.179	1652.5
311.409	1622.5
311.639	1628.5
311.868	1543.5
312.098	1585.5
312.328	1577.5
312.557	1576.5
312.787	1574.5
313.017	1660.5
313.246	1642.5
313.476	1588.5
313.706	1646.5
313.935	1614.5
314.165	1622.5
314.394	1684.5
314.624	1776.5
314.853	1871.5
315.083	1946.5
315.312	2014.5
315.542	1860.5
315.771	1666.5
316.001	1662.5
316.23	1794.5
316.46	1743.5
316.689	1732.5
316.919	1626.5
317.148	1567.5
317.377	1580.5
317.607	1694.5
317.836	1901.5
318.065	2009.5
318.295	1917.5
318.524	1828.5
318.753	1767.5
318.983	1751.5
319.212	1681.5
319.441	1691.5
319.67	1695.5
319.9	1708.5
320.129	1768.5
320.358	1863.5
320.587	1896.5
320.816	1891.5
321.046	1814.5
321.275	1752.5
321.504	1774.5
321.733	1919.5
321.962	1884.5
322.191	1668.5
322.42	1705.5
322.649	1678.5
322.878	1658.5
323.108	1668.5
323.337	1777.5
323.566	1785.5
323.795	1762.5
324.024	1784.5
324.253	1742.5
324.482	1725.5
324.71	1693.5
324.939	1600.5
325.168	1652.5
325.397	1687.5
325.626	1760.5
325.855	1739.5
326.084	1674.5
326.313	1707.5
326.542	1719.5
326.77	1768.5
326.999	1825.5
327.228	1710.5
327.457	1648.5
327.686	1607.5
327.914	1663.5
328.143	1717.5
328.372	1648.5
328.6	1674.5
328.829	1663.5
329.058	1692.5
329.287	1667.5
329.515	1698.5
329.744	1721.5
329.972	1814.5
330.201	1886.5
330.43	1856.5
330.658	1840.5
330.887	1802.5
331.115	1794.5
331.344	1830.5
331.572	1786.5
331.801	1796.5
332.03	1794.5
332.258	1809.5
332.486	1820.5
332.715	1811.5
332.943	1881.5
333.172	1816.5
333.4	1814.5
333.629	1862.5
333.857	2000.5
334.085	2141.5
334.314	2378.5
334.542	2621.5
334.771	2410.5
334.999	2184.5
335.227	2038.5
335.455	1922.5
335.684	1927.5
335.912	1976.5
336.14	2040.5
336.369	1952.5
336.597	1882.5
336.825	1822.5
337.053	1880.5
337.281	1959.5
337.51	2057.5
337.738	2132.5
337.966	2033.5
338.194	1843.5
338.422	1850.5
338.65	1774.5
338.878	1741.5
339.106	1718.5
339.334	1684.5
339.562	1717.5
339.79	1728.5
340.018	1834.5
340.246	1862.5
340.474	1887.5
340.702	1854.5
340.93	1792.5
341.158	1834.5
341.386	1831.5
341.614	1782.5
341.842	1761.5
342.07	1763.5
342.298	1788.5
342.526	1788.5
342.754	1735.5
342.981	1768.5
343.209	1764.5
343.437	1756.5
343.665	1764.5
343.893	1820.5
344.12	1889.5
344.348	1978.5
344.576	1910.5
344.804	1750.5
345.031	1744.5
345.259	1756.5
345.487	1769.5
345.714	1646.5
345.942	1636.5
346.17	1633.5
346.397	1656.5
346.625	1696.5
346.853	1621.5
347.08	1551.5
347.308	1619.5
347.535	1666.5
347.763	1696.5
347.99	1661.5
348.218	1566.5
348.445	1615.5
348.673	1626.5
348.9	1682.5
349.128	1723.5
349.355	1814.5
349.583	1769.5
349.81	1672.5
350.037	1525.5
350.265	1561.5
350.492	1524.5
350.72	1596.5
350.947	1642.5
351.174	1708.5
351.402	1648.5
351.629	1573.5
351.856	1534.5
352.083	1554.5
352.311	1570.5
352.538	1594.5
352.765	1667.5
352.992	1719.5
353.22	1632.5
353.447	1572.5
353.674	1594.5
353.901	1644.5
354.128	1566.5
354.355	1618.5
354.583	1664.5
354.81	1677.5
355.037	1686.5
355.264	1692.5
355.491	1638.5
355.718	1662.5
355.945	1643.5
356.172	1600.5
356.399	1582.5
356.626	1603.5
356.853	1664.5
357.08	1758.5
357.307	1868.5
357.534	1948.5
357.761	1688.5
357.988	1609.5
358.215	1573.5
358.441	1597.5
358.668	1558.5
358.895	1550.5
359.122	1634.5
359.349	1829.5
359.576	1800.5
359.802	1639.5
360.029	1588.5
360.256	1558.5
360.483	1607.5
360.709	1652.5
360.936	1702.5
361.163	1737.5
361.39	1906.5
361.616	2048.5
361.843	1966.5
362.07	1902.5
362.296	1657.5
362.523	1622.5
362.749	1619.5
362.976	1619.5
363.203	1683.5
363.429	1653.5
363.656	1612.5
363.882	1641.5
364.109	1799.5
364.335	1983.5
364.562	1807.5
364.788	1716.5
365.015	1647.5
365.241	1580.5
365.468	1661.5
365.694	1697.5
365.92	1780.5
366.147	1703.5
366.373	1628.5
366.599	1598.5
366.826	1574.5
367.052	1604.5
367.278	1619.5
367.505	1624.5
367.731	1664.5
367.957	1641.5
368.184	1733.5
368.41	1786.5
368.636	1827.5
368.862	1811.5
369.089	1862.5
369.315	1759.5
369.541	1725.5
369.767	1629.5
369.993	1592.5
370.219	1616.5
370.445	1671.5
370.672	1729.5
370.898	1788.5
371.124	1801.5
371.35	1692.5
371.576	1784.5
371.802	1880.5
372.028	1765.5
372.254	1676.5
372.48	1668.5
372.706	1670.5
372.932	1660.5
373.158	1658.5
373.384	1680.5
373.61	1692.5
373.835	1815.5
374.061	1729.5
374.287	1718.5
374.513	1761.5
374.739	1739.5
374.965	1736.5
375.191	1755.5
375.416	1789.5
375.642	1784.5
375.868	1823.5
376.094	1922.5
376.319	1857.5
376.545	1759.5
376.771	1750.5
376.997	1802.5
377.222	1807.5
377.448	1772.5
377.674	1805.5
377.899	1780.5
378.125	1876.5
378.35	1910.5
378.576	1724.5
378.802	1661.5
379.027	1681.5
379.253	1685.5
379.478	1691.5
379.704	1699.5
379.929	1688.5
380.155	1719.5
380.38	1712.5
380.606	1720.5
380.831	1716.5
381.057	1837.5
381.282	1842.5
381.507	1792.5
381.733	1879.5
381.958	1943.5
382.184	1838.5
382.409	1817.5
382.634	1805.5
382.86	1831.5
383.085	1763.5
383.31	1824.5
383.535	1937.5
383.761	2047.5
383.986	1967.5
384.211	1914.5
384.436	1912.5
384.662	2008.5
384.887	2092.5
385.112	1956.5
385.337	2007.5
385.562	1946.5
385.787	1959.5
386.013	2028.5
386.238	1988.5
386.463	2046.5
386.688	2111.5
386.913	2242.5
387.138	2170.5
387.363	2015.5
387.588	2013.5
387.813	2022.5
388.038	2044.5
388.263	2115.5
388.488	2068.5
388.713	1889.5
388.938	1878.5
389.163	1880.5
389.387	1932.5
389.612	1921.5
389.837	1955.5
390.062	1964.5
390.287	1982.5
390.512	1956.5
390.736	1950.5
390.961	1878.5
391.186	1873.5
391.411	1892.5
391.636	1871.5
391.86	1963.5
392.085	1962.5
392.31	1949.5
392.534	1964.5
392.759	2026.5
392.984	1960.5
393.208	1945.5
393.433	2021.5
393.658	2094.5
393.882	2135.5
394.107	1985.5
394.331	1962.5
394.556	1946.5
394.78	1989.5
395.005	2073.5
395.229	2108.5
395.454	2244.5
395.678	2266.5
395.903	2146.5
396.127	2061.5
396.352	2089.5
396.576	2125.5
396.801	2144.5
397.025	2157.5
397.249	2137.5
397.474	2141.5
397.698	2122.5
397.922	2149.5
398.147	2294.5
398.371	2310.5
398.595	2344.5
398.82	2232.5
399.044	2281.5
399.268	2396.5
399.492	2573.5
399.717	2646.5
399.941	2687.5
400.165	2610.5
400.389	2532.5
400.613	2511.5
400.837	2721.5
401.062	3126.5
401.286	2702.5
401.51	2466.5
401.734	2521.5
401.958	2495.5
402.182	2292.5
402.406	2263.5
402.63	2194.5
402.854	2209.5
403.078	2294.5
403.302	2322.5
403.526	2341.5
403.75	2292.5
403.974	2390.5
404.198	2347.5
404.422	2428.5
404.645	2541.5
404.869	2470.5
405.093	2309.5
405.317	2296.5
405.541	2336.5
405.765	2381.5
405.988	2369.5
406.212	2412.5
406.436	2442.5
406.66	2498.5
406.883	2507.5
407.107	2789.5
407.331	3062.5
407.555	3260.5
407.778	3011.5
408.002	2548.5
408.226	2450.5
408.449	2464.5
408.673	2402.5
408.896	2446.5
409.12	2447.5
409.344	2374.5
409.567	2320.5
409.791	2382.5
410.014	2437.5
410.238	2478.5
410.461	2602.5
410.685	2380.5
410.908	2268.5
411.132	2372.5
411.355	2307.5
411.578	2259.5
411.802	2296.5
412.025	2345.5
412.249	2295.5
412.472	2207.5
412.695	2194.5
412.919	2222.5
413.142	2209.5
413.365	2223.5
413.589	2329.5
413.812	2382.5
414.035	2484.5
414.258	2266.5
414.482	2261.5
414.705	2237.5
414.928	2193.5
415.151	2209.5
415.374	2247.5
415.597	2268.5
415.821	2266.5
416.044	2346.5
416.267	2384.5
416.49	2152.5
416.713	2125.5
416.936	2219.5
417.159	2301.5
417.382	2285.5
417.605	2172.5
417.828	2213.5
418.051	2255.5
418.274	2255.5
418.497	2114.5
418.72	2180.5
418.943	2157.5
419.166	2256.5
419.389	2395.5
419.611	2261.5
419.834	2212.5
420.057	2207.5
420.28	2180.5
420.503	2150.5
420.726	2195.5
420.948	2200.5
421.171	2104.5
421.394	2154.5
421.617	2239.5
421.839	2228.5
422.062	2154.5
422.285	2130.5
422.507	2101.5
422.73	2065.5
422.953	2040.5
423.175	2058.5
423.398	2139.5
423.621	2141.5
423.843	2157.5
424.066	2201.5
424.288	2273.5
424.511	2287.5
424.733	2253.5
424.956	2049.5
425.178	2025.5
425.401	2074.5
425.623	2106.5
425.846	2070.5
426.068	2193.5
426.291	2239.5
426.513	2134.5
426.735	2144.5
426.958	2293.5
427.18	2421.5
427.402	2291.5
427.625	2328.5
427.847	2283.5
428.069	2195.5
428.292	2141.5
428.514	2065.5
428.736	2004.5
428.958	2025.5
429.181	2089.5
429.403	2343.5
429.625	2941.5
429.847	2579.5
430.069	2159.5
430.292	2295.5
430.514	2394.5
430.736	2212.5
430.958	2342.5
431.18	2224.5
431.402	2072.5
431.624	2089.5
431.846	2040.5
432.068	2000.5
432.29	2101.5
432.512	2098.5
432.734	2120.5
432.956	2142.5
433.178	2223.5
433.4	2212.5
433.622	2208.5
433.844	2156.5
434.066	2046.5
434.287	2041.5
434.509	2144.5
434.731	2250.5
434.953	2406.5
435.175	2302.5
435.397	2168.5
435.618	2192.5
435.84	2180.5
436.062	2180.5
436.284	2143.5
436.505	2134.5
436.727	2224.5
436.949	2155.5
437.17	2073.5
437.392	2128.5
437.614	2058.5
437.835	2034.5
438.057	2174.5
438.278	2260.5
438.5	2137.5
438.721	2085.5
438.943	2074.5
439.165	2067.5
439.386	2054.5
439.608	2062.5
439.829	2079.5
440.05	2091.5
440.272	2068.5
440.493	2051.5
440.715	2092.5
440.936	2186.5
441.158	2374.5
441.379	2361.5
441.6	2277.5
441.822	2233.5
442.043	2244.5
442.264	2201.5
442.486	2062.5
442.707	2068.5
442.928	2039.5
443.149	2107.5
443.371	2268.5
443.592	2326.5
443.813	2271.5
444.034	2275.5
444.255	2235.5
444.476	2320.5
444.698	2362.5
444.919	2369.5
445.14	2423.5
445.361	2400.5
445.582	2485.5
445.803	2335.5
446.024	2255.5
446.245	2347.5
446.466	2268.5
446.687	2141.5
446.908	2128.5
447.129	2105.5
447.35	2105.5
447.571	2121.5
447.792	2065.5
448.013	2012.5
448.234	2053.5
448.455	2140.5
448.675	2183.5
448.896	1998.5
449.117	1960.5
449.338	2010.5
449.559	2087.5
449.779	2220.5
450	2450.5
450.221	2654.5
450.442	2549.5
450.662	2198.5
450.883	2006.5
451.104	1908.5
451.324	1958.5
451.545	2013.5
451.766	1995.5
451.986	1911.5
452.207	1902.5
452.428	1872.5
452.648	1847.5
452.869	1902.5
453.089	1964.5
453.31	1967.5
453.53	2096.5
453.751	1991.5
453.971	1872.5
454.192	1913.5
454.412	2031.5
454.633	1983.5
454.853	1935.5
455.073	1814.5
455.294	1814.5
455.514	1781.5
455.734	1804.5
455.955	1833.5
456.175	1852.5
456.395	1818.5
456.616	1902.5
456.836	1932.5
457.056	1884.5
457.276	1855.5
457.497	1868.5
457.717	1806.5
457.937	1821.5
458.157	1901.5
458.377	1881.5
458.598	1822.5
458.818	1856.5
459.038	1984.5
459.258	2154.5
459.478	2109.5
459.698	2042.5
459.918	2059.5
460.138	2168.5
460.358	2207.5
460.578	2181.5
460.798	2338.5
461.018	2432.5
461.238	2323.5
461.458	2204.5
461.678	2265.5
461.898	2205.5
462.118	2135.5
462.338	2271.5
462.558	2239.5
462.777	2210.5
462.997	2310.5
463.217	2470.5
463.437	2449.5
463.657	2267.5
463.876	2272.5
464.096	2236.5
464.316	2225.5
464.536	2318.5
464.755	2317.5
464.975	2307.5
465.195	2233.5
465.414	2364.5
465.634	2318.5
465.854	2230.5
466.073	2340.5
466.293	2296.5
466.512	2027.5
466.732	2004.5
466.951	2110.5
467.171	2090.5
467.391	2010.5
467.61	1968.5
467.829	2006.5
468.049	2169.5
468.268	2403.5
468.488	2243.5
468.707	2126.5
468.927	2093.5
469.146	2024.5
469.365	1991.5
469.585	2009.5
469.804	2034.5
470.023	2020.5
470.243	2024.5
470.462	2045.5
470.681	1929.5
470.901	2016.5
471.12	2058.5
471.339	1985.5
471.558	1975.5
471.777	1921.5
471.997	2014.5
472.216	1998.5
472.435	1941.5
472.654	1917.5
472.873	2058.5
473.092	2164.5
473.311	2022.5
473.53	1914.5
473.749	1919.5
473.968	2014.5
474.187	2099.5
474.406	2172.5
474.625	2078.5
474.844	2075.5
475.063	1996.5
475.282	2084.5
475.501	2058.5
475.72	2058.5
475.939	2149.5
476.158	2066.5
476.377	2059.5
476.596	2089.5
476.814	2120.5
477.033	2146.5
477.252	2258.5
477.471	2269.5
477.69	2186.5
477.908	2155.5
478.127	2258.5
478.346	2425.5
478.564	2437.5
478.783	2376.5
479.002	2461.5
479.22	2386.5
479.439	2498.5
479.658	2868.5
479.876	2846.5
480.095	2465.5
480.313	2399.5
480.532	2261.5
480.751	2281.5
480.969	2359.5
481.188	2335.5
481.406	2273.5
481.624	2234.5
481.843	2202.5
482.061	2323.5
482.28	2321.5
482.498	2373.5
482.717	2351.5
482.935	2286.5
483.153	2219.5
483.372	2285.5
483.59	2214.5
483.808	2284.5
484.027	2314.5
484.245	2513.5
484.463	2796.5
484.681	3205.5
484.9	2490.5
485.118	2368.5
485.336	2325.5
485.554	2367.5
485.772	2441.5
485.99	2422.5
486.209	2433.5
486.427	2393.5
486.645	2442.5
486.863	2430.5
487.081	2445.5
487.299	2507.5
487.517	2458.5
487.735	2351.5
487.953	2376.5
488.171	2387.5
488.389	2321.5
488.607	2363.5
488.825	2567.5
489.043	2654.5
489.261	2381.5
489.479	2474.5
489.696	2556.5
489.914	2520.5
490.132	2445.5
490.35	2390.5
490.568	2472.5
490.786	2398.5
491.003	2312.5
491.221	2340.5
491.439	2445.5
491.657	2470.5
491.874	2449.5
492.092	2486.5
492.31	2501.5
492.527	2420.5
492.745	2383.5
492.963	2416.5
493.18	2456.5
493.398	2670.5
493.615	2732.5
493.833	2535.5
494.05	2450.5
494.268	2484.5
494.485	2570.5
494.703	2478.5
494.92	2416.5
495.138	2447.5
495.355	2430.5
495.573	2574.5
495.79	2660.5
496.008	2732.5
496.225	2564.5
496.442	2587.5
496.66	2622.5
496.877	2570.5
497.094	2712.5
497.312	2726.5
497.529	2640.5
497.746	2722.5
497.963	3192.5
498.181	3614.5
498.398	3320.5
498.615	3270.5
498.832	3223.5
499.049	3160.5
499.267	3154.5
499.484	3370.5
499.701	3618.5
499.918	3664.5
500.135	4021.5
500.352	4246.5
500.569	4187.5
500.786	4457.5
501.003	4171.5
501.22	3812.5
501.437	3712.5
501.654	3662.5
501.871	3569.5
502.088	3133.5
502.305	3069.5
502.522	3013.5
502.739	2825.5
502.956	2774.5
503.172	2737.5
503.389	2654.5
