Data from WStandard_LampEnergy10_LIBS07252019.E.O._I.C._HRD10591_15-54-21-927.txt Node
Date: Thu Jul 25 15:54:21 EDT 2019
User: cochatt
Spectrometer: HR+D1059
Trigger mode: 1
Integration Time (sec): 1.000000E-1
Scans to average: 1
Electric dark correction enabled: true
Nonlinearity correction enabled: false
Boxcar width: 0
XAxis mode: Wavelengths
Number of Pixels in Spectrum: 2048
>>>>>Begin Spectral Data<<<<<
223.165	-5.88
223.4	-5.88
223.635	-5.88
223.869	-19.88
224.104	-13.88
224.338	-8.88
224.573	-8.88
224.808	-13.88
225.042	-7.88
225.277	-12.88
225.511	-18.88
225.746	-0.88
225.98	13.12
226.215	-7.88
226.449	25.12
226.683	23.12
226.918	27.12
227.152	31.12
227.387	23.12
227.621	36.12
227.856	32.12
228.09	50.12
228.324	46.12
228.559	47.12
228.793	84.12
229.027	131.12
229.262	169.12
229.496	149.12
229.73	159.12
229.964	151.12
230.199	147.12
230.433	179.12
230.667	166.12
230.901	187.12
231.136	153.12
231.37	167.12
231.604	177.12
231.838	165.12
232.072	176.12
232.306	191.12
232.541	181.12
232.775	201.12
233.009	194.12
233.243	195.12
233.477	192.12
233.711	196.12
233.945	205.12
234.179	212.12
234.413	208.12
234.647	211.12
234.881	189.12
235.115	210.12
235.349	192.12
235.583	205.12
235.817	199.12
236.051	188.12
236.285	203.12
236.519	206.12
236.753	234.12
236.987	226.12
237.221	221.12
237.455	239.12
237.689	240.12
237.922	220.12
238.156	211.12
238.39	220.12
238.624	218.12
238.858	244.12
239.091	260.12
239.325	261.12
239.559	300.12
239.793	278.12
240.027	294.12
240.26	293.12
240.494	251.12
240.728	234.12
240.961	240.12
241.195	236.12
241.429	260.12
241.662	271.12
241.896	249.12
242.13	243.12
242.363	259.12
242.597	283.12
242.83	277.12
243.064	287.12
243.298	284.12
243.531	266.12
243.765	287.12
243.998	274.12
244.232	243.12
244.465	245.12
244.699	243.12
244.932	285.12
245.166	314.12
245.399	293.12
245.633	276.12
245.866	263.12
246.099	293.12
246.333	296.12
246.566	298.12
246.8	313.12
247.033	337.12
247.266	312.12
247.5	315.12
247.733	326.12
247.966	343.12
248.2	349.12
248.433	348.12
248.666	349.12
248.899	385.12
249.133	422.12
249.366	473.12
249.599	401.12
249.832	376.12
250.066	374.12
250.299	375.12
250.532	362.12
250.765	330.12
250.998	344.12
251.231	331.12
251.465	334.12
251.698	319.12
251.931	348.12
252.164	345.12
252.397	353.12
252.63	375.12
252.863	335.12
253.096	319.12
253.329	337.12
253.562	361.12
253.795	374.12
254.028	365.12
254.261	343.12
254.494	335.12
254.727	349.12
254.96	354.12
255.193	367.12
255.426	418.12
255.659	449.12
255.892	440.12
256.124	394.12
256.357	381.12
256.59	404.12
256.823	398.12
257.056	415.12
257.289	466.12
257.521	476.12
257.754	461.12
257.987	468.12
258.22	463.12
258.452	445.12
258.685	419.12
258.918	393.12
259.151	397.12
259.383	386.12
259.616	348.12
259.849	390.12
260.081	415.12
260.314	460.12
260.547	495.12
260.779	469.12
261.012	438.12
261.244	397.12
261.477	380.12
261.71	387.12
261.942	391.12
262.175	379.12
262.407	402.12
262.64	385.12
262.872	389.12
263.105	361.12
263.337	387.12
263.57	371.12
263.802	364.12
264.035	360.12
264.267	346.12
264.499	332.12
264.732	383.12
264.964	403.12
265.197	402.12
265.429	412.12
265.661	452.12
265.894	479.12
266.126	492.12
266.358	475.12
266.591	506.12
266.823	483.12
267.055	467.12
267.287	449.12
267.52	450.12
267.752	443.12
267.984	448.12
268.216	481.12
268.448	480.12
268.681	482.12
268.913	438.12
269.145	422.12
269.377	427.12
269.609	441.12
269.841	500.12
270.073	598.12
270.306	639.12
270.538	621.12
270.77	525.12
271.002	488.12
271.234	476.12
271.466	479.12
271.698	546.12
271.93	602.12
272.162	585.12
272.394	543.12
272.626	529.12
272.858	456.12
273.09	408.12
273.322	420.12
273.553	387.12
273.785	416.12
274.017	419.12
274.249	449.12
274.481	449.12
274.713	411.12
274.945	405.12
275.176	383.12
275.408	419.12
275.64	405.12
275.872	389.12
276.104	438.12
276.335	489.12
276.567	543.12
276.799	551.12
277.031	495.12
277.262	467.12
277.494	492.12
277.726	517.12
277.957	506.12
278.189	481.12
278.421	429.12
278.652	441.12
278.884	435.12
279.115	427.12
279.347	419.12
279.579	450.12
279.81	437.12
280.042	477.12
280.273	514.12
280.505	492.12
280.736	513.12
280.968	500.12
281.199	445.12
281.431	413.12
281.662	443.12
281.894	434.12
282.125	431.12
282.356	458.12
282.588	464.12
282.819	447.12
283.051	489.12
283.282	526.12
283.513	495.12
283.745	436.12
283.976	438.12
284.207	446.12
284.439	451.12
284.67	459.12
284.901	459.12
285.132	473.12
285.364	467.12
285.595	461.12
285.826	456.12
286.057	436.12
286.288	445.12
286.52	485.12
286.751	484.12
286.982	500.12
287.213	460.12
287.444	449.12
287.675	439.12
287.906	465.12
288.138	480.12
288.369	461.12
288.6	458.12
288.831	430.12
289.062	455.12
289.293	444.12
289.524	464.12
289.755	466.12
289.986	472.12
290.217	445.12
290.448	444.12
290.679	476.12
290.91	464.12
291.141	484.12
291.371	492.12
291.602	502.12
291.833	485.12
292.064	495.12
292.295	485.12
292.526	501.12
292.757	518.12
292.987	489.12
293.218	453.12
293.449	525.12
293.68	581.12
293.91	596.12
294.141	569.12
294.372	544.12
294.603	579.12
294.833	549.12
295.064	555.12
295.295	506.12
295.525	467.12
295.756	467.12
295.987	438.12
296.217	441.12
296.448	471.12
296.679	449.12
296.909	485.12
297.14	475.12
297.37	480.12
297.601	496.12
297.831	529.12
298.062	512.12
298.292	495.12
298.523	485.12
298.753	482.12
298.984	480.12
299.214	480.12
299.445	489.12
299.675	513.12
299.905	508.12
300.136	484.12
300.366	473.12
300.597	460.12
300.827	473.12
301.057	484.12
301.288	518.12
301.518	516.12
301.748	517.12
301.979	551.12
302.209	573.12
302.439	606.12
302.669	597.12
302.9	559.12
303.13	501.12
303.36	486.12
303.59	514.12
303.82	515.12
304.051	520.12
304.281	521.12
304.511	536.12
304.741	555.12
304.971	612.12
305.201	609.12
305.431	565.12
305.661	485.12
305.891	450.12
306.121	465.12
306.352	475.12
306.582	506.12
306.812	550.12
307.042	572.12
307.272	577.12
307.502	592.12
307.731	619.12
307.961	632.12
308.191	596.12
308.421	520.12
308.651	503.12
308.881	507.12
309.111	515.12
309.341	483.12
309.571	490.12
309.8	480.12
310.03	496.12
310.26	497.12
310.49	513.12
310.72	499.12
310.949	555.12
311.179	541.12
311.409	518.12
311.639	513.12
311.868	500.12
312.098	503.12
312.328	507.12
312.557	515.12
312.787	518.12
313.017	548.12
313.246	496.12
313.476	501.12
313.706	540.12
313.935	508.12
314.165	535.12
314.394	559.12
314.624	576.12
314.853	620.12
315.083	621.12
315.312	613.12
315.542	589.12
315.771	535.12
316.001	543.12
316.23	575.12
316.46	596.12
316.689	560.12
316.919	517.12
317.148	529.12
317.377	540.12
317.607	605.12
317.836	662.12
318.065	633.12
318.295	619.12
318.524	586.12
318.753	564.12
318.983	578.12
319.212	549.12
319.441	563.12
319.67	575.12
319.9	581.12
320.129	632.12
320.358	631.12
320.587	629.12
320.816	629.12
321.046	599.12
321.275	585.12
321.504	603.12
321.733	632.12
321.962	594.12
322.191	563.12
322.42	566.12
322.649	559.12
322.878	566.12
323.108	567.12
323.337	597.12
323.566	568.12
323.795	569.12
324.024	578.12
324.253	558.12
324.482	548.12
324.71	532.12
324.939	529.12
325.168	557.12
325.397	559.12
325.626	579.12
325.855	572.12
326.084	556.12
326.313	568.12
326.542	583.12
326.77	595.12
326.999	575.12
327.228	574.12
327.457	533.12
327.686	527.12
327.914	584.12
328.143	573.12
328.372	588.12
328.6	581.12
328.829	555.12
329.058	559.12
329.287	550.12
329.515	595.12
329.744	607.12
329.972	633.12
330.201	646.12
330.43	599.12
330.658	579.12
330.887	588.12
331.115	581.12
331.344	618.12
331.572	589.12
331.801	585.12
332.03	599.12
332.258	616.12
332.486	600.12
332.715	637.12
332.943	617.12
333.172	611.12
333.4	603.12
333.629	635.12
333.857	690.12
334.085	742.12
334.314	817.12
334.542	835.12
334.771	773.12
334.999	681.12
335.227	652.12
335.455	639.12
335.684	653.12
335.912	656.12
336.14	661.12
336.369	623.12
336.597	630.12
336.825	606.12
337.053	635.12
337.281	656.12
337.51	706.12
337.738	685.12
337.966	679.12
338.194	631.12
338.422	603.12
338.65	589.12
338.878	603.12
339.106	568.12
339.334	555.12
339.562	567.12
339.79	583.12
340.018	631.12
340.246	616.12
340.474	629.12
340.702	617.12
340.93	639.12
341.158	600.12
341.386	616.12
341.614	614.12
341.842	613.12
342.07	613.12
342.298	624.12
342.526	589.12
342.754	589.12
342.981	584.12
343.209	583.12
343.437	603.12
343.665	620.12
343.893	641.12
344.12	647.12
344.348	633.12
344.576	614.12
344.804	611.12
345.031	584.12
345.259	603.12
345.487	581.12
345.714	578.12
345.942	551.12
346.17	560.12
346.397	585.12
346.625	539.12
346.853	554.12
347.08	563.12
347.308	548.12
347.535	562.12
347.763	574.12
347.99	574.12
348.218	582.12
348.445	554.12
348.673	561.12
348.9	577.12
349.128	606.12
349.355	609.12
349.583	585.12
349.81	568.12
350.037	535.12
350.265	545.12
350.492	547.12
350.72	561.12
350.947	594.12
351.174	604.12
351.402	554.12
351.629	532.12
351.856	533.12
352.083	545.12
352.311	546.12
352.538	564.12
352.765	577.12
352.992	576.12
353.22	553.12
353.447	558.12
353.674	565.12
353.901	568.12
354.128	573.12
354.355	568.12
354.583	577.12
354.81	604.12
355.037	595.12
355.264	597.12
355.491	578.12
355.718	590.12
355.945	553.12
356.172	553.12
356.399	553.12
356.626	546.12
356.853	597.12
357.08	667.12
357.307	698.12
357.534	661.12
357.761	577.12
357.988	553.12
358.215	546.12
358.441	555.12
358.668	525.12
358.895	553.12
359.122	624.12
359.349	649.12
359.576	611.12
359.802	599.12
360.029	547.12
360.256	549.12
360.483	589.12
360.709	619.12
360.936	596.12
361.163	641.12
361.39	688.12
361.616	725.12
361.843	708.12
362.07	647.12
362.296	567.12
362.523	556.12
362.749	590.12
362.976	595.12
363.203	607.12
363.429	558.12
363.656	546.12
363.882	604.12
364.109	668.12
364.335	677.12
364.562	642.12
364.788	601.12
365.015	561.12
365.241	589.12
365.468	603.12
365.694	620.12
365.92	633.12
366.147	587.12
366.373	575.12
366.599	571.12
366.826	553.12
367.052	567.12
367.278	586.12
367.505	613.12
367.731	612.12
367.957	622.12
368.184	663.12
368.41	679.12
368.636	697.12
368.862	645.12
369.089	666.12
369.315	647.12
369.541	613.12
369.767	614.12
369.993	611.12
370.219	594.12
370.445	621.12
370.672	677.12
370.898	659.12
371.124	664.12
371.35	635.12
371.576	629.12
371.802	627.12
372.028	625.12
372.254	620.12
372.48	613.12
372.706	612.12
372.932	611.12
373.158	616.12
373.384	615.12
373.61	673.12
373.835	681.12
374.061	636.12
374.287	609.12
374.513	624.12
374.739	661.12
374.965	637.12
375.191	636.12
375.416	665.12
375.642	677.12
375.868	715.12
376.094	706.12
376.319	667.12
376.545	672.12
376.771	689.12
376.997	718.12
377.222	696.12
377.448	663.12
377.674	662.12
377.899	700.12
378.125	731.12
378.35	692.12
378.576	645.12
378.802	641.12
379.027	627.12
379.253	612.12
379.478	659.12
379.704	634.12
379.929	615.12
380.155	650.12
380.38	639.12
380.606	653.12
380.831	643.12
381.057	718.12
381.282	714.12
381.507	701.12
381.733	736.12
381.958	747.12
382.184	692.12
382.409	668.12
382.634	693.12
382.86	666.12
383.085	702.12
383.31	733.12
383.535	778.12
383.761	821.12
383.986	763.12
384.211	711.12
384.436	736.12
384.662	787.12
384.887	801.12
385.112	756.12
385.337	727.12
385.562	741.12
385.787	736.12
386.013	776.12
386.238	768.12
386.463	743.12
386.688	837.12
386.913	866.12
387.138	800.12
387.363	785.12
387.588	742.12
387.813	751.12
388.038	803.12
388.263	824.12
388.488	776.12
388.713	725.12
388.938	731.12
389.163	738.12
389.387	745.12
389.612	755.12
389.837	769.12
390.062	752.12
390.287	753.12
390.512	753.12
390.736	735.12
390.961	755.12
391.186	730.12
391.411	723.12
391.636	759.12
391.86	748.12
392.085	756.12
392.31	767.12
392.534	747.12
392.759	785.12
392.984	780.12
393.208	802.12
393.433	815.12
393.658	855.12
393.882	826.12
394.107	807.12
394.331	773.12
394.556	777.12
394.78	775.12
395.005	802.12
395.229	843.12
395.454	890.12
395.678	864.12
395.903	821.12
396.127	817.12
396.352	805.12
396.576	864.12
396.801	860.12
397.025	831.12
397.249	813.12
397.474	821.12
397.698	844.12
397.922	873.12
398.147	880.12
398.371	965.12
398.595	913.12
398.82	871.12
399.044	873.12
399.268	902.12
399.492	985.12
399.717	983.12
399.941	970.12
400.165	1013.12
400.389	954.12
400.613	999.12
400.837	1136.12
401.062	1181.12
401.286	1024.12
401.51	987.12
401.734	986.12
401.958	941.12
402.182	883.12
402.406	892.12
402.63	885.12
402.854	866.12
403.078	877.12
403.302	893.12
403.526	913.12
403.75	905.12
403.974	945.12
404.198	964.12
404.422	977.12
404.645	1023.12
404.869	962.12
405.093	917.12
405.317	907.12
405.541	903.12
405.765	941.12
405.988	925.12
406.212	934.12
406.436	960.12
406.66	1019.12
406.883	1000.12
407.107	1151.12
407.331	1220.12
407.555	1263.12
407.778	1145.12
408.002	992.12
408.226	967.12
408.449	952.12
408.673	957.12
408.896	979.12
409.12	938.12
409.344	979.12
409.567	928.12
409.791	947.12
410.014	940.12
410.238	1043.12
410.461	1049.12
410.685	945.12
410.908	935.12
411.132	941.12
411.355	955.12
411.578	907.12
411.802	932.12
412.025	949.12
412.249	955.12
412.472	913.12
412.695	919.12
412.919	905.12
413.142	872.12
413.365	931.12
413.589	959.12
413.812	1001.12
414.035	1013.12
414.258	949.12
414.482	950.12
414.705	915.12
414.928	904.12
415.151	894.12
415.374	971.12
415.597	942.12
415.821	947.12
416.044	922.12
416.267	950.12
416.49	915.12
416.713	923.12
416.936	965.12
417.159	981.12
417.382	971.12
417.605	928.12
417.828	941.12
418.051	938.12
418.274	980.12
418.497	930.12
418.72	934.12
418.943	930.12
419.166	985.12
419.389	996.12
419.611	947.12
419.834	950.12
420.057	951.12
420.28	937.12
420.503	932.12
420.726	954.12
420.948	923.12
421.171	914.12
421.394	943.12
421.617	986.12
421.839	1005.12
422.062	975.12
422.285	968.12
422.507	927.12
422.73	918.12
422.953	893.12
423.175	891.12
423.398	935.12
423.621	929.12
423.843	948.12
424.066	972.12
424.288	1011.12
424.511	1056.12
424.733	983.12
424.956	914.12
425.178	922.12
425.401	955.12
425.623	946.12
425.846	912.12
426.068	960.12
426.291	986.12
426.513	957.12
426.735	976.12
426.958	1064.12
427.18	1091.12
427.402	985.12
427.625	1058.12
427.847	994.12
428.069	918.12
428.292	905.12
428.514	923.12
428.736	905.12
428.958	919.12
429.181	942.12
429.403	1084.12
429.625	1259.12
429.847	1035.12
430.069	945.12
430.292	1068.12
430.514	1023.12
430.736	1001.12
430.958	968.12
431.18	935.12
431.402	880.12
431.624	826.12
431.846	796.12
432.068	749.12
432.29	719.12
432.512	808.12
432.734	903.12
432.956	947.12
433.178	977.12
433.4	949.12
433.622	973.12
433.844	924.12
434.066	872.12
434.287	819.12
434.509	754.12
434.731	830.12
434.953	913.12
435.175	913.12
435.397	899.12
435.618	868.12
435.84	818.12
436.062	843.12
436.284	906.12
436.505	934.12
436.727	933.12
436.949	923.12
437.17	889.12
437.392	902.12
437.614	856.12
437.835	815.12
438.057	833.12
438.278	864.12
438.5	830.12
438.721	880.12
438.943	917.12
439.165	914.12
439.386	936.12
439.608	980.12
439.829	959.12
440.05	963.12
440.272	930.12
440.493	908.12
440.715	963.12
440.936	1050.12
441.158	1054.12
441.379	1044.12
441.6	1064.12
441.822	1052.12
442.043	1023.12
442.264	1007.12
442.486	957.12
442.707	971.12
442.928	969.12
443.149	988.12
443.371	985.12
443.592	1052.12
443.813	1051.12
444.034	1033.12
444.255	1026.12
444.476	1047.12
444.698	1076.12
444.919	1031.12
445.14	1175.12
445.361	1098.12
445.582	1090.12
445.803	1071.12
446.024	1021.12
446.245	1059.12
446.466	1054.12
446.687	1046.12
446.908	1073.12
447.129	1018.12
447.35	1029.12
447.571	1002.12
447.792	986.12
448.013	936.12
448.234	971.12
448.455	975.12
448.675	997.12
448.896	917.12
449.117	921.12
449.338	937.12
449.559	978.12
449.779	993.12
450	1050.12
450.221	1052.12
450.442	983.12
450.662	935.12
450.883	889.12
451.104	875.12
451.324	893.12
451.545	909.12
451.766	890.12
451.986	841.12
452.207	815.12
452.428	795.12
452.648	790.12
452.869	816.12
453.089	795.12
453.31	774.12
453.53	795.12
453.751	740.12
453.971	701.12
454.192	748.12
454.412	766.12
454.633	799.12
454.853	789.12
455.073	774.12
455.294	760.12
455.514	772.12
455.734	762.12
455.955	782.12
456.175	748.12
456.395	743.12
456.616	743.12
456.836	736.12
457.056	730.12
457.276	724.12
457.497	720.12
457.717	699.12
457.937	708.12
458.157	716.12
458.377	713.12
458.598	685.12
458.818	690.12
459.038	699.12
459.258	697.12
459.478	711.12
459.698	706.12
459.918	742.12
460.138	811.12
460.358	823.12
460.578	840.12
460.798	831.12
461.018	909.12
461.238	860.12
461.458	862.12
461.678	845.12
461.898	831.12
462.118	819.12
462.338	828.12
462.558	867.12
462.777	834.12
462.997	871.12
463.217	915.12
463.437	881.12
463.657	817.12
463.876	828.12
464.096	825.12
464.316	836.12
464.536	881.12
464.755	879.12
464.975	877.12
465.195	891.12
465.414	881.12
465.634	880.12
465.854	900.12
466.073	954.12
466.293	959.12
466.512	871.12
466.732	880.12
466.951	908.12
467.171	884.12
467.391	891.12
467.61	884.12
467.829	904.12
468.049	1000.12
468.268	1053.12
468.488	964.12
468.707	904.12
468.927	889.12
469.146	880.12
469.365	904.12
469.585	965.12
469.804	927.12
470.023	929.12
470.243	929.12
470.462	949.12
470.681	915.12
470.901	938.12
471.12	932.12
471.339	948.12
471.558	911.12
471.777	905.12
471.997	905.12
472.216	868.12
472.435	792.12
472.654	768.12
472.873	760.12
473.092	806.12
473.311	824.12
473.53	806.12
473.749	829.12
473.968	855.12
474.187	849.12
474.406	861.12
474.625	880.12
474.844	882.12
475.063	860.12
475.282	872.12
475.501	820.12
475.72	839.12
475.939	896.12
476.158	879.12
476.377	884.12
476.596	853.12
476.814	825.12
477.033	839.12
477.252	848.12
477.471	925.12
477.69	943.12
477.908	955.12
478.127	976.12
478.346	1021.12
478.564	998.12
478.783	1032.12
479.002	1023.12
479.22	1026.12
479.439	1061.12
479.658	1066.12
479.876	1009.12
480.095	902.12
480.313	911.12
480.532	902.12
480.751	887.12
480.969	828.12
481.188	786.12
481.406	780.12
481.624	780.12
481.843	777.12
482.061	832.12
482.28	888.12
482.498	911.12
482.717	864.12
482.935	902.12
483.153	967.12
483.372	1018.12
483.59	1016.12
483.808	968.12
484.027	938.12
484.245	984.12
484.463	1238.12
484.681	1307.12
484.9	1029.12
485.118	970.12
485.336	913.12
485.554	919.12
485.772	882.12
485.99	895.12
486.209	903.12
486.427	914.12
486.645	943.12
486.863	1005.12
487.081	1051.12
487.299	1031.12
487.517	1023.12
487.735	1095.12
487.953	1190.12
488.171	1203.12
488.389	1139.12
488.607	1108.12
488.825	1146.12
489.043	1059.12
489.261	1009.12
489.479	1048.12
489.696	1076.12
489.914	1032.12
490.132	1041.12
490.35	1093.12
490.568	1189.12
490.786	1204.12
491.003	1183.12
491.221	1229.12
491.439	1273.12
491.657	1308.12
491.874	1385.12
492.092	1449.12
492.31	1524.12
492.527	1474.12
492.745	1365.12
492.963	1281.12
493.18	1300.12
493.398	1363.12
493.615	1344.12
493.833	1291.12
494.05	1238.12
494.268	1228.12
494.485	1253.12
494.703	1227.12
494.92	1231.12
495.138	1233.12
495.355	1267.12
495.573	1275.12
495.79	1285.12
496.008	1287.12
496.225	1243.12
496.442	1253.12
496.66	1223.12
496.877	1203.12
497.094	1215.12
497.312	1216.12
497.529	1207.12
497.746	1224.12
497.963	1326.12
498.181	1317.12
498.398	1295.12
498.615	1225.12
498.832	1185.12
499.049	1173.12
499.267	1192.12
499.484	1277.12
499.701	1364.12
499.918	1386.12
500.135	1520.12
500.352	1553.12
