Data from WStandard_LampEnergy10_LIBS07252019.E.O._I.C._HRD10591_15-54-26-928.txt Node
Date: Thu Jul 25 15:54:26 EDT 2019
User: cochatt
Spectrometer: HR+D1059
Trigger mode: 1
Integration Time (sec): 1.000000E-1
Scans to average: 1
Electric dark correction enabled: true
Nonlinearity correction enabled: false
Boxcar width: 0
XAxis mode: Wavelengths
Number of Pixels in Spectrum: 2048
>>>>>Begin Spectral Data<<<<<
223.165	-9.81
223.4	-9.81
223.635	-9.81
223.869	-15.81
224.104	-25.81
224.338	-12.81
224.573	0.19
224.808	-21.81
225.042	-19.81
225.277	-8.81
225.511	10.19
225.746	12.19
225.98	7.19
226.215	15.19
226.449	4.19
226.683	23.19
226.918	11.19
227.152	31.19
227.387	31.19
227.621	40.19
227.856	27.19
228.09	46.19
228.324	53.19
228.559	55.19
228.793	68.19
229.027	121.19
229.262	128.19
229.496	146.19
229.73	156.19
229.964	163.19
230.199	181.19
230.433	164.19
230.667	186.19
230.901	189.19
231.136	182.19
231.37	172.19
231.604	162.19
231.838	164.19
232.072	179.19
232.306	176.19
232.541	186.19
232.775	186.19
233.009	210.19
233.243	195.19
233.477	188.19
233.711	187.19
233.945	205.19
234.179	199.19
234.413	201.19
234.647	202.19
234.881	209.19
235.115	205.19
235.349	190.19
235.583	177.19
235.817	192.19
236.051	197.19
236.285	188.19
236.519	204.19
236.753	216.19
236.987	215.19
237.221	211.19
237.455	233.19
237.689	207.19
237.922	214.19
238.156	202.19
238.39	220.19
238.624	231.19
238.858	235.19
239.091	250.19
239.325	264.19
239.559	295.19
239.793	285.19
240.027	300.19
240.26	279.19
240.494	249.19
240.728	238.19
240.961	226.19
241.195	223.19
241.429	226.19
241.662	242.19
241.896	232.19
242.13	254.19
242.363	261.19
242.597	287.19
242.83	275.19
243.064	285.19
243.298	293.19
243.531	283.19
243.765	286.19
243.998	274.19
244.232	241.19
244.465	251.19
244.699	262.19
244.932	265.19
245.166	285.19
245.399	273.19
245.633	277.19
245.866	278.19
246.099	272.19
246.333	302.19
246.566	290.19
246.8	310.19
247.033	335.19
247.266	324.19
247.5	326.19
247.733	322.19
247.966	326.19
248.2	365.19
248.433	338.19
248.666	372.19
248.899	391.19
249.133	435.19
249.366	454.19
249.599	385.19
249.832	350.19
250.066	358.19
250.299	345.19
250.532	349.19
250.765	326.19
250.998	344.19
251.231	337.19
251.465	373.19
251.698	336.19
251.931	357.19
252.164	367.19
252.397	355.19
252.63	351.19
252.863	317.19
253.096	311.19
253.329	323.19
253.562	354.19
253.795	358.19
254.028	351.19
254.261	349.19
254.494	334.19
254.727	326.19
254.96	333.19
255.193	371.19
255.426	415.19
255.659	434.19
255.892	450.19
256.124	386.19
256.357	360.19
256.59	411.19
256.823	400.19
257.056	425.19
257.289	478.19
257.521	513.19
257.754	455.19
257.987	447.19
258.22	488.19
258.452	451.19
258.685	398.19
258.918	368.19
259.151	382.19
259.383	355.19
259.616	338.19
259.849	367.19
260.081	391.19
260.314	442.19
260.547	458.19
260.779	447.19
261.012	449.19
261.244	411.19
261.477	399.19
261.71	402.19
261.942	378.19
262.175	383.19
262.407	416.19
262.64	375.19
262.872	386.19
263.105	370.19
263.337	359.19
263.57	363.19
263.802	353.19
264.035	331.19
264.267	336.19
264.499	331.19
264.732	366.19
264.964	388.19
265.197	405.19
265.429	410.19
265.661	456.19
265.894	490.19
266.126	496.19
266.358	437.19
266.591	467.19
266.823	470.19
267.055	458.19
267.287	448.19
267.52	405.19
267.752	443.19
267.984	449.19
268.216	454.19
268.448	481.19
268.681	450.19
268.913	417.19
269.145	407.19
269.377	423.19
269.609	462.19
269.841	519.19
270.073	584.19
270.306	575.19
270.538	611.19
270.77	534.19
271.002	483.19
271.234	456.19
271.466	482.19
271.698	542.19
271.93	622.19
272.162	593.19
272.394	538.19
272.626	499.19
272.858	442.19
273.09	401.19
273.322	393.19
273.553	389.19
273.785	402.19
274.017	416.19
274.249	441.19
274.481	443.19
274.713	389.19
274.945	415.19
275.176	413.19
275.408	417.19
275.64	394.19
275.872	406.19
276.104	423.19
276.335	485.19
276.567	535.19
276.799	515.19
277.031	492.19
277.262	462.19
277.494	511.19
277.726	531.19
277.957	528.19
278.189	446.19
278.421	440.19
278.652	437.19
278.884	432.19
279.115	437.19
279.347	428.19
279.579	439.19
279.81	458.19
280.042	474.19
280.273	495.19
280.505	490.19
280.736	498.19
280.968	468.19
281.199	416.19
281.431	423.19
281.662	412.19
281.894	428.19
282.125	437.19
282.356	447.19
282.588	462.19
282.819	454.19
283.051	496.19
283.282	522.19
283.513	492.19
283.745	414.19
283.976	399.19
284.207	450.19
284.439	445.19
284.67	437.19
284.901	452.19
285.132	455.19
285.364	430.19
285.595	446.19
285.826	435.19
286.057	452.19
286.288	452.19
286.52	487.19
286.751	494.19
286.982	482.19
287.213	453.19
287.444	428.19
287.675	454.19
287.906	472.19
288.138	487.19
288.369	471.19
288.6	439.19
288.831	427.19
289.062	464.19
289.293	442.19
289.524	427.19
289.755	459.19
289.986	456.19
290.217	447.19
290.448	437.19
290.679	466.19
290.91	454.19
291.141	471.19
291.371	467.19
291.602	476.19
291.833	472.19
292.064	510.19
292.295	487.19
292.526	488.19
292.757	512.19
292.987	483.19
293.218	474.19
293.449	494.19
293.68	544.19
293.91	584.19
294.141	560.19
294.372	532.19
294.603	576.19
294.833	556.19
295.064	523.19
295.295	491.19
295.525	473.19
295.756	450.19
295.987	455.19
296.217	442.19
296.448	460.19
296.679	461.19
296.909	468.19
297.14	445.19
297.37	490.19
297.601	504.19
297.831	513.19
298.062	498.19
298.292	464.19
298.523	476.19
298.753	470.19
298.984	452.19
299.214	463.19
299.445	469.19
299.675	498.19
299.905	483.19
300.136	483.19
300.366	476.19
300.597	447.19
300.827	453.19
301.057	475.19
301.288	505.19
301.518	513.19
301.748	517.19
301.979	548.19
302.209	560.19
302.439	572.19
302.669	598.19
302.9	552.19
303.13	518.19
303.36	514.19
303.59	502.19
303.82	510.19
304.051	516.19
304.281	522.19
304.511	534.19
304.741	564.19
304.971	588.19
305.201	622.19
305.431	565.19
305.661	488.19
305.891	462.19
306.121	467.19
306.352	475.19
306.582	506.19
306.812	549.19
307.042	580.19
307.272	587.19
307.502	603.19
307.731	636.19
307.961	625.19
308.191	565.19
308.421	506.19
308.651	512.19
308.881	504.19
309.111	510.19
309.341	483.19
309.571	499.19
309.8	507.19
310.03	466.19
310.26	486.19
310.49	490.19
310.72	504.19
310.949	521.19
311.179	514.19
311.409	518.19
311.639	513.19
311.868	501.19
312.098	485.19
312.328	499.19
312.557	510.19
312.787	524.19
313.017	527.19
313.246	513.19
313.476	521.19
313.706	534.19
313.935	538.19
314.165	551.19
314.394	551.19
314.624	577.19
314.853	609.19
315.083	613.19
315.312	614.19
315.542	578.19
315.771	520.19
316.001	553.19
316.23	573.19
316.46	575.19
316.689	573.19
316.919	515.19
317.148	526.19
317.377	537.19
317.607	589.19
317.836	629.19
318.065	625.19
318.295	609.19
318.524	595.19
318.753	561.19
318.983	558.19
319.212	551.19
319.441	537.19
319.67	538.19
319.9	547.19
320.129	579.19
320.358	626.19
320.587	604.19
320.816	599.19
321.046	603.19
321.275	565.19
321.504	599.19
321.733	613.19
321.962	602.19
322.191	569.19
322.42	565.19
322.649	520.19
322.878	548.19
323.108	550.19
323.337	565.19
323.566	567.19
323.795	563.19
324.024	600.19
324.253	559.19
324.482	550.19
324.71	528.19
324.939	517.19
325.168	553.19
325.397	571.19
325.626	579.19
325.855	554.19
326.084	552.19
326.313	554.19
326.542	576.19
326.77	575.19
326.999	554.19
327.228	557.19
327.457	529.19
327.686	542.19
327.914	569.19
328.143	557.19
328.372	564.19
328.6	550.19
328.829	572.19
329.058	537.19
329.287	548.19
329.515	557.19
329.744	597.19
329.972	610.19
330.201	614.19
330.43	597.19
330.658	589.19
330.887	622.19
331.115	596.19
331.344	612.19
331.572	571.19
331.801	577.19
332.03	574.19
332.258	614.19
332.486	596.19
332.715	598.19
332.943	602.19
333.172	580.19
333.4	595.19
333.629	612.19
333.857	669.19
334.085	719.19
334.314	845.19
334.542	846.19
334.771	750.19
334.999	660.19
335.227	632.19
335.455	622.19
335.684	664.19
335.912	647.19
336.14	641.19
336.369	624.19
336.597	606.19
336.825	594.19
337.053	670.19
337.281	655.19
337.51	704.19
337.738	662.19
337.966	664.19
338.194	621.19
338.422	612.19
338.65	583.19
338.878	573.19
339.106	574.19
339.334	551.19
339.562	542.19
339.79	599.19
340.018	606.19
340.246	632.19
340.474	624.19
340.702	631.19
340.93	613.19
341.158	622.19
341.386	621.19
341.614	574.19
341.842	589.19
342.07	605.19
342.298	587.19
342.526	603.19
342.754	591.19
342.981	589.19
343.209	594.19
343.437	573.19
343.665	588.19
343.893	630.19
344.12	622.19
344.348	618.19
344.576	613.19
344.804	582.19
345.031	592.19
345.259	579.19
345.487	565.19
345.714	533.19
345.942	551.19
346.17	554.19
346.397	572.19
346.625	568.19
346.853	527.19
347.08	511.19
347.308	557.19
347.535	566.19
347.763	576.19
347.99	566.19
348.218	539.19
348.445	560.19
348.673	586.19
348.9	597.19
349.128	603.19
349.355	618.19
349.583	601.19
349.81	563.19
350.037	544.19
350.265	528.19
350.492	556.19
350.72	566.19
350.947	593.19
351.174	546.19
351.402	539.19
351.629	516.19
351.856	517.19
352.083	503.19
352.311	520.19
352.538	575.19
352.765	561.19
352.992	548.19
353.22	540.19
353.447	557.19
353.674	562.19
353.901	560.19
354.128	543.19
354.355	556.19
354.583	570.19
354.81	597.19
355.037	592.19
355.264	570.19
355.491	555.19
355.718	564.19
355.945	546.19
356.172	537.19
356.399	540.19
356.626	535.19
356.853	586.19
357.08	644.19
357.307	675.19
357.534	630.19
357.761	564.19
357.988	542.19
358.215	550.19
358.441	540.19
358.668	554.19
358.895	538.19
359.122	607.19
359.349	632.19
359.576	616.19
359.802	552.19
360.029	550.19
360.256	538.19
360.483	552.19
360.709	577.19
360.936	582.19
361.163	623.19
361.39	699.19
361.616	678.19
361.843	705.19
362.07	625.19
362.296	588.19
362.523	569.19
362.749	568.19
362.976	574.19
363.203	584.19
363.429	569.19
363.656	569.19
363.882	589.19
364.109	654.19
364.335	678.19
364.562	613.19
364.788	582.19
365.015	561.19
365.241	560.19
365.468	580.19
365.694	604.19
365.92	592.19
366.147	592.19
366.373	545.19
366.599	549.19
366.826	563.19
367.052	541.19
367.278	562.19
367.505	584.19
367.731	591.19
367.957	594.19
368.184	629.19
368.41	652.19
368.636	666.19
368.862	671.19
369.089	677.19
369.315	643.19
369.541	611.19
369.767	592.19
369.993	578.19
370.219	591.19
370.445	618.19
370.672	636.19
370.898	664.19
371.124	638.19
371.35	646.19
371.576	648.19
371.802	651.19
372.028	638.19
372.254	623.19
372.48	584.19
372.706	590.19
372.932	608.19
373.158	616.19
373.384	637.19
373.61	634.19
373.835	670.19
374.061	662.19
374.287	624.19
374.513	623.19
374.739	621.19
374.965	623.19
375.191	639.19
375.416	625.19
375.642	661.19
375.868	717.19
376.094	715.19
376.319	657.19
376.545	639.19
376.771	672.19
376.997	684.19
377.222	678.19
377.448	658.19
377.674	662.19
377.899	683.19
378.125	706.19
378.35	679.19
378.576	621.19
378.802	600.19
379.027	620.19
379.253	634.19
379.478	628.19
379.704	632.19
379.929	662.19
380.155	641.19
380.38	637.19
380.606	651.19
380.831	659.19
381.057	710.19
381.282	705.19
381.507	698.19
381.733	729.19
381.958	735.19
382.184	671.19
382.409	660.19
382.634	673.19
382.86	669.19
383.085	676.19
383.31	705.19
383.535	783.19
383.761	786.19
383.986	750.19
384.211	718.19
384.436	746.19
384.662	760.19
384.887	776.19
385.112	756.19
385.337	750.19
385.562	726.19
385.787	750.19
386.013	771.19
386.238	764.19
386.463	765.19
386.688	820.19
386.913	864.19
387.138	816.19
387.363	758.19
387.588	774.19
387.813	740.19
388.038	771.19
388.263	807.19
388.488	748.19
388.713	724.19
388.938	730.19
389.163	752.19
389.387	758.19
389.612	777.19
389.837	749.19
390.062	737.19
390.287	739.19
390.512	728.19
390.736	730.19
390.961	729.19
391.186	711.19
391.411	740.19
391.636	744.19
391.86	775.19
392.085	750.19
392.31	751.19
392.534	769.19
392.759	762.19
392.984	770.19
393.208	753.19
393.433	790.19
393.658	803.19
393.882	820.19
394.107	779.19
394.331	767.19
394.556	773.19
394.78	779.19
395.005	800.19
395.229	813.19
395.454	872.19
395.678	873.19
395.903	826.19
396.127	808.19
396.352	812.19
396.576	861.19
396.801	840.19
397.025	810.19
397.249	819.19
397.474	805.19
397.698	818.19
397.922	859.19
398.147	868.19
398.371	895.19
398.595	883.19
398.82	859.19
399.044	857.19
399.268	943.19
399.492	951.19
399.717	979.19
399.941	978.19
400.165	953.19
400.389	942.19
400.613	1008.19
400.837	1116.19
401.062	1203.19
401.286	1030.19
401.51	978.19
401.734	994.19
401.958	917.19
402.182	908.19
402.406	899.19
402.63	868.19
402.854	895.19
403.078	879.19
403.302	903.19
403.526	930.19
403.75	932.19
403.974	951.19
404.198	946.19
404.422	971.19
404.645	986.19
404.869	966.19
405.093	879.19
405.317	890.19
405.541	932.19
405.765	900.19
405.988	914.19
406.212	967.19
406.436	951.19
406.66	994.19
406.883	1030.19
407.107	1123.19
407.331	1231.19
407.555	1295.19
407.778	1123.19
408.002	997.19
408.226	962.19
408.449	955.19
408.673	916.19
408.896	978.19
409.12	942.19
409.344	948.19
409.567	929.19
409.791	961.19
410.014	984.19
410.238	1007.19
410.461	1068.19
410.685	971.19
410.908	955.19
411.132	969.19
411.355	938.19
411.578	931.19
411.802	920.19
412.025	928.19
412.249	896.19
412.472	904.19
412.695	933.19
412.919	900.19
413.142	914.19
413.365	954.19
413.589	944.19
413.812	978.19
414.035	994.19
414.258	932.19
414.482	910.19
414.705	938.19
414.928	903.19
415.151	896.19
415.374	921.19
415.597	954.19
415.821	946.19
416.044	962.19
416.267	931.19
416.49	902.19
416.713	929.19
416.936	962.19
417.159	966.19
417.382	966.19
417.605	907.19
417.828	926.19
418.051	922.19
418.274	952.19
418.497	912.19
418.72	936.19
418.943	893.19
419.166	944.19
419.389	993.19
419.611	957.19
419.834	936.19
420.057	951.19
420.28	924.19
420.503	915.19
420.726	977.19
420.948	951.19
421.171	932.19
421.394	946.19
421.617	984.19
421.839	990.19
422.062	971.19
422.285	912.19
422.507	934.19
422.73	885.19
422.953	870.19
423.175	893.19
423.398	931.19
423.621	939.19
423.843	911.19
424.066	958.19
424.288	1005.19
424.511	1061.19
424.733	1010.19
424.956	942.19
425.178	932.19
425.401	907.19
425.623	929.19
425.846	914.19
426.068	961.19
426.291	976.19
426.513	948.19
426.735	945.19
426.958	1026.19
427.18	1063.19
427.402	990.19
427.625	1015.19
427.847	984.19
428.069	933.19
428.292	932.19
428.514	895.19
428.736	911.19
428.958	871.19
429.181	936.19
429.403	1054.19
429.625	1196.19
429.847	1068.19
430.069	964.19
430.292	1054.19
430.514	1008.19
430.736	954.19
430.958	978.19
431.18	933.19
431.402	865.19
431.624	870.19
431.846	787.19
432.068	732.19
432.29	740.19
432.512	785.19
432.734	860.19
432.956	930.19
433.178	955.19
433.4	927.19
433.622	952.19
433.844	892.19
434.066	826.19
434.287	802.19
434.509	773.19
434.731	807.19
434.953	882.19
435.175	935.19
435.397	888.19
435.618	851.19
435.84	834.19
436.062	830.19
436.284	858.19
436.505	912.19
436.727	960.19
436.949	918.19
437.17	908.19
437.392	912.19
437.614	857.19
437.835	827.19
438.057	827.19
438.278	867.19
438.5	872.19
438.721	888.19
438.943	922.19
439.165	912.19
439.386	921.19
439.608	924.19
439.829	948.19
440.05	960.19
440.272	931.19
440.493	962.19
440.715	990.19
440.936	1044.19
441.158	1058.19
441.379	1053.19
441.6	1034.19
441.822	1040.19
442.043	1016.19
442.264	1011.19
442.486	947.19
442.707	945.19
442.928	957.19
443.149	989.19
443.371	1018.19
443.592	1022.19
443.813	978.19
444.034	990.19
444.255	996.19
444.476	1019.19
444.698	1032.19
444.919	1058.19
445.14	1142.19
445.361	1127.19
445.582	1074.19
445.803	1072.19
446.024	1052.19
446.245	1060.19
446.466	1069.19
446.687	1028.19
446.908	1048.19
447.129	1042.19
447.35	1010.19
447.571	987.19
447.792	963.19
448.013	931.19
448.234	962.19
448.455	982.19
448.675	977.19
448.896	927.19
449.117	922.19
449.338	918.19
449.559	966.19
449.779	984.19
450	1037.19
450.221	1026.19
450.442	1006.19
450.662	931.19
450.883	885.19
451.104	851.19
451.324	877.19
451.545	881.19
451.766	848.19
451.986	817.19
452.207	810.19
452.428	800.19
452.648	799.19
452.869	801.19
453.089	774.19
453.31	772.19
453.53	788.19
453.751	751.19
453.971	690.19
454.192	737.19
454.412	776.19
454.633	781.19
454.853	799.19
455.073	770.19
455.294	782.19
455.514	775.19
455.734	788.19
455.955	775.19
456.175	729.19
456.395	707.19
456.616	737.19
456.836	742.19
457.056	705.19
457.276	767.19
457.497	727.19
457.717	688.19
457.937	721.19
458.157	700.19
458.377	688.19
458.598	702.19
458.818	683.19
459.038	720.19
459.258	721.19
459.478	707.19
459.698	709.19
459.918	747.19
460.138	799.19
460.358	835.19
460.578	857.19
460.798	859.19
461.018	864.19
461.238	851.19
461.458	847.19
461.678	838.19
461.898	807.19
462.118	807.19
462.338	829.19
462.558	851.19
462.777	837.19
462.997	882.19
463.217	892.19
463.437	897.19
463.657	848.19
463.876	835.19
464.096	828.19
464.316	866.19
464.536	885.19
464.755	876.19
464.975	878.19
465.195	862.19
465.414	894.19
465.634	862.19
465.854	878.19
466.073	968.19
466.293	927.19
466.512	886.19
466.732	895.19
466.951	890.19
467.171	911.19
467.391	870.19
467.61	900.19
467.829	891.19
468.049	983.19
468.268	1060.19
468.488	952.19
468.707	926.19
468.927	926.19
469.146	883.19
469.365	926.19
469.585	915.19
469.804	903.19
470.023	936.19
470.243	955.19
470.462	986.19
470.681	909.19
470.901	935.19
471.12	925.19
471.339	908.19
471.558	922.19
471.777	883.19
471.997	894.19
472.216	847.19
472.435	798.19
472.654	765.19
472.873	808.19
473.092	821.19
473.311	832.19
473.53	826.19
473.749	810.19
473.968	857.19
474.187	850.19
474.406	840.19
474.625	863.19
474.844	885.19
475.063	882.19
475.282	864.19
475.501	833.19
475.72	836.19
475.939	871.19
476.158	895.19
476.377	878.19
476.596	840.19
476.814	834.19
477.033	802.19
477.252	845.19
477.471	900.19
477.69	929.19
477.908	943.19
478.127	968.19
478.346	987.19
478.564	980.19
478.783	1013.19
479.002	1027.19
479.22	1022.19
479.439	1022.19
479.658	1054.19
479.876	975.19
480.095	904.19
480.313	879.19
480.532	874.19
480.751	890.19
480.969	829.19
481.188	782.19
481.406	794.19
481.624	799.19
481.843	785.19
482.061	834.19
482.28	874.19
482.498	892.19
482.717	870.19
482.935	874.19
483.153	992.19
483.372	997.19
483.59	1066.19
483.808	966.19
484.027	920.19
484.245	999.19
484.463	1214.19
484.681	1282.19
484.9	1037.19
485.118	984.19
485.336	953.19
485.554	910.19
485.772	867.19
485.99	892.19
486.209	911.19
486.427	899.19
486.645	963.19
486.863	983.19
487.081	1033.19
487.299	995.19
487.517	993.19
487.735	1106.19
487.953	1180.19
488.171	1166.19
488.389	1132.19
488.607	1068.19
488.825	1146.19
489.043	1039.19
489.261	1013.19
489.479	1035.19
489.696	1033.19
489.914	1044.19
490.132	1053.19
490.35	1095.19
490.568	1166.19
490.786	1162.19
491.003	1178.19
491.221	1263.19
491.439	1286.19
491.657	1304.19
491.874	1356.19
492.092	1411.19
492.31	1555.19
492.527	1483.19
492.745	1386.19
492.963	1318.19
493.18	1312.19
493.398	1356.19
493.615	1356.19
493.833	1292.19
494.05	1241.19
494.268	1255.19
494.485	1244.19
494.703	1234.19
494.92	1241.19
495.138	1283.19
495.355	1222.19
495.573	1268.19
495.79	1289.19
496.008	1281.19
496.225	1253.19
496.442	1238.19
496.66	1245.19
496.877	1208.19
497.094	1228.19
497.312	1237.19
497.529	1210.19
497.746	1195.19
497.963	1280.19
498.181	1300.19
498.398	1269.19
498.615	1210.19
498.832	1154.19
499.049	1144.19
499.267	1166.19
499.484	1278.19
499.701	1357.19
499.918	1410.19
500.135	1464.19
500.352	1582.19
500.569	1543.19
