Data from WStandard_LampEnergy8_LIBS07252019.E.O._I.C._HRD10591_16-00-04-929.txt Node
Date: Thu Jul 25 16:00:04 EDT 2019
User: cochatt
Spectrometer: HR+D1059
Trigger mode: 1
Integration Time (sec): 1.000000E-1
Scans to average: 1
Electric dark correction enabled: true
Nonlinearity correction enabled: false
Boxcar width: 0
XAxis mode: Wavelengths
Number of Pixels in Spectrum: 2048
>>>>>Begin Spectral Data<<<<<
223.165	-3.62
223.4	-3.62
223.635	-3.62
223.869	-11.62
224.104	-27.62
224.338	-9.62
224.573	-9.62
224.808	-22.62
225.042	-27.62
225.277	-8.62
225.511	-6.62
225.746	12.38
225.98	14.38
226.215	10.38
226.449	23.38
226.683	25.38
226.918	17.38
227.152	24.38
227.387	37.38
227.621	43.38
227.856	42.38
228.09	36.38
228.324	40.38
228.559	65.38
228.793	111.38
229.027	191.38
229.262	220.38
229.496	203.38
229.73	224.38
229.964	242.38
230.199	238.38
230.433	262.38
230.667	261.38
230.901	292.38
231.136	270.38
231.37	272.38
231.604	251.38
231.838	272.38
232.072	258.38
232.306	254.38
232.541	278.38
232.775	323.38
233.009	328.38
233.243	323.38
233.477	278.38
233.711	291.38
233.945	307.38
234.179	308.38
234.413	305.38
234.647	337.38
234.881	316.38
235.115	295.38
235.349	310.38
235.583	315.38
235.817	293.38
236.051	313.38
236.285	302.38
236.519	312.38
236.753	337.38
236.987	341.38
237.221	367.38
237.455	388.38
237.689	358.38
237.922	366.38
238.156	332.38
238.39	370.38
238.624	375.38
238.858	402.38
239.091	390.38
239.325	423.38
239.559	461.38
239.793	476.38
240.027	508.38
240.26	487.38
240.494	400.38
240.728	376.38
240.961	369.38
241.195	389.38
241.429	421.38
241.662	411.38
241.896	390.38
242.13	399.38
242.363	429.38
242.597	452.38
242.83	449.38
243.064	452.38
243.298	486.38
243.531	451.38
243.765	468.38
243.998	454.38
244.232	411.38
244.465	402.38
244.699	417.38
244.932	448.38
245.166	483.38
245.399	477.38
245.633	471.38
245.866	460.38
246.099	466.38
246.333	492.38
246.566	489.38
246.8	558.38
247.033	580.38
247.266	554.38
247.5	542.38
247.733	567.38
247.966	552.38
248.2	612.38
248.433	593.38
248.666	616.38
248.899	690.38
249.133	750.38
249.366	820.38
249.599	678.38
249.832	628.38
250.066	621.38
250.299	634.38
250.532	588.38
250.765	545.38
250.998	575.38
251.231	586.38
251.465	607.38
251.698	606.38
251.931	575.38
252.164	608.38
252.397	632.38
252.63	608.38
252.863	554.38
253.096	575.38
253.329	578.38
253.562	601.38
253.795	632.38
254.028	610.38
254.261	597.38
254.494	605.38
254.727	553.38
254.96	585.38
255.193	649.38
255.426	724.38
255.659	798.38
255.892	818.38
256.124	676.38
256.357	644.38
256.59	702.38
256.823	688.38
257.056	722.38
257.289	824.38
257.521	892.38
257.754	788.38
257.987	784.38
258.22	850.38
258.452	776.38
258.685	682.38
258.918	671.38
259.151	675.38
259.383	630.38
259.616	578.38
259.849	626.38
260.081	688.38
260.314	776.38
260.547	835.38
260.779	810.38
261.012	754.38
261.244	690.38
261.477	652.38
261.71	708.38
261.942	693.38
262.175	683.38
262.407	710.38
262.64	666.38
262.872	631.38
263.105	609.38
263.337	619.38
263.57	658.38
263.802	650.38
264.035	594.38
264.267	558.38
264.499	590.38
264.732	626.38
264.964	662.38
265.197	683.38
265.429	710.38
265.661	778.38
265.894	844.38
266.126	840.38
266.358	778.38
266.591	829.38
266.823	855.38
267.055	790.38
267.287	814.38
267.52	759.38
267.752	735.38
267.984	784.38
268.216	831.38
268.448	806.38
268.681	783.38
268.913	726.38
269.145	698.38
269.377	713.38
269.609	778.38
269.841	881.38
270.073	1010.38
270.306	1109.38
270.538	1137.38
270.77	956.38
271.002	840.38
271.234	802.38
271.466	841.38
271.698	904.38
271.93	1032.38
272.162	1040.38
272.394	982.38
272.626	870.38
272.858	794.38
273.09	713.38
273.322	715.38
273.553	678.38
273.785	675.38
274.017	734.38
274.249	800.38
274.481	765.38
274.713	724.38
274.945	717.38
275.176	726.38
275.408	704.38
275.64	690.38
275.872	695.38
276.104	749.38
276.335	845.38
276.567	922.38
276.799	908.38
277.031	837.38
277.262	804.38
277.494	827.38
277.726	928.38
277.957	898.38
278.189	794.38
278.421	759.38
278.652	715.38
278.884	724.38
279.115	728.38
279.347	726.38
279.579	725.38
279.81	747.38
280.042	801.38
280.273	875.38
280.505	891.38
280.736	877.38
280.968	822.38
281.199	754.38
281.431	730.38
281.662	738.38
281.894	731.38
282.125	755.38
282.356	782.38
282.588	787.38
282.819	776.38
283.051	843.38
283.282	875.38
283.513	846.38
283.745	743.38
283.976	724.38
284.207	737.38
284.439	751.38
284.67	742.38
284.901	777.38
285.132	799.38
285.364	785.38
285.595	770.38
285.826	786.38
286.057	795.38
286.288	748.38
286.52	823.38
286.751	871.38
286.982	866.38
287.213	790.38
287.444	746.38
287.675	746.38
287.906	793.38
288.138	834.38
288.369	809.38
288.6	749.38
288.831	737.38
289.062	732.38
289.293	752.38
289.524	780.38
289.755	804.38
289.986	755.38
290.217	775.38
290.448	753.38
290.679	780.38
290.91	761.38
291.141	809.38
291.371	833.38
291.602	821.38
291.833	821.38
292.064	864.38
292.295	844.38
292.526	858.38
292.757	873.38
292.987	845.38
293.218	837.38
293.449	912.38
293.68	980.38
293.91	1017.38
294.141	945.38
294.372	905.38
294.603	942.38
294.833	937.38
295.064	942.38
295.295	800.38
295.525	780.38
295.756	791.38
295.987	745.38
296.217	752.38
296.448	790.38
296.679	809.38
296.909	769.38
297.14	754.38
297.37	830.38
297.601	868.38
297.831	893.38
298.062	865.38
298.292	814.38
298.523	789.38
298.753	789.38
298.984	796.38
299.214	811.38
299.445	826.38
299.675	838.38
299.905	828.38
300.136	828.38
300.366	801.38
300.597	770.38
300.827	789.38
301.057	831.38
301.288	850.38
301.518	863.38
301.748	872.38
301.979	932.38
302.209	928.38
302.439	999.38
302.669	1000.38
302.9	918.38
303.13	864.38
303.36	867.38
303.59	846.38
303.82	841.38
304.051	862.38
304.281	862.38
304.511	882.38
304.741	957.38
304.971	1025.38
305.201	1024.38
305.431	951.38
305.661	799.38
305.891	774.38
306.121	779.38
306.352	805.38
306.582	837.38
306.812	908.38
307.042	925.38
307.272	961.38
307.502	1017.38
307.731	1063.38
307.961	1087.38
308.191	983.38
308.421	929.38
308.651	852.38
308.881	836.38
309.111	855.38
309.341	814.38
309.571	804.38
309.8	812.38
310.03	837.38
310.26	833.38
310.49	810.38
310.72	882.38
310.949	871.38
311.179	871.38
311.409	866.38
311.639	851.38
311.868	823.38
312.098	857.38
312.328	873.38
312.557	847.38
312.787	873.38
313.017	869.38
313.246	869.38
313.476	883.38
313.706	898.38
313.935	882.38
314.165	902.38
314.394	944.38
314.624	969.38
314.853	1046.38
315.083	1058.38
315.312	1076.38
315.542	1008.38
315.771	905.38
316.001	929.38
316.23	942.38
316.46	943.38
316.689	954.38
316.919	882.38
317.148	848.38
317.377	893.38
317.607	1002.38
317.836	1063.38
318.065	1082.38
318.295	1024.38
318.524	974.38
318.753	951.38
318.983	950.38
319.212	946.38
319.441	908.38
319.67	926.38
319.9	950.38
320.129	997.38
320.358	1050.38
320.587	1042.38
320.816	1042.38
321.046	1007.38
321.275	943.38
321.504	992.38
321.733	1057.38
321.962	992.38
322.191	936.38
322.42	916.38
322.649	896.38
322.878	924.38
323.108	956.38
323.337	963.38
323.566	975.38
323.795	985.38
324.024	962.38
324.253	939.38
324.482	948.38
324.71	917.38
324.939	886.38
325.168	906.38
325.397	931.38
325.626	949.38
325.855	943.38
326.084	912.38
326.313	947.38
326.542	950.38
326.77	994.38
326.999	942.38
327.228	922.38
327.457	913.38
327.686	899.38
327.914	942.38
328.143	954.38
328.372	942.38
328.6	940.38
328.829	936.38
329.058	892.38
329.287	900.38
329.515	942.38
329.744	964.38
329.972	984.38
330.201	1060.38
330.43	1033.38
330.658	973.38
330.887	994.38
331.115	970.38
331.344	984.38
331.572	984.38
331.801	972.38
332.03	961.38
332.258	995.38
332.486	1014.38
332.715	1065.38
332.943	1023.38
333.172	988.38
333.4	1003.38
333.629	1044.38
333.857	1116.38
334.085	1195.38
334.314	1397.38
334.542	1426.38
334.771	1314.38
334.999	1195.38
335.227	1116.38
335.455	1057.38
335.684	1078.38
335.912	1094.38
336.14	1105.38
336.369	1050.38
336.597	1015.38
336.825	1003.38
337.053	1046.38
337.281	1076.38
337.51	1150.38
337.738	1185.38
337.966	1087.38
338.194	1028.38
338.422	1002.38
338.65	994.38
338.878	952.38
339.106	952.38
339.334	958.38
339.562	960.38
339.79	1003.38
340.018	1050.38
340.246	1056.38
340.474	1015.38
340.702	1042.38
340.93	1033.38
341.158	997.38
341.386	989.38
341.614	992.38
341.842	990.38
342.07	991.38
342.298	994.38
342.526	974.38
342.754	983.38
342.981	1002.38
343.209	981.38
343.437	976.38
343.665	980.38
343.893	1018.38
344.12	1088.38
344.348	1042.38
344.576	1006.38
344.804	998.38
345.031	1024.38
345.259	976.38
345.487	923.38
345.714	915.38
345.942	906.38
346.17	940.38
346.397	936.38
346.625	922.38
346.853	905.38
347.08	891.38
347.308	889.38
347.535	946.38
347.763	941.38
347.99	931.38
348.218	914.38
348.445	941.38
348.673	910.38
348.9	958.38
349.128	985.38
349.355	995.38
349.583	990.38
349.81	924.38
350.037	875.38
350.265	871.38
350.492	861.38
350.72	925.38
350.947	950.38
351.174	950.38
351.402	895.38
351.629	876.38
351.856	848.38
352.083	848.38
352.311	880.38
352.538	906.38
352.765	940.38
352.992	961.38
353.22	917.38
353.447	898.38
353.674	910.38
353.901	932.38
354.128	921.38
354.355	889.38
354.583	963.38
354.81	985.38
355.037	956.38
355.264	948.38
355.491	937.38
355.718	923.38
355.945	924.38
356.172	899.38
356.399	896.38
356.626	896.38
356.853	943.38
357.08	1035.38
357.307	1140.38
357.534	1093.38
357.761	948.38
357.988	917.38
358.215	891.38
358.441	897.38
358.668	868.38
358.895	878.38
359.122	948.38
359.349	1042.38
359.576	1003.38
359.802	911.38
360.029	897.38
360.256	891.38
360.483	891.38
360.709	933.38
360.936	986.38
361.163	1032.38
361.39	1095.38
361.616	1187.38
361.843	1157.38
362.07	1056.38
362.296	932.38
362.523	914.38
362.749	902.38
362.976	964.38
363.203	978.38
363.429	932.38
363.656	879.38
363.882	955.38
364.109	1044.38
364.335	1102.38
364.562	1025.38
364.788	960.38
365.015	939.38
365.241	890.38
365.468	960.38
365.694	974.38
365.92	1008.38
366.147	962.38
366.373	944.38
366.599	930.38
366.826	931.38
367.052	914.38
367.278	934.38
367.505	940.38
367.731	962.38
367.957	946.38
368.184	1032.38
368.41	1055.38
368.636	1074.38
368.862	1033.38
369.089	1040.38
369.315	998.38
369.541	955.38
369.767	936.38
369.993	936.38
370.219	923.38
370.445	972.38
370.672	1013.38
370.898	1064.38
371.124	1022.38
371.35	1014.38
371.576	1040.38
371.802	1065.38
372.028	988.38
372.254	950.38
372.48	952.38
372.706	996.38
372.932	950.38
373.158	945.38
373.384	951.38
373.61	1023.38
373.835	1045.38
374.061	1012.38
374.287	989.38
374.513	962.38
374.739	991.38
374.965	997.38
375.191	1014.38
375.416	1022.38
375.642	1059.38
375.868	1110.38
376.094	1127.38
376.319	1051.38
376.545	1002.38
376.771	1035.38
376.997	1084.38
377.222	1067.38
377.448	1032.38
377.674	1027.38
377.899	1063.38
378.125	1099.38
378.35	1081.38
378.576	1012.38
378.802	976.38
379.027	977.38
379.253	1002.38
379.478	981.38
379.704	992.38
379.929	992.38
380.155	1006.38
380.38	1006.38
380.606	992.38
380.831	1000.38
381.057	1096.38
381.282	1074.38
381.507	1030.38
381.733	1131.38
381.958	1139.38
382.184	1051.38
382.409	1037.38
382.634	1018.38
382.86	1012.38
383.085	1044.38
383.31	1120.38
383.535	1184.38
383.761	1194.38
383.986	1152.38
384.211	1128.38
384.436	1114.38
384.662	1176.38
384.887	1179.38
385.112	1166.38
385.337	1143.38
385.562	1138.38
385.787	1160.38
386.013	1169.38
386.238	1155.38
386.463	1192.38
386.688	1271.38
386.913	1351.38
387.138	1269.38
387.363	1191.38
387.588	1178.38
387.813	1156.38
388.038	1172.38
388.263	1215.38
388.488	1162.38
388.713	1080.38
388.938	1111.38
389.163	1094.38
389.387	1138.38
389.612	1120.38
389.837	1150.38
390.062	1160.38
390.287	1150.38
390.512	1132.38
390.736	1134.38
390.961	1085.38
391.186	1086.38
391.411	1107.38
391.636	1143.38
391.86	1123.38
392.085	1134.38
392.31	1141.38
392.534	1131.38
392.759	1145.38
392.984	1131.38
393.208	1141.38
393.433	1166.38
393.658	1204.38
393.882	1259.38
394.107	1178.38
394.331	1135.38
394.556	1156.38
394.78	1145.38
395.005	1187.38
395.229	1228.38
395.454	1304.38
395.678	1308.38
395.903	1223.38
396.127	1180.38
396.352	1225.38
396.576	1287.38
396.801	1287.38
397.025	1258.38
397.249	1246.38
397.474	1246.38
397.698	1217.38
397.922	1250.38
398.147	1333.38
398.371	1362.38
398.595	1344.38
398.82	1327.38
399.044	1324.38
399.268	1376.38
399.492	1462.38
399.717	1497.38
399.941	1514.38
400.165	1470.38
400.389	1444.38
400.613	1475.38
400.837	1682.38
401.062	1808.38
401.286	1557.38
401.51	1456.38
401.734	1491.38
401.958	1433.38
402.182	1336.38
402.406	1308.38
402.63	1296.38
402.854	1280.38
403.078	1340.38
403.302	1354.38
403.526	1353.38
403.75	1354.38
403.974	1346.38
404.198	1395.38
404.422	1385.38
404.645	1490.38
404.869	1432.38
405.093	1335.38
405.317	1296.38
405.541	1353.38
405.765	1350.38
405.988	1356.38
406.212	1404.38
406.436	1421.38
406.66	1466.38
406.883	1494.38
407.107	1684.38
407.331	1814.38
407.555	1918.38
407.778	1682.38
408.002	1455.38
408.226	1416.38
408.449	1427.38
408.673	1398.38
408.896	1396.38
409.12	1411.38
409.344	1405.38
409.567	1365.38
409.791	1356.38
410.014	1421.38
410.238	1483.38
410.461	1511.38
410.685	1397.38
410.908	1335.38
411.132	1382.38
411.355	1340.38
411.578	1334.38
411.802	1374.38
412.025	1374.38
412.249	1333.38
412.472	1353.38
412.695	1315.38
412.919	1307.38
413.142	1311.38
413.365	1310.38
413.589	1397.38
413.812	1446.38
414.035	1458.38
414.258	1339.38
414.482	1328.38
414.705	1315.38
414.928	1326.38
415.151	1314.38
415.374	1313.38
415.597	1363.38
415.821	1333.38
416.044	1350.38
416.267	1359.38
416.49	1292.38
416.713	1285.38
416.936	1356.38
417.159	1378.38
417.382	1354.38
417.605	1338.38
417.828	1327.38
418.051	1366.38
418.274	1334.38
418.497	1293.38
418.72	1300.38
418.943	1264.38
419.166	1342.38
419.389	1379.38
419.611	1326.38
419.834	1328.38
420.057	1309.38
420.28	1285.38
420.503	1295.38
420.726	1332.38
420.948	1307.38
421.171	1268.38
421.394	1285.38
421.617	1343.38
421.839	1341.38
422.062	1316.38
422.285	1307.38
422.507	1308.38
422.73	1272.38
422.953	1207.38
423.175	1240.38
423.398	1259.38
423.621	1272.38
423.843	1305.38
424.066	1361.38
424.288	1412.38
424.511	1440.38
424.733	1374.38
424.956	1271.38
425.178	1254.38
425.401	1292.38
425.623	1269.38
425.846	1244.38
426.068	1340.38
426.291	1358.38
426.513	1314.38
426.735	1318.38
426.958	1429.38
427.18	1487.38
427.402	1403.38
427.625	1454.38
427.847	1372.38
428.069	1308.38
428.292	1279.38
428.514	1220.38
428.736	1232.38
428.958	1246.38
429.181	1256.38
429.403	1446.38
429.625	1760.38
429.847	1456.38
430.069	1309.38
430.292	1484.38
430.514	1445.38
430.736	1361.38
430.958	1399.38
431.18	1318.38
431.402	1242.38
431.624	1195.38
431.846	1184.38
432.068	1173.38
432.29	1164.38
432.512	1190.38
432.734	1246.38
432.956	1291.38
433.178	1334.38
433.4	1306.38
433.622	1331.38
433.844	1304.38
434.066	1188.38
434.287	1155.38
434.509	1241.38
434.731	1302.38
434.953	1398.38
435.175	1348.38
435.397	1264.38
435.618	1278.38
435.84	1249.38
436.062	1233.38
436.284	1293.38
436.505	1352.38
436.727	1337.38
436.949	1300.38
437.17	1240.38
437.392	1237.38
437.614	1212.38
437.835	1217.38
438.057	1243.38
438.278	1238.38
438.5	1220.38
438.721	1227.38
438.943	1259.38
439.165	1280.38
439.386	1251.38
439.608	1250.38
439.829	1233.38
440.05	1251.38
440.272	1252.38
440.493	1254.38
440.715	1284.38
440.936	1346.38
441.158	1456.38
441.379	1430.38
441.6	1387.38
441.822	1391.38
442.043	1337.38
442.264	1304.38
442.486	1283.38
442.707	1267.38
442.928	1242.38
443.149	1309.38
443.371	1365.38
443.592	1387.38
443.813	1366.38
444.034	1368.38
444.255	1363.38
444.476	1405.38
444.698	1426.38
444.919	1408.38
445.14	1467.38
445.361	1480.38
445.582	1434.38
445.803	1398.38
446.024	1377.38
446.245	1430.38
446.466	1360.38
446.687	1317.38
446.908	1366.38
447.129	1302.38
447.35	1315.38
447.571	1320.38
447.792	1244.38
448.013	1230.38
448.234	1285.38
448.455	1305.38
448.675	1337.38
448.896	1230.38
449.117	1187.38
449.338	1243.38
449.559	1301.38
449.779	1314.38
450	1411.38
450.221	1496.38
450.442	1401.38
450.662	1289.38
450.883	1222.38
451.104	1172.38
451.324	1179.38
451.545	1223.38
451.766	1204.38
451.986	1158.38
452.207	1136.38
452.428	1139.38
452.648	1128.38
452.869	1108.38
453.089	1131.38
453.31	1131.38
453.53	1135.38
453.751	1095.38
453.971	1051.38
454.192	1100.38
454.412	1166.38
454.633	1131.38
454.853	1148.38
455.073	1076.38
455.294	1108.38
455.514	1080.38
455.734	1069.38
455.955	1122.38
456.175	1080.38
456.395	1098.38
456.616	1107.38
456.836	1090.38
457.056	1106.38
457.276	1058.38
457.497	1055.38
457.717	1035.38
457.937	1040.38
458.157	1076.38
458.377	1052.38
458.598	1058.38
458.818	1052.38
459.038	1101.38
459.258	1166.38
459.478	1163.38
459.698	1116.38
459.918	1158.38
460.138	1257.38
460.358	1282.38
460.578	1250.38
460.798	1313.38
461.018	1346.38
461.238	1302.38
461.458	1273.38
461.678	1259.38
461.898	1235.38
462.118	1235.38
462.338	1267.38
462.558	1303.38
462.777	1289.38
462.997	1321.38
463.217	1368.38
463.437	1361.38
463.657	1259.38
463.876	1226.38
464.096	1240.38
464.316	1258.38
464.536	1296.38
464.755	1295.38
464.975	1302.38
465.195	1271.38
465.414	1362.38
465.634	1307.38
465.854	1313.38
466.073	1391.38
466.293	1362.38
466.512	1226.38
466.732	1227.38
466.951	1275.38
467.171	1215.38
467.391	1222.38
467.61	1204.38
467.829	1233.38
468.049	1340.38
468.268	1460.38
468.488	1350.38
468.707	1256.38
468.927	1241.38
469.146	1222.38
469.365	1248.38
469.585	1269.38
469.804	1259.38
470.023	1241.38
470.243	1252.38
470.462	1245.38
470.681	1218.38
470.901	1240.38
471.12	1258.38
471.339	1246.38
471.558	1179.38
471.777	1196.38
471.997	1219.38
472.216	1198.38
472.435	1113.38
472.654	1142.38
472.873	1168.38
473.092	1240.38
473.311	1199.38
473.53	1155.38
473.749	1134.38
473.968	1186.38
474.187	1211.38
474.406	1235.38
474.625	1201.38
474.844	1215.38
475.063	1218.38
475.282	1236.38
475.501	1202.38
475.72	1189.38
475.939	1306.38
476.158	1259.38
476.377	1181.38
476.596	1201.38
476.814	1246.38
477.033	1223.38
477.252	1290.38
477.471	1325.38
477.69	1297.38
477.908	1287.38
478.127	1380.38
478.346	1421.38
478.564	1406.38
478.783	1420.38
479.002	1443.38
479.22	1401.38
479.439	1452.38
479.658	1601.38
479.876	1538.38
480.095	1383.38
480.313	1342.38
480.532	1306.38
480.751	1331.38
480.969	1315.38
481.188	1284.38
481.406	1256.38
481.624	1240.38
481.843	1287.38
482.061	1304.38
482.28	1351.38
482.498	1334.38
482.717	1322.38
482.935	1288.38
483.153	1378.38
483.372	1402.38
483.59	1357.38
483.808	1390.38
484.027	1351.38
484.245	1430.38
484.463	1734.38
484.681	1868.38
484.9	1476.38
485.118	1371.38
485.336	1352.38
485.554	1375.38
485.772	1432.38
485.99	1391.38
486.209	1379.38
486.427	1426.38
486.645	1410.38
486.863	1448.38
487.081	1489.38
487.299	1450.38
487.517	1459.38
487.735	1464.38
487.953	1507.38
488.171	1500.38
488.389	1448.38
488.607	1461.38
488.825	1577.38
489.043	1542.38
489.261	1413.38
489.479	1491.38
489.696	1523.38
489.914	1492.38
490.132	1459.38
490.35	1462.38
490.568	1556.38
490.786	1497.38
491.003	1454.38
491.221	1545.38
491.439	1584.38
491.657	1588.38
491.874	1605.38
492.092	1661.38
492.31	1666.38
492.527	1668.38
492.745	1642.38
492.963	1570.38
493.18	1624.38
493.398	1687.38
493.615	1698.38
