Data from WStandard_LampEnergy10_LIBS07252019.E.O._I.C._HRD10591_15-54-23-928.txt Node
Date: Thu Jul 25 15:54:23 EDT 2019
User: cochatt
Spectrometer: HR+D1059
Trigger mode: 1
Integration Time (sec): 1.000000E-1
Scans to average: 1
Electric dark correction enabled: true
Nonlinearity correction enabled: false
Boxcar width: 0
XAxis mode: Wavelengths
Number of Pixels in Spectrum: 2048
>>>>>Begin Spectral Data<<<<<
223.165	-11.38
223.4	-11.38
223.635	-11.38
223.869	-15.38
224.104	-10.38
224.338	0.62
224.573	-15.38
224.808	-19.38
225.042	-15.38
225.277	-13.38
225.511	2.62
225.746	-1.38
225.98	-1.38
226.215	11.62
226.449	11.62
226.683	21.62
226.918	18.62
227.152	36.62
227.387	41.62
227.621	38.62
227.856	37.62
228.09	44.62
228.324	60.62
228.559	55.62
228.793	85.62
229.027	128.62
229.262	140.62
229.496	143.62
229.73	164.62
229.964	173.62
230.199	166.62
230.433	173.62
230.667	172.62
230.901	189.62
231.136	163.62
231.37	163.62
231.604	177.62
231.838	186.62
232.072	175.62
232.306	192.62
232.541	182.62
232.775	206.62
233.009	209.62
233.243	212.62
233.477	189.62
233.711	182.62
233.945	203.62
234.179	196.62
234.413	215.62
234.647	227.62
234.881	204.62
235.115	206.62
235.349	200.62
235.583	214.62
235.817	203.62
236.051	202.62
236.285	196.62
236.519	200.62
236.753	216.62
236.987	225.62
237.221	217.62
237.455	247.62
237.689	235.62
237.922	203.62
238.156	220.62
238.39	227.62
238.624	239.62
238.858	258.62
239.091	256.62
239.325	292.62
239.559	290.62
239.793	291.62
240.027	306.62
240.26	300.62
240.494	257.62
240.728	225.62
240.961	260.62
241.195	246.62
241.429	271.62
241.662	252.62
241.896	243.62
242.13	231.62
242.363	275.62
242.597	270.62
242.83	273.62
243.064	276.62
243.298	289.62
243.531	281.62
243.765	278.62
243.998	285.62
244.232	257.62
244.465	241.62
244.699	266.62
244.932	292.62
245.166	292.62
245.399	298.62
245.633	293.62
245.866	283.62
246.099	284.62
246.333	306.62
246.566	313.62
246.8	308.62
247.033	339.62
247.266	314.62
247.5	352.62
247.733	320.62
247.966	338.62
248.2	351.62
248.433	362.62
248.666	378.62
248.899	396.62
249.133	434.62
249.366	500.62
249.599	389.62
249.832	362.62
250.066	358.62
250.299	365.62
250.532	350.62
250.765	326.62
250.998	337.62
251.231	351.62
251.465	361.62
251.698	358.62
251.931	337.62
252.164	342.62
252.397	359.62
252.63	352.62
252.863	342.62
253.096	334.62
253.329	346.62
253.562	356.62
253.795	380.62
254.028	361.62
254.261	347.62
254.494	330.62
254.727	314.62
254.96	349.62
255.193	388.62
255.426	412.62
255.659	446.62
255.892	456.62
256.124	390.62
256.357	381.62
256.59	407.62
256.823	421.62
257.056	436.62
257.289	476.62
257.521	497.62
257.754	474.62
257.987	433.62
258.22	487.62
258.452	469.62
258.685	402.62
258.918	391.62
259.151	400.62
259.383	392.62
259.616	345.62
259.849	377.62
260.081	423.62
260.314	429.62
260.547	461.62
260.779	468.62
261.012	448.62
261.244	413.62
261.477	384.62
261.71	421.62
261.942	414.62
262.175	378.62
262.407	408.62
262.64	381.62
262.872	382.62
263.105	348.62
263.337	378.62
263.57	372.62
263.802	368.62
264.035	365.62
264.267	340.62
264.499	345.62
264.732	374.62
264.964	372.62
265.197	409.62
265.429	413.62
265.661	479.62
265.894	477.62
266.126	505.62
266.358	465.62
266.591	466.62
266.823	486.62
267.055	444.62
267.287	439.62
267.52	441.62
267.752	460.62
267.984	448.62
268.216	466.62
268.448	461.62
268.681	468.62
268.913	428.62
269.145	407.62
269.377	427.62
269.609	434.62
269.841	516.62
270.073	583.62
270.306	613.62
270.538	630.62
270.77	526.62
271.002	492.62
271.234	490.62
271.466	478.62
271.698	530.62
271.93	593.62
272.162	591.62
272.394	537.62
272.626	525.62
272.858	464.62
273.09	425.62
273.322	418.62
273.553	417.62
273.785	405.62
274.017	433.62
274.249	462.62
274.481	460.62
274.713	438.62
274.945	408.62
275.176	406.62
275.408	410.62
275.64	391.62
275.872	413.62
276.104	426.62
276.335	492.62
276.567	541.62
276.799	527.62
277.031	497.62
277.262	478.62
277.494	489.62
277.726	527.62
277.957	514.62
278.189	473.62
278.421	457.62
278.652	407.62
278.884	431.62
279.115	423.62
279.347	438.62
279.579	432.62
279.81	456.62
280.042	477.62
280.273	524.62
280.505	513.62
280.736	499.62
280.968	488.62
281.199	428.62
281.431	430.62
281.662	426.62
281.894	444.62
282.125	432.62
282.356	453.62
282.588	460.62
282.819	465.62
283.051	496.62
283.282	516.62
283.513	510.62
283.745	419.62
283.976	409.62
284.207	425.62
284.439	440.62
284.67	456.62
284.901	476.62
285.132	462.62
285.364	444.62
285.595	457.62
285.826	439.62
286.057	456.62
286.288	438.62
286.52	478.62
286.751	486.62
286.982	495.62
287.213	458.62
287.444	447.62
287.675	448.62
287.906	454.62
288.138	497.62
288.369	465.62
288.6	456.62
288.831	444.62
289.062	455.62
289.293	437.62
289.524	463.62
289.755	459.62
289.986	480.62
290.217	456.62
290.448	462.62
290.679	468.62
290.91	462.62
291.141	481.62
291.371	485.62
291.602	492.62
291.833	481.62
292.064	498.62
292.295	520.62
292.526	502.62
292.757	524.62
292.987	519.62
293.218	501.62
293.449	530.62
293.68	562.62
293.91	607.62
294.141	541.62
294.372	559.62
294.603	553.62
294.833	544.62
295.064	525.62
295.295	506.62
295.525	465.62
295.756	466.62
295.987	444.62
296.217	448.62
296.448	454.62
296.679	457.62
296.909	472.62
297.14	458.62
297.37	497.62
297.601	519.62
297.831	526.62
298.062	521.62
298.292	488.62
298.523	477.62
298.753	472.62
298.984	466.62
299.214	488.62
299.445	478.62
299.675	477.62
299.905	480.62
300.136	475.62
300.366	478.62
300.597	459.62
300.827	464.62
301.057	484.62
301.288	520.62
301.518	538.62
301.748	522.62
301.979	552.62
302.209	571.62
302.439	584.62
302.669	579.62
302.9	566.62
303.13	498.62
303.36	522.62
303.59	511.62
303.82	521.62
304.051	517.62
304.281	525.62
304.511	549.62
304.741	599.62
304.971	594.62
305.201	618.62
305.431	560.62
305.661	478.62
305.891	465.62
306.121	461.62
306.352	477.62
306.582	530.62
306.812	532.62
307.042	565.62
307.272	582.62
307.502	589.62
307.731	628.62
307.961	647.62
308.191	595.62
308.421	532.62
308.651	530.62
308.881	488.62
309.111	503.62
309.341	513.62
309.571	492.62
309.8	472.62
310.03	483.62
310.26	502.62
310.49	502.62
310.72	514.62
310.949	533.62
311.179	520.62
311.409	522.62
311.639	521.62
311.868	523.62
312.098	502.62
312.328	501.62
312.557	521.62
312.787	541.62
313.017	543.62
313.246	533.62
313.476	532.62
313.706	539.62
313.935	546.62
314.165	538.62
314.394	568.62
314.624	602.62
314.853	618.62
315.083	624.62
315.312	622.62
315.542	570.62
315.771	537.62
316.001	548.62
316.23	602.62
316.46	582.62
316.689	573.62
316.919	533.62
317.148	529.62
317.377	558.62
317.607	604.62
317.836	652.62
318.065	648.62
318.295	625.62
318.524	581.62
318.753	578.62
318.983	589.62
319.212	561.62
319.441	573.62
319.67	557.62
319.9	565.62
320.129	609.62
320.358	606.62
320.587	612.62
320.816	606.62
321.046	597.62
321.275	587.62
321.504	611.62
321.733	626.62
321.962	605.62
322.191	552.62
322.42	560.62
322.649	554.62
322.878	542.62
323.108	564.62
323.337	589.62
323.566	578.62
323.795	556.62
324.024	589.62
324.253	562.62
324.482	564.62
324.71	518.62
324.939	546.62
325.168	554.62
325.397	558.62
325.626	588.62
325.855	585.62
326.084	589.62
326.313	596.62
326.542	574.62
326.77	585.62
326.999	575.62
327.228	569.62
327.457	546.62
327.686	546.62
327.914	564.62
328.143	577.62
328.372	550.62
328.6	546.62
328.829	560.62
329.058	544.62
329.287	569.62
329.515	584.62
329.744	590.62
329.972	621.62
330.201	645.62
330.43	606.62
330.658	590.62
330.887	579.62
331.115	579.62
331.344	604.62
331.572	588.62
331.801	588.62
332.03	589.62
332.258	601.62
332.486	605.62
332.715	616.62
332.943	629.62
333.172	597.62
333.4	604.62
333.629	613.62
333.857	666.62
334.085	756.62
334.314	834.62
334.542	849.62
334.771	793.62
334.999	672.62
335.227	645.62
335.455	657.62
335.684	646.62
335.912	648.62
336.14	669.62
336.369	637.62
336.597	619.62
336.825	631.62
337.053	651.62
337.281	675.62
337.51	683.62
337.738	714.62
337.966	662.62
338.194	612.62
338.422	606.62
338.65	598.62
338.878	616.62
339.106	588.62
339.334	561.62
339.562	582.62
339.79	590.62
340.018	627.62
340.246	632.62
340.474	635.62
340.702	640.62
340.93	628.62
341.158	620.62
341.386	592.62
341.614	601.62
341.842	606.62
342.07	598.62
342.298	604.62
342.526	619.62
342.754	603.62
342.981	584.62
343.209	589.62
343.437	579.62
343.665	600.62
343.893	606.62
344.12	650.62
344.348	629.62
344.576	636.62
344.804	588.62
345.031	616.62
345.259	629.62
345.487	578.62
345.714	574.62
345.942	574.62
346.17	568.62
346.397	582.62
346.625	583.62
346.853	531.62
347.08	544.62
347.308	557.62
347.535	547.62
347.763	570.62
347.99	580.62
348.218	556.62
348.445	569.62
348.673	578.62
348.9	582.62
349.128	608.62
349.355	617.62
349.583	601.62
349.81	572.62
350.037	532.62
350.265	538.62
350.492	562.62
350.72	562.62
350.947	603.62
351.174	583.62
351.402	543.62
351.629	529.62
351.856	518.62
352.083	532.62
352.311	550.62
352.538	544.62
352.765	582.62
352.992	589.62
353.22	572.62
353.447	569.62
353.674	558.62
353.901	568.62
354.128	564.62
354.355	572.62
354.583	585.62
354.81	589.62
355.037	568.62
355.264	564.62
355.491	561.62
355.718	582.62
355.945	565.62
356.172	543.62
356.399	577.62
356.626	592.62
356.853	608.62
357.08	632.62
357.307	706.62
357.534	657.62
357.761	564.62
357.988	538.62
358.215	542.62
358.441	563.62
358.668	545.62
358.895	557.62
359.122	618.62
359.349	632.62
359.576	606.62
359.802	604.62
360.029	573.62
360.256	566.62
360.483	555.62
360.709	568.62
360.936	608.62
361.163	634.62
361.39	697.62
361.616	723.62
361.843	692.62
362.07	659.62
362.296	557.62
362.523	557.62
362.749	580.62
362.976	596.62
363.203	590.62
363.429	556.62
363.656	543.62
363.882	601.62
364.109	680.62
364.335	704.62
364.562	619.62
364.788	605.62
365.015	561.62
365.241	572.62
365.468	582.62
365.694	601.62
365.92	639.62
366.147	572.62
366.373	549.62
366.599	595.62
366.826	570.62
367.052	556.62
367.278	584.62
367.505	604.62
367.731	604.62
367.957	594.62
368.184	637.62
368.41	684.62
368.636	649.62
368.862	663.62
369.089	663.62
369.315	637.62
369.541	597.62
369.767	606.62
369.993	567.62
370.219	592.62
370.445	605.62
370.672	666.62
370.898	676.62
371.124	660.62
371.35	633.62
371.576	656.62
371.802	662.62
372.028	642.62
372.254	621.62
372.48	586.62
372.706	605.62
372.932	615.62
373.158	624.62
373.384	649.62
373.61	650.62
373.835	663.62
374.061	648.62
374.287	663.62
374.513	631.62
374.739	657.62
374.965	645.62
375.191	643.62
375.416	668.62
375.642	679.62
375.868	695.62
376.094	733.62
376.319	670.62
376.545	640.62
376.771	685.62
376.997	703.62
377.222	704.62
377.448	656.62
377.674	684.62
377.899	682.62
378.125	713.62
378.35	688.62
378.576	668.62
378.802	626.62
379.027	620.62
379.253	619.62
379.478	652.62
379.704	664.62
379.929	644.62
380.155	651.62
380.38	664.62
380.606	679.62
380.831	670.62
381.057	694.62
381.282	690.62
381.507	697.62
381.733	733.62
381.958	773.62
382.184	676.62
382.409	701.62
382.634	692.62
382.86	683.62
383.085	708.62
383.31	741.62
383.535	785.62
383.761	800.62
383.986	752.62
384.211	726.62
384.436	721.62
384.662	756.62
384.887	770.62
385.112	728.62
385.337	732.62
385.562	725.62
385.787	752.62
386.013	772.62
386.238	765.62
386.463	765.62
386.688	852.62
386.913	837.62
387.138	852.62
387.363	786.62
387.588	776.62
387.813	784.62
388.038	753.62
388.263	820.62
388.488	758.62
388.713	726.62
388.938	728.62
389.163	742.62
389.387	766.62
389.612	737.62
389.837	782.62
390.062	772.62
390.287	792.62
390.512	756.62
390.736	769.62
390.961	731.62
391.186	718.62
391.411	772.62
391.636	742.62
391.86	760.62
392.085	774.62
392.31	751.62
392.534	771.62
392.759	768.62
392.984	768.62
393.208	776.62
393.433	804.62
393.658	847.62
393.882	805.62
394.107	779.62
394.331	772.62
394.556	772.62
394.78	805.62
395.005	794.62
395.229	860.62
395.454	889.62
395.678	869.62
395.903	840.62
396.127	816.62
396.352	803.62
396.576	857.62
396.801	857.62
397.025	852.62
397.249	841.62
397.474	850.62
397.698	824.62
397.922	859.62
398.147	897.62
398.371	918.62
398.595	918.62
398.82	894.62
399.044	867.62
399.268	909.62
399.492	954.62
399.717	969.62
399.941	984.62
400.165	984.62
400.389	950.62
400.613	1006.62
400.837	1147.62
401.062	1201.62
401.286	1035.62
401.51	1016.62
401.734	997.62
401.958	976.62
402.182	927.62
402.406	858.62
402.63	866.62
402.854	910.62
403.078	904.62
403.302	919.62
403.526	923.62
403.75	944.62
403.974	928.62
404.198	968.62
404.422	975.62
404.645	1007.62
404.869	965.62
405.093	933.62
405.317	920.62
405.541	942.62
405.765	944.62
405.988	932.62
406.212	967.62
406.436	956.62
406.66	1013.62
406.883	1038.62
407.107	1157.62
407.331	1280.62
407.555	1282.62
407.778	1116.62
408.002	964.62
408.226	966.62
408.449	959.62
408.673	932.62
408.896	944.62
409.12	946.62
409.344	967.62
409.567	955.62
409.791	963.62
410.014	974.62
410.238	1031.62
410.461	1042.62
410.685	960.62
410.908	919.62
411.132	956.62
411.355	937.62
411.578	938.62
411.802	946.62
412.025	959.62
412.249	962.62
412.472	931.62
412.695	920.62
412.919	908.62
413.142	934.62
413.365	953.62
413.589	967.62
413.812	995.62
414.035	997.62
414.258	939.62
414.482	940.62
414.705	933.62
414.928	910.62
415.151	897.62
415.374	920.62
415.597	970.62
415.821	962.62
416.044	954.62
416.267	955.62
416.49	917.62
416.713	920.62
416.936	964.62
417.159	1010.62
417.382	967.62
417.605	942.62
417.828	932.62
418.051	949.62
418.274	931.62
418.497	938.62
418.72	945.62
418.943	932.62
419.166	965.62
419.389	1017.62
419.611	962.62
419.834	958.62
420.057	953.62
420.28	948.62
420.503	955.62
420.726	964.62
420.948	954.62
421.171	926.62
421.394	947.62
421.617	1016.62
421.839	1029.62
422.062	991.62
422.285	940.62
422.507	924.62
422.73	941.62
422.953	894.62
423.175	908.62
423.398	927.62
423.621	918.62
423.843	950.62
424.066	1006.62
424.288	1024.62
424.511	1018.62
424.733	1023.62
424.956	934.62
425.178	944.62
425.401	943.62
425.623	949.62
425.846	941.62
426.068	986.62
426.291	968.62
426.513	958.62
426.735	994.62
426.958	1062.62
427.18	1064.62
427.402	981.62
427.625	1024.62
427.847	998.62
428.069	928.62
428.292	938.62
428.514	916.62
428.736	914.62
428.958	905.62
429.181	925.62
429.403	1085.62
429.625	1228.62
429.847	1052.62
430.069	949.62
430.292	1064.62
430.514	1058.62
430.736	989.62
430.958	956.62
431.18	929.62
431.402	879.62
431.624	849.62
431.846	801.62
432.068	750.62
432.29	743.62
432.512	808.62
432.734	894.62
432.956	926.62
433.178	965.62
433.4	948.62
433.622	974.62
433.844	950.62
434.066	845.62
434.287	817.62
434.509	796.62
434.731	841.62
434.953	911.62
435.175	934.62
435.397	905.62
435.618	894.62
435.84	840.62
436.062	828.62
436.284	913.62
436.505	941.62
436.727	922.62
436.949	931.62
437.17	882.62
437.392	861.62
437.614	841.62
437.835	820.62
438.057	801.62
438.278	872.62
438.5	885.62
438.721	892.62
438.943	930.62
439.165	930.62
439.386	888.62
439.608	945.62
439.829	970.62
440.05	978.62
440.272	1000.62
440.493	980.62
440.715	958.62
440.936	1012.62
441.158	1042.62
441.379	1044.62
441.6	1036.62
441.822	1027.62
442.043	1008.62
442.264	975.62
442.486	967.62
442.707	975.62
442.928	960.62
443.149	1000.62
443.371	1019.62
443.592	1043.62
443.813	1033.62
444.034	1029.62
444.255	1036.62
444.476	1011.62
444.698	1052.62
444.919	1077.62
445.14	1162.62
445.361	1102.62
445.582	1088.62
445.803	1066.62
446.024	1032.62
446.245	1080.62
446.466	1074.62
446.687	1029.62
446.908	1062.62
447.129	1058.62
447.35	1018.62
447.571	998.62
447.792	993.62
448.013	965.62
448.234	986.62
448.455	990.62
448.675	1000.62
448.896	920.62
449.117	901.62
449.338	933.62
449.559	977.62
449.779	992.62
450	1013.62
450.221	1067.62
450.442	1032.62
450.662	926.62
450.883	903.62
451.104	887.62
451.324	912.62
451.545	904.62
451.766	862.62
451.986	852.62
452.207	837.62
452.428	797.62
452.648	792.62
452.869	778.62
453.089	794.62
453.31	776.62
453.53	787.62
453.751	768.62
453.971	704.62
454.192	708.62
454.412	789.62
454.633	822.62
454.853	812.62
455.073	747.62
455.294	774.62
455.514	770.62
455.734	779.62
455.955	764.62
456.175	731.62
456.395	725.62
456.616	752.62
456.836	738.62
457.056	727.62
457.276	740.62
457.497	737.62
457.717	694.62
457.937	708.62
458.157	715.62
458.377	698.62
458.598	693.62
458.818	667.62
459.038	702.62
459.258	715.62
459.478	710.62
459.698	686.62
459.918	749.62
460.138	823.62
460.358	858.62
460.578	840.62
460.798	878.62
461.018	893.62
461.238	906.62
461.458	881.62
461.678	848.62
461.898	826.62
462.118	834.62
462.338	858.62
462.558	862.62
462.777	857.62
462.997	890.62
463.217	891.62
463.437	876.62
463.657	860.62
463.876	850.62
464.096	851.62
464.316	864.62
464.536	866.62
464.755	901.62
464.975	877.62
465.195	878.62
465.414	904.62
465.634	884.62
465.854	869.62
466.073	997.62
466.293	945.62
466.512	890.62
466.732	888.62
466.951	932.62
467.171	907.62
467.391	900.62
467.61	875.62
467.829	904.62
468.049	1012.62
468.268	1054.62
468.488	971.62
468.707	917.62
468.927	928.62
469.146	930.62
469.365	945.62
469.585	945.62
469.804	926.62
470.023	928.62
470.243	946.62
470.462	967.62
470.681	939.62
470.901	927.62
471.12	964.62
471.339	969.62
471.558	925.62
471.777	923.62
471.997	922.62
472.216	883.62
472.435	795.62
472.654	792.62
472.873	806.62
473.092	846.62
473.311	852.62
473.53	813.62
473.749	820.62
473.968	866.62
474.187	871.62
474.406	848.62
474.625	854.62
474.844	896.62
475.063	869.62
475.282	890.62
475.501	836.62
475.72	839.62
475.939	924.62
476.158	901.62
476.377	869.62
476.596	856.62
476.814	832.62
477.033	813.62
477.252	854.62
477.471	888.62
477.69	918.62
477.908	958.62
478.127	994.62
478.346	998.62
478.564	1005.62
478.783	1009.62
479.002	1047.62
479.22	1035.62
479.439	1032.62
479.658	1078.62
479.876	1024.62
480.095	919.62
480.313	908.62
480.532	897.62
480.751	871.62
480.969	822.62
481.188	816.62
481.406	809.62
481.624	768.62
481.843	824.62
482.061	822.62
482.28	902.62
482.498	898.62
482.717	868.62
482.935	922.62
483.153	971.62
483.372	1034.62
483.59	1000.62
483.808	985.62
484.027	954.62
484.245	1016.62
484.463	1227.62
484.681	1344.62
484.9	1081.62
485.118	1012.62
485.336	955.62
485.554	925.62
485.772	914.62
485.99	910.62
486.209	883.62
486.427	904.62
486.645	958.62
486.863	1003.62
487.081	1050.62
487.299	1036.62
487.517	1022.62
487.735	1097.62
487.953	1197.62
488.171	1197.62
488.389	1124.62
488.607	1092.62
488.825	1160.62
489.043	1116.62
489.261	1001.62
489.479	1057.62
489.696	1062.62
489.914	1090.62
490.132	1061.62
490.35	1073.62
490.568	1177.62
490.786	1183.62
491.003	1181.62
491.221	1269.62
491.439	1282.62
491.657	1295.62
491.874	1405.62
492.092	1439.62
492.31	1541.62
492.527	1447.62
492.745	1351.62
492.963	1314.62
493.18	1306.62
493.398	1358.62
493.615	1358.62
493.833	1278.62
494.05	1249.62
494.268	1258.62
494.485	1231.62
494.703	1257.62
494.92	1239.62
495.138	1201.62
495.355	1260.62
495.573	1289.62
495.79	1323.62
496.008	1284.62
496.225	1243.62
496.442	1248.62
496.66	1249.62
496.877	1187.62
497.094	1257.62
497.312	1242.62
497.529	1207.62
497.746	1197.62
497.963	1299.62
498.181	1306.62
498.398	1271.62
498.615	1207.62
498.832	1149.62
499.049	1182.62
499.267	1166.62
499.484	1242.62
499.701	1375.62
499.918	1395.62
500.135	1547.62
