Data from WStandard_LampEnergy8_LIBS07252019.E.O._I.C._HRD10591_15-59-32-929.txt Node
Date: Thu Jul 25 15:59:32 EDT 2019
User: cochatt
Spectrometer: HR+D1059
Trigger mode: 1
Integration Time (sec): 1.000000E-1
Scans to average: 1
Electric dark correction enabled: true
Nonlinearity correction enabled: false
Boxcar width: 0
XAxis mode: Wavelengths
Number of Pixels in Spectrum: 2048
>>>>>Begin Spectral Data<<<<<
223.165	-4.31
223.4	-4.31
223.635	-4.31
223.869	-20.31
224.104	-19.31
224.338	-8.31
224.573	-15.31
224.808	-19.31
225.042	-18.31
225.277	-20.31
225.511	0.69
225.746	8.69
225.98	8.69
226.215	18.69
226.449	16.69
226.683	25.69
226.918	16.69
227.152	29.69
227.387	29.69
227.621	45.69
227.856	39.69
228.09	41.69
228.324	52.69
228.559	42.69
228.793	72.69
229.027	184.69
229.262	191.69
229.496	198.69
229.73	231.69
229.964	237.69
230.199	255.69
230.433	259.69
230.667	273.69
230.901	296.69
231.136	259.69
231.37	278.69
231.604	242.69
231.838	284.69
232.072	256.69
232.306	241.69
232.541	268.69
232.775	324.69
233.009	311.69
233.243	291.69
233.477	288.69
233.711	300.69
233.945	299.69
234.179	279.69
234.413	325.69
234.647	337.69
234.881	300.69
235.115	292.69
235.349	297.69
235.583	310.69
235.817	286.69
236.051	288.69
236.285	295.69
236.519	319.69
236.753	345.69
236.987	347.69
237.221	329.69
237.455	372.69
237.689	370.69
237.922	346.69
238.156	348.69
238.39	373.69
238.624	386.69
238.858	371.69
239.091	382.69
239.325	398.69
239.559	455.69
239.793	486.69
240.027	509.69
240.26	496.69
240.494	384.69
240.728	374.69
240.961	375.69
241.195	395.69
241.429	416.69
241.662	414.69
241.896	376.69
242.13	406.69
242.363	422.69
242.597	435.69
242.83	444.69
243.064	467.69
243.298	474.69
243.531	459.69
243.765	465.69
243.998	445.69
244.232	398.69
244.465	398.69
244.699	414.69
244.932	468.69
245.166	504.69
245.399	466.69
245.633	460.69
245.866	429.69
246.099	466.69
246.333	482.69
246.566	477.69
246.8	502.69
247.033	538.69
247.266	526.69
247.5	517.69
247.733	521.69
247.966	548.69
248.2	603.69
248.433	601.69
248.666	600.69
248.899	653.69
249.133	749.69
249.366	796.69
249.599	648.69
249.832	603.69
250.066	636.69
250.299	612.69
250.532	569.69
250.765	521.69
250.998	550.69
251.231	585.69
251.465	594.69
251.698	560.69
251.931	583.69
252.164	564.69
252.397	606.69
252.63	600.69
252.863	548.69
253.096	540.69
253.329	544.69
253.562	582.69
253.795	602.69
254.028	591.69
254.261	580.69
254.494	544.69
254.727	557.69
254.96	568.69
255.193	620.69
255.426	701.69
255.659	759.69
255.892	772.69
256.124	662.69
256.357	625.69
256.59	677.69
256.823	676.69
257.056	715.69
257.289	806.69
257.521	877.69
257.754	798.69
257.987	783.69
258.22	807.69
258.452	798.69
258.685	681.69
258.918	649.69
259.151	658.69
259.383	627.69
259.616	566.69
259.849	607.69
260.081	687.69
260.314	738.69
260.547	784.69
260.779	812.69
261.012	733.69
261.244	688.69
261.477	674.69
261.71	676.69
261.942	684.69
262.175	653.69
262.407	706.69
262.64	663.69
262.872	623.69
263.105	584.69
263.337	618.69
263.57	641.69
263.802	614.69
264.035	592.69
264.267	554.69
264.499	556.69
264.732	617.69
264.964	630.69
265.197	660.69
265.429	702.69
265.661	782.69
265.894	836.69
266.126	860.69
266.358	757.69
266.591	790.69
266.823	813.69
267.055	757.69
267.287	754.69
267.52	737.69
267.752	727.69
267.984	784.69
268.216	792.69
268.448	791.69
268.681	786.69
268.913	735.69
269.145	706.69
269.377	708.69
269.609	753.69
269.841	868.69
270.073	997.69
270.306	1070.69
270.538	1150.69
270.77	938.69
271.002	832.69
271.234	813.69
271.466	814.69
271.698	902.69
271.93	1004.69
272.162	1032.69
272.394	957.69
272.626	887.69
272.858	806.69
273.09	711.69
273.322	700.69
273.553	641.69
273.785	659.69
274.017	709.69
274.249	736.69
274.481	754.69
274.713	691.69
274.945	677.69
275.176	676.69
275.408	661.69
275.64	662.69
275.872	676.69
276.104	745.69
276.335	819.69
276.567	894.69
276.799	871.69
277.031	818.69
277.262	784.69
277.494	808.69
277.726	895.69
277.957	845.69
278.189	774.69
278.421	725.69
278.652	732.69
278.884	713.69
279.115	737.69
279.347	725.69
279.579	732.69
279.81	724.69
280.042	804.69
280.273	849.69
280.505	864.69
280.736	866.69
280.968	797.69
281.199	731.69
281.431	682.69
281.662	704.69
281.894	743.69
282.125	727.69
282.356	762.69
282.588	750.69
282.819	773.69
283.051	812.69
283.282	854.69
283.513	834.69
283.745	744.69
283.976	736.69
284.207	717.69
284.439	719.69
284.67	739.69
284.901	785.69
285.132	768.69
285.364	779.69
285.595	775.69
285.826	772.69
286.057	729.69
286.288	740.69
286.52	801.69
286.751	858.69
286.982	831.69
287.213	769.69
287.444	730.69
287.675	704.69
287.906	756.69
288.138	836.69
288.369	797.69
288.6	753.69
288.831	734.69
289.062	735.69
289.293	760.69
289.524	751.69
289.755	795.69
289.986	788.69
290.217	704.69
290.448	732.69
290.679	785.69
290.91	764.69
291.141	797.69
291.371	807.69
291.602	825.69
291.833	838.69
292.064	823.69
292.295	818.69
292.526	829.69
292.757	873.69
292.987	813.69
293.218	790.69
293.449	866.69
293.68	963.69
293.91	1000.69
294.141	926.69
294.372	853.69
294.603	904.69
294.833	952.69
295.064	892.69
295.295	818.69
295.525	810.69
295.756	765.69
295.987	729.69
296.217	717.69
296.448	746.69
296.679	759.69
296.909	744.69
297.14	752.69
297.37	778.69
297.601	825.69
297.831	848.69
298.062	880.69
298.292	823.69
298.523	752.69
298.753	782.69
298.984	782.69
299.214	804.69
299.445	826.69
299.675	823.69
299.905	830.69
300.136	809.69
300.366	773.69
300.597	762.69
300.827	763.69
301.057	792.69
301.288	840.69
301.518	849.69
301.748	865.69
301.979	891.69
302.209	920.69
302.439	943.69
302.669	1009.69
302.9	913.69
303.13	821.69
303.36	842.69
303.59	855.69
303.82	857.69
304.051	852.69
304.281	873.69
304.511	862.69
304.741	897.69
304.971	1023.69
305.201	1028.69
305.431	944.69
305.661	824.69
305.891	753.69
306.121	739.69
306.352	804.69
306.582	848.69
306.812	900.69
307.042	919.69
307.272	925.69
307.502	973.69
307.731	1060.69
307.961	1075.69
308.191	961.69
308.421	857.69
308.651	812.69
308.881	828.69
309.111	825.69
309.341	806.69
309.571	812.69
309.8	819.69
310.03	768.69
310.26	802.69
310.49	817.69
310.72	845.69
310.949	882.69
311.179	874.69
311.409	856.69
311.639	838.69
311.868	807.69
312.098	842.69
312.328	821.69
312.557	834.69
312.787	860.69
313.017	874.69
313.246	854.69
313.476	857.69
313.706	857.69
313.935	870.69
314.165	883.69
314.394	894.69
314.624	952.69
314.853	1012.69
315.083	1040.69
315.312	1078.69
315.542	962.69
315.771	910.69
316.001	918.69
316.23	936.69
316.46	952.69
316.689	924.69
316.919	872.69
317.148	839.69
317.377	860.69
317.607	944.69
317.836	1034.69
318.065	1061.69
318.295	1027.69
318.524	963.69
318.753	962.69
318.983	943.69
319.212	907.69
319.441	884.69
319.67	895.69
319.9	910.69
320.129	955.69
320.358	1020.69
320.587	1053.69
320.816	1018.69
321.046	992.69
321.275	968.69
321.504	976.69
321.733	1039.69
321.962	995.69
322.191	925.69
322.42	907.69
322.649	898.69
322.878	920.69
323.108	934.69
323.337	930.69
323.566	933.69
323.795	925.69
324.024	906.69
324.253	924.69
324.482	890.69
324.71	886.69
324.939	867.69
325.168	871.69
325.397	928.69
325.626	938.69
325.855	949.69
326.084	921.69
326.313	941.69
326.542	926.69
326.77	941.69
326.999	954.69
327.228	916.69
327.457	878.69
327.686	877.69
327.914	884.69
328.143	927.69
328.372	896.69
328.6	928.69
328.829	901.69
329.058	878.69
329.287	927.69
329.515	910.69
329.744	949.69
329.972	990.69
330.201	996.69
330.43	997.69
330.658	974.69
330.887	978.69
331.115	973.69
331.344	994.69
331.572	954.69
331.801	950.69
332.03	963.69
332.258	962.69
332.486	986.69
332.715	990.69
332.943	969.69
333.172	975.69
333.4	1018.69
333.629	1046.69
333.857	1105.69
334.085	1220.69
334.314	1364.69
334.542	1394.69
334.771	1282.69
334.999	1143.69
335.227	1060.69
335.455	1046.69
335.684	1066.69
335.912	1084.69
336.14	1056.69
336.369	1032.69
336.597	1006.69
336.825	963.69
337.053	993.69
337.281	1077.69
337.51	1102.69
337.738	1126.69
337.966	1062.69
338.194	992.69
338.422	977.69
338.65	921.69
338.878	965.69
339.106	935.69
339.334	889.69
339.562	912.69
339.79	964.69
340.018	1002.69
340.246	1026.69
340.474	1016.69
340.702	988.69
340.93	1007.69
341.158	993.69
341.386	984.69
341.614	974.69
341.842	983.69
342.07	977.69
342.298	987.69
342.526	985.69
342.754	959.69
342.981	981.69
343.209	949.69
343.437	957.69
343.665	986.69
343.893	972.69
344.12	1034.69
344.348	1006.69
344.576	986.69
344.804	967.69
345.031	961.69
345.259	961.69
345.487	946.69
345.714	885.69
345.942	889.69
346.17	884.69
346.397	919.69
346.625	928.69
346.853	871.69
347.08	864.69
347.308	878.69
347.535	904.69
347.763	916.69
347.99	898.69
348.218	885.69
348.445	888.69
348.673	927.69
348.9	977.69
349.128	966.69
349.355	980.69
349.583	970.69
349.81	934.69
350.037	870.69
350.265	866.69
350.492	873.69
350.72	887.69
350.947	944.69
351.174	927.69
351.402	868.69
351.629	824.69
351.856	854.69
352.083	842.69
352.311	888.69
352.538	885.69
352.765	935.69
352.992	941.69
353.22	892.69
353.447	898.69
353.674	888.69
353.901	904.69
354.128	869.69
354.355	903.69
354.583	918.69
354.81	957.69
355.037	956.69
355.264	937.69
355.491	924.69
355.718	908.69
355.945	921.69
356.172	876.69
356.399	855.69
356.626	866.69
356.853	931.69
357.08	1028.69
357.307	1084.69
357.534	1035.69
357.761	918.69
357.988	857.69
358.215	867.69
358.441	890.69
358.668	860.69
358.895	896.69
359.122	934.69
359.349	1014.69
359.576	988.69
359.802	918.69
360.029	867.69
360.256	872.69
360.483	862.69
360.709	917.69
360.936	953.69
361.163	1008.69
361.39	1064.69
361.616	1202.69
361.843	1135.69
362.07	1062.69
362.296	921.69
362.523	867.69
362.749	914.69
362.976	934.69
363.203	918.69
363.429	906.69
363.656	893.69
363.882	936.69
364.109	1035.69
364.335	1080.69
364.562	1006.69
364.788	943.69
365.015	901.69
365.241	874.69
365.468	914.69
365.694	951.69
365.92	1006.69
366.147	928.69
366.373	866.69
366.599	902.69
366.826	905.69
367.052	892.69
367.278	908.69
367.505	917.69
367.731	925.69
367.957	952.69
368.184	993.69
368.41	1015.69
368.636	1032.69
368.862	1036.69
369.089	1030.69
369.315	1005.69
369.541	933.69
369.767	913.69
369.993	894.69
370.219	901.69
370.445	966.69
370.672	999.69
370.898	1036.69
371.124	1006.69
371.35	969.69
371.576	1001.69
371.802	1020.69
372.028	988.69
372.254	967.69
372.48	932.69
372.706	905.69
372.932	936.69
373.158	940.69
373.384	947.69
373.61	977.69
373.835	1027.69
374.061	966.69
374.287	984.69
374.513	973.69
374.739	959.69
374.965	979.69
375.191	978.69
375.416	1007.69
375.642	1045.69
375.868	1084.69
376.094	1108.69
376.319	1026.69
376.545	1001.69
376.771	1017.69
376.997	1054.69
377.222	1032.69
377.448	990.69
377.674	1037.69
377.899	1055.69
378.125	1068.69
378.35	1022.69
378.576	966.69
378.802	945.69
379.027	922.69
379.253	943.69
379.478	954.69
379.704	989.69
379.929	975.69
380.155	973.69
380.38	952.69
380.606	990.69
380.831	1008.69
381.057	1041.69
381.282	1053.69
381.507	1027.69
381.733	1138.69
381.958	1140.69
382.184	1034.69
382.409	1006.69
382.634	1002.69
382.86	1000.69
383.085	1033.69
383.31	1062.69
383.535	1132.69
383.761	1216.69
383.986	1137.69
384.211	1093.69
384.436	1086.69
384.662	1157.69
384.887	1159.69
385.112	1141.69
385.337	1140.69
385.562	1111.69
385.787	1112.69
386.013	1117.69
386.238	1137.69
386.463	1149.69
386.688	1218.69
386.913	1266.69
387.138	1241.69
387.363	1175.69
387.588	1159.69
387.813	1144.69
388.038	1157.69
388.263	1209.69
388.488	1145.69
388.713	1094.69
388.938	1079.69
389.163	1067.69
389.387	1097.69
389.612	1083.69
389.837	1150.69
390.062	1126.69
390.287	1114.69
390.512	1101.69
390.736	1118.69
390.961	1110.69
391.186	1057.69
391.411	1088.69
391.636	1104.69
391.86	1120.69
392.085	1102.69
392.31	1093.69
392.534	1100.69
392.759	1123.69
392.984	1131.69
393.208	1140.69
393.433	1188.69
393.658	1211.69
393.882	1182.69
394.107	1137.69
394.331	1108.69
394.556	1118.69
394.78	1111.69
395.005	1150.69
395.229	1232.69
395.454	1287.69
395.678	1272.69
395.903	1193.69
396.127	1158.69
396.352	1192.69
396.576	1229.69
396.801	1255.69
397.025	1203.69
397.249	1190.69
397.474	1222.69
397.698	1212.69
397.922	1266.69
398.147	1282.69
398.371	1325.69
398.595	1328.69
398.82	1246.69
399.044	1312.69
399.268	1375.69
399.492	1454.69
399.717	1450.69
399.941	1487.69
400.165	1446.69
400.389	1426.69
400.613	1468.69
400.837	1668.69
401.062	1769.69
401.286	1519.69
401.51	1412.69
401.734	1450.69
401.958	1352.69
402.182	1317.69
402.406	1276.69
402.63	1271.69
402.854	1254.69
403.078	1298.69
403.302	1308.69
403.526	1332.69
403.75	1316.69
403.974	1347.69
404.198	1346.69
404.422	1368.69
404.645	1446.69
404.869	1392.69
405.093	1301.69
405.317	1286.69
405.541	1312.69
405.765	1379.69
405.988	1353.69
406.212	1382.69
406.436	1375.69
406.66	1446.69
406.883	1477.69
407.107	1676.69
407.331	1780.69
407.555	1881.69
407.778	1655.69
408.002	1416.69
408.226	1399.69
408.449	1368.69
408.673	1346.69
408.896	1334.69
409.12	1359.69
409.344	1361.69
409.567	1282.69
409.791	1341.69
410.014	1383.69
410.238	1460.69
410.461	1526.69
410.685	1359.69
410.908	1324.69
411.132	1335.69
411.355	1296.69
411.578	1317.69
411.802	1304.69
412.025	1321.69
412.249	1289.69
412.472	1276.69
412.695	1280.69
412.919	1271.69
413.142	1284.69
413.365	1298.69
413.589	1328.69
413.812	1413.69
414.035	1438.69
414.258	1341.69
414.482	1326.69
414.705	1296.69
414.928	1290.69
415.151	1290.69
415.374	1298.69
415.597	1328.69
415.821	1317.69
416.044	1339.69
416.267	1327.69
416.49	1241.69
416.713	1246.69
416.936	1296.69
417.159	1338.69
417.382	1332.69
417.605	1274.69
417.828	1321.69
418.051	1324.69
418.274	1287.69
418.497	1244.69
418.72	1250.69
418.943	1301.69
419.166	1346.69
419.389	1322.69
419.611	1283.69
419.834	1269.69
420.057	1284.69
420.28	1276.69
420.503	1247.69
420.726	1320.69
420.948	1268.69
421.171	1242.69
421.394	1253.69
421.617	1342.69
421.839	1299.69
422.062	1302.69
422.285	1274.69
422.507	1271.69
422.73	1192.69
422.953	1168.69
423.175	1189.69
423.398	1257.69
423.621	1240.69
423.843	1251.69
424.066	1288.69
424.288	1358.69
424.511	1391.69
424.733	1334.69
424.956	1216.69
425.178	1228.69
425.401	1234.69
425.623	1226.69
425.846	1246.69
426.068	1318.69
426.291	1311.69
426.513	1292.69
426.735	1299.69
426.958	1408.69
427.18	1476.69
427.402	1369.69
427.625	1390.69
427.847	1393.69
428.069	1251.69
428.292	1235.69
428.514	1205.69
428.736	1205.69
428.958	1217.69
429.181	1246.69
429.403	1478.69
429.625	1741.69
429.847	1452.69
430.069	1245.69
430.292	1436.69
430.514	1428.69
430.736	1333.69
430.958	1363.69
431.18	1260.69
431.402	1206.69
431.624	1172.69
431.846	1162.69
432.068	1109.69
432.29	1141.69
432.512	1204.69
432.734	1227.69
432.956	1268.69
433.178	1314.69
433.4	1296.69
433.622	1292.69
433.844	1261.69
434.066	1198.69
434.287	1186.69
434.509	1180.69
434.731	1252.69
434.953	1328.69
435.175	1319.69
435.397	1272.69
435.618	1264.69
435.84	1221.69
436.062	1216.69
436.284	1277.69
436.505	1238.69
436.727	1326.69
436.949	1278.69
437.17	1233.69
437.392	1218.69
437.614	1205.69
437.835	1134.69
438.057	1187.69
438.278	1237.69
438.5	1177.69
438.721	1225.69
438.943	1233.69
439.165	1198.69
439.386	1202.69
439.608	1245.69
439.829	1234.69
440.05	1258.69
440.272	1202.69
440.493	1242.69
440.715	1262.69
440.936	1324.69
441.158	1414.69
441.379	1358.69
441.6	1360.69
441.822	1334.69
442.043	1311.69
442.264	1292.69
442.486	1249.69
442.707	1213.69
442.928	1273.69
443.149	1264.69
443.371	1330.69
443.592	1348.69
443.813	1356.69
444.034	1371.69
444.255	1337.69
444.476	1342.69
444.698	1390.69
444.919	1344.69
445.14	1468.69
445.361	1432.69
445.582	1419.69
445.803	1369.69
446.024	1362.69
446.245	1407.69
446.466	1352.69
446.687	1300.69
446.908	1308.69
447.129	1284.69
447.35	1286.69
447.571	1298.69
447.792	1231.69
448.013	1222.69
448.234	1240.69
448.455	1313.69
448.675	1308.69
448.896	1192.69
449.117	1152.69
449.338	1221.69
449.559	1266.69
449.779	1289.69
450	1399.69
450.221	1460.69
450.442	1418.69
450.662	1258.69
450.883	1185.69
451.104	1182.69
451.324	1154.69
451.545	1196.69
451.766	1168.69
451.986	1120.69
452.207	1119.69
452.428	1105.69
452.648	1081.69
452.869	1110.69
453.089	1104.69
453.31	1152.69
453.53	1109.69
453.751	1065.69
453.971	1046.69
454.192	1079.69
454.412	1136.69
454.633	1141.69
454.853	1100.69
455.073	1052.69
455.294	1055.69
455.514	1070.69
455.734	1062.69
455.955	1068.69
456.175	1055.69
456.395	1057.69
456.616	1084.69
456.836	1068.69
457.056	1054.69
457.276	1047.69
457.497	1023.69
457.717	966.69
457.937	1058.69
458.157	1073.69
458.377	1017.69
458.598	1019.69
458.818	1032.69
459.038	1080.69
459.258	1126.69
459.478	1133.69
459.698	1086.69
459.918	1131.69
460.138	1216.69
460.358	1225.69
460.578	1210.69
460.798	1257.69
461.018	1287.69
461.238	1253.69
461.458	1234.69
461.678	1189.69
461.898	1195.69
462.118	1206.69
462.338	1245.69
462.558	1267.69
462.777	1221.69
462.997	1276.69
463.217	1364.69
463.437	1311.69
463.657	1238.69
463.876	1204.69
464.096	1224.69
464.316	1246.69
464.536	1279.69
464.755	1256.69
464.975	1288.69
465.195	1253.69
465.414	1306.69
465.634	1271.69
465.854	1254.69
466.073	1360.69
466.293	1319.69
466.512	1174.69
466.732	1216.69
466.951	1235.69
467.171	1220.69
467.391	1178.69
467.61	1153.69
467.829	1221.69
468.049	1286.69
468.268	1453.69
468.488	1325.69
468.707	1240.69
468.927	1181.69
469.146	1176.69
469.365	1184.69
469.585	1225.69
469.804	1181.69
470.023	1207.69
470.243	1255.69
470.462	1190.69
470.681	1196.69
470.901	1210.69
471.12	1221.69
471.339	1179.69
471.558	1194.69
471.777	1198.69
471.997	1184.69
472.216	1170.69
472.435	1104.69
472.654	1102.69
472.873	1147.69
473.092	1214.69
473.311	1177.69
473.53	1106.69
473.749	1107.69
473.968	1164.69
474.187	1189.69
474.406	1221.69
474.625	1193.69
474.844	1193.69
475.063	1211.69
475.282	1192.69
475.501	1152.69
475.72	1176.69
475.939	1282.69
476.158	1238.69
476.377	1174.69
476.596	1184.69
476.814	1186.69
477.033	1172.69
477.252	1244.69
477.471	1286.69
477.69	1282.69
477.908	1249.69
478.127	1272.69
478.346	1410.69
478.564	1396.69
478.783	1406.69
479.002	1427.69
479.22	1385.69
479.439	1426.69
479.658	1586.69
479.876	1500.69
480.095	1379.69
480.313	1308.69
480.532	1296.69
480.751	1295.69
480.969	1268.69
481.188	1255.69
481.406	1246.69
481.624	1217.69
481.843	1270.69
482.061	1245.69
482.28	1280.69
482.498	1302.69
482.717	1285.69
482.935	1289.69
483.153	1337.69
483.372	1358.69
483.59	1344.69
483.808	1318.69
484.027	1356.69
484.245	1411.69
484.463	1727.69
484.681	1849.69
484.9	1429.69
485.118	1353.69
485.336	1316.69
485.554	1350.69
485.772	1386.69
485.99	1318.69
486.209	1356.69
486.427	1359.69
486.645	1361.69
486.863	1376.69
487.081	1401.69
487.299	1416.69
487.517	1434.69
487.735	1404.69
487.953	1449.69
488.171	1485.69
488.389	1444.69
488.607	1429.69
488.825	1554.69
489.043	1488.69
489.261	1349.69
489.479	1474.69
489.696	1470.69
489.914	1444.69
490.132	1389.69
490.35	1431.69
490.568	1459.69
490.786	1487.69
491.003	1458.69
491.221	1516.69
491.439	1599.69
491.657	1590.69
491.874	1589.69
492.092	1636.69
492.31	1658.69
492.527	1638.69
492.745	1604.69
492.963	1594.69
493.18	1581.69
493.398	1728.69
493.615	1648.69
493.833	1528.69
494.05	1504.69
