Data from WStandard_LampEnergy5.5LIBS07252019.E.O._I.C._HRD10591_16-07-59-920.txt Node
Date: Thu Jul 25 16:07:59 EDT 2019
User: cochatt
Spectrometer: HR+D1059
Trigger mode: 1
Integration Time (sec): 1.000000E-1
Scans to average: 1
Electric dark correction enabled: true
Nonlinearity correction enabled: false
Boxcar width: 0
XAxis mode: Wavelengths
Number of Pixels in Spectrum: 2048
>>>>>Begin Spectral Data<<<<<
223.165	-2.12
223.4	-2.12
223.635	-2.12
223.869	-13.12
224.104	-18.12
224.338	-23.12
224.573	-23.12
224.808	-20.12
225.042	-4.12
225.277	-6.12
225.511	-13.12
225.746	0.88
225.98	-3.12
226.215	33.88
226.449	17.88
226.683	19.88
226.918	12.88
227.152	40.88
227.387	10.88
227.621	30.88
227.856	55.88
228.09	44.88
228.324	49.88
228.559	45.88
228.793	151.88
229.027	358.88
229.262	386.88
229.496	389.88
229.73	391.88
229.964	427.88
230.199	466.88
230.433	475.88
230.667	525.88
230.901	551.88
231.136	485.88
231.37	459.88
231.604	443.88
231.838	462.88
232.072	507.88
232.306	468.88
232.541	492.88
232.775	567.88
233.009	620.88
233.243	595.88
233.477	544.88
233.711	545.88
233.945	586.88
234.179	562.88
234.413	604.88
234.647	650.88
234.881	606.88
235.115	574.88
235.349	575.88
235.583	597.88
235.817	572.88
236.051	548.88
236.285	569.88
236.519	608.88
236.753	670.88
236.987	700.88
237.221	703.88
237.455	759.88
237.689	714.88
237.922	686.88
238.156	660.88
238.39	699.88
238.624	731.88
238.858	756.88
239.091	801.88
239.325	841.88
239.559	936.88
239.793	982.88
240.027	1076.88
240.26	1076.88
240.494	762.88
240.728	745.88
240.961	753.88
241.195	745.88
241.429	846.88
241.662	861.88
241.896	788.88
242.13	780.88
242.363	872.88
242.597	924.88
242.83	889.88
243.064	890.88
243.298	987.88
243.531	962.88
243.765	952.88
243.998	966.88
244.232	850.88
244.465	754.88
244.699	808.88
244.932	934.88
245.166	1074.88
245.399	1008.88
245.633	933.88
245.866	917.88
246.099	959.88
246.333	963.88
246.566	993.88
246.8	1061.88
247.033	1247.88
247.266	1114.88
247.5	1107.88
247.733	1072.88
247.966	1157.88
248.2	1287.88
248.433	1225.88
248.666	1248.88
248.899	1375.88
249.133	1583.88
249.366	1829.88
249.599	1434.88
249.832	1300.88
250.066	1298.88
250.299	1350.88
250.532	1258.88
250.765	1132.88
250.998	1198.88
251.231	1232.88
251.465	1296.88
251.698	1232.88
251.931	1184.88
252.164	1219.88
252.397	1303.88
252.63	1302.88
252.863	1117.88
253.096	1091.88
253.329	1151.88
253.562	1226.88
253.795	1329.88
254.028	1310.88
254.261	1211.88
254.494	1210.88
254.727	1132.88
254.96	1200.88
255.193	1302.88
255.426	1447.88
255.659	1666.88
255.892	1725.88
256.124	1445.88
256.357	1352.88
256.59	1471.88
256.823	1450.88
257.056	1459.88
257.289	1780.88
257.521	1937.88
257.754	1773.88
257.987	1624.88
258.22	1844.88
258.452	1811.88
258.685	1444.88
258.918	1395.88
259.151	1440.88
259.383	1393.88
259.616	1212.88
259.849	1265.88
260.081	1412.88
260.314	1578.88
260.547	1722.88
260.779	1779.88
261.012	1653.88
261.244	1488.88
261.477	1389.88
261.71	1464.88
261.942	1484.88
262.175	1406.88
262.407	1524.88
262.64	1481.88
262.872	1296.88
263.105	1279.88
263.337	1313.88
263.57	1330.88
263.802	1324.88
264.035	1256.88
264.267	1177.88
264.499	1164.88
264.732	1261.88
264.964	1350.88
265.197	1403.88
265.429	1434.88
265.661	1644.88
265.894	1783.88
266.126	1868.88
266.358	1664.88
266.591	1675.88
266.823	1860.88
267.055	1667.88
267.287	1622.88
267.52	1626.88
267.752	1602.88
267.984	1568.88
268.216	1679.88
268.448	1699.88
268.681	1670.88
268.913	1568.88
269.145	1472.88
269.377	1447.88
269.609	1576.88
269.841	1820.88
270.073	2089.88
270.306	2378.88
270.538	2497.88
270.77	2131.88
271.002	1768.88
271.234	1680.88
271.466	1680.88
271.698	1908.88
271.93	2309.88
272.162	2308.88
272.394	2036.88
272.626	1992.88
272.858	1760.88
273.09	1524.88
273.322	1508.88
273.553	1403.88
273.785	1463.88
274.017	1467.88
274.249	1637.88
274.481	1646.88
274.713	1498.88
274.945	1467.88
275.176	1469.88
275.408	1481.88
275.64	1419.88
275.872	1400.88
276.104	1476.88
276.335	1668.88
276.567	1954.88
276.799	2002.88
277.031	1741.88
277.262	1659.88
277.494	1709.88
277.726	1919.88
277.957	1866.88
278.189	1718.88
278.421	1568.88
278.652	1574.88
278.884	1522.88
279.115	1497.88
279.347	1566.88
279.579	1533.88
279.81	1480.88
280.042	1650.88
280.273	1816.88
280.505	1836.88
280.736	1898.88
280.968	1841.88
281.199	1565.88
281.431	1474.88
281.662	1476.88
281.894	1463.88
282.125	1542.88
282.356	1609.88
282.588	1609.88
282.819	1590.88
283.051	1701.88
283.282	1816.88
283.513	1804.88
283.745	1550.88
283.976	1465.88
284.207	1485.88
284.439	1500.88
284.67	1510.88
284.901	1582.88
285.132	1576.88
285.364	1562.88
285.595	1600.88
285.826	1594.88
286.057	1562.88
286.288	1536.88
286.52	1598.88
286.751	1720.88
286.982	1778.88
287.213	1641.88
287.444	1506.88
287.675	1480.88
287.906	1592.88
288.138	1685.88
288.369	1624.88
288.6	1586.88
288.831	1495.88
289.062	1526.88
289.293	1606.88
289.524	1523.88
289.755	1631.88
289.986	1594.88
290.217	1489.88
290.448	1463.88
290.679	1583.88
290.91	1590.88
291.141	1629.88
291.371	1687.88
291.602	1674.88
291.833	1654.88
292.064	1696.88
292.295	1680.88
292.526	1686.88
292.757	1826.88
292.987	1710.88
293.218	1592.88
293.449	1714.88
293.68	1905.88
293.91	2109.88
294.141	1962.88
294.372	1844.88
294.603	1854.88
294.833	1979.88
295.064	1850.88
295.295	1727.88
295.525	1638.88
295.756	1558.88
295.987	1448.88
296.217	1506.88
296.448	1524.88
296.679	1514.88
296.909	1584.88
297.14	1557.88
297.37	1538.88
297.601	1645.88
297.831	1777.88
298.062	1798.88
298.292	1650.88
298.523	1536.88
298.753	1546.88
298.984	1576.88
299.214	1580.88
299.445	1601.88
299.675	1660.88
299.905	1666.88
300.136	1626.88
300.366	1586.88
300.597	1517.88
300.827	1545.88
301.057	1611.88
301.288	1724.88
301.518	1636.88
301.748	1702.88
301.979	1793.88
302.209	1808.88
302.439	1950.88
302.669	2039.88
302.9	1908.88
303.13	1694.88
303.36	1692.88
303.59	1741.88
303.82	1695.88
304.051	1689.88
304.281	1713.88
304.511	1687.88
304.741	1789.88
304.971	1944.88
305.201	2124.88
305.431	2057.88
305.661	1640.88
305.891	1503.88
306.121	1472.88
306.352	1538.88
306.582	1630.88
306.812	1749.88
307.042	1854.88
307.272	1864.88
307.502	1894.88
307.731	2015.88
307.961	2221.88
308.191	2061.88
308.421	1805.88
308.651	1684.88
308.881	1626.88
309.111	1603.88
309.341	1607.88
309.571	1605.88
309.8	1585.88
310.03	1646.88
310.26	1613.88
310.49	1591.88
310.72	1618.88
310.949	1715.88
311.179	1757.88
311.409	1729.88
311.639	1681.88
311.868	1624.88
312.098	1674.88
312.328	1666.88
312.557	1627.88
312.787	1671.88
313.017	1692.88
313.246	1700.88
313.476	1675.88
313.706	1720.88
313.935	1697.88
314.165	1755.88
314.394	1814.88
314.624	1880.88
314.853	1978.88
315.083	1979.88
315.312	2154.88
315.542	2016.88
315.771	1759.88
316.001	1781.88
316.23	1878.88
316.46	1864.88
316.689	1849.88
316.919	1720.88
317.148	1687.88
317.377	1686.88
317.607	1809.88
317.836	1992.88
318.065	2108.88
318.295	2032.88
318.524	1934.88
318.753	1838.88
318.983	1822.88
319.212	1821.88
319.441	1754.88
319.67	1760.88
319.9	1797.88
320.129	1872.88
320.358	1900.88
320.587	2015.88
320.816	1981.88
321.046	1986.88
321.275	1857.88
321.504	1862.88
321.733	1993.88
321.962	1972.88
322.191	1789.88
322.42	1778.88
322.649	1756.88
322.878	1769.88
323.108	1838.88
323.337	1864.88
323.566	1835.88
323.795	1859.88
324.024	1856.88
324.253	1788.88
324.482	1813.88
324.71	1796.88
324.939	1659.88
325.168	1713.88
325.397	1781.88
325.626	1836.88
325.855	1859.88
326.084	1796.88
326.313	1796.88
326.542	1789.88
326.77	1856.88
326.999	1872.88
327.228	1753.88
327.457	1728.88
327.686	1675.88
327.914	1744.88
328.143	1776.88
328.372	1777.88
328.6	1802.88
328.829	1760.88
329.058	1730.88
329.287	1751.88
329.515	1808.88
329.744	1819.88
329.972	1878.88
330.201	1970.88
330.43	1958.88
330.658	1854.88
330.887	1924.88
331.115	1904.88
331.344	1928.88
331.572	1835.88
331.801	1882.88
332.03	1870.88
332.258	1868.88
332.486	1918.88
332.715	1933.88
332.943	1951.88
333.172	1913.88
333.4	1940.88
333.629	1945.88
333.857	2080.88
334.085	2285.88
334.314	2540.88
334.542	2821.88
334.771	2587.88
334.999	2290.88
335.227	2143.88
335.455	2053.88
335.684	2029.88
335.912	2037.88
336.14	2149.88
336.369	2092.88
336.597	1928.88
336.825	1937.88
337.053	1966.88
337.281	2074.88
337.51	2138.88
337.738	2256.88
337.966	2192.88
338.194	1955.88
338.422	1845.88
338.65	1921.88
338.878	1812.88
339.106	1838.88
339.334	1765.88
339.562	1789.88
339.79	1798.88
340.018	1897.88
340.246	2002.88
340.474	1986.88
340.702	1933.88
340.93	1928.88
341.158	1902.88
341.386	1858.88
341.614	1862.88
341.842	1841.88
342.07	1871.88
342.298	1930.88
342.526	1890.88
342.754	1802.88
342.981	1842.88
343.209	1847.88
343.437	1806.88
343.665	1872.88
343.893	1940.88
344.12	1990.88
344.348	1998.88
344.576	1967.88
344.804	1848.88
345.031	1864.88
345.259	1920.88
345.487	1802.88
345.714	1788.88
345.942	1705.88
346.17	1731.88
346.397	1797.88
346.625	1788.88
346.853	1665.88
347.08	1654.88
347.308	1680.88
347.535	1700.88
347.763	1808.88
347.99	1749.88
348.218	1673.88
348.445	1692.88
348.673	1706.88
348.9	1776.88
349.128	1828.88
349.355	1896.88
349.583	1820.88
349.81	1769.88
350.037	1659.88
350.265	1574.88
350.492	1648.88
350.72	1734.88
350.947	1701.88
351.174	1752.88
351.402	1720.88
351.629	1647.88
351.856	1601.88
352.083	1625.88
352.311	1592.88
352.538	1656.88
352.765	1736.88
352.992	1786.88
353.22	1756.88
353.447	1664.88
353.674	1718.88
353.901	1751.88
354.128	1693.88
354.355	1625.88
354.583	1725.88
354.81	1770.88
355.037	1772.88
355.264	1765.88
355.491	1752.88
355.718	1719.88
355.945	1681.88
356.172	1669.88
356.399	1684.88
356.626	1658.88
356.853	1700.88
357.08	1808.88
357.307	2024.88
357.534	2051.88
357.761	1816.88
357.988	1684.88
358.215	1622.88
358.441	1642.88
358.668	1640.88
358.895	1638.88
359.122	1723.88
359.349	1926.88
359.576	1893.88
359.802	1731.88
360.029	1667.88
360.256	1633.88
360.483	1678.88
360.709	1698.88
360.936	1823.88
361.163	1833.88
361.39	1986.88
361.616	2143.88
361.843	2088.88
362.07	1972.88
362.296	1705.88
362.523	1676.88
362.749	1687.88
362.976	1712.88
363.203	1716.88
363.429	1710.88
363.656	1636.88
363.882	1698.88
364.109	1848.88
364.335	2052.88
364.562	1904.88
364.788	1793.88
365.015	1736.88
365.241	1674.88
365.468	1728.88
365.694	1753.88
365.92	1872.88
366.147	1810.88
366.373	1627.88
366.599	1606.88
366.826	1658.88
367.052	1664.88
367.278	1695.88
367.505	1708.88
367.731	1721.88
367.957	1729.88
368.184	1793.88
368.41	1876.88
368.636	1896.88
368.862	1920.88
369.089	1932.88
369.315	1829.88
369.541	1780.88
369.767	1753.88
369.993	1692.88
370.219	1636.88
370.445	1710.88
370.672	1803.88
370.898	1894.88
371.124	1922.88
371.35	1826.88
371.576	1822.88
371.802	1893.88
372.028	1845.88
372.254	1748.88
372.48	1723.88
372.706	1713.88
372.932	1690.88
373.158	1740.88
373.384	1742.88
373.61	1816.88
373.835	1889.88
374.061	1802.88
374.287	1776.88
374.513	1813.88
374.739	1802.88
374.965	1830.88
375.191	1855.88
375.416	1842.88
375.642	1847.88
375.868	1949.88
376.094	2000.88
376.319	1893.88
376.545	1780.88
376.771	1814.88
376.997	1914.88
377.222	1934.88
377.448	1806.88
377.674	1855.88
377.899	1862.88
378.125	1937.88
378.35	2006.88
378.576	1799.88
378.802	1714.88
379.027	1742.88
379.253	1745.88
379.478	1792.88
379.704	1795.88
379.929	1820.88
380.155	1780.88
380.38	1802.88
380.606	1801.88
380.831	1791.88
381.057	1850.88
381.282	1917.88
381.507	1860.88
381.733	1964.88
381.958	2045.88
382.184	1879.88
382.409	1847.88
382.634	1876.88
382.86	1887.88
383.085	1873.88
383.31	1934.88
383.535	2023.88
383.761	2168.88
383.986	2104.88
384.211	2002.88
384.436	2013.88
384.662	2050.88
384.887	2138.88
385.112	2034.88
385.337	2110.88
385.562	2077.88
385.787	2064.88
386.013	2099.88
386.238	2128.88
386.463	2070.88
386.688	2227.88
386.913	2339.88
387.138	2309.88
387.363	2104.88
387.588	2098.88
387.813	2081.88
388.038	2112.88
388.263	2180.88
388.488	2138.88
388.713	1938.88
388.938	1939.88
389.163	1983.88
389.387	2024.88
389.612	1991.88
389.837	2028.88
390.062	2096.88
390.287	2103.88
390.512	2050.88
390.736	2004.88
390.961	1988.88
391.186	1930.88
391.411	1980.88
391.636	1989.88
391.86	2054.88
392.085	2044.88
392.31	2043.88
392.534	2018.88
392.759	2109.88
392.984	2024.88
393.208	2075.88
393.433	2104.88
393.658	2180.88
393.882	2206.88
394.107	2088.88
394.331	2015.88
394.556	2019.88
394.78	2033.88
395.005	2130.88
395.229	2183.88
395.454	2385.88
395.678	2410.88
395.903	2246.88
396.127	2134.88
396.352	2183.88
396.576	2231.88
396.801	2239.88
397.025	2215.88
397.249	2224.88
397.474	2168.88
397.698	2186.88
397.922	2255.88
398.147	2329.88
398.371	2424.88
398.595	2462.88
398.82	2305.88
399.044	2350.88
399.268	2501.88
399.492	2619.88
399.717	2752.88
399.941	2808.88
400.165	2672.88
400.389	2615.88
400.613	2576.88
400.837	2828.88
401.062	3273.88
401.286	2804.88
401.51	2538.88
401.734	2700.88
401.958	2613.88
402.182	2429.88
402.406	2357.88
402.63	2298.88
402.854	2290.88
403.078	2387.88
403.302	2366.88
403.526	2460.88
403.75	2456.88
403.974	2459.88
404.198	2429.88
404.422	2510.88
404.645	2647.88
404.869	2620.88
405.093	2418.88
405.317	2352.88
405.541	2423.88
405.765	2446.88
405.988	2421.88
406.212	2458.88
406.436	2536.88
406.66	2610.88
406.883	2608.88
407.107	2929.88
407.331	3141.88
407.555	3384.88
407.778	3200.88
408.002	2620.88
408.226	2576.88
408.449	2578.88
408.673	2433.88
408.896	2478.88
409.12	2571.88
409.344	2474.88
409.567	2400.88
409.791	2476.88
410.014	2445.88
410.238	2604.88
410.461	2790.88
410.685	2468.88
410.908	2369.88
411.132	2451.88
411.355	2401.88
411.578	2356.88
411.802	2356.88
412.025	2402.88
412.249	2386.88
412.472	2296.88
412.695	2298.88
412.919	2322.88
413.142	2256.88
413.365	2353.88
413.589	2415.88
413.812	2480.88
414.035	2607.88
414.258	2377.88
414.482	2343.88
414.705	2340.88
414.928	2272.88
415.151	2304.88
415.374	2354.88
415.597	2391.88
415.821	2318.88
416.044	2458.88
416.267	2439.88
416.49	2230.88
416.713	2260.88
416.936	2313.88
417.159	2424.88
417.382	2417.88
417.605	2289.88
417.828	2313.88
418.051	2368.88
418.274	2305.88
418.497	2249.88
418.72	2228.88
418.943	2258.88
419.166	2391.88
419.389	2503.88
419.611	2355.88
419.834	2286.88
420.057	2296.88
420.28	2222.88
420.503	2226.88
420.726	2314.88
420.948	2281.88
421.171	2188.88
421.394	2310.88
421.617	2318.88
421.839	2280.88
422.062	2260.88
422.285	2186.88
422.507	2215.88
422.73	2167.88
422.953	2126.88
423.175	2128.88
423.398	2213.88
423.621	2216.88
423.843	2262.88
424.066	2307.88
424.288	2304.88
424.511	2380.88
424.733	2326.88
424.956	2093.88
425.178	2115.88
425.401	2139.88
425.623	2177.88
425.846	2214.88
426.068	2273.88
426.291	2354.88
426.513	2233.88
426.735	2300.88
426.958	2364.88
427.18	2559.88
427.402	2343.88
427.625	2413.88
427.847	2454.88
428.069	2282.88
428.292	2199.88
428.514	2120.88
428.736	2122.88
428.958	2168.88
429.181	2200.88
429.403	2451.88
429.625	3088.88
429.847	2662.88
430.069	2248.88
430.292	2390.88
430.514	2537.88
430.736	2337.88
430.958	2425.88
431.18	2364.88
431.402	2174.88
431.624	2109.88
431.846	2207.88
432.068	2138.88
432.29	2154.88
432.512	2190.88
432.734	2208.88
432.956	2318.88
433.178	2320.88
433.4	2283.88
433.622	2341.88
433.844	2231.88
434.066	2156.88
434.287	2086.88
434.509	2196.88
434.731	2376.88
434.953	2484.88
435.175	2442.88
435.397	2287.88
435.618	2308.88
435.84	2311.88
436.062	2217.88
436.284	2275.88
436.505	2271.88
436.727	2328.88
436.949	2244.88
437.17	2174.88
437.392	2198.88
437.614	2175.88
437.835	2122.88
438.057	2267.88
438.278	2366.88
438.5	2195.88
438.721	2129.88
438.943	2138.88
439.165	2159.88
439.386	2105.88
439.608	2148.88
439.829	2145.88
440.05	2151.88
440.272	2114.88
440.493	2072.88
440.715	2125.88
440.936	2290.88
441.158	2601.88
441.379	2441.88
441.6	2393.88
441.822	2336.88
442.043	2300.88
442.264	2289.88
442.486	2148.88
442.707	2138.88
442.928	2172.88
443.149	2220.88
443.371	2381.88
443.592	2434.88
443.813	2348.88
444.034	2364.88
444.255	2383.88
444.476	2390.88
444.698	2518.88
444.919	2450.88
445.14	2486.88
445.361	2495.88
445.582	2601.88
445.803	2466.88
446.024	2362.88
446.245	2487.88
446.466	2362.88
446.687	2228.88
446.908	2275.88
447.129	2173.88
447.35	2184.88
447.571	2205.88
447.792	2112.88
448.013	2118.88
448.234	2119.88
448.455	2197.88
448.675	2275.88
448.896	2030.88
449.117	2022.88
449.338	2079.88
449.559	2220.88
449.779	2337.88
450	2560.88
450.221	2723.88
450.442	2654.88
450.662	2320.88
450.883	2062.88
451.104	1975.88
451.324	2064.88
451.545	2119.88
451.766	2090.88
451.986	1964.88
452.207	2035.88
452.428	1944.88
452.648	1942.88
452.869	1983.88
453.089	2096.88
453.31	2104.88
453.53	2157.88
453.751	2056.88
453.971	1985.88
454.192	2008.88
454.412	2147.88
454.633	2063.88
454.853	2003.88
455.073	1910.88
455.294	1888.88
455.514	1885.88
455.734	1885.88
455.955	1976.88
456.175	1916.88
456.395	1958.88
456.616	2004.88
456.836	2044.88
457.056	1950.88
457.276	1984.88
457.497	1949.88
457.717	1818.88
457.937	1865.88
458.157	1961.88
458.377	1922.88
458.598	1916.88
458.818	1939.88
459.038	2077.88
459.258	2184.88
459.478	2196.88
459.698	2128.88
459.918	2163.88
460.138	2230.88
460.358	2304.88
460.578	2313.88
460.798	2403.88
461.018	2528.88
461.238	2414.88
461.458	2312.88
461.678	2356.88
461.898	2262.88
462.118	2177.88
462.338	2276.88
462.558	2320.88
462.777	2322.88
462.997	2385.88
463.217	2559.88
463.437	2562.88
463.657	2395.88
463.876	2354.88
464.096	2328.88
464.316	2302.88
464.536	2427.88
464.755	2433.88
464.975	2477.88
465.195	2340.88
465.414	2448.88
465.634	2454.88
465.854	2276.88
466.073	2417.88
466.293	2378.88
466.512	2127.88
466.732	2100.88
466.951	2184.88
467.171	2201.88
467.391	2123.88
467.61	2009.88
467.829	2049.88
468.049	2174.88
468.268	2497.88
468.488	2330.88
468.707	2220.88
468.927	2196.88
469.146	2127.88
469.365	2068.88
469.585	2135.88
469.804	2068.88
470.023	2104.88
470.243	2115.88
470.462	2064.88
470.681	2078.88
470.901	2117.88
471.12	2139.88
471.339	2120.88
471.558	2050.88
471.777	2025.88
471.997	2092.88
472.216	2068.88
472.435	1998.88
472.654	2037.88
472.873	2118.88
473.092	2260.88
473.311	2180.88
473.53	2022.88
473.749	2007.88
473.968	2083.88
474.187	2192.88
474.406	2285.88
474.625	2135.88
474.844	2090.88
475.063	2128.88
475.282	2214.88
475.501	2151.88
475.72	2124.88
475.939	2225.88
476.158	2187.88
476.377	2124.88
476.596	2196.88
476.814	2211.88
477.033	2231.88
477.252	2336.88
477.471	2425.88
477.69	2208.88
477.908	2224.88
478.127	2355.88
478.346	2559.88
478.564	2606.88
478.783	2503.88
479.002	2576.88
479.22	2554.88
479.439	2554.88
479.658	2947.88
479.876	2979.88
480.095	2549.88
480.313	2488.88
480.532	2344.88
480.751	2386.88
480.969	2467.88
481.188	2400.88
481.406	2382.88
481.624	2344.88
481.843	2316.88
482.061	2389.88
482.28	2464.88
482.498	2452.88
482.717	2443.88
482.935	2311.88
483.153	2321.88
483.372	2358.88
483.59	2317.88
483.808	2356.88
484.027	2455.88
484.245	2562.88
484.463	2947.88
484.681	3361.88
484.9	2637.88
485.118	2415.88
485.336	2391.88
485.554	2496.88
485.772	2618.88
485.99	2576.88
486.209	2587.88
486.427	2542.88
486.645	2569.88
486.863	2440.88
487.081	2612.88
487.299	2645.88
