Data from WStandard_LampEnergy8_LIBS07252019.E.O._I.C._HRD10591_15-58-00-929.txt Node
Date: Thu Jul 25 15:58:00 EDT 2019
User: cochatt
Spectrometer: HR+D1059
Trigger mode: 1
Integration Time (sec): 1.000000E-1
Scans to average: 1
Electric dark correction enabled: true
Nonlinearity correction enabled: false
Boxcar width: 0
XAxis mode: Wavelengths
Number of Pixels in Spectrum: 2048
>>>>>Begin Spectral Data<<<<<
223.165	-13.31
223.4	-13.31
223.635	-13.31
223.869	-30.31
224.104	-12.31
224.338	-14.31
224.573	-15.31
224.808	-15.31
225.042	-8.31
225.277	-8.31
225.511	6.69
225.746	1.69
225.98	-1.31
226.215	13.69
226.449	27.69
226.683	21.69
226.918	20.69
227.152	26.69
227.387	49.69
227.621	34.69
227.856	32.69
228.09	49.69
228.324	42.69
228.559	47.69
228.793	98.69
229.027	203.69
229.262	220.69
229.496	233.69
229.73	229.69
229.964	246.69
230.199	269.69
230.433	281.69
230.667	297.69
230.901	294.69
231.136	282.69
231.37	265.69
231.604	287.69
231.838	294.69
232.072	283.69
232.306	261.69
232.541	291.69
232.775	301.69
233.009	344.69
233.243	314.69
233.477	293.69
233.711	295.69
233.945	311.69
234.179	325.69
234.413	333.69
234.647	361.69
234.881	359.69
235.115	310.69
235.349	308.69
235.583	316.69
235.817	320.69
236.051	330.69
236.285	324.69
236.519	336.69
236.753	364.69
236.987	371.69
237.221	351.69
237.455	395.69
237.689	385.69
237.922	350.69
238.156	360.69
238.39	388.69
238.624	395.69
238.858	399.69
239.091	415.69
239.325	438.69
239.559	483.69
239.793	503.69
240.027	517.69
240.26	503.69
240.494	409.69
240.728	364.69
240.961	409.69
241.195	406.69
241.429	428.69
241.662	421.69
241.896	416.69
242.13	439.69
242.363	455.69
242.597	455.69
242.83	466.69
243.064	482.69
243.298	514.69
243.531	485.69
243.765	484.69
243.998	467.69
244.232	424.69
244.465	392.69
244.699	431.69
244.932	484.69
245.166	511.69
245.399	508.69
245.633	465.69
245.866	469.69
246.099	477.69
246.333	488.69
246.566	539.69
246.8	529.69
247.033	613.69
247.266	564.69
247.5	558.69
247.733	560.69
247.966	577.69
248.2	639.69
248.433	627.69
248.666	642.69
248.899	703.69
249.133	796.69
249.366	831.69
249.599	690.69
249.832	626.69
250.066	671.69
250.299	653.69
250.532	628.69
250.765	564.69
250.998	608.69
251.231	613.69
251.465	636.69
251.698	581.69
251.931	617.69
252.164	628.69
252.397	635.69
252.63	641.69
252.863	584.69
253.096	578.69
253.329	586.69
253.562	593.69
253.795	637.69
254.028	660.69
254.261	592.69
254.494	569.69
254.727	564.69
254.96	604.69
255.193	653.69
255.426	728.69
255.659	805.69
255.892	817.69
256.124	718.69
256.357	672.69
256.59	706.69
256.823	721.69
257.056	712.69
257.289	851.69
257.521	940.69
257.754	833.69
257.987	823.69
258.22	882.69
258.452	843.69
258.685	707.69
258.918	709.69
259.151	705.69
259.383	647.69
259.616	593.69
259.849	647.69
260.081	713.69
260.314	828.69
260.547	867.69
260.779	832.69
261.012	795.69
261.244	691.69
261.477	707.69
261.71	747.69
261.942	733.69
262.175	689.69
262.407	741.69
262.64	703.69
262.872	658.69
263.105	661.69
263.337	666.69
263.57	636.69
263.802	672.69
264.035	625.69
264.267	608.69
264.499	590.69
264.732	630.69
264.964	654.69
265.197	696.69
265.429	739.69
265.661	821.69
265.894	915.69
266.126	911.69
266.358	818.69
266.591	831.69
266.823	886.69
267.055	824.69
267.287	803.69
267.52	802.69
267.752	796.69
267.984	797.69
268.216	819.69
268.448	830.69
268.681	811.69
268.913	745.69
269.145	731.69
269.377	731.69
269.609	813.69
269.841	921.69
270.073	1032.69
270.306	1155.69
270.538	1169.69
270.77	1025.69
271.002	872.69
271.234	837.69
271.466	850.69
271.698	941.69
271.93	1100.69
272.162	1101.69
272.394	982.69
272.626	948.69
272.858	840.69
273.09	730.69
273.322	719.69
273.553	693.69
273.785	708.69
274.017	723.69
274.249	759.69
274.481	803.69
274.713	721.69
274.945	730.69
275.176	715.69
275.408	727.69
275.64	698.69
275.872	720.69
276.104	761.69
276.335	886.69
276.567	956.69
276.799	947.69
277.031	839.69
277.262	843.69
277.494	868.69
277.726	925.69
277.957	923.69
278.189	841.69
278.421	795.69
278.652	731.69
278.884	753.69
279.115	774.69
279.347	766.69
279.579	755.69
279.81	748.69
280.042	808.69
280.273	919.69
280.505	883.69
280.736	909.69
280.968	868.69
281.199	791.69
281.431	761.69
281.662	723.69
281.894	754.69
282.125	760.69
282.356	807.69
282.588	812.69
282.819	787.69
283.051	852.69
283.282	920.69
283.513	849.69
283.745	782.69
283.976	725.69
284.207	741.69
284.439	765.69
284.67	768.69
284.901	789.69
285.132	804.69
285.364	792.69
285.595	816.69
285.826	791.69
286.057	775.69
286.288	777.69
286.52	811.69
286.751	852.69
286.982	873.69
287.213	823.69
287.444	773.69
287.675	764.69
287.906	809.69
288.138	829.69
288.369	848.69
288.6	792.69
288.831	779.69
289.062	760.69
289.293	775.69
289.524	772.69
289.755	798.69
289.986	807.69
290.217	739.69
290.448	762.69
290.679	808.69
290.91	813.69
291.141	809.69
291.371	857.69
291.602	823.69
291.833	850.69
292.064	857.69
292.295	843.69
292.526	841.69
292.757	907.69
292.987	855.69
293.218	842.69
293.449	900.69
293.68	987.69
293.91	1071.69
294.141	976.69
294.372	922.69
294.603	965.69
294.833	1000.69
295.064	943.69
295.295	849.69
295.525	831.69
295.756	770.69
295.987	757.69
296.217	779.69
296.448	785.69
296.679	801.69
296.909	794.69
297.14	779.69
297.37	795.69
297.601	896.69
297.831	911.69
298.062	897.69
298.292	841.69
298.523	796.69
298.753	810.69
298.984	836.69
299.214	825.69
299.445	817.69
299.675	864.69
299.905	828.69
300.136	836.69
300.366	829.69
300.597	786.69
300.827	809.69
301.057	836.69
301.288	847.69
301.518	884.69
301.748	891.69
301.979	929.69
302.209	952.69
302.439	987.69
302.669	1045.69
302.9	969.69
303.13	886.69
303.36	868.69
303.59	885.69
303.82	883.69
304.051	872.69
304.281	909.69
304.511	923.69
304.741	996.69
304.971	1066.69
305.201	1107.69
305.431	1007.69
305.661	829.69
305.891	795.69
306.121	783.69
306.352	841.69
306.582	871.69
306.812	907.69
307.042	963.69
307.272	960.69
307.502	1065.69
307.731	1108.69
307.961	1117.69
308.191	1038.69
308.421	901.69
308.651	870.69
308.881	856.69
309.111	839.69
309.341	850.69
309.571	845.69
309.8	834.69
310.03	859.69
310.26	850.69
310.49	810.69
310.72	874.69
310.949	905.69
311.179	907.69
311.409	901.69
311.639	884.69
311.868	848.69
312.098	877.69
312.328	883.69
312.557	867.69
312.787	901.69
313.017	889.69
313.246	914.69
313.476	890.69
313.706	890.69
313.935	887.69
314.165	928.69
314.394	925.69
314.624	1017.69
314.853	1073.69
315.083	1099.69
315.312	1080.69
315.542	1019.69
315.771	918.69
316.001	927.69
316.23	995.69
316.46	946.69
316.689	938.69
316.919	871.69
317.148	857.69
317.377	927.69
317.607	988.69
317.836	1121.69
318.065	1128.69
318.295	1074.69
318.524	1006.69
318.753	962.69
318.983	984.69
319.212	935.69
319.441	924.69
319.67	934.69
319.9	967.69
320.129	1047.69
320.358	1086.69
320.587	1095.69
320.816	1035.69
321.046	1051.69
321.275	976.69
321.504	1024.69
321.733	1089.69
321.962	1007.69
322.191	972.69
322.42	945.69
322.649	941.69
322.878	925.69
323.108	952.69
323.337	993.69
323.566	978.69
323.795	954.69
324.024	978.69
324.253	957.69
324.482	960.69
324.71	925.69
324.939	879.69
325.168	907.69
325.397	963.69
325.626	978.69
325.855	990.69
326.084	931.69
326.313	949.69
326.542	993.69
326.77	1025.69
326.999	1001.69
327.228	947.69
327.457	894.69
327.686	903.69
327.914	921.69
328.143	928.69
328.372	956.69
328.6	945.69
328.829	948.69
329.058	927.69
329.287	917.69
329.515	989.69
329.744	972.69
329.972	1021.69
330.201	1044.69
330.43	1026.69
330.658	1002.69
330.887	1036.69
331.115	1020.69
331.344	1004.69
331.572	1009.69
331.801	991.69
332.03	994.69
332.258	1016.69
332.486	1027.69
332.715	1026.69
332.943	1038.69
333.172	1024.69
333.4	1028.69
333.629	1037.69
333.857	1135.69
334.085	1243.69
334.314	1410.69
334.542	1481.69
334.771	1298.69
334.999	1169.69
335.227	1093.69
335.455	1059.69
335.684	1123.69
335.912	1125.69
336.14	1155.69
336.369	1063.69
336.597	1013.69
336.825	1025.69
337.053	1084.69
337.281	1140.69
337.51	1175.69
337.738	1211.69
337.966	1111.69
338.194	1054.69
338.422	1013.69
338.65	999.69
338.878	1019.69
339.106	952.69
339.334	968.69
339.562	941.69
339.79	961.69
340.018	1029.69
340.246	1040.69
340.474	1059.69
340.702	1035.69
340.93	1068.69
341.158	1008.69
341.386	983.69
341.614	1013.69
341.842	1007.69
342.07	1035.69
342.298	995.69
342.526	1018.69
342.754	987.69
342.981	979.69
343.209	990.69
343.437	989.69
343.665	1023.69
343.893	1051.69
344.12	1068.69
344.348	1057.69
344.576	1064.69
344.804	997.69
345.031	994.69
345.259	1008.69
345.487	976.69
345.714	910.69
345.942	914.69
346.17	960.69
346.397	982.69
346.625	948.69
346.853	904.69
347.08	902.69
347.308	928.69
347.535	971.69
347.763	933.69
347.99	936.69
348.218	935.69
348.445	934.69
348.673	937.69
348.9	954.69
349.128	996.69
349.355	1043.69
349.583	993.69
349.81	918.69
350.037	883.69
350.265	856.69
350.492	909.69
350.72	921.69
350.947	962.69
351.174	972.69
351.402	928.69
351.629	894.69
351.856	846.69
352.083	857.69
352.311	876.69
352.538	896.69
352.765	954.69
352.992	972.69
353.22	933.69
353.447	890.69
353.674	947.69
353.901	923.69
354.128	893.69
354.355	929.69
354.583	959.69
354.81	988.69
355.037	975.69
355.264	996.69
355.491	938.69
355.718	963.69
355.945	931.69
356.172	920.69
356.399	891.69
356.626	913.69
356.853	971.69
357.08	1045.69
357.307	1167.69
357.534	1115.69
357.761	953.69
357.988	903.69
358.215	882.69
358.441	879.69
358.668	904.69
358.895	925.69
359.122	1019.69
359.349	1074.69
359.576	1056.69
359.802	911.69
360.029	871.69
360.256	882.69
360.483	909.69
360.709	960.69
360.936	1019.69
361.163	1043.69
361.39	1142.69
361.616	1207.69
361.843	1180.69
362.07	1071.69
362.296	948.69
362.523	941.69
362.749	942.69
362.976	979.69
363.203	960.69
363.429	935.69
363.656	900.69
363.882	1002.69
364.109	1081.69
364.335	1131.69
364.562	1033.69
364.788	985.69
365.015	971.69
365.241	924.69
365.468	972.69
365.694	981.69
365.92	1003.69
366.147	963.69
366.373	930.69
366.599	907.69
366.826	902.69
367.052	915.69
367.278	935.69
367.505	937.69
367.731	987.69
367.957	996.69
368.184	1025.69
368.41	1075.69
368.636	1080.69
368.862	1081.69
369.089	1067.69
369.315	1016.69
369.541	988.69
369.767	924.69
369.993	949.69
370.219	939.69
370.445	984.69
370.672	1027.69
370.898	1113.69
371.124	1058.69
371.35	999.69
371.576	1050.69
371.802	1065.69
372.028	1015.69
372.254	989.69
372.48	939.69
372.706	947.69
372.932	938.69
373.158	976.69
373.384	994.69
373.61	1028.69
373.835	1068.69
374.061	1005.69
374.287	977.69
374.513	1000.69
374.739	992.69
374.965	1012.69
375.191	1036.69
375.416	1027.69
375.642	1013.69
375.868	1120.69
376.094	1147.69
376.319	1053.69
376.545	1005.69
376.771	1059.69
376.997	1118.69
377.222	1080.69
377.448	1043.69
377.674	1049.69
377.899	1037.69
378.125	1118.69
378.35	1104.69
378.576	1005.69
378.802	961.69
379.027	973.69
379.253	1009.69
379.478	1024.69
379.704	982.69
379.929	999.69
380.155	981.69
380.38	1033.69
380.606	1009.69
380.831	1011.69
381.057	1088.69
381.282	1083.69
381.507	1053.69
381.733	1150.69
381.958	1172.69
382.184	1101.69
382.409	1049.69
382.634	1052.69
382.86	1030.69
383.085	1056.69
383.31	1102.69
383.535	1164.69
383.761	1237.69
383.986	1202.69
384.211	1138.69
384.436	1131.69
384.662	1201.69
384.887	1244.69
385.112	1162.69
385.337	1178.69
385.562	1136.69
385.787	1146.69
386.013	1183.69
386.238	1201.69
386.463	1159.69
386.688	1283.69
386.913	1338.69
387.138	1293.69
387.363	1194.69
387.588	1193.69
387.813	1192.69
388.038	1207.69
388.263	1240.69
388.488	1192.69
388.713	1093.69
388.938	1107.69
389.163	1087.69
389.387	1135.69
389.612	1129.69
389.837	1173.69
390.062	1177.69
390.287	1160.69
390.512	1139.69
390.736	1135.69
390.961	1102.69
391.186	1102.69
391.411	1129.69
391.636	1124.69
391.86	1127.69
392.085	1133.69
392.31	1132.69
392.534	1150.69
392.759	1170.69
392.984	1134.69
393.208	1130.69
393.433	1211.69
393.658	1231.69
393.882	1244.69
394.107	1175.69
394.331	1159.69
394.556	1162.69
394.78	1171.69
395.005	1216.69
395.229	1266.69
395.454	1326.69
395.678	1300.69
395.903	1250.69
396.127	1193.69
396.352	1227.69
396.576	1255.69
396.801	1240.69
397.025	1263.69
397.249	1239.69
397.474	1233.69
397.698	1192.69
397.922	1276.69
398.147	1347.69
398.371	1411.69
398.595	1351.69
398.82	1333.69
399.044	1335.69
399.268	1368.69
399.492	1475.69
399.717	1495.69
399.941	1507.69
400.165	1492.69
400.389	1446.69
400.613	1463.69
400.837	1680.69
401.062	1847.69
401.286	1611.69
401.51	1441.69
401.734	1494.69
401.958	1439.69
402.182	1345.69
402.406	1298.69
402.63	1283.69
402.854	1293.69
403.078	1296.69
403.302	1335.69
403.526	1377.69
403.75	1363.69
403.974	1397.69
404.198	1388.69
404.422	1433.69
404.645	1503.69
404.869	1457.69
405.093	1323.69
405.317	1324.69
405.541	1361.69
405.765	1375.69
405.988	1378.69
406.212	1372.69
406.436	1416.69
406.66	1478.69
406.883	1523.69
407.107	1710.69
407.331	1814.69
407.555	1935.69
407.778	1700.69
408.002	1453.69
408.226	1439.69
408.449	1446.69
408.673	1408.69
408.896	1369.69
409.12	1426.69
409.344	1360.69
409.567	1335.69
409.791	1367.69
410.014	1413.69
410.238	1473.69
410.461	1590.69
410.685	1401.69
410.908	1340.69
411.132	1384.69
411.355	1364.69
411.578	1312.69
411.802	1356.69
412.025	1381.69
412.249	1307.69
412.472	1273.69
412.695	1328.69
412.919	1324.69
413.142	1319.69
413.365	1343.69
413.589	1382.69
413.812	1451.69
414.035	1481.69
414.258	1337.69
414.482	1322.69
414.705	1336.69
414.928	1332.69
415.151	1331.69
415.374	1345.69
415.597	1359.69
415.821	1341.69
416.044	1386.69
416.267	1332.69
416.49	1261.69
416.713	1266.69
416.936	1367.69
417.159	1403.69
417.382	1432.69
417.605	1314.69
417.828	1365.69
418.051	1382.69
418.274	1339.69
418.497	1259.69
418.72	1308.69
418.943	1298.69
419.166	1329.69
419.389	1363.69
419.611	1331.69
419.834	1319.69
420.057	1311.69
420.28	1282.69
420.503	1295.69
420.726	1350.69
420.948	1311.69
421.171	1254.69
421.394	1280.69
421.617	1328.69
421.839	1348.69
422.062	1347.69
422.285	1293.69
422.507	1270.69
422.73	1250.69
422.953	1249.69
423.175	1239.69
423.398	1286.69
423.621	1282.69
423.843	1279.69
424.066	1332.69
424.288	1388.69
424.511	1421.69
424.733	1384.69
424.956	1270.69
425.178	1248.69
425.401	1259.69
425.623	1307.69
425.846	1292.69
426.068	1381.69
426.291	1362.69
426.513	1361.69
426.735	1352.69
426.958	1489.69
427.18	1494.69
427.402	1387.69
427.625	1436.69
427.847	1391.69
428.069	1294.69
428.292	1266.69
428.514	1234.69
428.736	1243.69
428.958	1257.69
429.181	1272.69
429.403	1503.69
429.625	1835.69
429.847	1510.69
430.069	1305.69
430.292	1467.69
430.514	1461.69
430.736	1354.69
430.958	1373.69
431.18	1340.69
431.402	1227.69
431.624	1218.69
431.846	1183.69
432.068	1150.69
432.29	1174.69
432.512	1207.69
432.734	1270.69
432.956	1303.69
433.178	1337.69
433.4	1334.69
433.622	1339.69
433.844	1272.69
434.066	1202.69
434.287	1199.69
434.509	1235.69
434.731	1297.69
434.953	1405.69
435.175	1345.69
435.397	1315.69
435.618	1276.69
435.84	1268.69
436.062	1259.69
436.284	1273.69
436.505	1315.69
436.727	1316.69
436.949	1306.69
437.17	1272.69
437.392	1257.69
437.614	1216.69
437.835	1186.69
438.057	1220.69
438.278	1280.69
438.5	1235.69
438.721	1215.69
438.943	1285.69
439.165	1239.69
439.386	1236.69
439.608	1233.69
439.829	1269.69
440.05	1259.69
440.272	1273.69
440.493	1263.69
440.715	1266.69
440.936	1369.69
441.158	1455.69
441.379	1419.69
441.6	1388.69
441.822	1365.69
442.043	1352.69
442.264	1328.69
442.486	1253.69
442.707	1241.69
442.928	1297.69
443.149	1290.69
443.371	1361.69
443.592	1401.69
443.813	1389.69
444.034	1361.69
444.255	1383.69
444.476	1377.69
444.698	1395.69
444.919	1428.69
445.14	1512.69
445.361	1491.69
445.582	1457.69
445.803	1438.69
446.024	1409.69
446.245	1439.69
446.466	1410.69
446.687	1339.69
446.908	1345.69
447.129	1276.69
447.35	1324.69
447.571	1327.69
447.792	1268.69
448.013	1259.69
448.234	1275.69
448.455	1320.69
448.675	1332.69
448.896	1236.69
449.117	1205.69
449.338	1218.69
449.559	1291.69
449.779	1384.69
450	1467.69
450.221	1493.69
450.442	1444.69
450.662	1285.69
450.883	1179.69
451.104	1194.69
451.324	1211.69
451.545	1245.69
451.766	1205.69
451.986	1191.69
452.207	1170.69
452.428	1097.69
452.648	1102.69
452.869	1119.69
453.089	1163.69
453.31	1144.69
453.53	1197.69
453.751	1147.69
453.971	1073.69
454.192	1117.69
454.412	1145.69
454.633	1138.69
454.853	1132.69
455.073	1077.69
455.294	1064.69
455.514	1056.69
455.734	1080.69
455.955	1087.69
456.175	1096.69
456.395	1093.69
456.616	1124.69
456.836	1116.69
457.056	1108.69
457.276	1110.69
457.497	1051.69
457.717	1048.69
457.937	1038.69
458.157	1081.69
458.377	1039.69
458.598	1014.69
458.818	1072.69
459.038	1114.69
459.258	1163.69
459.478	1154.69
459.698	1132.69
459.918	1153.69
460.138	1222.69
460.358	1261.69
460.578	1255.69
460.798	1327.69
461.018	1361.69
461.238	1264.69
461.458	1275.69
461.678	1260.69
461.898	1239.69
462.118	1192.69
462.338	1279.69
462.558	1227.69
462.777	1285.69
462.997	1309.69
463.217	1386.69
463.437	1370.69
463.657	1287.69
463.876	1253.69
464.096	1254.69
464.316	1268.69
464.536	1304.69
464.755	1346.69
464.975	1341.69
465.195	1281.69
465.414	1321.69
465.634	1319.69
465.854	1307.69
466.073	1430.69
466.293	1367.69
466.512	1237.69
466.732	1286.69
466.951	1279.69
467.171	1261.69
467.391	1244.69
467.61	1185.69
467.829	1244.69
468.049	1345.69
468.268	1484.69
468.488	1375.69
468.707	1273.69
468.927	1223.69
469.146	1207.69
469.365	1218.69
469.585	1258.69
469.804	1243.69
470.023	1256.69
470.243	1260.69
470.462	1275.69
470.681	1233.69
470.901	1239.69
471.12	1264.69
471.339	1243.69
471.558	1235.69
471.777	1219.69
471.997	1211.69
472.216	1227.69
472.435	1148.69
472.654	1116.69
472.873	1176.69
473.092	1242.69
473.311	1204.69
473.53	1152.69
473.749	1130.69
473.968	1207.69
474.187	1243.69
474.406	1266.69
474.625	1233.69
474.844	1260.69
475.063	1216.69
475.282	1242.69
475.501	1227.69
475.72	1240.69
475.939	1336.69
476.158	1267.69
476.377	1196.69
476.596	1247.69
476.814	1199.69
477.033	1221.69
477.252	1324.69
477.471	1317.69
477.69	1267.69
477.908	1306.69
478.127	1389.69
478.346	1431.69
478.564	1449.69
478.783	1434.69
479.002	1473.69
479.22	1435.69
479.439	1465.69
479.658	1596.69
479.876	1516.69
480.095	1407.69
480.313	1337.69
480.532	1313.69
480.751	1319.69
480.969	1343.69
481.188	1263.69
481.406	1267.69
481.624	1229.69
481.843	1288.69
482.061	1284.69
482.28	1337.69
482.498	1346.69
482.717	1318.69
482.935	1342.69
483.153	1344.69
483.372	1396.69
483.59	1352.69
483.808	1377.69
484.027	1386.69
484.245	1448.69
484.463	1793.69
484.681	1935.69
484.9	1484.69
485.118	1387.69
485.336	1377.69
485.554	1393.69
485.772	1393.69
485.99	1360.69
486.209	1398.69
486.427	1407.69
486.645	1423.69
486.863	1439.69
487.081	1499.69
487.299	1463.69
487.517	1484.69
487.735	1476.69
487.953	1487.69
488.171	1460.69
488.389	1488.69
488.607	1509.69
488.825	1680.69
489.043	1549.69
489.261	1400.69
489.479	1462.69
489.696	1505.69
489.914	1475.69
490.132	1409.69
490.35	1476.69
490.568	1535.69
490.786	1542.69
491.003	1497.69
491.221	1555.69
491.439	1575.69
491.657	1588.69
491.874	1627.69
492.092	1696.69
492.31	1725.69
492.527	1695.69
492.745	1665.69
492.963	1594.69
493.18	1638.69
