Data from WStandard_LampEnergy8_LIBS07252019.E.O._I.C._HRD10591_15-58-36-929.txt Node
Date: Thu Jul 25 15:58:36 EDT 2019
User: cochatt
Spectrometer: HR+D1059
Trigger mode: 1
Integration Time (sec): 1.000000E-1
Scans to average: 1
Electric dark correction enabled: true
Nonlinearity correction enabled: false
Boxcar width: 0
XAxis mode: Wavelengths
Number of Pixels in Spectrum: 2048
>>>>>Begin Spectral Data<<<<<
223.165	-23.94
223.4	-23.94
223.635	-23.94
223.869	-16.94
224.104	-11.94
224.338	-19.94
224.573	-18.94
224.808	-11.94
225.042	-6.94
225.277	-0.94
225.511	-8.94
225.746	5.06
225.98	-9.94
226.215	26.06
226.449	26.06
226.683	28.06
226.918	26.06
227.152	19.06
227.387	33.06
227.621	39.06
227.856	46.06
228.09	51.06
228.324	61.06
228.559	46.06
228.793	103.06
229.027	220.06
229.262	209.06
229.496	211.06
229.73	229.06
229.964	265.06
230.199	255.06
230.433	274.06
230.667	276.06
230.901	287.06
231.136	267.06
231.37	288.06
231.604	255.06
231.838	265.06
232.072	273.06
232.306	241.06
232.541	272.06
232.775	327.06
233.009	329.06
233.243	310.06
233.477	293.06
233.711	307.06
233.945	316.06
234.179	316.06
234.413	338.06
234.647	347.06
234.881	318.06
235.115	292.06
235.349	311.06
235.583	305.06
235.817	311.06
236.051	290.06
236.285	327.06
236.519	329.06
236.753	350.06
236.987	376.06
237.221	360.06
237.455	396.06
237.689	378.06
237.922	348.06
238.156	374.06
238.39	365.06
238.624	381.06
238.858	421.06
239.091	407.06
239.325	410.06
239.559	491.06
239.793	498.06
240.027	507.06
240.26	497.06
240.494	387.06
240.728	373.06
240.961	385.06
241.195	402.06
241.429	407.06
241.662	428.06
241.896	410.06
242.13	411.06
242.363	446.06
242.597	471.06
242.83	450.06
243.064	459.06
243.298	494.06
243.531	477.06
243.765	481.06
243.998	466.06
244.232	416.06
244.465	417.06
244.699	422.06
244.932	460.06
245.166	530.06
245.399	509.06
245.633	467.06
245.866	468.06
246.099	492.06
246.333	512.06
246.566	498.06
246.8	534.06
247.033	590.06
247.266	532.06
247.5	530.06
247.733	537.06
247.966	578.06
248.2	623.06
248.433	589.06
248.666	633.06
248.899	673.06
249.133	750.06
249.366	821.06
249.599	685.06
249.832	621.06
250.066	645.06
250.299	643.06
250.532	626.06
250.765	552.06
250.998	569.06
251.231	599.06
251.465	602.06
251.698	563.06
251.931	584.06
252.164	612.06
252.397	621.06
252.63	612.06
252.863	556.06
253.096	558.06
253.329	581.06
253.562	610.06
253.795	628.06
254.028	603.06
254.261	589.06
254.494	589.06
254.727	579.06
254.96	601.06
255.193	643.06
255.426	725.06
255.659	810.06
255.892	805.06
256.124	699.06
256.357	663.06
256.59	724.06
256.823	720.06
257.056	717.06
257.289	850.06
257.521	887.06
257.754	815.06
257.987	798.06
258.22	858.06
258.452	797.06
258.685	693.06
258.918	652.06
259.151	680.06
259.383	658.06
259.616	599.06
259.849	633.06
260.081	699.06
260.314	758.06
260.547	813.06
260.779	822.06
261.012	767.06
261.244	701.06
261.477	686.06
261.71	696.06
261.942	687.06
262.175	682.06
262.407	703.06
262.64	683.06
262.872	620.06
263.105	600.06
263.337	647.06
263.57	651.06
263.802	647.06
264.035	602.06
264.267	595.06
264.499	565.06
264.732	644.06
264.964	664.06
265.197	679.06
265.429	720.06
265.661	793.06
265.894	845.06
266.126	902.06
266.358	795.06
266.591	819.06
266.823	881.06
267.055	801.06
267.287	783.06
267.52	773.06
267.752	761.06
267.984	767.06
268.216	814.06
268.448	842.06
268.681	805.06
268.913	719.06
269.145	709.06
269.377	704.06
269.609	775.06
269.841	901.06
270.073	1026.06
270.306	1109.06
270.538	1137.06
270.77	979.06
271.002	841.06
271.234	803.06
271.466	811.06
271.698	935.06
271.93	1083.06
272.162	1056.06
272.394	964.06
272.626	900.06
272.858	796.06
273.09	706.06
273.322	724.06
273.553	668.06
273.785	719.06
274.017	743.06
274.249	775.06
274.481	771.06
274.713	741.06
274.945	727.06
275.176	703.06
275.408	705.06
275.64	670.06
275.872	690.06
276.104	742.06
276.335	844.06
276.567	956.06
276.799	939.06
277.031	841.06
277.262	825.06
277.494	857.06
277.726	932.06
277.957	895.06
278.189	817.06
278.421	761.06
278.652	740.06
278.884	758.06
279.115	757.06
279.347	767.06
279.579	740.06
279.81	747.06
280.042	845.06
280.273	888.06
280.505	897.06
280.736	892.06
280.968	845.06
281.199	736.06
281.431	705.06
281.662	726.06
281.894	733.06
282.125	766.06
282.356	781.06
282.588	773.06
282.819	796.06
283.051	839.06
283.282	876.06
283.513	854.06
283.745	775.06
283.976	734.06
284.207	734.06
284.439	753.06
284.67	764.06
284.901	773.06
285.132	783.06
285.364	776.06
285.595	793.06
285.826	758.06
286.057	773.06
286.288	779.06
286.52	819.06
286.751	874.06
286.982	873.06
287.213	815.06
287.444	724.06
287.675	772.06
287.906	805.06
288.138	829.06
288.369	813.06
288.6	776.06
288.831	753.06
289.062	733.06
289.293	784.06
289.524	797.06
289.755	817.06
289.986	786.06
290.217	749.06
290.448	755.06
290.679	790.06
290.91	804.06
291.141	804.06
291.371	850.06
291.602	827.06
291.833	826.06
292.064	853.06
292.295	863.06
292.526	851.06
292.757	887.06
292.987	870.06
293.218	839.06
293.449	854.06
293.68	994.06
293.91	1031.06
294.141	947.06
294.372	927.06
294.603	955.06
294.833	996.06
295.064	924.06
295.295	836.06
295.525	821.06
295.756	788.06
295.987	753.06
296.217	766.06
296.448	791.06
296.679	780.06
296.909	804.06
297.14	770.06
297.37	784.06
297.601	816.06
297.831	902.06
298.062	897.06
298.292	821.06
298.523	788.06
298.753	805.06
298.984	844.06
299.214	804.06
299.445	834.06
299.675	826.06
299.905	844.06
300.136	829.06
300.366	782.06
300.597	788.06
300.827	753.06
301.057	818.06
301.288	877.06
301.518	875.06
301.748	889.06
301.979	931.06
302.209	945.06
302.439	1009.06
302.669	1018.06
302.9	928.06
303.13	881.06
303.36	864.06
303.59	889.06
303.82	859.06
304.051	871.06
304.281	874.06
304.511	873.06
304.741	960.06
304.971	1037.06
305.201	1063.06
305.431	941.06
305.661	804.06
305.891	732.06
306.121	784.06
306.352	797.06
306.582	863.06
306.812	920.06
307.042	961.06
307.272	964.06
307.502	991.06
307.731	1087.06
307.961	1098.06
308.191	1025.06
308.421	905.06
308.651	854.06
308.881	842.06
309.111	841.06
309.341	847.06
309.571	841.06
309.8	805.06
310.03	815.06
310.26	831.06
310.49	823.06
310.72	860.06
310.949	910.06
311.179	907.06
311.409	870.06
311.639	838.06
311.868	844.06
312.098	845.06
312.328	869.06
312.557	837.06
312.787	874.06
313.017	869.06
313.246	895.06
313.476	899.06
313.706	907.06
313.935	891.06
314.165	890.06
314.394	918.06
314.624	1016.06
314.853	1047.06
315.083	1093.06
315.312	1085.06
315.542	1001.06
315.771	911.06
316.001	936.06
316.23	980.06
316.46	956.06
316.689	953.06
316.919	916.06
317.148	897.06
317.377	899.06
317.607	990.06
317.836	1084.06
318.065	1109.06
318.295	1035.06
318.524	1009.06
318.753	980.06
318.983	979.06
319.212	949.06
319.441	932.06
319.67	923.06
319.9	977.06
320.129	1002.06
320.358	1019.06
320.587	1030.06
320.816	1035.06
321.046	1017.06
321.275	978.06
321.504	1001.06
321.733	1062.06
321.962	1017.06
322.191	945.06
322.42	963.06
322.649	941.06
322.878	932.06
323.108	946.06
323.337	978.06
323.566	959.06
323.795	958.06
324.024	985.06
324.253	970.06
324.482	974.06
324.71	901.06
324.939	909.06
325.168	917.06
325.397	963.06
325.626	970.06
325.855	934.06
326.084	948.06
326.313	959.06
326.542	953.06
326.77	975.06
326.999	977.06
327.228	902.06
327.457	867.06
327.686	917.06
327.914	903.06
328.143	908.06
328.372	940.06
328.6	938.06
328.829	951.06
329.058	908.06
329.287	917.06
329.515	941.06
329.744	988.06
329.972	1032.06
330.201	1071.06
330.43	1022.06
330.658	991.06
330.887	999.06
331.115	1019.06
331.344	993.06
331.572	979.06
331.801	977.06
332.03	968.06
332.258	1005.06
332.486	994.06
332.715	1021.06
332.943	971.06
333.172	996.06
333.4	1018.06
333.629	1037.06
333.857	1117.06
334.085	1254.06
334.314	1399.06
334.542	1436.06
334.771	1311.06
334.999	1159.06
335.227	1098.06
335.455	1031.06
335.684	1096.06
335.912	1111.06
336.14	1130.06
336.369	1068.06
336.597	1008.06
336.825	1010.06
337.053	1069.06
337.281	1127.06
337.51	1157.06
337.738	1172.06
337.966	1086.06
338.194	1019.06
338.422	986.06
338.65	990.06
338.878	990.06
339.106	952.06
339.334	942.06
339.562	933.06
339.79	975.06
340.018	1069.06
340.246	1074.06
340.474	1037.06
340.702	1043.06
340.93	1053.06
341.158	1002.06
341.386	1009.06
341.614	975.06
341.842	982.06
342.07	994.06
342.298	1015.06
342.526	1013.06
342.754	982.06
342.981	993.06
343.209	1003.06
343.437	971.06
343.665	966.06
343.893	1019.06
344.12	1085.06
344.348	1059.06
344.576	1002.06
344.804	1002.06
345.031	997.06
345.259	993.06
345.487	936.06
345.714	909.06
345.942	950.06
346.17	917.06
346.397	953.06
346.625	949.06
346.853	909.06
347.08	907.06
347.308	869.06
347.535	907.06
347.763	964.06
347.99	912.06
348.218	915.06
348.445	905.06
348.673	940.06
348.9	972.06
349.128	993.06
349.355	993.06
349.583	993.06
349.81	922.06
350.037	879.06
350.265	877.06
350.492	873.06
350.72	899.06
350.947	929.06
351.174	973.06
351.402	925.06
351.629	902.06
351.856	854.06
352.083	883.06
352.311	875.06
352.538	901.06
352.765	943.06
352.992	942.06
353.22	966.06
353.447	898.06
353.674	900.06
353.901	907.06
354.128	917.06
354.355	920.06
354.583	951.06
354.81	975.06
355.037	989.06
355.264	963.06
355.491	950.06
355.718	928.06
355.945	917.06
356.172	901.06
356.399	907.06
356.626	919.06
356.853	955.06
357.08	1034.06
357.307	1113.06
357.534	1075.06
357.761	950.06
357.988	873.06
358.215	892.06
358.441	901.06
358.668	885.06
358.895	901.06
359.122	994.06
359.349	1063.06
359.576	1030.06
359.802	937.06
360.029	917.06
360.256	901.06
360.483	923.06
360.709	944.06
360.936	981.06
361.163	1052.06
361.39	1122.06
361.616	1210.06
361.843	1125.06
362.07	1049.06
362.296	921.06
362.523	924.06
362.749	934.06
362.976	984.06
363.203	967.06
363.429	917.06
363.656	905.06
363.882	973.06
364.109	1062.06
364.335	1109.06
364.562	1038.06
364.788	1000.06
365.015	941.06
365.241	927.06
365.468	912.06
365.694	1003.06
365.92	1014.06
366.147	957.06
366.373	903.06
366.599	894.06
366.826	889.06
367.052	899.06
367.278	923.06
367.505	931.06
367.731	967.06
367.957	955.06
368.184	982.06
368.41	1055.06
368.636	1085.06
368.862	1086.06
369.089	1076.06
369.315	1009.06
369.541	991.06
369.767	953.06
369.993	929.06
370.219	961.06
370.445	985.06
370.672	1032.06
370.898	1048.06
371.124	1043.06
371.35	1019.06
371.576	1056.06
371.802	1051.06
372.028	997.06
372.254	963.06
372.48	928.06
372.706	947.06
372.932	975.06
373.158	946.06
373.384	979.06
373.61	1026.06
373.835	1050.06
374.061	993.06
374.287	999.06
374.513	985.06
374.739	1023.06
374.965	1004.06
375.191	1021.06
375.416	1040.06
375.642	1037.06
375.868	1076.06
376.094	1119.06
376.319	1091.06
376.545	1026.06
376.771	1073.06
376.997	1105.06
377.222	1082.06
377.448	1043.06
377.674	1051.06
377.899	1053.06
378.125	1106.06
378.35	1067.06
378.576	1014.06
378.802	933.06
379.027	981.06
379.253	974.06
379.478	1023.06
379.704	1003.06
379.929	999.06
380.155	1017.06
380.38	1015.06
380.606	1021.06
380.831	1007.06
381.057	1066.06
381.282	1081.06
381.507	1061.06
381.733	1144.06
381.958	1169.06
382.184	1053.06
382.409	1055.06
382.634	1050.06
382.86	1036.06
383.085	1051.06
383.31	1102.06
383.535	1196.06
383.761	1247.06
383.986	1177.06
384.211	1113.06
384.436	1143.06
384.662	1171.06
384.887	1204.06
385.112	1158.06
385.337	1185.06
385.562	1137.06
385.787	1131.06
386.013	1163.06
386.238	1173.06
386.463	1169.06
386.688	1262.06
386.913	1358.06
387.138	1271.06
387.363	1201.06
387.588	1218.06
387.813	1163.06
388.038	1201.06
388.263	1231.06
388.488	1182.06
388.713	1074.06
388.938	1083.06
389.163	1092.06
389.387	1134.06
389.612	1102.06
389.837	1155.06
390.062	1155.06
390.287	1149.06
390.512	1128.06
390.736	1112.06
390.961	1081.06
391.186	1070.06
391.411	1113.06
391.636	1153.06
391.86	1126.06
392.085	1141.06
392.31	1138.06
392.534	1157.06
392.759	1181.06
392.984	1177.06
393.208	1159.06
393.433	1173.06
393.658	1277.06
393.882	1251.06
394.107	1174.06
394.331	1145.06
394.556	1142.06
394.78	1177.06
395.005	1196.06
395.229	1260.06
395.454	1291.06
395.678	1284.06
395.903	1237.06
396.127	1203.06
396.352	1246.06
396.576	1241.06
396.801	1250.06
397.025	1245.06
397.249	1258.06
397.474	1230.06
397.698	1224.06
397.922	1287.06
398.147	1353.06
398.371	1362.06
398.595	1398.06
398.82	1306.06
399.044	1335.06
399.268	1393.06
399.492	1465.06
399.717	1489.06
399.941	1493.06
400.165	1478.06
400.389	1442.06
400.613	1428.06
400.837	1667.06
401.062	1795.06
401.286	1536.06
401.51	1463.06
401.734	1482.06
401.958	1435.06
402.182	1337.06
402.406	1313.06
402.63	1272.06
402.854	1317.06
403.078	1309.06
403.302	1335.06
403.526	1372.06
403.75	1345.06
403.974	1395.06
404.198	1371.06
404.422	1415.06
404.645	1494.06
404.869	1441.06
405.093	1330.06
405.317	1299.06
405.541	1373.06
405.765	1363.06
405.988	1357.06
406.212	1388.06
406.436	1417.06
406.66	1439.06
406.883	1452.06
407.107	1654.06
407.331	1823.06
407.555	1944.06
407.778	1709.06
408.002	1442.06
408.226	1415.06
408.449	1426.06
408.673	1374.06
408.896	1399.06
409.12	1406.06
409.344	1382.06
409.567	1336.06
409.791	1378.06
410.014	1399.06
410.238	1473.06
410.461	1537.06
410.685	1358.06
410.908	1359.06
411.132	1390.06
411.355	1386.06
411.578	1333.06
411.802	1374.06
412.025	1370.06
412.249	1319.06
412.472	1330.06
412.695	1305.06
412.919	1303.06
413.142	1295.06
413.365	1356.06
413.589	1365.06
413.812	1404.06
414.035	1446.06
414.258	1335.06
414.482	1320.06
414.705	1337.06
414.928	1277.06
415.151	1327.06
415.374	1304.06
415.597	1327.06
415.821	1371.06
416.044	1357.06
416.267	1355.06
416.49	1291.06
416.713	1304.06
416.936	1353.06
417.159	1411.06
417.382	1373.06
417.605	1299.06
417.828	1326.06
418.051	1383.06
418.274	1345.06
418.497	1316.06
418.72	1281.06
418.943	1286.06
419.166	1288.06
419.389	1348.06
419.611	1300.06
419.834	1309.06
420.057	1294.06
420.28	1270.06
420.503	1294.06
420.726	1330.06
420.948	1304.06
421.171	1301.06
421.394	1335.06
421.617	1341.06
421.839	1341.06
422.062	1308.06
422.285	1261.06
422.507	1263.06
422.73	1275.06
422.953	1239.06
423.175	1239.06
423.398	1291.06
423.621	1291.06
423.843	1301.06
424.066	1336.06
424.288	1403.06
424.511	1419.06
424.733	1375.06
424.956	1265.06
425.178	1241.06
425.401	1273.06
425.623	1273.06
425.846	1262.06
426.068	1352.06
426.291	1383.06
426.513	1329.06
426.735	1331.06
426.958	1453.06
427.18	1509.06
427.402	1426.06
427.625	1407.06
427.847	1357.06
428.069	1278.06
428.292	1287.06
428.514	1254.06
428.736	1258.06
428.958	1271.06
429.181	1301.06
429.403	1466.06
429.625	1764.06
429.847	1482.06
430.069	1301.06
430.292	1457.06
430.514	1448.06
430.736	1318.06
430.958	1418.06
431.18	1307.06
431.402	1226.06
431.624	1205.06
431.846	1195.06
432.068	1121.06
432.29	1163.06
432.512	1207.06
432.734	1258.06
432.956	1301.06
433.178	1322.06
433.4	1332.06
433.622	1301.06
433.844	1271.06
434.066	1219.06
434.287	1220.06
434.509	1231.06
434.731	1285.06
434.953	1381.06
435.175	1324.06
435.397	1282.06
435.618	1272.06
435.84	1265.06
436.062	1222.06
436.284	1259.06
436.505	1267.06
436.727	1356.06
436.949	1267.06
437.17	1249.06
437.392	1228.06
437.614	1225.06
437.835	1202.06
438.057	1241.06
438.278	1275.06
438.5	1234.06
438.721	1233.06
438.943	1264.06
439.165	1221.06
439.386	1219.06
439.608	1250.06
439.829	1238.06
440.05	1268.06
440.272	1269.06
440.493	1252.06
440.715	1283.06
440.936	1382.06
441.158	1470.06
441.379	1443.06
441.6	1396.06
441.822	1374.06
442.043	1357.06
442.264	1350.06
442.486	1275.06
442.707	1283.06
442.928	1247.06
443.149	1308.06
443.371	1340.06
443.592	1389.06
443.813	1394.06
444.034	1383.06
444.255	1372.06
444.476	1422.06
444.698	1423.06
444.919	1380.06
445.14	1515.06
445.361	1459.06
445.582	1477.06
445.803	1426.06
446.024	1366.06
446.245	1423.06
446.466	1419.06
446.687	1331.06
446.908	1339.06
447.129	1318.06
447.35	1329.06
447.571	1307.06
447.792	1252.06
448.013	1247.06
448.234	1298.06
448.455	1329.06
448.675	1335.06
448.896	1182.06
449.117	1206.06
449.338	1260.06
449.559	1285.06
449.779	1354.06
450	1408.06
450.221	1511.06
450.442	1442.06
450.662	1279.06
450.883	1211.06
451.104	1169.06
451.324	1228.06
451.545	1217.06
451.766	1192.06
451.986	1142.06
452.207	1158.06
452.428	1093.06
452.648	1092.06
452.869	1115.06
453.089	1167.06
453.31	1159.06
453.53	1172.06
453.751	1109.06
453.971	1067.06
454.192	1094.06
454.412	1138.06
454.633	1150.06
454.853	1122.06
455.073	1057.06
455.294	1076.06
455.514	1065.06
455.734	1062.06
455.955	1091.06
456.175	1069.06
456.395	1034.06
456.616	1065.06
456.836	1119.06
457.056	1096.06
457.276	1123.06
457.497	1077.06
457.717	1017.06
457.937	1046.06
458.157	1060.06
458.377	1040.06
458.598	1038.06
458.818	1071.06
459.038	1123.06
459.258	1166.06
459.478	1162.06
459.698	1115.06
459.918	1159.06
460.138	1228.06
460.358	1219.06
460.578	1216.06
460.798	1304.06
461.018	1345.06
461.238	1323.06
461.458	1300.06
461.678	1249.06
461.898	1231.06
462.118	1202.06
462.338	1238.06
462.558	1281.06
462.777	1262.06
462.997	1331.06
463.217	1374.06
463.437	1363.06
463.657	1270.06
463.876	1262.06
464.096	1234.06
464.316	1257.06
464.536	1276.06
464.755	1278.06
464.975	1329.06
465.195	1260.06
465.414	1309.06
465.634	1286.06
465.854	1317.06
466.073	1409.06
466.293	1362.06
466.512	1221.06
466.732	1211.06
466.951	1245.06
467.171	1231.06
467.391	1204.06
467.61	1199.06
467.829	1213.06
468.049	1366.06
468.268	1444.06
468.488	1345.06
468.707	1262.06
468.927	1239.06
469.146	1222.06
469.365	1248.06
469.585	1225.06
469.804	1261.06
470.023	1256.06
470.243	1268.06
470.462	1242.06
470.681	1231.06
470.901	1237.06
471.12	1241.06
471.339	1234.06
471.558	1189.06
471.777	1187.06
471.997	1199.06
472.216	1194.06
472.435	1119.06
472.654	1155.06
472.873	1183.06
473.092	1226.06
473.311	1185.06
473.53	1147.06
473.749	1151.06
473.968	1210.06
474.187	1239.06
474.406	1271.06
474.625	1232.06
474.844	1206.06
475.063	1206.06
475.282	1245.06
475.501	1215.06
475.72	1191.06
475.939	1288.06
476.158	1241.06
476.377	1198.06
476.596	1239.06
476.814	1265.06
477.033	1247.06
477.252	1293.06
477.471	1341.06
477.69	1283.06
477.908	1258.06
478.127	1363.06
478.346	1434.06
478.564	1445.06
478.783	1442.06
479.002	1443.06
479.22	1423.06
479.439	1469.06
479.658	1610.06
479.876	1492.06
480.095	1398.06
480.313	1377.06
480.532	1315.06
480.751	1314.06
480.969	1356.06
481.188	1293.06
481.406	1242.06
481.624	1243.06
481.843	1304.06
482.061	1297.06
482.28	1346.06
482.498	1354.06
482.717	1349.06
482.935	1329.06
483.153	1369.06
483.372	1403.06
483.59	1343.06
483.808	1330.06
484.027	1358.06
484.245	1474.06
484.463	1765.06
484.681	1926.06
484.9	1494.06
485.118	1384.06
485.336	1325.06
485.554	1388.06
485.772	1408.06
485.99	1371.06
486.209	1412.06
486.427	1365.06
486.645	1405.06
486.863	1411.06
487.081	1457.06
487.299	1488.06
487.517	1445.06
487.735	1455.06
487.953	1497.06
488.171	1503.06
488.389	1462.06
488.607	1454.06
488.825	1610.06
489.043	1587.06
489.261	1405.06
489.479	1486.06
489.696	1470.06
489.914	1482.06
490.132	1458.06
490.35	1482.06
490.568	1569.06
490.786	1501.06
491.003	1476.06
491.221	1573.06
491.439	1599.06
491.657	1577.06
491.874	1595.06
492.092	1659.06
492.31	1732.06
492.527	1686.06
492.745	1604.06
492.963	1598.06
493.18	1616.06
493.398	1701.06
