Data from WStandard_LampEnergy10_LIBS07252019.E.O._I.C._HRD10591_15-52-58-928.txt Node
Date: Thu Jul 25 15:52:58 EDT 2019
User: cochatt
Spectrometer: HR+D1059
Trigger mode: 1
Integration Time (sec): 1.000000E-1
Scans to average: 1
Electric dark correction enabled: true
Nonlinearity correction enabled: false
Boxcar width: 0
XAxis mode: Wavelengths
Number of Pixels in Spectrum: 2048
>>>>>Begin Spectral Data<<<<<
223.165	-26.94
223.4	-26.94
223.635	-26.94
223.869	-23.94
224.104	-30.94
224.338	-18.94
224.573	-14.94
224.808	0.06
225.042	-0.94
225.277	2.06
225.511	5.06
225.746	-11.94
225.98	-3.94
226.215	14.06
226.449	9.06
226.683	29.06
226.918	28.06
227.152	45.06
227.387	36.06
227.621	29.06
227.856	35.06
228.09	42.06
228.324	58.06
228.559	41.06
228.793	85.06
229.027	136.06
229.262	152.06
229.496	151.06
229.73	166.06
229.964	182.06
230.199	164.06
230.433	165.06
230.667	173.06
230.901	189.06
231.136	177.06
231.37	178.06
231.604	188.06
231.838	161.06
232.072	164.06
232.306	161.06
232.541	169.06
232.775	198.06
233.009	227.06
233.243	197.06
233.477	186.06
233.711	205.06
233.945	214.06
234.179	202.06
234.413	204.06
234.647	203.06
234.881	212.06
235.115	196.06
235.349	176.06
235.583	204.06
235.817	186.06
236.051	190.06
236.285	206.06
236.519	197.06
236.753	226.06
236.987	228.06
237.221	213.06
237.455	245.06
237.689	237.06
237.922	221.06
238.156	210.06
238.39	221.06
238.624	221.06
238.858	241.06
239.091	250.06
239.325	257.06
239.559	284.06
239.793	296.06
240.027	309.06
240.26	309.06
240.494	231.06
240.728	209.06
240.961	242.06
241.195	244.06
241.429	248.06
241.662	246.06
241.896	246.06
242.13	242.06
242.363	280.06
242.597	283.06
242.83	272.06
243.064	265.06
243.298	278.06
243.531	283.06
243.765	293.06
243.998	268.06
244.232	256.06
244.465	267.06
244.699	255.06
244.932	288.06
245.166	320.06
245.399	296.06
245.633	288.06
245.866	274.06
246.099	268.06
246.333	315.06
246.566	300.06
246.8	317.06
247.033	346.06
247.266	317.06
247.5	315.06
247.733	324.06
247.966	336.06
248.2	375.06
248.433	359.06
248.666	378.06
248.899	413.06
249.133	424.06
249.366	459.06
249.599	386.06
249.832	370.06
250.066	373.06
250.299	361.06
250.532	348.06
250.765	311.06
250.998	341.06
251.231	346.06
251.465	352.06
251.698	355.06
251.931	364.06
252.164	359.06
252.397	355.06
252.63	369.06
252.863	344.06
253.096	348.06
253.329	349.06
253.562	341.06
253.795	373.06
254.028	380.06
254.261	342.06
254.494	324.06
254.727	336.06
254.96	328.06
255.193	376.06
255.426	428.06
255.659	438.06
255.892	459.06
256.124	372.06
256.357	393.06
256.59	391.06
256.823	408.06
257.056	424.06
257.289	493.06
257.521	514.06
257.754	460.06
257.987	446.06
258.22	456.06
258.452	466.06
258.685	397.06
258.918	394.06
259.151	383.06
259.383	375.06
259.616	354.06
259.849	368.06
260.081	418.06
260.314	455.06
260.547	459.06
260.779	468.06
261.012	441.06
261.244	416.06
261.477	388.06
261.71	398.06
261.942	397.06
262.175	402.06
262.407	427.06
262.64	404.06
262.872	394.06
263.105	373.06
263.337	382.06
263.57	387.06
263.802	374.06
264.035	348.06
264.267	366.06
264.499	332.06
264.732	380.06
264.964	405.06
265.197	399.06
265.429	429.06
265.661	437.06
265.894	494.06
266.126	506.06
266.358	465.06
266.591	465.06
266.823	501.06
267.055	462.06
267.287	456.06
267.52	440.06
267.752	440.06
267.984	479.06
268.216	471.06
268.448	476.06
268.681	461.06
268.913	419.06
269.145	410.06
269.377	416.06
269.609	461.06
269.841	523.06
270.073	579.06
270.306	618.06
270.538	616.06
270.77	544.06
271.002	483.06
271.234	484.06
271.466	503.06
271.698	530.06
271.93	628.06
272.162	606.06
272.394	552.06
272.626	517.06
272.858	461.06
273.09	435.06
273.322	419.06
273.553	406.06
273.785	427.06
274.017	430.06
274.249	442.06
274.481	432.06
274.713	413.06
274.945	429.06
275.176	427.06
275.408	428.06
275.64	423.06
275.872	416.06
276.104	434.06
276.335	488.06
276.567	526.06
276.799	516.06
277.031	504.06
277.262	478.06
277.494	500.06
277.726	526.06
277.957	520.06
278.189	492.06
278.421	463.06
278.652	432.06
278.884	444.06
279.115	431.06
279.347	439.06
279.579	419.06
279.81	438.06
280.042	477.06
280.273	518.06
280.505	500.06
280.736	520.06
280.968	488.06
281.199	429.06
281.431	422.06
281.662	430.06
281.894	418.06
282.125	442.06
282.356	443.06
282.588	451.06
282.819	475.06
283.051	494.06
283.282	521.06
283.513	497.06
283.745	447.06
283.976	422.06
284.207	424.06
284.439	449.06
284.67	451.06
284.901	449.06
285.132	451.06
285.364	468.06
285.595	455.06
285.826	441.06
286.057	453.06
286.288	455.06
286.52	471.06
286.751	493.06
286.982	500.06
287.213	453.06
287.444	440.06
287.675	443.06
287.906	474.06
288.138	493.06
288.369	455.06
288.6	438.06
288.831	434.06
289.062	454.06
289.293	452.06
289.524	459.06
289.755	476.06
289.986	473.06
290.217	458.06
290.448	474.06
290.679	464.06
290.91	462.06
291.141	481.06
291.371	501.06
291.602	496.06
291.833	501.06
292.064	514.06
292.295	507.06
292.526	509.06
292.757	522.06
292.987	485.06
293.218	473.06
293.449	548.06
293.68	594.06
293.91	594.06
294.141	562.06
294.372	539.06
294.603	548.06
294.833	556.06
295.064	566.06
295.295	481.06
295.525	466.06
295.756	453.06
295.987	456.06
296.217	456.06
296.448	452.06
296.679	468.06
296.909	458.06
297.14	475.06
297.37	496.06
297.601	512.06
297.831	534.06
298.062	530.06
298.292	481.06
298.523	475.06
298.753	471.06
298.984	458.06
299.214	503.06
299.445	506.06
299.675	532.06
299.905	491.06
300.136	484.06
300.366	476.06
300.597	458.06
300.827	482.06
301.057	509.06
301.288	496.06
301.518	508.06
301.748	524.06
301.979	564.06
302.209	550.06
302.439	580.06
302.669	605.06
302.9	560.06
303.13	526.06
303.36	530.06
303.59	524.06
303.82	509.06
304.051	517.06
304.281	506.06
304.511	547.06
304.741	586.06
304.971	612.06
305.201	639.06
305.431	573.06
305.661	498.06
305.891	469.06
306.121	452.06
306.352	468.06
306.582	521.06
306.812	554.06
307.042	569.06
307.272	568.06
307.502	616.06
307.731	641.06
307.961	648.06
308.191	578.06
308.421	548.06
308.651	508.06
308.881	498.06
309.111	502.06
309.341	501.06
309.571	496.06
309.8	513.06
310.03	494.06
310.26	497.06
310.49	504.06
310.72	539.06
310.949	523.06
311.179	535.06
311.409	524.06
311.639	522.06
311.868	502.06
312.098	525.06
312.328	518.06
312.557	510.06
312.787	518.06
313.017	536.06
313.246	530.06
313.476	523.06
313.706	566.06
313.935	524.06
314.165	545.06
314.394	584.06
314.624	600.06
314.853	629.06
315.083	642.06
315.312	650.06
315.542	601.06
315.771	570.06
316.001	568.06
316.23	593.06
316.46	566.06
316.689	562.06
316.919	526.06
317.148	545.06
317.377	560.06
317.607	585.06
317.836	646.06
318.065	635.06
318.295	631.06
318.524	599.06
318.753	583.06
318.983	557.06
319.212	562.06
319.441	554.06
319.67	563.06
319.9	574.06
320.129	589.06
320.358	624.06
320.587	635.06
320.816	636.06
321.046	613.06
321.275	571.06
321.504	590.06
321.733	634.06
321.962	602.06
322.191	570.06
322.42	546.06
322.649	589.06
322.878	576.06
323.108	568.06
323.337	569.06
323.566	555.06
323.795	578.06
324.024	571.06
324.253	571.06
324.482	577.06
324.71	542.06
324.939	522.06
325.168	544.06
325.397	566.06
325.626	581.06
325.855	611.06
326.084	579.06
326.313	570.06
326.542	579.06
326.77	602.06
326.999	611.06
327.228	569.06
327.457	540.06
327.686	539.06
327.914	543.06
328.143	580.06
328.372	569.06
328.6	559.06
328.829	551.06
329.058	575.06
329.287	576.06
329.515	573.06
329.744	577.06
329.972	617.06
330.201	632.06
330.43	603.06
330.658	584.06
330.887	592.06
331.115	604.06
331.344	605.06
331.572	605.06
331.801	593.06
332.03	613.06
332.258	625.06
332.486	600.06
332.715	600.06
332.943	609.06
333.172	609.06
333.4	619.06
333.629	636.06
333.857	683.06
334.085	754.06
334.314	843.06
334.542	860.06
334.771	804.06
334.999	689.06
335.227	676.06
335.455	633.06
335.684	630.06
335.912	657.06
336.14	670.06
336.369	624.06
336.597	637.06
336.825	627.06
337.053	635.06
337.281	667.06
337.51	692.06
337.738	705.06
337.966	678.06
338.194	602.06
338.422	593.06
338.65	609.06
338.878	608.06
339.106	591.06
339.334	564.06
339.562	568.06
339.79	593.06
340.018	629.06
340.246	629.06
340.474	647.06
340.702	634.06
340.93	647.06
341.158	627.06
341.386	608.06
341.614	613.06
341.842	602.06
342.07	613.06
342.298	615.06
342.526	626.06
342.754	598.06
342.981	612.06
343.209	581.06
343.437	603.06
343.665	610.06
343.893	622.06
344.12	645.06
344.348	638.06
344.576	625.06
344.804	619.06
345.031	616.06
345.259	573.06
345.487	581.06
345.714	565.06
345.942	572.06
346.17	585.06
346.397	592.06
346.625	591.06
346.853	570.06
347.08	548.06
347.308	557.06
347.535	578.06
347.763	555.06
347.99	562.06
348.218	548.06
348.445	580.06
348.673	573.06
348.9	603.06
349.128	623.06
349.355	600.06
349.583	592.06
349.81	553.06
350.037	537.06
350.265	570.06
350.492	558.06
350.72	550.06
350.947	586.06
351.174	602.06
351.402	546.06
351.629	529.06
351.856	542.06
352.083	529.06
352.311	536.06
352.538	528.06
352.765	573.06
352.992	592.06
353.22	581.06
353.447	552.06
353.674	584.06
353.901	553.06
354.128	581.06
354.355	546.06
354.583	576.06
354.81	615.06
355.037	612.06
355.264	591.06
355.491	596.06
355.718	592.06
355.945	564.06
356.172	553.06
356.399	547.06
356.626	583.06
356.853	625.06
357.08	652.06
357.307	708.06
357.534	654.06
357.761	593.06
357.988	566.06
358.215	546.06
358.441	560.06
358.668	540.06
358.895	584.06
359.122	602.06
359.349	648.06
359.576	612.06
359.802	596.06
360.029	553.06
360.256	545.06
360.483	554.06
360.709	576.06
360.936	613.06
361.163	654.06
361.39	701.06
361.616	719.06
361.843	689.06
362.07	651.06
362.296	602.06
362.523	580.06
362.749	567.06
362.976	577.06
363.203	591.06
363.429	563.06
363.656	526.06
363.882	616.06
364.109	676.06
364.335	668.06
364.562	618.06
364.788	569.06
365.015	599.06
365.241	573.06
365.468	589.06
365.694	627.06
365.92	646.06
366.147	579.06
366.373	566.06
366.599	560.06
366.826	554.06
367.052	586.06
367.278	600.06
367.505	579.06
367.731	619.06
367.957	630.06
368.184	654.06
368.41	709.06
368.636	698.06
368.862	694.06
369.089	682.06
369.315	653.06
369.541	634.06
369.767	606.06
369.993	615.06
370.219	638.06
370.445	626.06
370.672	677.06
370.898	679.06
371.124	661.06
371.35	641.06
371.576	652.06
371.802	686.06
372.028	625.06
372.254	637.06
372.48	605.06
372.706	609.06
372.932	590.06
373.158	626.06
373.384	628.06
373.61	679.06
373.835	656.06
374.061	620.06
374.287	632.06
374.513	642.06
374.739	630.06
374.965	667.06
375.191	650.06
375.416	674.06
375.642	675.06
375.868	722.06
376.094	728.06
376.319	688.06
376.545	656.06
376.771	685.06
376.997	710.06
377.222	669.06
377.448	670.06
377.674	710.06
377.899	678.06
378.125	718.06
378.35	701.06
378.576	620.06
378.802	628.06
379.027	642.06
379.253	662.06
379.478	644.06
379.704	662.06
379.929	639.06
380.155	667.06
380.38	669.06
380.606	641.06
380.831	662.06
381.057	715.06
381.282	698.06
381.507	699.06
381.733	739.06
381.958	723.06
382.184	705.06
382.409	684.06
382.634	711.06
382.86	690.06
383.085	715.06
383.31	711.06
383.535	761.06
383.761	818.06
383.986	780.06
384.211	736.06
384.436	768.06
384.662	785.06
384.887	788.06
385.112	735.06
385.337	737.06
385.562	745.06
385.787	765.06
386.013	764.06
386.238	759.06
386.463	774.06
386.688	837.06
386.913	859.06
387.138	799.06
387.363	790.06
387.588	777.06
387.813	777.06
388.038	803.06
388.263	827.06
388.488	782.06
388.713	705.06
388.938	756.06
389.163	752.06
389.387	748.06
389.612	736.06
389.837	745.06
390.062	761.06
390.287	767.06
390.512	774.06
390.736	746.06
390.961	734.06
391.186	758.06
391.411	749.06
391.636	746.06
391.86	753.06
392.085	757.06
392.31	776.06
392.534	765.06
392.759	774.06
392.984	774.06
393.208	802.06
393.433	790.06
393.658	834.06
393.882	805.06
394.107	756.06
394.331	777.06
394.556	750.06
394.78	807.06
395.005	851.06
395.229	833.06
395.454	907.06
395.678	865.06
395.903	840.06
396.127	844.06
396.352	827.06
396.576	838.06
396.801	844.06
397.025	884.06
397.249	836.06
397.474	845.06
397.698	823.06
397.922	857.06
398.147	901.06
398.371	940.06
398.595	910.06
398.82	902.06
399.044	906.06
399.268	960.06
399.492	993.06
399.717	1015.06
399.941	985.06
400.165	994.06
400.389	960.06
400.613	993.06
400.837	1115.06
401.062	1205.06
401.286	1029.06
401.51	1001.06
401.734	1008.06
401.958	948.06
402.182	923.06
402.406	915.06
402.63	898.06
402.854	896.06
403.078	937.06
403.302	912.06
403.526	920.06
403.75	937.06
403.974	944.06
404.198	936.06
404.422	994.06
404.645	1052.06
404.869	979.06
405.093	922.06
405.317	904.06
405.541	893.06
405.765	939.06
405.988	937.06
406.212	967.06
406.436	968.06
406.66	977.06
406.883	1041.06
407.107	1145.06
407.331	1255.06
407.555	1286.06
407.778	1135.06
408.002	984.06
408.226	973.06
408.449	980.06
408.673	944.06
408.896	993.06
409.12	1001.06
409.344	966.06
409.567	928.06
409.791	947.06
410.014	988.06
410.238	1073.06
410.461	1079.06
410.685	966.06
410.908	932.06
411.132	950.06
411.355	988.06
411.578	961.06
411.802	962.06
412.025	966.06
412.249	936.06
412.472	924.06
412.695	947.06
412.919	944.06
413.142	926.06
413.365	930.06
413.589	974.06
413.812	1027.06
414.035	998.06
414.258	965.06
414.482	916.06
414.705	946.06
414.928	960.06
415.151	923.06
415.374	918.06
415.597	971.06
415.821	958.06
416.044	958.06
416.267	968.06
416.49	899.06
416.713	938.06
416.936	970.06
417.159	994.06
417.382	985.06
417.605	929.06
417.828	942.06
418.051	971.06
418.274	979.06
418.497	905.06
418.72	937.06
418.943	933.06
419.166	972.06
419.389	986.06
419.611	958.06
419.834	955.06
420.057	958.06
420.28	970.06
420.503	952.06
420.726	957.06
420.948	936.06
421.171	926.06
421.394	973.06
421.617	1000.06
421.839	996.06
422.062	982.06
422.285	939.06
422.507	941.06
422.73	903.06
422.953	910.06
423.175	876.06
423.398	951.06
423.621	946.06
423.843	989.06
424.066	983.06
424.288	1016.06
424.511	1067.06
424.733	1024.06
424.956	941.06
425.178	962.06
425.401	969.06
425.623	964.06
425.846	954.06
426.068	995.06
426.291	982.06
426.513	982.06
426.735	954.06
426.958	1031.06
427.18	1076.06
427.402	1036.06
427.625	1053.06
427.847	1045.06
428.069	942.06
428.292	934.06
428.514	896.06
428.736	888.06
428.958	903.06
429.181	961.06
429.403	1074.06
429.625	1242.06
429.847	1059.06
430.069	962.06
430.292	1082.06
430.514	1043.06
430.736	982.06
430.958	1001.06
431.18	951.06
431.402	866.06
431.624	881.06
431.846	801.06
432.068	750.06
432.29	746.06
432.512	804.06
432.734	889.06
432.956	953.06
433.178	979.06
433.4	972.06
433.622	980.06
433.844	898.06
434.066	891.06
434.287	816.06
434.509	811.06
434.731	836.06
434.953	912.06
435.175	938.06
435.397	941.06
435.618	908.06
435.84	876.06
436.062	858.06
436.284	899.06
436.505	941.06
436.727	952.06
436.949	920.06
437.17	924.06
437.392	889.06
437.614	871.06
437.835	812.06
438.057	823.06
438.278	886.06
438.5	894.06
438.721	920.06
438.943	908.06
439.165	950.06
439.386	980.06
439.608	981.06
439.829	944.06
440.05	994.06
440.272	961.06
440.493	971.06
440.715	1017.06
440.936	1085.06
441.158	1083.06
441.379	1097.06
441.6	1069.06
441.822	1026.06
442.043	1038.06
442.264	986.06
442.486	974.06
442.707	966.06
442.928	981.06
443.149	1003.06
443.371	992.06
443.592	1048.06
443.813	1061.06
444.034	1040.06
444.255	1032.06
444.476	1031.06
444.698	1074.06
444.919	1070.06
445.14	1171.06
445.361	1090.06
445.582	1089.06
445.803	1096.06
446.024	1084.06
446.245	1093.06
446.466	1087.06
446.687	1038.06
446.908	1080.06
447.129	1036.06
447.35	1069.06
447.571	1016.06
447.792	969.06
448.013	964.06
448.234	967.06
448.455	1001.06
448.675	997.06
448.896	921.06
449.117	936.06
449.338	924.06
449.559	954.06
449.779	981.06
450	1030.06
450.221	1081.06
450.442	1036.06
450.662	948.06
450.883	882.06
451.104	894.06
451.324	882.06
451.545	916.06
451.766	888.06
451.986	844.06
452.207	849.06
452.428	836.06
452.648	820.06
452.869	801.06
453.089	805.06
453.31	800.06
453.53	769.06
453.751	737.06
453.971	734.06
454.192	726.06
454.412	781.06
454.633	819.06
454.853	802.06
455.073	792.06
455.294	804.06
455.514	777.06
455.734	770.06
455.955	777.06
456.175	770.06
456.395	756.06
456.616	743.06
456.836	752.06
457.056	749.06
457.276	737.06
457.497	728.06
457.717	722.06
457.937	704.06
458.157	718.06
458.377	726.06
458.598	690.06
458.818	688.06
459.038	702.06
459.258	742.06
459.478	744.06
459.698	697.06
459.918	766.06
460.138	796.06
460.358	822.06
460.578	863.06
460.798	890.06
461.018	893.06
461.238	909.06
461.458	900.06
461.678	852.06
461.898	850.06
462.118	819.06
462.338	864.06
462.558	861.06
462.777	837.06
462.997	855.06
463.217	915.06
463.437	885.06
463.657	865.06
463.876	845.06
464.096	857.06
464.316	844.06
464.536	875.06
464.755	882.06
464.975	893.06
465.195	876.06
465.414	906.06
465.634	901.06
465.854	915.06
466.073	994.06
466.293	952.06
466.512	865.06
466.732	868.06
466.951	926.06
467.171	909.06
467.391	888.06
467.61	888.06
467.829	936.06
468.049	995.06
468.268	1049.06
468.488	983.06
468.707	920.06
468.927	925.06
469.146	946.06
469.365	927.06
469.585	949.06
469.804	934.06
470.023	966.06
470.243	956.06
470.462	948.06
470.681	964.06
470.901	932.06
471.12	934.06
471.339	992.06
471.558	945.06
471.777	914.06
471.997	932.06
472.216	873.06
472.435	805.06
472.654	768.06
472.873	803.06
473.092	846.06
473.311	814.06
473.53	823.06
473.749	863.06
473.968	870.06
474.187	877.06
474.406	869.06
474.625	855.06
474.844	862.06
475.063	892.06
475.282	898.06
475.501	846.06
475.72	862.06
475.939	896.06
476.158	898.06
476.377	882.06
476.596	873.06
476.814	839.06
477.033	821.06
477.252	869.06
477.471	917.06
477.69	939.06
477.908	962.06
478.127	1032.06
478.346	1013.06
478.564	1007.06
478.783	1019.06
479.002	1043.06
479.22	1002.06
479.439	1081.06
479.658	1094.06
479.876	1042.06
480.095	940.06
480.313	909.06
480.532	881.06
480.751	877.06
480.969	827.06
481.188	811.06
481.406	780.06
481.624	806.06
481.843	793.06
482.061	832.06
482.28	876.06
482.498	896.06
482.717	856.06
482.935	916.06
483.153	964.06
483.372	1046.06
483.59	1025.06
483.808	988.06
484.027	942.06
484.245	1006.06
484.463	1231.06
484.681	1328.06
484.9	1030.06
485.118	950.06
485.336	937.06
485.554	923.06
485.772	913.06
485.99	900.06
486.209	899.06
486.427	899.06
486.645	950.06
486.863	997.06
487.081	1043.06
487.299	1030.06
487.517	1038.06
487.735	1148.06
487.953	1232.06
488.171	1166.06
488.389	1151.06
488.607	1095.06
488.825	1170.06
489.043	1076.06
489.261	1022.06
489.479	1055.06
489.696	1088.06
489.914	1084.06
490.132	1056.06
490.35	1097.06
490.568	1196.06
490.786	1194.06
491.003	1226.06
491.221	1281.06
491.439	1336.06
491.657	1342.06
491.874	1408.06
492.092	1460.06
492.31	1542.06
492.527	1474.06
492.745	1388.06
492.963	1369.06
493.18	1357.06
493.398	1387.06
493.615	1374.06
493.833	1315.06
494.05	1269.06
494.268	1246.06
494.485	1283.06
494.703	1257.06
494.92	1242.06
495.138	1240.06
495.355	1253.06
495.573	1274.06
495.79	1286.06
496.008	1300.06
496.225	1253.06
496.442	1260.06
496.66	1255.06
496.877	1236.06
497.094	1273.06
497.312	1228.06
497.529	1209.06
497.746	1196.06
497.963	1284.06
498.181	1323.06
498.398	1307.06
498.615	1252.06
498.832	1188.06
499.049	1184.06
499.267	1182.06
499.484	1256.06
499.701	1350.06
499.918	1408.06
500.135	1493.06
