Data from WStandard_LampEnergy8_LIBS07252019.E.O._I.C._HRD10591_15-59-20-929.txt Node
Date: Thu Jul 25 15:59:20 EDT 2019
User: cochatt
Spectrometer: HR+D1059
Trigger mode: 1
Integration Time (sec): 1.000000E-1
Scans to average: 1
Electric dark correction enabled: true
Nonlinearity correction enabled: false
Boxcar width: 0
XAxis mode: Wavelengths
Number of Pixels in Spectrum: 2048
>>>>>Begin Spectral Data<<<<<
223.165	-7.94
223.4	-7.94
223.635	-7.94
223.869	-10.94
224.104	-12.94
224.338	-20.94
224.573	-23.94
224.808	-19.94
225.042	0.06
225.277	-11.94
225.511	2.06
225.746	3.06
225.98	11.06
226.215	10.06
226.449	6.06
226.683	23.06
226.918	26.06
227.152	27.06
227.387	33.06
227.621	32.06
227.856	38.06
228.09	41.06
228.324	40.06
228.559	61.06
228.793	119.06
229.027	199.06
229.262	224.06
229.496	217.06
229.73	236.06
229.964	252.06
230.199	287.06
230.433	267.06
230.667	286.06
230.901	299.06
231.136	264.06
231.37	261.06
231.604	259.06
231.838	262.06
232.072	267.06
232.306	267.06
232.541	283.06
232.775	307.06
233.009	333.06
233.243	328.06
233.477	303.06
233.711	314.06
233.945	321.06
234.179	288.06
234.413	341.06
234.647	353.06
234.881	331.06
235.115	309.06
235.349	310.06
235.583	300.06
235.817	312.06
236.051	305.06
236.285	330.06
236.519	336.06
236.753	349.06
236.987	399.06
237.221	381.06
237.455	392.06
237.689	375.06
237.922	356.06
238.156	356.06
238.39	360.06
238.624	390.06
238.858	387.06
239.091	418.06
239.325	444.06
239.559	477.06
239.793	487.06
240.027	539.06
240.26	527.06
240.494	405.06
240.728	386.06
240.961	392.06
241.195	404.06
241.429	437.06
241.662	428.06
241.896	401.06
242.13	396.06
242.363	457.06
242.597	494.06
242.83	482.06
243.064	447.06
243.298	499.06
243.531	499.06
243.765	474.06
243.998	460.06
244.232	436.06
244.465	407.06
244.699	397.06
244.932	467.06
245.166	532.06
245.399	492.06
245.633	476.06
245.866	477.06
246.099	478.06
246.333	495.06
246.566	505.06
246.8	543.06
247.033	597.06
247.266	547.06
247.5	535.06
247.733	526.06
247.966	581.06
248.2	638.06
248.433	601.06
248.666	638.06
248.899	679.06
249.133	766.06
249.366	838.06
249.599	725.06
249.832	615.06
250.066	633.06
250.299	623.06
250.532	588.06
250.765	544.06
250.998	600.06
251.231	589.06
251.465	618.06
251.698	591.06
251.931	575.06
252.164	594.06
252.397	639.06
252.63	609.06
252.863	597.06
253.096	553.06
253.329	588.06
253.562	620.06
253.795	629.06
254.028	614.06
254.261	607.06
254.494	586.06
254.727	560.06
254.96	594.06
255.193	633.06
255.426	739.06
255.659	804.06
255.892	805.06
256.124	683.06
256.357	688.06
256.59	676.06
256.823	700.06
257.056	731.06
257.289	855.06
257.521	923.06
257.754	849.06
257.987	815.06
258.22	865.06
258.452	816.06
258.685	720.06
258.918	694.06
259.151	695.06
259.383	661.06
259.616	616.06
259.849	638.06
260.081	702.06
260.314	785.06
260.547	834.06
260.779	823.06
261.012	807.06
261.244	719.06
261.477	703.06
261.71	725.06
261.942	712.06
262.175	689.06
262.407	717.06
262.64	671.06
262.872	636.06
263.105	635.06
263.337	647.06
263.57	658.06
263.802	661.06
264.035	602.06
264.267	565.06
264.499	567.06
264.732	614.06
264.964	639.06
265.197	687.06
265.429	729.06
265.661	812.06
265.894	860.06
266.126	876.06
266.358	817.06
266.591	828.06
266.823	885.06
267.055	808.06
267.287	779.06
267.52	791.06
267.752	793.06
267.984	776.06
268.216	818.06
268.448	840.06
268.681	816.06
268.913	758.06
269.145	695.06
269.377	720.06
269.609	785.06
269.841	929.06
270.073	1036.06
270.306	1112.06
270.538	1114.06
270.77	986.06
271.002	845.06
271.234	795.06
271.466	837.06
271.698	938.06
271.93	1066.06
272.162	1087.06
272.394	957.06
272.626	905.06
272.858	821.06
273.09	727.06
273.322	720.06
273.553	700.06
273.785	696.06
274.017	747.06
274.249	786.06
274.481	781.06
274.713	711.06
274.945	696.06
275.176	702.06
275.408	715.06
275.64	716.06
275.872	716.06
276.104	762.06
276.335	839.06
276.567	939.06
276.799	941.06
277.031	863.06
277.262	842.06
277.494	828.06
277.726	937.06
277.957	935.06
278.189	852.06
278.421	747.06
278.652	755.06
278.884	751.06
279.115	759.06
279.347	773.06
279.579	718.06
279.81	744.06
280.042	843.06
280.273	907.06
280.505	913.06
280.736	928.06
280.968	875.06
281.199	760.06
281.431	751.06
281.662	732.06
281.894	736.06
282.125	787.06
282.356	770.06
282.588	798.06
282.819	799.06
283.051	851.06
283.282	905.06
283.513	865.06
283.745	758.06
283.976	722.06
284.207	731.06
284.439	775.06
284.67	760.06
284.901	798.06
285.132	789.06
285.364	805.06
285.595	800.06
285.826	795.06
286.057	778.06
286.288	789.06
286.52	825.06
286.751	875.06
286.982	892.06
287.213	813.06
287.444	739.06
287.675	777.06
287.906	794.06
288.138	847.06
288.369	821.06
288.6	781.06
288.831	728.06
289.062	756.06
289.293	779.06
289.524	789.06
289.755	808.06
289.986	805.06
290.217	746.06
290.448	795.06
290.679	810.06
290.91	791.06
291.141	836.06
291.371	853.06
291.602	829.06
291.833	862.06
292.064	853.06
292.295	847.06
292.526	844.06
292.757	873.06
292.987	847.06
293.218	807.06
293.449	902.06
293.68	990.06
293.91	1045.06
294.141	997.06
294.372	927.06
294.603	955.06
294.833	1015.06
295.064	933.06
295.295	880.06
295.525	833.06
295.756	771.06
295.987	735.06
296.217	775.06
296.448	784.06
296.679	795.06
296.909	823.06
297.14	761.06
297.37	797.06
297.601	860.06
297.831	928.06
298.062	886.06
298.292	823.06
298.523	823.06
298.753	833.06
298.984	807.06
299.214	797.06
299.445	847.06
299.675	861.06
299.905	867.06
300.136	833.06
300.366	831.06
300.597	793.06
300.827	784.06
301.057	840.06
301.288	877.06
301.518	855.06
301.748	877.06
301.979	936.06
302.209	947.06
302.439	997.06
302.669	1034.06
302.9	955.06
303.13	846.06
303.36	863.06
303.59	884.06
303.82	895.06
304.051	899.06
304.281	890.06
304.511	885.06
304.741	959.06
304.971	1042.06
305.201	1085.06
305.431	1009.06
305.661	827.06
305.891	767.06
306.121	803.06
306.352	821.06
306.582	868.06
306.812	961.06
307.042	961.06
307.272	967.06
307.502	1031.06
307.731	1059.06
307.961	1127.06
308.191	1020.06
308.421	896.06
308.651	846.06
308.881	876.06
309.111	812.06
309.341	827.06
309.571	831.06
309.8	877.06
310.03	831.06
310.26	813.06
310.49	827.06
310.72	875.06
310.949	917.06
311.179	897.06
311.409	873.06
311.639	870.06
311.868	857.06
312.098	870.06
312.328	867.06
312.557	872.06
312.787	882.06
313.017	889.06
313.246	876.06
313.476	894.06
313.706	895.06
313.935	911.06
314.165	909.06
314.394	917.06
314.624	1009.06
314.853	1085.06
315.083	1083.06
315.312	1100.06
315.542	1002.06
315.771	937.06
316.001	938.06
316.23	969.06
316.46	942.06
316.689	937.06
316.919	867.06
317.148	864.06
317.377	883.06
317.607	1001.06
317.836	1064.06
318.065	1113.06
318.295	1071.06
318.524	1004.06
318.753	964.06
318.983	979.06
319.212	927.06
319.441	923.06
319.67	940.06
319.9	964.06
320.129	1045.06
320.358	1055.06
320.587	1080.06
320.816	1061.06
321.046	1033.06
321.275	988.06
321.504	1019.06
321.733	1055.06
321.962	988.06
322.191	960.06
322.42	944.06
322.649	941.06
322.878	977.06
323.108	949.06
323.337	983.06
323.566	979.06
323.795	986.06
324.024	976.06
324.253	968.06
324.482	942.06
324.71	921.06
324.939	907.06
325.168	939.06
325.397	944.06
325.626	975.06
325.855	955.06
326.084	920.06
326.313	964.06
326.542	940.06
326.77	998.06
326.999	1009.06
327.228	923.06
327.457	921.06
327.686	874.06
327.914	943.06
328.143	957.06
328.372	951.06
328.6	936.06
328.829	954.06
329.058	937.06
329.287	935.06
329.515	951.06
329.744	959.06
329.972	1047.06
330.201	1057.06
330.43	1017.06
330.658	1017.06
330.887	983.06
331.115	998.06
331.344	1017.06
331.572	1017.06
331.801	983.06
332.03	1001.06
332.258	985.06
332.486	997.06
332.715	1029.06
332.943	1035.06
333.172	1030.06
333.4	1018.06
333.629	1056.06
333.857	1137.06
334.085	1192.06
334.314	1376.06
334.542	1477.06
334.771	1335.06
334.999	1171.06
335.227	1133.06
335.455	1068.06
335.684	1061.06
335.912	1085.06
336.14	1129.06
336.369	1060.06
336.597	1032.06
336.825	1022.06
337.053	1056.06
337.281	1151.06
337.51	1161.06
337.738	1219.06
337.966	1110.06
338.194	1031.06
338.422	997.06
338.65	1002.06
338.878	995.06
339.106	966.06
339.334	947.06
339.562	967.06
339.79	985.06
340.018	1050.06
340.246	1051.06
340.474	1073.06
340.702	1061.06
340.93	1053.06
341.158	1033.06
341.386	1042.06
341.614	1020.06
341.842	990.06
342.07	1035.06
342.298	1019.06
342.526	1021.06
342.754	961.06
342.981	975.06
343.209	956.06
343.437	979.06
343.665	1015.06
343.893	1047.06
344.12	1070.06
344.348	1098.06
344.576	1048.06
344.804	1001.06
345.031	1004.06
345.259	1009.06
345.487	964.06
345.714	948.06
345.942	919.06
346.17	926.06
346.397	957.06
346.625	957.06
346.853	928.06
347.08	906.06
347.308	920.06
347.535	955.06
347.763	958.06
347.99	926.06
348.218	932.06
348.445	931.06
348.673	951.06
348.9	987.06
349.128	1017.06
349.355	1027.06
349.583	1005.06
349.81	949.06
350.037	867.06
350.265	912.06
350.492	897.06
350.72	916.06
350.947	974.06
351.174	954.06
351.402	876.06
351.629	875.06
351.856	897.06
352.083	885.06
352.311	864.06
352.538	923.06
352.765	951.06
352.992	947.06
353.22	944.06
353.447	923.06
353.674	911.06
353.901	949.06
354.128	938.06
354.355	909.06
354.583	934.06
354.81	981.06
355.037	975.06
355.264	945.06
355.491	968.06
355.718	943.06
355.945	936.06
356.172	927.06
356.399	907.06
356.626	894.06
356.853	968.06
357.08	1056.06
357.307	1113.06
357.534	1071.06
357.761	962.06
357.988	913.06
358.215	878.06
358.441	915.06
358.668	893.06
358.895	905.06
359.122	1012.06
359.349	1083.06
359.576	1039.06
359.802	924.06
360.029	914.06
360.256	923.06
360.483	917.06
360.709	957.06
360.936	1006.06
361.163	1047.06
361.39	1141.06
361.616	1170.06
361.843	1159.06
362.07	1079.06
362.296	953.06
362.523	931.06
362.749	933.06
362.976	953.06
363.203	986.06
363.429	909.06
363.656	901.06
363.882	976.06
364.109	1097.06
364.335	1117.06
364.562	1047.06
364.788	972.06
365.015	929.06
365.241	938.06
365.468	939.06
365.694	1002.06
365.92	1011.06
366.147	986.06
366.373	960.06
366.599	939.06
366.826	931.06
367.052	912.06
367.278	960.06
367.505	959.06
367.731	965.06
367.957	1003.06
368.184	1047.06
368.41	1082.06
368.636	1089.06
368.862	1066.06
369.089	1082.06
369.315	1035.06
369.541	1015.06
369.767	959.06
369.993	939.06
370.219	943.06
370.445	987.06
370.672	1060.06
370.898	1109.06
371.124	1079.06
371.35	1021.06
371.576	1073.06
371.802	1067.06
372.028	1051.06
372.254	995.06
372.48	947.06
372.706	953.06
372.932	968.06
373.158	963.06
373.384	1007.06
373.61	1021.06
373.835	1061.06
374.061	1006.06
374.287	1011.06
374.513	1009.06
374.739	992.06
374.965	1014.06
375.191	1052.06
375.416	1039.06
375.642	1039.06
375.868	1113.06
376.094	1120.06
376.319	1063.06
376.545	1023.06
376.771	1021.06
376.997	1104.06
377.222	1079.06
377.448	1075.06
377.674	1047.06
377.899	1067.06
378.125	1134.06
378.35	1100.06
378.576	999.06
378.802	978.06
379.027	970.06
379.253	987.06
379.478	1018.06
379.704	1017.06
379.929	976.06
380.155	1001.06
380.38	1040.06
380.606	1013.06
380.831	1060.06
381.057	1088.06
381.282	1064.06
381.507	1083.06
381.733	1147.06
381.958	1163.06
382.184	1077.06
382.409	1045.06
382.634	1086.06
382.86	1047.06
383.085	1039.06
383.31	1122.06
383.535	1207.06
383.761	1249.06
383.986	1169.06
384.211	1108.06
384.436	1135.06
384.662	1198.06
384.887	1207.06
385.112	1135.06
385.337	1135.06
385.562	1124.06
385.787	1158.06
386.013	1180.06
386.238	1158.06
386.463	1222.06
386.688	1285.06
386.913	1327.06
387.138	1250.06
387.363	1214.06
387.588	1176.06
387.813	1188.06
388.038	1189.06
388.263	1218.06
388.488	1170.06
388.713	1120.06
388.938	1126.06
389.163	1098.06
389.387	1116.06
389.612	1131.06
389.837	1180.06
390.062	1161.06
390.287	1169.06
390.512	1144.06
390.736	1121.06
390.961	1119.06
391.186	1100.06
391.411	1133.06
391.636	1135.06
391.86	1142.06
392.085	1163.06
392.31	1149.06
392.534	1161.06
392.759	1173.06
392.984	1129.06
393.208	1143.06
393.433	1220.06
393.658	1253.06
393.882	1264.06
394.107	1177.06
394.331	1156.06
394.556	1160.06
394.78	1142.06
395.005	1201.06
395.229	1256.06
395.454	1373.06
395.678	1289.06
395.903	1242.06
396.127	1229.06
396.352	1245.06
396.576	1270.06
396.801	1265.06
397.025	1273.06
397.249	1274.06
397.474	1251.06
397.698	1209.06
397.922	1273.06
398.147	1353.06
398.371	1408.06
398.595	1353.06
398.82	1336.06
399.044	1365.06
399.268	1390.06
399.492	1481.06
399.717	1526.06
399.941	1528.06
400.165	1472.06
400.389	1446.06
400.613	1462.06
400.837	1694.06
401.062	1816.06
401.286	1570.06
401.51	1456.06
401.734	1511.06
401.958	1453.06
402.182	1365.06
402.406	1302.06
402.63	1296.06
402.854	1285.06
403.078	1356.06
403.302	1359.06
403.526	1360.06
403.75	1368.06
403.974	1385.06
404.198	1394.06
404.422	1447.06
404.645	1481.06
404.869	1440.06
405.093	1387.06
405.317	1342.06
405.541	1375.06
405.765	1361.06
405.988	1374.06
406.212	1387.06
406.436	1429.06
406.66	1484.06
406.883	1514.06
407.107	1695.06
407.331	1824.06
407.555	1934.06
407.778	1700.06
408.002	1475.06
408.226	1417.06
408.449	1400.06
408.673	1396.06
408.896	1407.06
409.12	1400.06
409.344	1359.06
409.567	1337.06
409.791	1401.06
410.014	1422.06
410.238	1476.06
410.461	1555.06
410.685	1408.06
410.908	1335.06
411.132	1413.06
411.355	1357.06
411.578	1345.06
411.802	1411.06
412.025	1402.06
412.249	1366.06
412.472	1337.06
412.695	1300.06
412.919	1311.06
413.142	1292.06
413.365	1338.06
413.589	1370.06
413.812	1436.06
414.035	1461.06
414.258	1344.06
414.482	1335.06
414.705	1335.06
414.928	1319.06
415.151	1318.06
415.374	1349.06
415.597	1340.06
415.821	1346.06
416.044	1356.06
416.267	1365.06
416.49	1308.06
416.713	1304.06
416.936	1361.06
417.159	1406.06
417.382	1388.06
417.605	1303.06
417.828	1322.06
418.051	1355.06
418.274	1353.06
418.497	1261.06
418.72	1317.06
418.943	1317.06
419.166	1341.06
419.389	1370.06
419.611	1326.06
419.834	1302.06
420.057	1339.06
420.28	1320.06
420.503	1289.06
420.726	1350.06
420.948	1316.06
421.171	1269.06
421.394	1295.06
421.617	1363.06
421.839	1365.06
422.062	1359.06
422.285	1297.06
422.507	1303.06
422.73	1230.06
422.953	1243.06
423.175	1226.06
423.398	1283.06
423.621	1264.06
423.843	1281.06
424.066	1335.06
424.288	1416.06
424.511	1429.06
424.733	1372.06
424.956	1249.06
425.178	1243.06
425.401	1274.06
425.623	1305.06
425.846	1296.06
426.068	1371.06
426.291	1356.06
426.513	1365.06
426.735	1349.06
426.958	1452.06
427.18	1471.06
427.402	1406.06
427.625	1465.06
427.847	1417.06
428.069	1296.06
428.292	1289.06
428.514	1231.06
428.736	1259.06
428.958	1279.06
429.181	1311.06
429.403	1511.06
429.625	1799.06
429.847	1477.06
430.069	1354.06
430.292	1491.06
430.514	1477.06
430.736	1379.06
430.958	1403.06
431.18	1323.06
431.402	1250.06
431.624	1241.06
431.846	1172.06
432.068	1149.06
432.29	1182.06
432.512	1176.06
432.734	1265.06
432.956	1325.06
433.178	1333.06
433.4	1309.06
433.622	1344.06
433.844	1271.06
434.066	1211.06
434.287	1203.06
434.509	1227.06
434.731	1277.06
434.953	1360.06
435.175	1387.06
435.397	1310.06
435.618	1285.06
435.84	1279.06
436.062	1259.06
436.284	1269.06
436.505	1349.06
436.727	1337.06
436.949	1287.06
437.17	1238.06
437.392	1247.06
437.614	1244.06
437.835	1229.06
438.057	1255.06
438.278	1296.06
438.5	1252.06
438.721	1264.06
438.943	1249.06
439.165	1251.06
439.386	1257.06
439.608	1277.06
439.829	1277.06
440.05	1309.06
440.272	1264.06
440.493	1264.06
440.715	1300.06
440.936	1391.06
441.158	1453.06
441.379	1415.06
441.6	1415.06
441.822	1375.06
442.043	1327.06
442.264	1356.06
442.486	1273.06
442.707	1262.06
442.928	1274.06
443.149	1323.06
443.371	1407.06
443.592	1407.06
443.813	1339.06
444.034	1368.06
444.255	1387.06
444.476	1384.06
444.698	1399.06
444.919	1395.06
445.14	1508.06
445.361	1464.06
445.582	1478.06
445.803	1375.06
446.024	1383.06
446.245	1442.06
446.466	1376.06
446.687	1340.06
446.908	1386.06
447.129	1320.06
447.35	1326.06
447.571	1323.06
447.792	1267.06
448.013	1253.06
448.234	1262.06
448.455	1364.06
448.675	1361.06
448.896	1224.06
449.117	1203.06
449.338	1257.06
449.559	1324.06
449.779	1367.06
450	1466.06
450.221	1512.06
450.442	1471.06
450.662	1312.06
450.883	1205.06
451.104	1188.06
451.324	1198.06
451.545	1246.06
451.766	1216.06
451.986	1161.06
452.207	1153.06
452.428	1118.06
452.648	1124.06
452.869	1131.06
453.089	1153.06
453.31	1194.06
453.53	1189.06
453.751	1114.06
453.971	1061.06
454.192	1080.06
454.412	1152.06
454.633	1135.06
454.853	1102.06
455.073	1091.06
455.294	1089.06
455.514	1083.06
455.734	1049.06
455.955	1114.06
456.175	1087.06
456.395	1075.06
456.616	1109.06
456.836	1128.06
457.056	1096.06
457.276	1084.06
457.497	1072.06
457.717	1015.06
457.937	1081.06
458.157	1106.06
458.377	1062.06
458.598	1063.06
458.818	1064.06
459.038	1142.06
459.258	1173.06
459.478	1183.06
459.698	1139.06
459.918	1166.06
460.138	1231.06
460.358	1254.06
460.578	1263.06
460.798	1296.06
461.018	1377.06
461.238	1321.06
461.458	1269.06
461.678	1251.06
461.898	1246.06
462.118	1215.06
462.338	1271.06
462.558	1261.06
462.777	1302.06
462.997	1359.06
463.217	1407.06
463.437	1333.06
463.657	1293.06
463.876	1269.06
464.096	1285.06
464.316	1277.06
464.536	1311.06
464.755	1334.06
464.975	1335.06
465.195	1262.06
465.414	1358.06
465.634	1337.06
465.854	1274.06
466.073	1405.06
466.293	1364.06
466.512	1227.06
466.732	1255.06
466.951	1235.06
467.171	1247.06
467.391	1212.06
467.61	1222.06
467.829	1235.06
468.049	1335.06
468.268	1492.06
468.488	1378.06
468.707	1274.06
468.927	1259.06
469.146	1243.06
469.365	1244.06
469.585	1243.06
469.804	1264.06
470.023	1275.06
470.243	1289.06
470.462	1232.06
470.681	1239.06
470.901	1268.06
471.12	1270.06
471.339	1275.06
471.558	1230.06
471.777	1216.06
471.997	1221.06
472.216	1211.06
472.435	1160.06
472.654	1165.06
472.873	1189.06
473.092	1241.06
473.311	1226.06
473.53	1168.06
473.749	1160.06
473.968	1206.06
474.187	1227.06
474.406	1276.06
474.625	1209.06
474.844	1224.06
475.063	1197.06
475.282	1232.06
475.501	1233.06
475.72	1220.06
475.939	1326.06
476.158	1260.06
476.377	1239.06
476.596	1245.06
476.814	1267.06
477.033	1233.06
477.252	1307.06
477.471	1318.06
477.69	1267.06
477.908	1286.06
478.127	1369.06
478.346	1440.06
478.564	1459.06
478.783	1436.06
479.002	1452.06
479.22	1462.06
479.439	1488.06
479.658	1616.06
479.876	1582.06
480.095	1417.06
480.313	1353.06
480.532	1303.06
480.751	1323.06
480.969	1365.06
481.188	1259.06
481.406	1274.06
481.624	1281.06
481.843	1273.06
482.061	1324.06
482.28	1321.06
482.498	1351.06
482.717	1320.06
482.935	1335.06
483.153	1365.06
483.372	1397.06
483.59	1367.06
483.808	1372.06
484.027	1400.06
484.245	1468.06
484.463	1781.06
484.681	1943.06
484.9	1492.06
485.118	1380.06
485.336	1361.06
485.554	1398.06
485.772	1403.06
485.99	1380.06
486.209	1421.06
486.427	1403.06
486.645	1422.06
486.863	1451.06
487.081	1471.06
487.299	1477.06
487.517	1463.06
487.735	1436.06
487.953	1503.06
488.171	1514.06
488.389	1459.06
488.607	1478.06
488.825	1612.06
489.043	1583.06
489.261	1433.06
489.479	1518.06
489.696	1499.06
489.914	1492.06
490.132	1435.06
490.35	1467.06
490.568	1528.06
490.786	1484.06
491.003	1486.06
491.221	1533.06
491.439	1602.06
491.657	1625.06
491.874	1617.06
492.092	1708.06
492.31	1725.06
492.527	1675.06
492.745	1630.06
492.963	1598.06
493.18	1622.06
