Data from WStandard_LampEnergy5.5LIBS07252019.E.O._I.C._HRD10591_16-09-19-920.txt Node
Date: Thu Jul 25 16:09:19 EDT 2019
User: cochatt
Spectrometer: HR+D1059
Trigger mode: 1
Integration Time (sec): 1.000000E-1
Scans to average: 1
Electric dark correction enabled: true
Nonlinearity correction enabled: false
Boxcar width: 0
XAxis mode: Wavelengths
Number of Pixels in Spectrum: 2048
>>>>>Begin Spectral Data<<<<<
223.165	-23.06
223.4	-23.06
223.635	-23.06
223.869	-32.06
224.104	-26.06
224.338	-22.06
224.573	-25.06
224.808	-17.06
225.042	-11.06
225.277	8.94
225.511	6.94
225.746	0.94
225.98	12.94
226.215	20.94
226.449	17.94
226.683	13.94
226.918	34.94
227.152	38.94
227.387	36.94
227.621	38.94
227.856	48.94
228.09	34.94
228.324	50.94
228.559	50.94
228.793	138.94
229.027	342.94
229.262	352.94
229.496	372.94
229.73	400.94
229.964	435.94
230.199	427.94
230.433	452.94
230.667	478.94
230.901	521.94
231.136	475.94
231.37	471.94
231.604	437.94
231.838	439.94
232.072	463.94
232.306	438.94
232.541	461.94
232.775	518.94
233.009	576.94
233.243	564.94
233.477	507.94
233.711	547.94
233.945	551.94
234.179	531.94
234.413	573.94
234.647	605.94
234.881	566.94
235.115	522.94
235.349	520.94
235.583	562.94
235.817	536.94
236.051	516.94
236.285	512.94
236.519	572.94
236.753	650.94
236.987	665.94
237.221	638.94
237.455	726.94
237.689	704.94
237.922	662.94
238.156	646.94
238.39	626.94
238.624	698.94
238.858	721.94
239.091	728.94
239.325	759.94
239.559	873.94
239.793	936.94
240.027	1001.94
240.26	1018.94
240.494	745.94
240.728	688.94
240.961	708.94
241.195	700.94
241.429	777.94
241.662	776.94
241.896	720.94
242.13	737.94
242.363	824.94
242.597	897.94
242.83	820.94
243.064	868.94
243.298	930.94
243.531	898.94
243.765	905.94
243.998	898.94
244.232	797.94
244.465	770.94
244.699	786.94
244.932	876.94
245.166	1014.94
245.399	954.94
245.633	851.94
245.866	844.94
246.099	922.94
246.333	896.94
246.566	955.94
246.8	1004.94
247.033	1103.94
247.266	1064.94
247.5	1031.94
247.733	1003.94
247.966	1069.94
248.2	1194.94
248.433	1136.94
248.666	1192.94
248.899	1251.94
249.133	1476.94
249.366	1691.94
249.599	1399.94
249.832	1179.94
250.066	1241.94
250.299	1240.94
250.532	1144.94
250.765	1035.94
250.998	1089.94
251.231	1139.94
251.465	1209.94
251.698	1121.94
251.931	1121.94
252.164	1160.94
252.397	1229.94
252.63	1190.94
252.863	1072.94
253.096	1036.94
253.329	1091.94
253.562	1108.94
253.795	1239.94
254.028	1248.94
254.261	1157.94
254.494	1117.94
254.727	1074.94
254.96	1122.94
255.193	1195.94
255.426	1314.94
255.659	1561.94
255.892	1612.94
256.124	1334.94
256.357	1248.94
256.59	1361.94
256.823	1400.94
257.056	1370.94
257.289	1668.94
257.521	1856.94
257.754	1614.94
257.987	1552.94
258.22	1728.94
258.452	1688.94
258.685	1334.94
258.918	1308.94
259.151	1344.94
259.383	1289.94
259.616	1117.94
259.849	1166.94
260.081	1346.94
260.314	1508.94
260.547	1677.94
260.779	1653.94
261.012	1536.94
261.244	1395.94
261.477	1321.94
261.71	1332.94
261.942	1370.94
262.175	1308.94
262.407	1366.94
262.64	1334.94
262.872	1245.94
263.105	1188.94
263.337	1228.94
263.57	1257.94
263.802	1245.94
264.035	1177.94
264.267	1110.94
264.499	1093.94
264.732	1189.94
264.964	1228.94
265.197	1307.94
265.429	1344.94
265.661	1512.94
265.894	1661.94
266.126	1714.94
266.358	1536.94
266.591	1561.94
266.823	1783.94
267.055	1543.94
267.287	1536.94
267.52	1477.94
267.752	1480.94
267.984	1492.94
268.216	1576.94
268.448	1600.94
268.681	1589.94
268.913	1448.94
269.145	1365.94
269.377	1310.94
269.609	1444.94
269.841	1709.94
270.073	1993.94
270.306	2190.94
270.538	2312.94
270.77	1957.94
271.002	1656.94
271.234	1604.94
271.466	1556.94
271.698	1760.94
271.93	2107.94
272.162	2125.94
272.394	1885.94
272.626	1838.94
272.858	1592.94
273.09	1394.94
273.322	1401.94
273.553	1337.94
273.785	1346.94
274.017	1403.94
274.249	1523.94
274.481	1538.94
274.713	1429.94
274.945	1339.94
275.176	1376.94
275.408	1341.94
275.64	1330.94
275.872	1293.94
276.104	1390.94
276.335	1596.94
276.567	1805.94
276.799	1844.94
277.031	1638.94
277.262	1547.94
277.494	1579.94
277.726	1758.94
277.957	1782.94
278.189	1601.94
278.421	1472.94
278.652	1440.94
278.884	1401.94
279.115	1420.94
279.347	1454.94
279.579	1392.94
279.81	1386.94
280.042	1545.94
280.273	1705.94
280.505	1699.94
280.736	1788.94
280.968	1682.94
281.199	1453.94
281.431	1413.94
281.662	1390.94
281.894	1395.94
282.125	1444.94
282.356	1514.94
282.588	1481.94
282.819	1489.94
283.051	1585.94
283.282	1721.94
283.513	1672.94
283.745	1451.94
283.976	1356.94
284.207	1407.94
284.439	1418.94
284.67	1431.94
284.901	1467.94
285.132	1474.94
285.364	1458.94
285.595	1516.94
285.826	1428.94
286.057	1425.94
286.288	1409.94
286.52	1486.94
286.751	1621.94
286.982	1714.94
287.213	1554.94
287.444	1392.94
287.675	1405.94
287.906	1491.94
288.138	1576.94
288.369	1510.94
288.6	1482.94
288.831	1437.94
289.062	1419.94
289.293	1491.94
289.524	1453.94
289.755	1502.94
289.986	1533.94
290.217	1387.94
290.448	1398.94
290.679	1505.94
290.91	1461.94
291.141	1487.94
291.371	1565.94
291.602	1548.94
291.833	1509.94
292.064	1582.94
292.295	1501.94
292.526	1579.94
292.757	1672.94
292.987	1565.94
293.218	1476.94
293.449	1580.94
293.68	1812.94
293.91	1952.94
294.141	1805.94
294.372	1688.94
294.603	1721.94
294.833	1861.94
295.064	1746.94
295.295	1590.94
295.525	1516.94
295.756	1421.94
295.987	1395.94
296.217	1384.94
296.448	1452.94
296.679	1460.94
296.909	1476.94
297.14	1437.94
297.37	1442.94
297.601	1537.94
297.831	1676.94
298.062	1714.94
298.292	1536.94
298.523	1475.94
298.753	1471.94
298.984	1499.94
299.214	1498.94
299.445	1520.94
299.675	1561.94
299.905	1542.94
300.136	1499.94
300.366	1515.94
300.597	1441.94
300.827	1438.94
301.057	1507.94
301.288	1588.94
301.518	1532.94
301.748	1595.94
301.979	1691.94
302.209	1709.94
302.439	1790.94
302.669	1958.94
302.9	1800.94
303.13	1604.94
303.36	1594.94
303.59	1596.94
303.82	1593.94
304.051	1588.94
304.281	1588.94
304.511	1564.94
304.741	1653.94
304.971	1796.94
305.201	2036.94
305.431	1857.94
305.661	1550.94
305.891	1400.94
306.121	1395.94
306.352	1430.94
306.582	1504.94
306.812	1614.94
307.042	1716.94
307.272	1737.94
307.502	1810.94
307.731	1914.94
307.961	2081.94
308.191	1965.94
308.421	1661.94
308.651	1536.94
308.881	1494.94
309.111	1528.94
309.341	1460.94
309.571	1516.94
309.8	1501.94
310.03	1497.94
310.26	1486.94
310.49	1536.94
310.72	1554.94
310.949	1608.94
311.179	1656.94
311.409	1585.94
311.639	1546.94
311.868	1554.94
312.098	1560.94
312.328	1511.94
312.557	1513.94
312.787	1533.94
313.017	1605.94
313.246	1629.94
313.476	1619.94
313.706	1623.94
313.935	1602.94
314.165	1589.94
314.394	1650.94
314.624	1736.94
314.853	1864.94
315.083	1900.94
315.312	1976.94
315.542	1866.94
315.771	1661.94
316.001	1624.94
316.23	1708.94
316.46	1733.94
316.689	1730.94
316.919	1599.94
317.148	1597.94
317.377	1587.94
317.607	1664.94
317.836	1916.94
318.065	1947.94
318.295	1885.94
318.524	1816.94
318.753	1681.94
318.983	1725.94
319.212	1668.94
319.441	1652.94
319.67	1649.94
319.9	1690.94
320.129	1740.94
320.358	1776.94
320.587	1889.94
320.816	1857.94
321.046	1851.94
321.275	1698.94
321.504	1720.94
321.733	1885.94
321.962	1834.94
322.191	1707.94
322.42	1671.94
322.649	1653.94
322.878	1646.94
323.108	1649.94
323.337	1722.94
323.566	1714.94
323.795	1735.94
324.024	1724.94
324.253	1690.94
324.482	1703.94
324.71	1654.94
324.939	1556.94
325.168	1601.94
325.397	1656.94
325.626	1689.94
325.855	1727.94
326.084	1668.94
326.313	1673.94
326.542	1666.94
326.77	1743.94
326.999	1759.94
327.228	1697.94
327.457	1604.94
327.686	1576.94
327.914	1641.94
328.143	1693.94
328.372	1686.94
328.6	1673.94
328.829	1616.94
329.058	1636.94
329.287	1632.94
329.515	1669.94
329.744	1691.94
329.972	1750.94
330.201	1847.94
330.43	1829.94
330.658	1755.94
330.887	1766.94
331.115	1752.94
331.344	1799.94
331.572	1749.94
331.801	1692.94
332.03	1754.94
332.258	1741.94
332.486	1796.94
332.715	1802.94
332.943	1796.94
333.172	1770.94
333.4	1759.94
333.629	1862.94
333.857	1906.94
334.085	2100.94
334.314	2366.94
334.542	2650.94
334.771	2434.94
334.999	2166.94
335.227	1974.94
335.455	1876.94
335.684	1841.94
335.912	1958.94
336.14	2014.94
336.369	1942.94
336.597	1792.94
336.825	1790.94
337.053	1852.94
337.281	1911.94
337.51	1995.94
337.738	2109.94
337.966	2032.94
338.194	1819.94
338.422	1800.94
338.65	1754.94
338.878	1758.94
339.106	1712.94
339.334	1719.94
339.562	1661.94
339.79	1690.94
340.018	1795.94
340.246	1854.94
340.474	1881.94
340.702	1828.94
340.93	1820.94
341.158	1792.94
341.386	1772.94
341.614	1739.94
341.842	1728.94
342.07	1762.94
342.298	1746.94
342.526	1798.94
342.754	1714.94
342.981	1714.94
343.209	1732.94
343.437	1706.94
343.665	1732.94
343.893	1812.94
344.12	1890.94
344.348	1905.94
344.576	1811.94
344.804	1735.94
345.031	1700.94
345.259	1777.94
345.487	1724.94
345.714	1644.94
345.942	1616.94
346.17	1625.94
346.397	1627.94
346.625	1700.94
346.853	1559.94
347.08	1542.94
347.308	1565.94
347.535	1592.94
347.763	1631.94
347.99	1591.94
348.218	1549.94
348.445	1595.94
348.673	1577.94
348.9	1650.94
349.128	1704.94
349.355	1781.94
349.583	1732.94
349.81	1619.94
350.037	1523.94
350.265	1480.94
350.492	1540.94
350.72	1591.94
350.947	1642.94
351.174	1632.94
351.402	1572.94
351.629	1538.94
351.856	1488.94
352.083	1499.94
352.311	1493.94
352.538	1552.94
352.765	1625.94
352.992	1680.94
353.22	1600.94
353.447	1534.94
353.674	1571.94
353.901	1635.94
354.128	1583.94
354.355	1585.94
354.583	1637.94
354.81	1675.94
355.037	1651.94
355.264	1682.94
355.491	1616.94
355.718	1627.94
355.945	1651.94
356.172	1593.94
356.399	1542.94
356.626	1532.94
356.853	1616.94
357.08	1701.94
357.307	1899.94
357.534	1910.94
357.761	1707.94
357.988	1555.94
358.215	1498.94
358.441	1554.94
358.668	1537.94
358.895	1539.94
359.122	1626.94
359.349	1767.94
359.576	1776.94
359.802	1610.94
360.029	1559.94
360.256	1502.94
360.483	1558.94
360.709	1573.94
360.936	1685.94
361.163	1687.94
361.39	1861.94
361.616	2024.94
361.843	1956.94
362.07	1844.94
362.296	1634.94
362.523	1565.94
362.749	1595.94
362.976	1570.94
363.203	1650.94
363.429	1597.94
363.656	1560.94
363.882	1572.94
364.109	1750.94
364.335	1913.94
364.562	1746.94
364.788	1671.94
365.015	1629.94
365.241	1552.94
365.468	1588.94
365.694	1666.94
365.92	1709.94
366.147	1686.94
366.373	1606.94
366.599	1566.94
366.826	1496.94
367.052	1508.94
367.278	1566.94
367.505	1611.94
367.731	1622.94
367.957	1613.94
368.184	1688.94
368.41	1769.94
368.636	1797.94
368.862	1785.94
369.089	1815.94
369.315	1746.94
369.541	1672.94
369.767	1635.94
369.993	1604.94
370.219	1571.94
370.445	1641.94
370.672	1738.94
370.898	1835.94
371.124	1806.94
371.35	1707.94
371.576	1713.94
371.802	1792.94
372.028	1728.94
372.254	1658.94
372.48	1612.94
372.706	1612.94
372.932	1617.94
373.158	1619.94
373.384	1620.94
373.61	1669.94
373.835	1820.94
374.061	1723.94
374.287	1648.94
374.513	1658.94
374.739	1709.94
374.965	1693.94
375.191	1718.94
375.416	1725.94
375.642	1736.94
375.868	1803.94
376.094	1885.94
376.319	1794.94
376.545	1684.94
376.771	1715.94
376.997	1783.94
377.222	1769.94
377.448	1713.94
377.674	1744.94
377.899	1715.94
378.125	1808.94
378.35	1836.94
378.576	1674.94
378.802	1612.94
379.027	1629.94
379.253	1651.94
379.478	1690.94
379.704	1662.94
379.929	1660.94
380.155	1652.94
380.38	1683.94
380.606	1723.94
380.831	1692.94
381.057	1747.94
381.282	1785.94
381.507	1748.94
381.733	1851.94
381.958	1922.94
382.184	1770.94
382.409	1744.94
382.634	1748.94
382.86	1760.94
383.085	1740.94
383.31	1766.94
383.535	1914.94
383.761	2039.94
383.986	1934.94
384.211	1866.94
384.436	1819.94
384.662	1911.94
384.887	2026.94
385.112	1922.94
385.337	1973.94
385.562	1916.94
385.787	1882.94
386.013	1966.94
386.238	1975.94
386.463	1949.94
386.688	2049.94
386.913	2235.94
387.138	2096.94
387.363	1940.94
387.588	1965.94
387.813	1947.94
388.038	1962.94
388.263	2059.94
388.488	1996.94
388.713	1860.94
388.938	1834.94
389.163	1830.94
389.387	1891.94
389.612	1875.94
389.837	1919.94
390.062	1954.94
390.287	1932.94
390.512	1921.94
390.736	1863.94
390.961	1885.94
391.186	1809.94
391.411	1859.94
391.636	1877.94
391.86	1926.94
392.085	1888.94
392.31	1910.94
392.534	1934.94
392.759	1934.94
392.984	1888.94
393.208	1943.94
393.433	1918.94
393.658	2072.94
393.882	2058.94
394.107	1918.94
394.331	1902.94
394.556	1909.94
394.78	1901.94
395.005	1998.94
395.229	2061.94
395.454	2170.94
395.678	2204.94
395.903	2116.94
396.127	2024.94
396.352	2028.94
396.576	2091.94
396.801	2108.94
397.025	2093.94
397.249	2133.94
397.474	2056.94
397.698	2058.94
397.922	2126.94
398.147	2211.94
398.371	2300.94
398.595	2296.94
398.82	2217.94
399.044	2237.94
399.268	2314.94
399.492	2482.94
399.717	2596.94
399.941	2560.94
400.165	2495.94
400.389	2435.94
400.613	2412.94
400.837	2640.94
401.062	3082.94
401.286	2635.94
401.51	2398.94
401.734	2497.94
401.958	2437.94
402.182	2255.94
402.406	2201.94
402.63	2166.94
402.854	2131.94
403.078	2179.94
403.302	2262.94
403.526	2248.94
403.75	2245.94
403.974	2314.94
404.198	2292.94
404.422	2349.94
404.645	2466.94
404.869	2401.94
405.093	2280.94
405.317	2201.94
405.541	2311.94
405.765	2326.94
405.988	2264.94
406.212	2350.94
406.436	2374.94
406.66	2396.94
406.883	2424.94
407.107	2692.94
407.331	2915.94
407.555	3179.94
407.778	2982.94
408.002	2494.94
408.226	2381.94
408.449	2401.94
408.673	2290.94
408.896	2322.94
409.12	2384.94
409.344	2340.94
409.567	2213.94
409.791	2320.94
410.014	2349.94
410.238	2429.94
410.461	2558.94
410.685	2347.94
410.908	2195.94
411.132	2227.94
411.355	2295.94
411.578	2237.94
411.802	2237.94
412.025	2280.94
412.249	2238.94
412.472	2191.94
412.695	2157.94
412.919	2182.94
413.142	2146.94
413.365	2152.94
413.589	2230.94
413.812	2312.94
414.035	2413.94
414.258	2220.94
414.482	2168.94
414.705	2214.94
414.928	2148.94
415.151	2160.94
415.374	2165.94
415.597	2216.94
415.821	2228.94
416.044	2311.94
416.267	2329.94
416.49	2098.94
416.713	2085.94
416.936	2107.94
417.159	2232.94
417.382	2254.94
417.605	2103.94
417.828	2220.94
418.051	2240.94
418.274	2210.94
418.497	2126.94
418.72	2089.94
418.943	2106.94
419.166	2271.94
419.389	2356.94
419.611	2203.94
419.834	2150.94
420.057	2185.94
420.28	2110.94
420.503	2137.94
420.726	2112.94
420.948	2148.94
421.171	2070.94
421.394	2134.94
421.617	2140.94
421.839	2170.94
422.062	2129.94
422.285	2037.94
422.507	2086.94
422.73	2002.94
422.953	1973.94
423.175	2011.94
423.398	2086.94
423.621	2107.94
423.843	2133.94
424.066	2140.94
424.288	2184.94
424.511	2244.94
424.733	2180.94
424.956	2005.94
425.178	1997.94
425.401	2011.94
425.623	2052.94
425.846	1963.94
426.068	2096.94
426.291	2153.94
426.513	2151.94
426.735	2118.94
426.958	2242.94
427.18	2395.94
427.402	2208.94
427.625	2300.94
427.847	2254.94
428.069	2130.94
428.292	2005.94
428.514	1976.94
428.736	1974.94
428.958	2042.94
429.181	2085.94
429.403	2281.94
429.625	2818.94
429.847	2455.94
430.069	2084.94
430.292	2284.94
430.514	2377.94
430.736	2177.94
430.958	2268.94
431.18	2197.94
431.402	2040.94
431.624	1996.94
431.846	2054.94
432.068	1963.94
432.29	1986.94
432.512	2013.94
432.734	2100.94
432.956	2096.94
433.178	2217.94
433.4	2172.94
433.622	2193.94
433.844	2076.94
434.066	1996.94
434.287	2021.94
434.509	2130.94
434.731	2188.94
434.953	2353.94
435.175	2259.94
435.397	2120.94
435.618	2158.94
435.84	2118.94
436.062	2111.94
436.284	2111.94
436.505	2117.94
436.727	2182.94
436.949	2121.94
437.17	2039.94
437.392	2080.94
437.614	2060.94
437.835	1980.94
438.057	2119.94
438.278	2208.94
438.5	2102.94
438.721	2020.94
438.943	2090.94
439.165	1991.94
439.386	1958.94
439.608	1970.94
439.829	2036.94
440.05	2028.94
440.272	1964.94
440.493	1952.94
440.715	2058.94
440.936	2143.94
441.158	2389.94
441.379	2298.94
441.6	2248.94
441.822	2184.94
442.043	2182.94
442.264	2154.94
442.486	2032.94
442.707	1981.94
442.928	2006.94
443.149	2089.94
443.371	2194.94
443.592	2297.94
443.813	2240.94
444.034	2194.94
444.255	2173.94
444.476	2277.94
444.698	2283.94
444.919	2240.94
445.14	2324.94
445.361	2378.94
445.582	2408.94
445.803	2352.94
446.024	2218.94
446.245	2289.94
446.466	2265.94
446.687	2098.94
446.908	2089.94
447.129	2053.94
447.35	2078.94
447.571	2074.94
447.792	1944.94
448.013	1961.94
448.234	2025.94
448.455	2104.94
448.675	2165.94
448.896	1944.94
449.117	1895.94
449.338	1960.94
449.559	2090.94
449.779	2196.94
450	2373.94
450.221	2596.94
450.442	2529.94
450.662	2170.94
450.883	1926.94
451.104	1874.94
451.324	1900.94
451.545	2021.94
451.766	2023.94
451.986	1878.94
452.207	1849.94
452.428	1779.94
452.648	1792.94
452.869	1863.94
453.089	1985.94
453.31	1983.94
453.53	2069.94
453.751	1972.94
453.971	1828.94
454.192	1863.94
454.412	2006.94
454.633	1949.94
454.853	1916.94
455.073	1794.94
455.294	1734.94
455.514	1763.94
455.734	1770.94
455.955	1845.94
456.175	1828.94
456.395	1810.94
456.616	1815.94
456.836	1910.94
457.056	1860.94
457.276	1862.94
457.497	1793.94
457.717	1683.94
457.937	1815.94
458.157	1843.94
458.377	1819.94
458.598	1813.94
458.818	1817.94
459.038	1955.94
459.258	2063.94
459.478	2002.94
459.698	1997.94
459.918	2036.94
460.138	2120.94
460.358	2186.94
460.578	2132.94
460.798	2244.94
461.018	2394.94
461.238	2216.94
461.458	2163.94
461.678	2221.94
461.898	2136.94
462.118	2023.94
462.338	2149.94
462.558	2184.94
462.777	2166.94
462.997	2276.94
463.217	2393.94
463.437	2379.94
463.657	2209.94
463.876	2185.94
464.096	2184.94
464.316	2171.94
464.536	2268.94
464.755	2246.94
464.975	2309.94
465.195	2214.94
465.414	2286.94
465.634	2339.94
465.854	2162.94
466.073	2335.94
466.293	2243.94
466.512	1974.94
466.732	2004.94
466.951	2061.94
467.171	2050.94
467.391	1964.94
467.61	1908.94
467.829	1975.94
468.049	2020.94
468.268	2341.94
468.488	2192.94
468.707	2083.94
468.927	2010.94
469.146	1997.94
469.365	1944.94
469.585	1970.94
469.804	1955.94
470.023	1964.94
470.243	2010.94
470.462	1993.94
470.681	1909.94
470.901	1992.94
471.12	1984.94
471.339	1971.94
471.558	1885.94
471.777	1870.94
471.997	1920.94
472.216	1971.94
472.435	1906.94
472.654	1935.94
472.873	2015.94
473.092	2146.94
473.311	2011.94
473.53	1891.94
473.749	1893.94
473.968	1936.94
474.187	2080.94
474.406	2169.94
474.625	1992.94
474.844	2002.94
475.063	1982.94
475.282	2058.94
475.501	1999.94
475.72	1976.94
475.939	2105.94
476.158	2044.94
476.377	1973.94
476.596	2018.94
476.814	2073.94
477.033	2087.94
477.252	2174.94
477.471	2180.94
477.69	2105.94
477.908	2114.94
478.127	2189.94
478.346	2370.94
478.564	2388.94
478.783	2349.94
479.002	2426.94
479.22	2395.94
479.439	2442.94
479.658	2822.94
479.876	2754.94
480.095	2382.94
480.313	2339.94
480.532	2207.94
480.751	2225.94
480.969	2316.94
481.188	2242.94
481.406	2238.94
481.624	2191.94
481.843	2213.94
482.061	2260.94
482.28	2294.94
482.498	2326.94
482.717	2312.94
482.935	2213.94
483.153	2200.94
483.372	2247.94
483.59	2204.94
483.808	2190.94
484.027	2224.94
484.245	2374.94
484.463	2698.94
484.681	3134.94
484.9	2462.94
485.118	2286.94
485.336	2243.94
485.554	2363.94
485.772	2464.94
485.99	2436.94
486.209	2414.94
486.427	2379.94
486.645	2373.94
486.863	2333.94
487.081	2399.94
487.299	2454.94
