Data from WStandard_LampEnergy10_LIBS07252019.E.O._I.C._HRD10591_15-53-01-928.txt Node
Date: Thu Jul 25 15:53:01 EDT 2019
User: cochatt
Spectrometer: HR+D1059
Trigger mode: 1
Integration Time (sec): 1.000000E-1
Scans to average: 1
Electric dark correction enabled: true
Nonlinearity correction enabled: false
Boxcar width: 0
XAxis mode: Wavelengths
Number of Pixels in Spectrum: 2048
>>>>>Begin Spectral Data<<<<<
223.165	-9.12
223.4	-9.12
223.635	-9.12
223.869	-5.12
224.104	-18.12
224.338	-26.12
224.573	-8.12
224.808	0.88
225.042	-11.12
225.277	-2.12
225.511	-3.12
225.746	12.88
225.98	-8.12
226.215	6.88
226.449	10.88
226.683	15.88
226.918	26.88
227.152	16.88
227.387	40.88
227.621	31.88
227.856	44.88
228.09	54.88
228.324	52.88
228.559	66.88
228.793	91.88
229.027	119.88
229.262	144.88
229.496	156.88
229.73	156.88
229.964	159.88
230.199	172.88
230.433	175.88
230.667	181.88
230.901	183.88
231.136	169.88
231.37	181.88
231.604	179.88
231.838	186.88
232.072	177.88
232.306	185.88
232.541	184.88
232.775	183.88
233.009	214.88
233.243	215.88
233.477	198.88
233.711	183.88
233.945	218.88
234.179	201.88
234.413	214.88
234.647	223.88
234.881	195.88
235.115	191.88
235.349	197.88
235.583	207.88
235.817	197.88
236.051	205.88
236.285	188.88
236.519	204.88
236.753	240.88
236.987	246.88
237.221	212.88
237.455	250.88
237.689	233.88
237.922	219.88
238.156	232.88
238.39	240.88
238.624	223.88
238.858	263.88
239.091	243.88
239.325	264.88
239.559	280.88
239.793	321.88
240.027	305.88
240.26	307.88
240.494	265.88
240.728	241.88
240.961	240.88
241.195	243.88
241.429	262.88
241.662	264.88
241.896	235.88
242.13	267.88
242.363	278.88
242.597	294.88
242.83	271.88
243.064	284.88
243.298	289.88
243.531	262.88
243.765	299.88
243.998	264.88
244.232	264.88
244.465	250.88
244.699	291.88
244.932	296.88
245.166	328.88
245.399	324.88
245.633	284.88
245.866	291.88
246.099	291.88
246.333	289.88
246.566	327.88
246.8	329.88
247.033	338.88
247.266	325.88
247.5	312.88
247.733	319.88
247.966	324.88
248.2	378.88
248.433	380.88
248.666	371.88
248.899	415.88
249.133	447.88
249.366	463.88
249.599	417.88
249.832	373.88
250.066	362.88
250.299	383.88
250.532	364.88
250.765	340.88
250.998	322.88
251.231	367.88
251.465	365.88
251.698	344.88
251.931	365.88
252.164	370.88
252.397	380.88
252.63	375.88
252.863	355.88
253.096	328.88
253.329	351.88
253.562	359.88
253.795	376.88
254.028	354.88
254.261	330.88
254.494	325.88
254.727	347.88
254.96	335.88
255.193	399.88
255.426	403.88
255.659	428.88
255.892	463.88
256.124	397.88
256.357	383.88
256.59	414.88
256.823	436.88
257.056	424.88
257.289	477.88
257.521	509.88
257.754	479.88
257.987	463.88
258.22	479.88
258.452	452.88
258.685	409.88
258.918	412.88
259.151	390.88
259.383	375.88
259.616	370.88
259.849	384.88
260.081	416.88
260.314	454.88
260.547	477.88
260.779	468.88
261.012	442.88
261.244	415.88
261.477	405.88
261.71	406.88
261.942	406.88
262.175	421.88
262.407	403.88
262.64	404.88
262.872	388.88
263.105	393.88
263.337	377.88
263.57	384.88
263.802	381.88
264.035	367.88
264.267	323.88
264.499	368.88
264.732	379.88
264.964	395.88
265.197	437.88
265.429	422.88
265.661	468.88
265.894	505.88
266.126	491.88
266.358	473.88
266.591	492.88
266.823	503.88
267.055	465.88
267.287	457.88
267.52	439.88
267.752	467.88
267.984	465.88
268.216	473.88
268.448	451.88
268.681	460.88
268.913	453.88
269.145	423.88
269.377	437.88
269.609	469.88
269.841	536.88
270.073	589.88
270.306	643.88
270.538	639.88
270.77	571.88
271.002	503.88
271.234	485.88
271.466	484.88
271.698	542.88
271.93	594.88
272.162	592.88
272.394	550.88
272.626	532.88
272.858	489.88
273.09	434.88
273.322	416.88
273.553	409.88
273.785	399.88
274.017	424.88
274.249	447.88
274.481	481.88
274.713	428.88
274.945	428.88
275.176	436.88
275.408	415.88
275.64	407.88
275.872	428.88
276.104	439.88
276.335	520.88
276.567	548.88
276.799	533.88
277.031	489.88
277.262	485.88
277.494	504.88
277.726	547.88
277.957	517.88
278.189	473.88
278.421	435.88
278.652	421.88
278.884	463.88
279.115	414.88
279.347	456.88
279.579	421.88
279.81	421.88
280.042	465.88
280.273	526.88
280.505	523.88
280.736	507.88
280.968	489.88
281.199	431.88
281.431	419.88
281.662	431.88
281.894	446.88
282.125	445.88
282.356	460.88
282.588	464.88
282.819	461.88
283.051	501.88
283.282	502.88
283.513	476.88
283.745	442.88
283.976	419.88
284.207	431.88
284.439	454.88
284.67	460.88
284.901	453.88
285.132	464.88
285.364	465.88
285.595	470.88
285.826	478.88
286.057	455.88
286.288	449.88
286.52	471.88
286.751	499.88
286.982	505.88
287.213	500.88
287.444	451.88
287.675	453.88
287.906	489.88
288.138	493.88
288.369	476.88
288.6	462.88
288.831	428.88
289.062	446.88
289.293	455.88
289.524	462.88
289.755	473.88
289.986	469.88
290.217	454.88
290.448	433.88
290.679	475.88
290.91	488.88
291.141	485.88
291.371	497.88
291.602	484.88
291.833	496.88
292.064	501.88
292.295	497.88
292.526	514.88
292.757	507.88
292.987	492.88
293.218	486.88
293.449	526.88
293.68	604.88
293.91	604.88
294.141	558.88
294.372	559.88
294.603	576.88
294.833	571.88
295.064	550.88
295.295	507.88
295.525	485.88
295.756	449.88
295.987	443.88
296.217	472.88
296.448	455.88
296.679	472.88
296.909	481.88
297.14	442.88
297.37	473.88
297.601	505.88
297.831	558.88
298.062	541.88
298.292	467.88
298.523	463.88
298.753	490.88
298.984	488.88
299.214	476.88
299.445	494.88
299.675	513.88
299.905	491.88
300.136	451.88
300.366	470.88
300.597	458.88
300.827	502.88
301.057	489.88
301.288	539.88
301.518	521.88
301.748	527.88
301.979	575.88
302.209	560.88
302.439	589.88
302.669	584.88
302.9	560.88
303.13	527.88
303.36	519.88
303.59	519.88
303.82	509.88
304.051	537.88
304.281	526.88
304.511	539.88
304.741	580.88
304.971	613.88
305.201	645.88
305.431	567.88
305.661	481.88
305.891	473.88
306.121	473.88
306.352	519.88
306.582	534.88
306.812	544.88
307.042	557.88
307.272	589.88
307.502	572.88
307.731	634.88
307.961	645.88
308.191	591.88
308.421	531.88
308.651	513.88
308.881	512.88
309.111	515.88
309.341	491.88
309.571	514.88
309.8	522.88
310.03	459.88
310.26	493.88
310.49	507.88
310.72	529.88
310.949	549.88
311.179	566.88
311.409	551.88
311.639	517.88
311.868	501.88
312.098	521.88
312.328	490.88
312.557	521.88
312.787	501.88
313.017	543.88
313.246	570.88
313.476	535.88
313.706	541.88
313.935	569.88
314.165	570.88
314.394	585.88
314.624	603.88
314.853	619.88
315.083	628.88
315.312	617.88
315.542	588.88
315.771	540.88
316.001	558.88
316.23	585.88
316.46	587.88
316.689	549.88
316.919	541.88
317.148	531.88
317.377	569.88
317.607	581.88
317.836	647.88
318.065	651.88
318.295	641.88
318.524	600.88
318.753	572.88
318.983	586.88
319.212	559.88
319.441	550.88
319.67	563.88
319.9	577.88
320.129	618.88
320.358	627.88
320.587	639.88
320.816	621.88
321.046	613.88
321.275	583.88
321.504	614.88
321.733	640.88
321.962	596.88
322.191	575.88
322.42	555.88
322.649	571.88
322.878	580.88
323.108	553.88
323.337	586.88
323.566	590.88
323.795	585.88
324.024	582.88
324.253	580.88
324.482	557.88
324.71	531.88
324.939	539.88
325.168	564.88
325.397	565.88
325.626	575.88
325.855	574.88
326.084	574.88
326.313	559.88
326.542	576.88
326.77	603.88
326.999	563.88
327.228	558.88
327.457	545.88
327.686	547.88
327.914	553.88
328.143	590.88
328.372	576.88
328.6	568.88
328.829	560.88
329.058	540.88
329.287	564.88
329.515	569.88
329.744	595.88
329.972	600.88
330.201	633.88
330.43	617.88
330.658	609.88
330.887	600.88
331.115	608.88
331.344	602.88
331.572	599.88
331.801	601.88
332.03	598.88
332.258	592.88
332.486	619.88
332.715	627.88
332.943	600.88
333.172	612.88
333.4	627.88
333.629	624.88
333.857	673.88
334.085	763.88
334.314	857.88
334.542	832.88
334.771	776.88
334.999	704.88
335.227	662.88
335.455	631.88
335.684	653.88
335.912	660.88
336.14	641.88
336.369	632.88
336.597	619.88
336.825	628.88
337.053	651.88
337.281	675.88
337.51	690.88
337.738	733.88
337.966	674.88
338.194	605.88
338.422	613.88
338.65	602.88
338.878	599.88
339.106	578.88
339.334	587.88
339.562	598.88
339.79	603.88
340.018	613.88
340.246	639.88
340.474	647.88
340.702	633.88
340.93	645.88
341.158	619.88
341.386	641.88
341.614	625.88
341.842	591.88
342.07	600.88
342.298	611.88
342.526	623.88
342.754	599.88
342.981	600.88
343.209	599.88
343.437	611.88
343.665	605.88
343.893	611.88
344.12	661.88
344.348	636.88
344.576	630.88
344.804	602.88
345.031	599.88
345.259	599.88
345.487	566.88
345.714	571.88
345.942	555.88
346.17	561.88
346.397	561.88
346.625	577.88
346.853	560.88
347.08	548.88
347.308	535.88
347.535	592.88
347.763	576.88
347.99	585.88
348.218	564.88
348.445	579.88
348.673	612.88
348.9	600.88
349.128	606.88
349.355	622.88
349.583	608.88
349.81	560.88
350.037	548.88
350.265	541.88
350.492	540.88
350.72	567.88
350.947	571.88
351.174	578.88
351.402	549.88
351.629	561.88
351.856	523.88
352.083	537.88
352.311	537.88
352.538	555.88
352.765	593.88
352.992	579.88
353.22	557.88
353.447	555.88
353.674	576.88
353.901	583.88
354.128	558.88
354.355	539.88
354.583	611.88
354.81	604.88
355.037	601.88
355.264	574.88
355.491	557.88
355.718	561.88
355.945	576.88
356.172	532.88
356.399	551.88
356.626	575.88
356.853	611.88
357.08	656.88
357.307	685.88
357.534	641.88
357.761	588.88
357.988	541.88
358.215	529.88
358.441	528.88
358.668	546.88
358.895	560.88
359.122	575.88
359.349	651.88
359.576	637.88
359.802	568.88
360.029	569.88
360.256	559.88
360.483	566.88
360.709	574.88
360.936	623.88
361.163	653.88
361.39	694.88
361.616	720.88
361.843	720.88
362.07	637.88
362.296	571.88
362.523	571.88
362.749	592.88
362.976	606.88
363.203	593.88
363.429	587.88
363.656	564.88
363.882	593.88
364.109	657.88
364.335	660.88
364.562	655.88
364.788	631.88
365.015	605.88
365.241	577.88
365.468	595.88
365.694	591.88
365.92	639.88
366.147	585.88
366.373	573.88
366.599	570.88
366.826	570.88
367.052	567.88
367.278	577.88
367.505	598.88
367.731	600.88
367.957	610.88
368.184	645.88
368.41	649.88
368.636	680.88
368.862	680.88
369.089	689.88
369.315	646.88
369.541	609.88
369.767	618.88
369.993	605.88
370.219	604.88
370.445	608.88
370.672	662.88
370.898	699.88
371.124	667.88
371.35	636.88
371.576	660.88
371.802	661.88
372.028	672.88
372.254	645.88
372.48	605.88
372.706	597.88
372.932	593.88
373.158	620.88
373.384	649.88
373.61	654.88
373.835	659.88
374.061	667.88
374.287	632.88
374.513	632.88
374.739	634.88
374.965	663.88
375.191	645.88
375.416	657.88
375.642	677.88
375.868	741.88
376.094	727.88
376.319	680.88
376.545	647.88
376.771	687.88
376.997	711.88
377.222	692.88
377.448	697.88
377.674	697.88
377.899	697.88
378.125	713.88
378.35	708.88
378.576	645.88
378.802	649.88
379.027	634.88
379.253	651.88
379.478	665.88
379.704	639.88
379.929	660.88
380.155	657.88
380.38	647.88
380.606	663.88
380.831	687.88
381.057	731.88
381.282	698.88
381.507	703.88
381.733	745.88
381.958	729.88
382.184	675.88
382.409	693.88
382.634	687.88
382.86	682.88
383.085	704.88
383.31	735.88
383.535	832.88
383.761	819.88
383.986	767.88
384.211	757.88
384.436	763.88
384.662	777.88
384.887	768.88
385.112	745.88
385.337	756.88
385.562	760.88
385.787	731.88
386.013	789.88
386.238	755.88
386.463	781.88
386.688	861.88
386.913	870.88
387.138	837.88
387.363	785.88
387.588	788.88
387.813	773.88
388.038	807.88
388.263	836.88
388.488	768.88
388.713	761.88
388.938	741.88
389.163	749.88
389.387	749.88
389.612	748.88
389.837	771.88
390.062	771.88
390.287	784.88
390.512	773.88
390.736	747.88
390.961	750.88
391.186	757.88
391.411	756.88
391.636	765.88
391.86	756.88
392.085	764.88
392.31	779.88
392.534	762.88
392.759	775.88
392.984	793.88
393.208	770.88
393.433	821.88
393.658	823.88
393.882	825.88
394.107	797.88
394.331	757.88
394.556	778.88
394.78	805.88
395.005	804.88
395.229	839.88
395.454	888.88
395.678	905.88
395.903	821.88
396.127	819.88
396.352	825.88
396.576	857.88
396.801	858.88
397.025	844.88
397.249	838.88
397.474	837.88
397.698	816.88
397.922	880.88
398.147	893.88
398.371	923.88
398.595	899.88
398.82	894.88
399.044	905.88
399.268	933.88
399.492	996.88
399.717	1000.88
399.941	1029.88
400.165	975.88
400.389	981.88
400.613	1002.88
400.837	1146.88
401.062	1183.88
401.286	1057.88
401.51	985.88
401.734	1004.88
401.958	953.88
402.182	897.88
402.406	898.88
402.63	885.88
402.854	915.88
403.078	915.88
403.302	916.88
403.526	909.88
403.75	923.88
403.974	961.88
404.198	951.88
404.422	1004.88
404.645	1023.88
404.869	963.88
405.093	900.88
405.317	904.88
405.541	915.88
405.765	928.88
405.988	931.88
406.212	940.88
406.436	983.88
406.66	1039.88
406.883	1036.88
407.107	1156.88
407.331	1245.88
407.555	1271.88
407.778	1109.88
408.002	993.88
408.226	975.88
408.449	962.88
408.673	958.88
408.896	970.88
409.12	980.88
409.344	982.88
409.567	918.88
409.791	960.88
410.014	995.88
410.238	1019.88
410.461	1064.88
410.685	969.88
410.908	950.88
411.132	973.88
411.355	939.88
411.578	951.88
411.802	942.88
412.025	976.88
412.249	911.88
412.472	891.88
412.695	934.88
412.919	924.88
413.142	926.88
413.365	949.88
413.589	959.88
413.812	1011.88
414.035	1025.88
414.258	956.88
414.482	944.88
414.705	977.88
414.928	908.88
415.151	921.88
415.374	926.88
415.597	951.88
415.821	931.88
416.044	955.88
416.267	961.88
416.49	938.88
416.713	919.88
416.936	977.88
417.159	1002.88
417.382	999.88
417.605	932.88
417.828	949.88
418.051	977.88
418.274	964.88
418.497	908.88
418.72	963.88
418.943	910.88
419.166	957.88
419.389	977.88
419.611	949.88
419.834	954.88
420.057	971.88
420.28	965.88
420.503	988.88
420.726	997.88
420.948	968.88
421.171	934.88
421.394	960.88
421.617	961.88
421.839	1029.88
422.062	998.88
422.285	948.88
422.507	985.88
422.73	916.88
422.953	921.88
423.175	911.88
423.398	931.88
423.621	919.88
423.843	913.88
424.066	999.88
424.288	1034.88
424.511	1052.88
424.733	1019.88
424.956	939.88
425.178	931.88
425.401	916.88
425.623	981.88
425.846	953.88
426.068	983.88
426.291	995.88
426.513	963.88
426.735	951.88
426.958	1056.88
427.18	1079.88
427.402	1023.88
427.625	1052.88
427.847	1007.88
428.069	959.88
428.292	933.88
428.514	919.88
428.736	893.88
428.958	909.88
429.181	934.88
429.403	1101.88
429.625	1233.88
429.847	1063.88
430.069	972.88
430.292	1067.88
430.514	1053.88
430.736	990.88
430.958	991.88
431.18	952.88
431.402	883.88
431.624	854.88
431.846	831.88
432.068	750.88
432.29	759.88
432.512	799.88
432.734	895.88
432.956	936.88
433.178	975.88
433.4	967.88
433.622	952.88
433.844	908.88
434.066	847.88
434.287	811.88
434.509	797.88
434.731	831.88
434.953	915.88
435.175	938.88
435.397	913.88
435.618	891.88
435.84	837.88
436.062	888.88
436.284	919.88
436.505	955.88
436.727	986.88
436.949	930.88
437.17	912.88
437.392	931.88
437.614	870.88
437.835	825.88
438.057	816.88
438.278	835.88
438.5	866.88
438.721	888.88
438.943	937.88
439.165	936.88
439.386	936.88
439.608	975.88
439.829	955.88
440.05	958.88
440.272	1004.88
440.493	992.88
440.715	1000.88
440.936	1033.88
441.158	1093.88
441.379	1071.88
441.6	1047.88
441.822	1054.88
442.043	1040.88
442.264	1032.88
442.486	970.88
442.707	959.88
442.928	997.88
443.149	1007.88
443.371	1027.88
443.592	1038.88
443.813	1032.88
444.034	1041.88
444.255	1022.88
444.476	1038.88
444.698	1076.88
444.919	1041.88
445.14	1174.88
445.361	1114.88
445.582	1100.88
445.803	1064.88
446.024	1078.88
446.245	1077.88
446.466	1060.88
446.687	1035.88
446.908	1078.88
447.129	1041.88
447.35	1037.88
447.571	1032.88
447.792	953.88
448.013	944.88
448.234	993.88
448.455	976.88
448.675	1021.88
448.896	956.88
449.117	919.88
449.338	949.88
449.559	965.88
449.779	995.88
450	1025.88
450.221	1061.88
450.442	1036.88
450.662	944.88
450.883	910.88
451.104	874.88
451.324	902.88
451.545	907.88
451.766	889.88
451.986	840.88
452.207	833.88
452.428	799.88
452.648	797.88
452.869	795.88
453.089	800.88
453.31	780.88
453.53	803.88
453.751	765.88
453.971	709.88
454.192	757.88
454.412	776.88
454.633	786.88
454.853	808.88
455.073	760.88
455.294	773.88
455.514	789.88
455.734	776.88
455.955	763.88
456.175	750.88
456.395	733.88
456.616	743.88
456.836	748.88
457.056	757.88
457.276	739.88
457.497	699.88
457.717	702.88
457.937	711.88
458.157	729.88
458.377	717.88
458.598	675.88
458.818	671.88
459.038	710.88
459.258	713.88
459.478	721.88
459.698	717.88
459.918	741.88
460.138	800.88
460.358	843.88
460.578	838.88
460.798	872.88
461.018	896.88
461.238	892.88
461.458	875.88
461.678	838.88
461.898	804.88
462.118	805.88
462.338	866.88
462.558	847.88
462.777	866.88
462.997	878.88
463.217	910.88
463.437	867.88
463.657	864.88
463.876	849.88
464.096	836.88
464.316	865.88
464.536	874.88
464.755	921.88
464.975	885.88
465.195	873.88
465.414	893.88
465.634	869.88
465.854	915.88
466.073	960.88
466.293	969.88
466.512	881.88
466.732	879.88
466.951	927.88
467.171	903.88
467.391	885.88
467.61	896.88
467.829	903.88
468.049	989.88
468.268	1045.88
468.488	1000.88
468.707	948.88
468.927	921.88
469.146	925.88
469.365	903.88
469.585	934.88
469.804	952.88
470.023	936.88
470.243	940.88
470.462	957.88
470.681	940.88
470.901	959.88
471.12	943.88
471.339	965.88
471.558	933.88
471.777	918.88
471.997	918.88
472.216	877.88
472.435	804.88
472.654	790.88
472.873	793.88
473.092	861.88
473.311	843.88
473.53	834.88
473.749	831.88
473.968	844.88
474.187	849.88
474.406	857.88
474.625	889.88
474.844	880.88
475.063	891.88
475.282	894.88
475.501	853.88
475.72	844.88
475.939	897.88
476.158	889.88
476.377	865.88
476.596	859.88
476.814	832.88
477.033	838.88
477.252	860.88
477.471	915.88
477.69	931.88
477.908	952.88
478.127	996.88
478.346	1023.88
478.564	1013.88
478.783	1006.88
479.002	1047.88
479.22	1018.88
479.439	1038.88
479.658	1050.88
479.876	1016.88
480.095	930.88
480.313	908.88
480.532	886.88
480.751	867.88
480.969	842.88
481.188	828.88
481.406	800.88
481.624	765.88
481.843	800.88
482.061	839.88
482.28	897.88
482.498	901.88
482.717	883.88
482.935	897.88
483.153	995.88
483.372	1036.88
483.59	1029.88
483.808	990.88
484.027	1017.88
484.245	1005.88
484.463	1246.88
484.681	1306.88
484.9	1017.88
485.118	971.88
485.336	947.88
485.554	926.88
485.772	885.88
485.99	884.88
486.209	907.88
486.427	922.88
486.645	960.88
486.863	1032.88
487.081	1065.88
487.299	997.88
487.517	1035.88
487.735	1141.88
487.953	1205.88
488.171	1228.88
488.389	1168.88
488.607	1127.88
488.825	1163.88
489.043	1079.88
489.261	1007.88
489.479	1059.88
489.696	1087.88
489.914	1088.88
490.132	1059.88
490.35	1115.88
490.568	1180.88
490.786	1192.88
491.003	1231.88
491.221	1258.88
491.439	1268.88
491.657	1308.88
491.874	1381.88
492.092	1473.88
492.31	1549.88
492.527	1494.88
492.745	1405.88
492.963	1340.88
493.18	1368.88
493.398	1357.88
493.615	1327.88
493.833	1278.88
494.05	1241.88
494.268	1235.88
494.485	1256.88
494.703	1252.88
494.92	1236.88
495.138	1238.88
495.355	1247.88
495.573	1295.88
495.79	1331.88
496.008	1303.88
496.225	1253.88
496.442	1250.88
496.66	1253.88
496.877	1229.88
497.094	1261.88
497.312	1217.88
497.529	1239.88
497.746	1194.88
497.963	1316.88
498.181	1322.88
498.398	1282.88
498.615	1182.88
498.832	1152.88
499.049	1166.88
499.267	1179.88
499.484	1280.88
499.701	1345.88
499.918	1405.88
500.135	1474.88
