Data from WStandard_LampEnergy10_LIBS07252019.E.O._I.C._HRD10591_15-55-51-929.txt Node
Date: Thu Jul 25 15:55:51 EDT 2019
User: cochatt
Spectrometer: HR+D1059
Trigger mode: 1
Integration Time (sec): 1.000000E-1
Scans to average: 1
Electric dark correction enabled: true
Nonlinearity correction enabled: false
Boxcar width: 0
XAxis mode: Wavelengths
Number of Pixels in Spectrum: 2048
>>>>>Begin Spectral Data<<<<<
223.165	-27.25
223.4	-27.25
223.635	-27.25
223.869	-16.25
224.104	-18.25
224.338	-19.25
224.573	-0.25
224.808	-4.25
225.042	-11.25
225.277	-21.25
225.511	-2.25
225.746	0.75
225.98	13.75
226.215	15.75
226.449	7.75
226.683	17.75
226.918	26.75
227.152	37.75
227.387	36.75
227.621	31.75
227.856	45.75
228.09	35.75
228.324	40.75
228.559	53.75
228.793	62.75
229.027	127.75
229.262	145.75
229.496	148.75
229.73	157.75
229.964	175.75
230.199	162.75
230.433	168.75
230.667	199.75
230.901	179.75
231.136	164.75
231.37	189.75
231.604	166.75
231.838	183.75
232.072	177.75
232.306	163.75
232.541	179.75
232.775	200.75
233.009	201.75
233.243	195.75
233.477	209.75
233.711	182.75
233.945	185.75
234.179	200.75
234.413	186.75
234.647	220.75
234.881	203.75
235.115	182.75
235.349	184.75
235.583	204.75
235.817	184.75
236.051	214.75
236.285	180.75
236.519	203.75
236.753	221.75
236.987	248.75
237.221	225.75
237.455	236.75
237.689	225.75
237.922	206.75
238.156	215.75
238.39	229.75
238.624	226.75
238.858	221.75
239.091	241.75
239.325	257.75
239.559	306.75
239.793	310.75
240.027	321.75
240.26	293.75
240.494	233.75
240.728	227.75
240.961	222.75
241.195	241.75
241.429	279.75
241.662	267.75
241.896	240.75
242.13	255.75
242.363	275.75
242.597	282.75
242.83	257.75
243.064	273.75
243.298	285.75
243.531	284.75
243.765	277.75
243.998	277.75
244.232	270.75
244.465	272.75
244.699	247.75
244.932	273.75
245.166	307.75
245.399	298.75
245.633	273.75
245.866	298.75
246.099	277.75
246.333	291.75
246.566	312.75
246.8	331.75
247.033	347.75
247.266	341.75
247.5	326.75
247.733	315.75
247.966	316.75
248.2	352.75
248.433	347.75
248.666	365.75
248.899	398.75
249.133	440.75
249.366	467.75
249.599	403.75
249.832	365.75
250.066	365.75
250.299	343.75
250.532	349.75
250.765	334.75
250.998	337.75
251.231	355.75
251.465	355.75
251.698	338.75
251.931	335.75
252.164	349.75
252.397	339.75
252.63	373.75
252.863	324.75
253.096	322.75
253.329	353.75
253.562	342.75
253.795	362.75
254.028	365.75
254.261	351.75
254.494	340.75
254.727	353.75
254.96	352.75
255.193	381.75
255.426	389.75
255.659	448.75
255.892	460.75
256.124	402.75
256.357	369.75
256.59	401.75
256.823	410.75
257.056	410.75
257.289	482.75
257.521	483.75
257.754	456.75
257.987	459.75
258.22	482.75
258.452	456.75
258.685	405.75
258.918	377.75
259.151	391.75
259.383	372.75
259.616	360.75
259.849	376.75
260.081	417.75
260.314	431.75
260.547	480.75
260.779	482.75
261.012	445.75
261.244	411.75
261.477	380.75
261.71	402.75
261.942	394.75
262.175	405.75
262.407	419.75
262.64	396.75
262.872	380.75
263.105	371.75
263.337	383.75
263.57	374.75
263.802	379.75
264.035	352.75
264.267	339.75
264.499	340.75
264.732	363.75
264.964	406.75
265.197	379.75
265.429	419.75
265.661	457.75
265.894	500.75
266.126	493.75
266.358	452.75
266.591	445.75
266.823	464.75
267.055	440.75
267.287	455.75
267.52	436.75
267.752	423.75
267.984	435.75
268.216	480.75
268.448	466.75
268.681	426.75
268.913	438.75
269.145	435.75
269.377	416.75
269.609	439.75
269.841	515.75
270.073	592.75
270.306	619.75
270.538	635.75
270.77	537.75
271.002	490.75
271.234	462.75
271.466	484.75
271.698	552.75
271.93	591.75
272.162	587.75
272.394	539.75
272.626	491.75
272.858	462.75
273.09	418.75
273.322	416.75
273.553	381.75
273.785	405.75
274.017	411.75
274.249	428.75
274.481	444.75
274.713	411.75
274.945	411.75
275.176	413.75
275.408	405.75
275.64	393.75
275.872	412.75
276.104	438.75
276.335	510.75
276.567	534.75
276.799	548.75
277.031	469.75
277.262	483.75
277.494	501.75
277.726	545.75
277.957	482.75
278.189	486.75
278.421	439.75
278.652	447.75
278.884	435.75
279.115	437.75
279.347	431.75
279.579	425.75
279.81	425.75
280.042	480.75
280.273	505.75
280.505	522.75
280.736	505.75
280.968	480.75
281.199	437.75
281.431	419.75
281.662	425.75
281.894	424.75
282.125	450.75
282.356	451.75
282.588	464.75
282.819	473.75
283.051	495.75
283.282	497.75
283.513	505.75
283.745	455.75
283.976	437.75
284.207	427.75
284.439	415.75
284.67	453.75
284.901	458.75
285.132	458.75
285.364	440.75
285.595	443.75
285.826	453.75
286.057	450.75
286.288	433.75
286.52	459.75
286.751	503.75
286.982	488.75
287.213	449.75
287.444	402.75
287.675	429.75
287.906	483.75
288.138	480.75
288.369	488.75
288.6	465.75
288.831	442.75
289.062	422.75
289.293	457.75
289.524	455.75
289.755	473.75
289.986	475.75
290.217	436.75
290.448	448.75
290.679	458.75
290.91	463.75
291.141	471.75
291.371	489.75
291.602	491.75
291.833	483.75
292.064	487.75
292.295	517.75
292.526	488.75
292.757	499.75
292.987	490.75
293.218	479.75
293.449	545.75
293.68	586.75
293.91	600.75
294.141	544.75
294.372	536.75
294.603	557.75
294.833	571.75
295.064	541.75
295.295	480.75
295.525	480.75
295.756	463.75
295.987	445.75
296.217	438.75
296.448	459.75
296.679	461.75
296.909	456.75
297.14	466.75
297.37	474.75
297.601	501.75
297.831	536.75
298.062	519.75
298.292	482.75
298.523	466.75
298.753	474.75
298.984	485.75
299.214	480.75
299.445	515.75
299.675	493.75
299.905	465.75
300.136	480.75
300.366	476.75
300.597	473.75
300.827	477.75
301.057	502.75
301.288	495.75
301.518	526.75
301.748	519.75
301.979	560.75
302.209	563.75
302.439	565.75
302.669	602.75
302.9	541.75
303.13	521.75
303.36	523.75
303.59	540.75
303.82	527.75
304.051	527.75
304.281	527.75
304.511	535.75
304.741	546.75
304.971	605.75
305.201	616.75
305.431	561.75
305.661	479.75
305.891	447.75
306.121	473.75
306.352	500.75
306.582	514.75
306.812	552.75
307.042	579.75
307.272	593.75
307.502	601.75
307.731	634.75
307.961	619.75
308.191	556.75
308.421	529.75
308.651	485.75
308.881	490.75
309.111	489.75
309.341	489.75
309.571	492.75
309.8	473.75
310.03	493.75
310.26	478.75
310.49	502.75
310.72	496.75
310.949	529.75
311.179	523.75
311.409	521.75
311.639	519.75
311.868	499.75
312.098	513.75
312.328	503.75
312.557	497.75
312.787	502.75
313.017	516.75
313.246	511.75
313.476	508.75
313.706	533.75
313.935	538.75
314.165	569.75
314.394	551.75
314.624	574.75
314.853	599.75
315.083	631.75
315.312	586.75
315.542	571.75
315.771	545.75
316.001	519.75
316.23	583.75
316.46	562.75
316.689	554.75
316.919	556.75
317.148	508.75
317.377	537.75
317.607	594.75
317.836	647.75
318.065	645.75
318.295	618.75
318.524	594.75
318.753	572.75
318.983	560.75
319.212	567.75
319.441	547.75
319.67	539.75
319.9	575.75
320.129	587.75
320.358	609.75
320.587	613.75
320.816	614.75
321.046	614.75
321.275	582.75
321.504	594.75
321.733	639.75
321.962	593.75
322.191	568.75
322.42	565.75
322.649	546.75
322.878	553.75
323.108	588.75
323.337	583.75
323.566	572.75
323.795	591.75
324.024	561.75
324.253	539.75
324.482	569.75
324.71	519.75
324.939	504.75
325.168	547.75
325.397	551.75
325.626	575.75
325.855	561.75
326.084	557.75
326.313	564.75
326.542	570.75
326.77	600.75
326.999	555.75
327.228	559.75
327.457	515.75
327.686	532.75
327.914	549.75
328.143	572.75
328.372	555.75
328.6	567.75
328.829	561.75
329.058	533.75
329.287	565.75
329.515	582.75
329.744	606.75
329.972	618.75
330.201	600.75
330.43	613.75
330.658	583.75
330.887	585.75
331.115	588.75
331.344	610.75
331.572	586.75
331.801	579.75
332.03	608.75
332.258	606.75
332.486	627.75
332.715	605.75
332.943	613.75
333.172	601.75
333.4	598.75
333.629	609.75
333.857	655.75
334.085	764.75
334.314	799.75
334.542	825.75
334.771	754.75
334.999	687.75
335.227	647.75
335.455	624.75
335.684	639.75
335.912	669.75
336.14	667.75
336.369	631.75
336.597	604.75
336.825	579.75
337.053	634.75
337.281	670.75
337.51	709.75
337.738	695.75
337.966	625.75
338.194	608.75
338.422	598.75
338.65	573.75
338.878	598.75
339.106	569.75
339.334	553.75
339.562	577.75
339.79	601.75
340.018	631.75
340.246	625.75
340.474	623.75
340.702	613.75
340.93	645.75
341.158	603.75
341.386	601.75
341.614	596.75
341.842	592.75
342.07	615.75
342.298	601.75
342.526	598.75
342.754	593.75
342.981	588.75
343.209	597.75
343.437	615.75
343.665	592.75
343.893	623.75
344.12	636.75
344.348	613.75
344.576	609.75
344.804	583.75
345.031	570.75
345.259	590.75
345.487	550.75
345.714	560.75
345.942	550.75
346.17	565.75
346.397	563.75
346.625	547.75
346.853	529.75
347.08	535.75
347.308	547.75
347.535	587.75
347.763	552.75
347.99	561.75
348.218	574.75
348.445	572.75
348.673	563.75
348.9	618.75
349.128	621.75
349.355	609.75
349.583	601.75
349.81	554.75
350.037	546.75
350.265	535.75
350.492	539.75
350.72	563.75
350.947	572.75
351.174	600.75
351.402	541.75
351.629	517.75
351.856	539.75
352.083	509.75
352.311	543.75
352.538	549.75
352.765	572.75
352.992	581.75
353.22	569.75
353.447	571.75
353.674	547.75
353.901	564.75
354.128	546.75
354.355	548.75
354.583	568.75
354.81	568.75
355.037	582.75
355.264	597.75
355.491	577.75
355.718	544.75
355.945	544.75
356.172	543.75
356.399	544.75
356.626	554.75
356.853	590.75
357.08	628.75
357.307	700.75
357.534	657.75
357.761	568.75
357.988	550.75
358.215	516.75
358.441	532.75
358.668	529.75
358.895	565.75
359.122	604.75
359.349	660.75
359.576	581.75
359.802	568.75
360.029	548.75
360.256	541.75
360.483	572.75
360.709	547.75
360.936	595.75
361.163	621.75
361.39	687.75
361.616	732.75
361.843	707.75
362.07	664.75
362.296	575.75
362.523	571.75
362.749	583.75
362.976	586.75
363.203	597.75
363.429	583.75
363.656	571.75
363.882	581.75
364.109	658.75
364.335	673.75
364.562	613.75
364.788	608.75
365.015	598.75
365.241	582.75
365.468	584.75
365.694	609.75
365.92	647.75
366.147	604.75
366.373	570.75
366.599	565.75
366.826	554.75
367.052	557.75
367.278	561.75
367.505	584.75
367.731	590.75
367.957	603.75
368.184	630.75
368.41	655.75
368.636	644.75
368.862	665.75
369.089	658.75
369.315	639.75
369.541	628.75
369.767	607.75
369.993	592.75
370.219	599.75
370.445	609.75
370.672	651.75
370.898	673.75
371.124	660.75
371.35	633.75
371.576	668.75
371.802	660.75
372.028	648.75
372.254	617.75
372.48	602.75
372.706	614.75
372.932	593.75
373.158	619.75
373.384	645.75
373.61	659.75
373.835	644.75
374.061	633.75
374.287	601.75
374.513	629.75
374.739	629.75
374.965	646.75
375.191	626.75
375.416	644.75
375.642	674.75
375.868	714.75
376.094	706.75
376.319	672.75
376.545	650.75
376.771	657.75
376.997	679.75
377.222	675.75
377.448	661.75
377.674	666.75
377.899	665.75
378.125	719.75
378.35	715.75
378.576	623.75
378.802	613.75
379.027	646.75
379.253	645.75
379.478	639.75
379.704	649.75
379.929	629.75
380.155	637.75
380.38	647.75
380.606	660.75
380.831	672.75
381.057	681.75
381.282	689.75
381.507	704.75
381.733	764.75
381.958	753.75
382.184	699.75
382.409	671.75
382.634	694.75
382.86	684.75
383.085	687.75
383.31	736.75
383.535	770.75
383.761	789.75
383.986	754.75
384.211	740.75
384.436	725.75
384.662	775.75
384.887	789.75
385.112	724.75
385.337	705.75
385.562	726.75
385.787	737.75
386.013	747.75
386.238	748.75
386.463	771.75
386.688	805.75
386.913	879.75
387.138	844.75
387.363	768.75
387.588	761.75
387.813	738.75
388.038	771.75
388.263	792.75
388.488	759.75
388.713	730.75
388.938	710.75
389.163	716.75
389.387	730.75
389.612	743.75
389.837	757.75
390.062	730.75
390.287	758.75
390.512	750.75
390.736	743.75
390.961	725.75
391.186	717.75
391.411	760.75
391.636	764.75
391.86	759.75
392.085	752.75
392.31	768.75
392.534	745.75
392.759	790.75
392.984	767.75
393.208	774.75
393.433	787.75
393.658	831.75
393.882	833.75
394.107	789.75
394.331	773.75
394.556	780.75
394.78	792.75
395.005	816.75
395.229	830.75
395.454	848.75
395.678	858.75
395.903	850.75
396.127	811.75
396.352	819.75
396.576	844.75
396.801	845.75
397.025	861.75
397.249	821.75
397.474	848.75
397.698	820.75
397.922	880.75
398.147	909.75
398.371	932.75
398.595	898.75
398.82	820.75
399.044	889.75
399.268	923.75
399.492	946.75
399.717	984.75
399.941	1002.75
400.165	977.75
400.389	926.75
400.613	950.75
400.837	1165.75
401.062	1196.75
401.286	1043.75
401.51	988.75
401.734	997.75
401.958	915.75
402.182	890.75
402.406	857.75
402.63	865.75
402.854	872.75
403.078	888.75
403.302	913.75
403.526	935.75
403.75	921.75
403.974	919.75
404.198	962.75
404.422	977.75
404.645	988.75
404.869	959.75
405.093	905.75
405.317	889.75
405.541	895.75
405.765	921.75
405.988	961.75
406.212	968.75
406.436	950.75
406.66	980.75
406.883	1009.75
407.107	1115.75
407.331	1201.75
407.555	1280.75
407.778	1139.75
408.002	987.75
408.226	968.75
408.449	971.75
408.673	923.75
408.896	922.75
409.12	985.75
409.344	936.75
409.567	923.75
409.791	925.75
410.014	941.75
410.238	1022.75
410.461	1071.75
410.685	954.75
410.908	963.75
411.132	952.75
411.355	934.75
411.578	914.75
411.802	934.75
412.025	927.75
412.249	947.75
412.472	901.75
412.695	900.75
412.919	907.75
413.142	898.75
413.365	925.75
413.589	967.75
413.812	1005.75
414.035	1007.75
414.258	913.75
414.482	923.75
414.705	904.75
414.928	908.75
415.151	897.75
415.374	933.75
415.597	967.75
415.821	957.75
416.044	939.75
416.267	946.75
416.49	891.75
416.713	905.75
416.936	951.75
417.159	965.75
417.382	965.75
417.605	938.75
417.828	939.75
418.051	954.75
418.274	955.75
418.497	936.75
418.72	937.75
418.943	916.75
419.166	945.75
419.389	983.75
419.611	960.75
419.834	957.75
420.057	940.75
420.28	917.75
420.503	903.75
420.726	948.75
420.948	957.75
421.171	947.75
421.394	966.75
421.617	965.75
421.839	972.75
422.062	967.75
422.285	926.75
422.507	943.75
422.73	872.75
422.953	889.75
423.175	888.75
423.398	935.75
423.621	904.75
423.843	940.75
424.066	972.75
424.288	1042.75
424.511	1054.75
424.733	999.75
424.956	919.75
425.178	929.75
425.401	925.75
425.623	939.75
425.846	948.75
426.068	958.75
426.291	991.75
426.513	939.75
426.735	955.75
426.958	1052.75
427.18	1045.75
427.402	990.75
427.625	1017.75
427.847	963.75
428.069	932.75
428.292	911.75
428.514	886.75
428.736	896.75
428.958	918.75
429.181	927.75
429.403	1092.75
429.625	1250.75
429.847	1034.75
430.069	949.75
430.292	1067.75
430.514	1036.75
430.736	986.75
430.958	967.75
431.18	898.75
431.402	883.75
431.624	848.75
431.846	823.75
432.068	747.75
432.29	721.75
432.512	771.75
432.734	889.75
432.956	914.75
433.178	979.75
433.4	957.75
433.622	973.75
433.844	919.75
434.066	851.75
434.287	801.75
434.509	785.75
434.731	833.75
434.953	909.75
435.175	934.75
435.397	911.75
435.618	838.75
435.84	839.75
436.062	840.75
436.284	892.75
436.505	906.75
436.727	957.75
436.949	938.75
437.17	891.75
437.392	875.75
437.614	887.75
437.835	812.75
438.057	828.75
438.278	823.75
438.5	848.75
438.721	894.75
438.943	923.75
439.165	906.75
439.386	897.75
439.608	924.75
439.829	943.75
440.05	924.75
440.272	931.75
440.493	938.75
440.715	966.75
440.936	1011.75
441.158	1065.75
441.379	1070.75
441.6	1049.75
441.822	1011.75
442.043	980.75
442.264	1001.75
442.486	964.75
442.707	927.75
442.928	957.75
443.149	955.75
443.371	1022.75
443.592	1013.75
443.813	1033.75
444.034	1019.75
444.255	1034.75
444.476	1019.75
444.698	1036.75
444.919	1030.75
445.14	1108.75
445.361	1063.75
445.582	1075.75
445.803	1067.75
446.024	1029.75
446.245	1067.75
446.466	1053.75
446.687	1036.75
446.908	1062.75
447.129	1017.75
447.35	989.75
447.571	1006.75
447.792	944.75
448.013	939.75
448.234	969.75
448.455	1009.75
448.675	968.75
448.896	908.75
449.117	935.75
449.338	922.75
449.559	981.75
449.779	983.75
450	1023.75
450.221	1031.75
450.442	1003.75
450.662	955.75
450.883	864.75
451.104	868.75
451.324	875.75
451.545	864.75
451.766	842.75
451.986	832.75
452.207	820.75
452.428	789.75
452.648	792.75
452.869	807.75
453.089	799.75
453.31	780.75
453.53	767.75
453.751	726.75
453.971	693.75
454.192	710.75
454.412	789.75
454.633	773.75
454.853	782.75
455.073	749.75
455.294	778.75
455.514	766.75
455.734	768.75
455.955	759.75
456.175	756.75
456.395	726.75
456.616	746.75
456.836	725.75
457.056	722.75
457.276	724.75
457.497	690.75
457.717	681.75
457.937	702.75
458.157	735.75
458.377	703.75
458.598	676.75
458.818	675.75
459.038	703.75
459.258	727.75
459.478	714.75
459.698	714.75
459.918	760.75
460.138	787.75
460.358	844.75
460.578	845.75
460.798	866.75
461.018	869.75
461.238	902.75
461.458	856.75
461.678	838.75
461.898	817.75
462.118	815.75
462.338	839.75
462.558	842.75
462.777	818.75
462.997	862.75
463.217	899.75
463.437	866.75
463.657	825.75
463.876	849.75
464.096	857.75
464.316	837.75
464.536	879.75
464.755	890.75
464.975	858.75
465.195	837.75
465.414	889.75
465.634	867.75
465.854	899.75
466.073	949.75
466.293	937.75
466.512	902.75
466.732	874.75
466.951	880.75
467.171	895.75
467.391	890.75
467.61	857.75
467.829	900.75
468.049	973.75
468.268	1032.75
468.488	956.75
468.707	924.75
468.927	897.75
469.146	900.75
469.365	921.75
469.585	937.75
469.804	905.75
470.023	914.75
470.243	945.75
470.462	929.75
470.681	935.75
470.901	928.75
471.12	917.75
471.339	933.75
471.558	903.75
471.777	898.75
471.997	871.75
472.216	831.75
472.435	764.75
472.654	746.75
472.873	787.75
473.092	810.75
473.311	803.75
473.53	807.75
473.749	796.75
473.968	841.75
474.187	833.75
474.406	843.75
474.625	849.75
474.844	895.75
475.063	859.75
475.282	881.75
475.501	839.75
475.72	856.75
475.939	928.75
476.158	869.75
476.377	877.75
476.596	875.75
476.814	825.75
477.033	811.75
477.252	819.75
477.471	912.75
477.69	918.75
477.908	939.75
478.127	966.75
478.346	1014.75
478.564	967.75
478.783	1009.75
479.002	1025.75
479.22	1001.75
479.439	1007.75
479.658	1021.75
479.876	982.75
480.095	919.75
480.313	901.75
480.532	885.75
480.751	877.75
480.969	835.75
481.188	826.75
481.406	813.75
481.624	762.75
481.843	785.75
482.061	811.75
482.28	873.75
482.498	886.75
482.717	863.75
482.935	895.75
483.153	979.75
483.372	1031.75
483.59	1023.75
483.808	957.75
484.027	926.75
484.245	968.75
484.463	1216.75
484.681	1318.75
484.9	1041.75
485.118	956.75
485.336	935.75
485.554	920.75
485.772	918.75
485.99	856.75
486.209	885.75
486.427	899.75
486.645	957.75
486.863	1007.75
487.081	1045.75
487.299	1013.75
487.517	1021.75
487.735	1102.75
487.953	1209.75
488.171	1191.75
488.389	1119.75
488.607	1067.75
488.825	1114.75
489.043	1036.75
489.261	995.75
489.479	1027.75
489.696	1049.75
489.914	1025.75
490.132	1047.75
490.35	1087.75
490.568	1148.75
490.786	1149.75
491.003	1175.75
491.221	1241.75
491.439	1268.75
491.657	1274.75
491.874	1363.75
492.092	1425.75
492.31	1467.75
492.527	1411.75
492.745	1335.75
492.963	1317.75
493.18	1318.75
493.398	1369.75
493.615	1321.75
493.833	1274.75
494.05	1237.75
494.268	1227.75
494.485	1235.75
494.703	1229.75
494.92	1227.75
495.138	1242.75
495.355	1238.75
495.573	1225.75
495.79	1286.75
496.008	1287.75
496.225	1228.75
496.442	1252.75
496.66	1248.75
496.877	1223.75
497.094	1195.75
497.312	1222.75
497.529	1189.75
497.746	1212.75
497.963	1272.75
498.181	1309.75
498.398	1257.75
498.615	1218.75
498.832	1155.75
499.049	1190.75
499.267	1175.75
499.484	1247.75
499.701	1319.75
499.918	1394.75
500.135	1442.75
500.352	1544.75
