Data from WStandard_LampEnergy8_LIBS07252019.E.O._I.C._HRD10591_15-58-48-929.txt Node
Date: Thu Jul 25 15:58:48 EDT 2019
User: cochatt
Spectrometer: HR+D1059
Trigger mode: 1
Integration Time (sec): 1.000000E-1
Scans to average: 1
Electric dark correction enabled: true
Nonlinearity correction enabled: false
Boxcar width: 0
XAxis mode: Wavelengths
Number of Pixels in Spectrum: 2048
>>>>>Begin Spectral Data<<<<<
223.165	-7.5
223.4	-7.5
223.635	-7.5
223.869	-13.5
224.104	-16.5
224.338	-18.5
224.573	-1.5
224.808	-20.5
225.042	-8.5
225.277	7.5
225.511	-1.5
225.746	3.5
225.98	5.5
226.215	14.5
226.449	19.5
226.683	3.5
226.918	17.5
227.152	16.5
227.387	32.5
227.621	45.5
227.856	42.5
228.09	59.5
228.324	44.5
228.559	54.5
228.793	83.5
229.027	206.5
229.262	204.5
229.496	209.5
229.73	221.5
229.964	259.5
230.199	262.5
230.433	244.5
230.667	274.5
230.901	299.5
231.136	247.5
231.37	237.5
231.604	268.5
231.838	250.5
232.072	271.5
232.306	265.5
232.541	265.5
232.775	309.5
233.009	329.5
233.243	304.5
233.477	285.5
233.711	311.5
233.945	304.5
234.179	287.5
234.413	324.5
234.647	336.5
234.881	327.5
235.115	287.5
235.349	308.5
235.583	303.5
235.817	294.5
236.051	275.5
236.285	293.5
236.519	318.5
236.753	360.5
236.987	363.5
237.221	347.5
237.455	379.5
237.689	374.5
237.922	339.5
238.156	342.5
238.39	357.5
238.624	372.5
238.858	397.5
239.091	407.5
239.325	407.5
239.559	467.5
239.793	509.5
240.027	494.5
240.26	499.5
240.494	379.5
240.728	367.5
240.961	383.5
241.195	398.5
241.429	433.5
241.662	419.5
241.896	421.5
242.13	416.5
242.363	446.5
242.597	462.5
242.83	448.5
243.064	448.5
243.298	491.5
243.531	485.5
243.765	475.5
243.998	464.5
244.232	411.5
244.465	423.5
244.699	402.5
244.932	440.5
245.166	498.5
245.399	467.5
245.633	441.5
245.866	475.5
246.099	484.5
246.333	501.5
246.566	509.5
246.8	553.5
247.033	548.5
247.266	540.5
247.5	522.5
247.733	529.5
247.966	584.5
248.2	609.5
248.433	603.5
248.666	606.5
248.899	696.5
249.133	739.5
249.366	790.5
249.599	686.5
249.832	628.5
250.066	637.5
250.299	635.5
250.532	593.5
250.765	508.5
250.998	575.5
251.231	613.5
251.465	591.5
251.698	585.5
251.931	581.5
252.164	592.5
252.397	625.5
252.63	603.5
252.863	537.5
253.096	549.5
253.329	600.5
253.562	598.5
253.795	627.5
254.028	606.5
254.261	571.5
254.494	565.5
254.727	550.5
254.96	619.5
255.193	649.5
255.426	693.5
255.659	794.5
255.892	787.5
256.124	658.5
256.357	643.5
256.59	701.5
256.823	701.5
257.056	725.5
257.289	853.5
257.521	878.5
257.754	823.5
257.987	792.5
258.22	847.5
258.452	804.5
258.685	677.5
258.918	660.5
259.151	643.5
259.383	630.5
259.616	599.5
259.849	619.5
260.081	707.5
260.314	765.5
260.547	821.5
260.779	835.5
261.012	778.5
261.244	689.5
261.477	709.5
261.71	683.5
261.942	681.5
262.175	659.5
262.407	724.5
262.64	659.5
262.872	615.5
263.105	608.5
263.337	653.5
263.57	647.5
263.802	640.5
264.035	597.5
264.267	568.5
264.499	560.5
264.732	605.5
264.964	629.5
265.197	700.5
265.429	728.5
265.661	791.5
265.894	869.5
266.126	835.5
266.358	787.5
266.591	832.5
266.823	850.5
267.055	796.5
267.287	769.5
267.52	753.5
267.752	752.5
267.984	739.5
268.216	798.5
268.448	803.5
268.681	767.5
268.913	738.5
269.145	692.5
269.377	707.5
269.609	735.5
269.841	909.5
270.073	1020.5
270.306	1098.5
270.538	1118.5
270.77	961.5
271.002	848.5
271.234	803.5
271.466	802.5
271.698	923.5
271.93	1060.5
272.162	1068.5
272.394	953.5
272.626	896.5
272.858	795.5
273.09	681.5
273.322	694.5
273.553	681.5
273.785	680.5
274.017	714.5
274.249	762.5
274.481	765.5
274.713	706.5
274.945	703.5
275.176	715.5
275.408	705.5
275.64	708.5
275.872	687.5
276.104	743.5
276.335	824.5
276.567	923.5
276.799	932.5
277.031	842.5
277.262	782.5
277.494	850.5
277.726	906.5
277.957	875.5
278.189	819.5
278.421	761.5
278.652	721.5
278.884	709.5
279.115	726.5
279.347	748.5
279.579	723.5
279.81	765.5
280.042	837.5
280.273	890.5
280.505	881.5
280.736	891.5
280.968	820.5
281.199	742.5
281.431	739.5
281.662	711.5
281.894	735.5
282.125	741.5
282.356	742.5
282.588	755.5
282.819	771.5
283.051	835.5
283.282	889.5
283.513	855.5
283.745	766.5
283.976	703.5
284.207	739.5
284.439	735.5
284.67	736.5
284.901	760.5
285.132	788.5
285.364	775.5
285.595	754.5
285.826	769.5
286.057	746.5
286.288	745.5
286.52	821.5
286.751	829.5
286.982	849.5
287.213	791.5
287.444	725.5
287.675	759.5
287.906	787.5
288.138	851.5
288.369	816.5
288.6	774.5
288.831	737.5
289.062	748.5
289.293	770.5
289.524	747.5
289.755	788.5
289.986	776.5
290.217	720.5
290.448	713.5
290.679	763.5
290.91	777.5
291.141	786.5
291.371	829.5
291.602	823.5
291.833	817.5
292.064	825.5
292.295	816.5
292.526	826.5
292.757	848.5
292.987	831.5
293.218	787.5
293.449	869.5
293.68	973.5
293.91	1018.5
294.141	939.5
294.372	918.5
294.603	942.5
294.833	986.5
295.064	875.5
295.295	831.5
295.525	784.5
295.756	775.5
295.987	727.5
296.217	751.5
296.448	773.5
296.679	769.5
296.909	782.5
297.14	766.5
297.37	788.5
297.601	866.5
297.831	910.5
298.062	861.5
298.292	797.5
298.523	790.5
298.753	770.5
298.984	796.5
299.214	793.5
299.445	815.5
299.675	839.5
299.905	856.5
300.136	810.5
300.366	801.5
300.597	763.5
300.827	785.5
301.057	827.5
301.288	860.5
301.518	840.5
301.748	868.5
301.979	924.5
302.209	926.5
302.439	981.5
302.669	1008.5
302.9	923.5
303.13	848.5
303.36	864.5
303.59	875.5
303.82	847.5
304.051	867.5
304.281	875.5
304.511	883.5
304.741	950.5
304.971	1030.5
305.201	1048.5
305.431	969.5
305.661	779.5
305.891	764.5
306.121	758.5
306.352	801.5
306.582	845.5
306.812	894.5
307.042	947.5
307.272	967.5
307.502	1007.5
307.731	1056.5
307.961	1085.5
308.191	1008.5
308.421	909.5
308.651	845.5
308.881	836.5
309.111	825.5
309.341	776.5
309.571	835.5
309.8	815.5
310.03	807.5
310.26	790.5
310.49	818.5
310.72	844.5
310.949	904.5
311.179	884.5
311.409	867.5
311.639	846.5
311.868	809.5
312.098	859.5
312.328	826.5
312.557	836.5
312.787	869.5
313.017	861.5
313.246	862.5
313.476	839.5
313.706	867.5
313.935	912.5
314.165	905.5
314.394	961.5
314.624	993.5
314.853	1029.5
315.083	1062.5
315.312	1063.5
315.542	1007.5
315.771	903.5
316.001	893.5
316.23	983.5
316.46	931.5
316.689	934.5
316.919	866.5
317.148	881.5
317.377	895.5
317.607	977.5
317.836	1045.5
318.065	1072.5
318.295	995.5
318.524	993.5
318.753	984.5
318.983	959.5
319.212	903.5
319.441	908.5
319.67	895.5
319.9	936.5
320.129	993.5
320.358	1004.5
320.587	1021.5
320.816	1047.5
321.046	989.5
321.275	987.5
321.504	982.5
321.733	1034.5
321.962	1019.5
322.191	933.5
322.42	935.5
322.649	908.5
322.878	911.5
323.108	934.5
323.337	990.5
323.566	965.5
323.795	937.5
324.024	953.5
324.253	913.5
324.482	942.5
324.71	904.5
324.939	899.5
325.168	916.5
325.397	919.5
325.626	963.5
325.855	947.5
326.084	915.5
326.313	953.5
326.542	940.5
326.77	964.5
326.999	967.5
327.228	943.5
327.457	857.5
327.686	867.5
327.914	905.5
328.143	902.5
328.372	918.5
328.6	948.5
328.829	893.5
329.058	927.5
329.287	904.5
329.515	946.5
329.744	961.5
329.972	982.5
330.201	1025.5
330.43	1008.5
330.658	964.5
330.887	963.5
331.115	982.5
331.344	993.5
331.572	977.5
331.801	969.5
332.03	988.5
332.258	989.5
332.486	1036.5
332.715	1008.5
332.943	1003.5
333.172	985.5
333.4	995.5
333.629	1011.5
333.857	1108.5
334.085	1224.5
334.314	1397.5
334.542	1452.5
334.771	1312.5
334.999	1185.5
335.227	1074.5
335.455	1068.5
335.684	1051.5
335.912	1073.5
336.14	1097.5
336.369	1042.5
336.597	998.5
336.825	1021.5
337.053	1041.5
337.281	1092.5
337.51	1177.5
337.738	1193.5
337.966	1128.5
338.194	1027.5
338.422	1028.5
338.65	984.5
338.878	950.5
339.106	922.5
339.334	926.5
339.562	964.5
339.79	978.5
340.018	994.5
340.246	1069.5
340.474	1050.5
340.702	1029.5
340.93	989.5
341.158	992.5
341.386	993.5
341.614	1008.5
341.842	974.5
342.07	966.5
342.298	993.5
342.526	975.5
342.754	963.5
342.981	949.5
343.209	985.5
343.437	943.5
343.665	985.5
343.893	1021.5
344.12	1057.5
344.348	1051.5
344.576	995.5
344.804	1006.5
345.031	955.5
345.259	962.5
345.487	973.5
345.714	916.5
345.942	891.5
346.17	916.5
346.397	923.5
346.625	967.5
346.853	902.5
347.08	887.5
347.308	871.5
347.535	901.5
347.763	955.5
347.99	933.5
348.218	887.5
348.445	903.5
348.673	956.5
348.9	943.5
349.128	970.5
349.355	1026.5
349.583	997.5
349.81	902.5
350.037	881.5
350.265	867.5
350.492	847.5
350.72	899.5
350.947	947.5
351.174	917.5
351.402	909.5
351.629	870.5
351.856	847.5
352.083	856.5
352.311	888.5
352.538	905.5
352.765	937.5
352.992	966.5
353.22	923.5
353.447	898.5
353.674	929.5
353.901	930.5
354.128	878.5
354.355	884.5
354.583	952.5
354.81	949.5
355.037	943.5
355.264	960.5
355.491	941.5
355.718	937.5
355.945	928.5
356.172	885.5
356.399	888.5
356.626	871.5
356.853	931.5
357.08	1031.5
357.307	1097.5
357.534	1060.5
357.761	911.5
357.988	875.5
358.215	883.5
358.441	877.5
358.668	869.5
358.895	921.5
359.122	977.5
359.349	1046.5
359.576	1020.5
359.802	936.5
360.029	891.5
360.256	909.5
360.483	906.5
360.709	948.5
360.936	972.5
361.163	1006.5
361.39	1086.5
361.616	1174.5
361.843	1143.5
362.07	1075.5
362.296	939.5
362.523	918.5
362.749	904.5
362.976	955.5
363.203	968.5
363.429	893.5
363.656	889.5
363.882	968.5
364.109	1065.5
364.335	1108.5
364.562	1021.5
364.788	931.5
365.015	933.5
365.241	901.5
365.468	915.5
365.694	980.5
365.92	988.5
366.147	937.5
366.373	872.5
366.599	869.5
366.826	884.5
367.052	895.5
367.278	904.5
367.505	934.5
367.731	943.5
367.957	960.5
368.184	1006.5
368.41	1076.5
368.636	1081.5
368.862	1054.5
369.089	1037.5
369.315	999.5
369.541	988.5
369.767	945.5
369.993	923.5
370.219	918.5
370.445	985.5
370.672	1023.5
370.898	1045.5
371.124	1004.5
371.35	980.5
371.576	1029.5
371.802	1027.5
372.028	971.5
372.254	961.5
372.48	933.5
372.706	894.5
372.932	937.5
373.158	948.5
373.384	963.5
373.61	999.5
373.835	1056.5
374.061	988.5
374.287	996.5
374.513	992.5
374.739	944.5
374.965	1003.5
375.191	1015.5
375.416	1002.5
375.642	997.5
375.868	1087.5
376.094	1121.5
376.319	1023.5
376.545	998.5
376.771	1055.5
376.997	1085.5
377.222	1067.5
377.448	1008.5
377.674	1054.5
377.899	1062.5
378.125	1105.5
378.35	1087.5
378.576	994.5
378.802	979.5
379.027	942.5
379.253	977.5
379.478	976.5
379.704	970.5
379.929	982.5
380.155	1009.5
380.38	997.5
380.606	990.5
380.831	993.5
381.057	1066.5
381.282	1050.5
381.507	1051.5
381.733	1127.5
381.958	1144.5
382.184	1045.5
382.409	1032.5
382.634	1016.5
382.86	1036.5
383.085	1028.5
383.31	1074.5
383.535	1176.5
383.761	1193.5
383.986	1173.5
384.211	1099.5
384.436	1111.5
384.662	1155.5
384.887	1219.5
385.112	1108.5
385.337	1169.5
385.562	1106.5
385.787	1143.5
386.013	1137.5
386.238	1151.5
386.463	1164.5
386.688	1258.5
386.913	1300.5
387.138	1220.5
387.363	1177.5
387.588	1157.5
387.813	1149.5
388.038	1183.5
388.263	1187.5
388.488	1136.5
388.713	1053.5
388.938	1046.5
389.163	1085.5
389.387	1101.5
389.612	1106.5
389.837	1159.5
390.062	1116.5
390.287	1133.5
390.512	1121.5
390.736	1108.5
390.961	1089.5
391.186	1063.5
391.411	1075.5
391.636	1122.5
391.86	1111.5
392.085	1112.5
392.31	1136.5
392.534	1107.5
392.759	1147.5
392.984	1125.5
393.208	1155.5
393.433	1173.5
393.658	1210.5
393.882	1201.5
394.107	1143.5
394.331	1101.5
394.556	1103.5
394.78	1102.5
395.005	1195.5
395.229	1227.5
395.454	1295.5
395.678	1305.5
395.903	1232.5
396.127	1187.5
396.352	1222.5
396.576	1244.5
396.801	1234.5
397.025	1221.5
397.249	1230.5
397.474	1220.5
397.698	1239.5
397.922	1265.5
398.147	1320.5
398.371	1358.5
398.595	1311.5
398.82	1306.5
399.044	1323.5
399.268	1375.5
399.492	1454.5
399.717	1486.5
399.941	1516.5
400.165	1462.5
400.389	1409.5
400.613	1459.5
400.837	1666.5
401.062	1821.5
401.286	1552.5
401.51	1413.5
401.734	1476.5
401.958	1407.5
402.182	1327.5
402.406	1259.5
402.63	1249.5
402.854	1253.5
403.078	1300.5
403.302	1325.5
403.526	1344.5
403.75	1339.5
403.974	1367.5
404.198	1352.5
404.422	1406.5
404.645	1479.5
404.869	1409.5
405.093	1330.5
405.317	1273.5
405.541	1320.5
405.765	1349.5
405.988	1344.5
406.212	1388.5
406.436	1384.5
406.66	1437.5
406.883	1487.5
407.107	1657.5
407.331	1810.5
407.555	1922.5
407.778	1684.5
408.002	1469.5
408.226	1412.5
408.449	1372.5
408.673	1366.5
408.896	1341.5
409.12	1371.5
409.344	1348.5
409.567	1313.5
409.791	1345.5
410.014	1384.5
410.238	1486.5
410.461	1505.5
410.685	1389.5
410.908	1328.5
411.132	1334.5
411.355	1306.5
411.578	1342.5
411.802	1352.5
412.025	1343.5
412.249	1300.5
412.472	1319.5
412.695	1259.5
412.919	1261.5
413.142	1296.5
413.365	1323.5
413.589	1319.5
413.812	1428.5
414.035	1398.5
414.258	1303.5
414.482	1300.5
414.705	1288.5
414.928	1304.5
415.151	1262.5
415.374	1294.5
415.597	1314.5
415.821	1340.5
416.044	1348.5
416.267	1348.5
416.49	1274.5
416.713	1265.5
416.936	1294.5
417.159	1362.5
417.382	1352.5
417.605	1299.5
417.828	1337.5
418.051	1315.5
418.274	1329.5
418.497	1266.5
418.72	1275.5
418.943	1283.5
419.166	1321.5
419.389	1352.5
419.611	1312.5
419.834	1257.5
420.057	1285.5
420.28	1263.5
420.503	1293.5
420.726	1303.5
420.948	1309.5
421.171	1280.5
421.394	1288.5
421.617	1326.5
421.839	1322.5
422.062	1296.5
422.285	1292.5
422.507	1279.5
422.73	1233.5
422.953	1225.5
423.175	1224.5
423.398	1282.5
423.621	1268.5
423.843	1265.5
424.066	1315.5
424.288	1375.5
424.511	1377.5
424.733	1333.5
424.956	1231.5
425.178	1237.5
425.401	1237.5
425.623	1263.5
425.846	1284.5
426.068	1358.5
426.291	1354.5
426.513	1298.5
426.735	1329.5
426.958	1447.5
427.18	1469.5
427.402	1377.5
427.625	1397.5
427.847	1363.5
428.069	1266.5
428.292	1243.5
428.514	1235.5
428.736	1227.5
428.958	1236.5
429.181	1290.5
429.403	1471.5
429.625	1727.5
429.847	1477.5
430.069	1299.5
430.292	1451.5
430.514	1419.5
430.736	1345.5
430.958	1389.5
431.18	1318.5
431.402	1232.5
431.624	1211.5
431.846	1181.5
432.068	1101.5
432.29	1155.5
432.512	1171.5
432.734	1225.5
432.956	1244.5
433.178	1321.5
433.4	1331.5
433.622	1293.5
433.844	1258.5
434.066	1203.5
434.287	1204.5
434.509	1201.5
434.731	1260.5
434.953	1343.5
435.175	1343.5
435.397	1263.5
435.618	1260.5
435.84	1214.5
436.062	1217.5
436.284	1247.5
436.505	1271.5
436.727	1285.5
436.949	1245.5
437.17	1220.5
437.392	1216.5
437.614	1185.5
437.835	1169.5
438.057	1215.5
438.278	1248.5
438.5	1224.5
438.721	1197.5
438.943	1217.5
439.165	1231.5
439.386	1178.5
439.608	1224.5
439.829	1236.5
440.05	1242.5
440.272	1175.5
440.493	1199.5
440.715	1285.5
440.936	1332.5
441.158	1428.5
441.379	1375.5
441.6	1389.5
441.822	1366.5
442.043	1343.5
442.264	1294.5
442.486	1251.5
442.707	1241.5
442.928	1261.5
443.149	1286.5
443.371	1355.5
443.592	1354.5
443.813	1374.5
444.034	1365.5
444.255	1354.5
444.476	1350.5
444.698	1352.5
444.919	1390.5
445.14	1480.5
445.361	1455.5
445.582	1475.5
445.803	1415.5
446.024	1359.5
446.245	1402.5
446.466	1373.5
446.687	1330.5
446.908	1314.5
447.129	1266.5
447.35	1319.5
447.571	1297.5
447.792	1260.5
448.013	1212.5
448.234	1288.5
448.455	1304.5
448.675	1323.5
448.896	1197.5
449.117	1194.5
449.338	1204.5
449.559	1277.5
449.779	1302.5
450	1412.5
450.221	1472.5
450.442	1413.5
450.662	1271.5
450.883	1171.5
451.104	1162.5
451.324	1196.5
451.545	1204.5
451.766	1201.5
451.986	1161.5
452.207	1125.5
452.428	1095.5
452.648	1083.5
452.869	1131.5
453.089	1146.5
453.31	1134.5
453.53	1147.5
453.751	1107.5
453.971	1037.5
454.192	1084.5
454.412	1158.5
454.633	1126.5
454.853	1104.5
455.073	1040.5
455.294	1076.5
455.514	1070.5
455.734	1065.5
455.955	1090.5
456.175	1055.5
456.395	1060.5
456.616	1096.5
456.836	1088.5
457.056	1093.5
457.276	1057.5
457.497	1025.5
457.717	1019.5
457.937	1032.5
458.157	1073.5
458.377	1028.5
458.598	1045.5
458.818	1028.5
459.038	1085.5
459.258	1159.5
459.478	1135.5
459.698	1088.5
459.918	1153.5
460.138	1215.5
460.358	1245.5
460.578	1223.5
460.798	1293.5
461.018	1323.5
461.238	1270.5
461.458	1226.5
461.678	1279.5
461.898	1226.5
462.118	1178.5
462.338	1233.5
462.558	1271.5
462.777	1248.5
462.997	1301.5
463.217	1371.5
463.437	1347.5
463.657	1270.5
463.876	1243.5
464.096	1233.5
464.316	1248.5
464.536	1299.5
464.755	1287.5
464.975	1263.5
465.195	1269.5
465.414	1305.5
465.634	1289.5
465.854	1275.5
466.073	1404.5
466.293	1329.5
466.512	1188.5
466.732	1211.5
466.951	1253.5
467.171	1229.5
467.391	1184.5
467.61	1160.5
467.829	1173.5
468.049	1325.5
468.268	1439.5
468.488	1320.5
468.707	1250.5
468.927	1246.5
469.146	1220.5
469.365	1212.5
469.585	1263.5
469.804	1197.5
470.023	1219.5
470.243	1254.5
470.462	1243.5
470.681	1212.5
470.901	1189.5
471.12	1231.5
471.339	1227.5
471.558	1188.5
471.777	1192.5
471.997	1192.5
472.216	1182.5
472.435	1164.5
472.654	1084.5
472.873	1189.5
473.092	1251.5
473.311	1174.5
473.53	1134.5
473.749	1124.5
473.968	1165.5
474.187	1229.5
474.406	1236.5
474.625	1188.5
474.844	1205.5
475.063	1185.5
475.282	1217.5
475.501	1175.5
475.72	1197.5
475.939	1248.5
476.158	1247.5
476.377	1196.5
476.596	1203.5
476.814	1195.5
477.033	1227.5
477.252	1288.5
477.471	1290.5
477.69	1275.5
477.908	1292.5
478.127	1329.5
478.346	1446.5
478.564	1415.5
478.783	1390.5
479.002	1465.5
479.22	1410.5
479.439	1410.5
479.658	1567.5
479.876	1496.5
480.095	1360.5
480.313	1338.5
480.532	1302.5
480.751	1307.5
480.969	1300.5
481.188	1266.5
481.406	1256.5
481.624	1215.5
481.843	1265.5
482.061	1277.5
482.28	1309.5
482.498	1321.5
482.717	1284.5
482.935	1305.5
483.153	1335.5
483.372	1350.5
483.59	1329.5
483.808	1341.5
484.027	1336.5
484.245	1422.5
484.463	1711.5
484.681	1865.5
484.9	1480.5
485.118	1361.5
485.336	1317.5
485.554	1342.5
485.772	1395.5
485.99	1343.5
486.209	1392.5
486.427	1366.5
486.645	1382.5
486.863	1411.5
487.081	1439.5
487.299	1421.5
487.517	1453.5
487.735	1412.5
487.953	1480.5
488.171	1479.5
488.389	1422.5
488.607	1483.5
488.825	1604.5
489.043	1550.5
489.261	1395.5
489.479	1441.5
489.696	1452.5
489.914	1426.5
490.132	1423.5
490.35	1443.5
490.568	1505.5
490.786	1491.5
491.003	1460.5
491.221	1518.5
491.439	1598.5
491.657	1558.5
491.874	1621.5
492.092	1673.5
492.31	1675.5
492.527	1644.5
492.745	1586.5
492.963	1593.5
493.18	1605.5
493.398	1721.5
493.615	1693.5
493.833	1568.5
494.05	1539.5
494.268	1525.5
494.485	1587.5
494.703	1568.5
494.92	1547.5
495.138	1545.5
495.355	1537.5
495.573	1597.5
495.79	1677.5
496.008	1639.5
496.225	1568.5
496.442	1584.5
496.66	1591.5
496.877	1584.5
497.094	1701.5
497.312	1651.5
497.529	1595.5
497.746	1645.5
497.963	1808.5
498.181	1995.5
498.398	1905.5
498.615	1823.5
498.832	1769.5
499.049	1723.5
499.267	1759.5
499.484	1874.5
499.701	1977.5
499.918	2013.5
500.135	2217.5
500.352	2352.5
500.569	2283.5
500.786	2502.5
501.003	2237.5
501.22	2095.5
501.437	2031.5
501.654	2100.5
501.871	2014.5
502.088	1752.5
502.305	1742.5
502.522	1692.5
502.739	1608.5
502.956	1553.5
503.172	1549.5
503.389	1500.5
503.606	1486.5
503.823	1485.5
504.04	1427.5
504.256	1491.5
504.473	1479.5
504.69	1488.5
504.907	1444.5
505.123	1409.5
505.34	1524.5
505.557	2011.5
505.773	1623.5
505.99	1391.5
506.207	1318.5
506.423	1285.5
506.64	1285.5
506.856	1310.5
507.073	1506.5
507.289	1581.5
507.506	1479.5
507.722	1292.5
507.939	1215.5
508.155	1247.5
508.372	1254.5
508.588	1208.5
508.805	1171.5
509.021	1139.5
509.238	1129.5
509.454	1144.5
509.67	1149.5
509.887	1131.5
510.103	1110.5
