Data from WStandard_LampEnergy5.5LIBS07252019.E.O._I.C._HRD10591_16-07-56-920.txt Node
Date: Thu Jul 25 16:07:56 EDT 2019
User: cochatt
Spectrometer: HR+D1059
Trigger mode: 1
Integration Time (sec): 1.000000E-1
Scans to average: 1
Electric dark correction enabled: true
Nonlinearity correction enabled: false
Boxcar width: 0
XAxis mode: Wavelengths
Number of Pixels in Spectrum: 2048
>>>>>Begin Spectral Data<<<<<
223.165	-15.75
223.4	-15.75
223.635	-15.75
223.869	-25.75
224.104	-13.75
224.338	-12.75
224.573	-20.75
224.808	-15.75
225.042	0.25
225.277	-11.75
225.511	-4.75
225.746	9.25
225.98	1.25
226.215	6.25
226.449	17.25
226.683	15.25
226.918	26.25
227.152	45.25
227.387	38.25
227.621	33.25
227.856	30.25
228.09	34.25
228.324	45.25
228.559	56.25
228.793	136.25
229.027	364.25
229.262	375.25
229.496	385.25
229.73	410.25
229.964	443.25
230.199	473.25
230.433	454.25
230.667	480.25
230.901	532.25
231.136	486.25
231.37	441.25
231.604	476.25
231.838	474.25
232.072	474.25
232.306	444.25
232.541	494.25
232.775	563.25
233.009	617.25
233.243	586.25
233.477	521.25
233.711	526.25
233.945	580.25
234.179	547.25
234.413	579.25
234.647	617.25
234.881	609.25
235.115	559.25
235.349	557.25
235.583	576.25
235.817	582.25
236.051	561.25
236.285	553.25
236.519	601.25
236.753	663.25
236.987	694.25
237.221	659.25
237.455	727.25
237.689	733.25
237.922	683.25
238.156	668.25
238.39	675.25
238.624	716.25
238.858	751.25
239.091	749.25
239.325	794.25
239.559	924.25
239.793	977.25
240.027	1065.25
240.26	1027.25
240.494	776.25
240.728	696.25
240.961	741.25
241.195	746.25
241.429	810.25
241.662	803.25
241.896	744.25
242.13	781.25
242.363	859.25
242.597	937.25
242.83	878.25
243.064	871.25
243.298	943.25
243.531	924.25
243.765	936.25
243.998	956.25
244.232	809.25
244.465	773.25
244.699	807.25
244.932	904.25
245.166	1055.25
245.399	945.25
245.633	908.25
245.866	901.25
246.099	936.25
246.333	971.25
246.566	977.25
246.8	1045.25
247.033	1170.25
247.266	1059.25
247.5	1064.25
247.733	1043.25
247.966	1127.25
248.2	1272.25
248.433	1187.25
248.666	1222.25
248.899	1346.25
249.133	1536.25
249.366	1763.25
249.599	1426.25
249.832	1225.25
250.066	1311.25
250.299	1282.25
250.532	1195.25
250.765	1060.25
250.998	1148.25
251.231	1195.25
251.465	1227.25
251.698	1166.25
251.931	1175.25
252.164	1239.25
252.397	1269.25
252.63	1229.25
252.863	1112.25
253.096	1079.25
253.329	1155.25
253.562	1186.25
253.795	1289.25
254.028	1237.25
254.261	1185.25
254.494	1143.25
254.727	1115.25
254.96	1139.25
255.193	1252.25
255.426	1451.25
255.659	1608.25
255.892	1711.25
256.124	1394.25
256.357	1350.25
256.59	1432.25
256.823	1433.25
257.056	1378.25
257.289	1714.25
257.521	1924.25
257.754	1698.25
257.987	1577.25
258.22	1801.25
258.452	1771.25
258.685	1387.25
258.918	1360.25
259.151	1403.25
259.383	1323.25
259.616	1164.25
259.849	1225.25
260.081	1393.25
260.314	1547.25
260.547	1724.25
260.779	1754.25
261.012	1639.25
261.244	1448.25
261.477	1359.25
261.71	1436.25
261.942	1435.25
262.175	1375.25
262.407	1487.25
262.64	1385.25
262.872	1327.25
263.105	1245.25
263.337	1280.25
263.57	1289.25
263.802	1316.25
264.035	1220.25
264.267	1153.25
264.499	1112.25
264.732	1221.25
264.964	1298.25
265.197	1327.25
265.429	1407.25
265.661	1581.25
265.894	1754.25
266.126	1783.25
266.358	1573.25
266.591	1661.25
266.823	1862.25
267.055	1646.25
267.287	1589.25
267.52	1547.25
267.752	1515.25
267.984	1570.25
268.216	1594.25
268.448	1625.25
268.681	1616.25
268.913	1497.25
269.145	1425.25
269.377	1401.25
269.609	1506.25
269.841	1748.25
270.073	2040.25
270.306	2290.25
270.538	2456.25
270.77	2061.25
271.002	1743.25
271.234	1673.25
271.466	1636.25
271.698	1845.25
271.93	2203.25
272.162	2183.25
272.394	2007.25
272.626	1920.25
272.858	1719.25
273.09	1466.25
273.322	1474.25
273.553	1396.25
273.785	1388.25
274.017	1445.25
274.249	1557.25
274.481	1583.25
274.713	1453.25
274.945	1393.25
275.176	1463.25
275.408	1428.25
275.64	1398.25
275.872	1417.25
276.104	1440.25
276.335	1656.25
276.567	1889.25
276.799	1915.25
277.031	1711.25
277.262	1615.25
277.494	1654.25
277.726	1843.25
277.957	1836.25
278.189	1703.25
278.421	1544.25
278.652	1506.25
278.884	1510.25
279.115	1501.25
279.347	1503.25
279.579	1469.25
279.81	1446.25
280.042	1610.25
280.273	1765.25
280.505	1789.25
280.736	1845.25
280.968	1713.25
281.199	1526.25
281.431	1421.25
281.662	1456.25
281.894	1439.25
282.125	1523.25
282.356	1556.25
282.588	1566.25
282.819	1525.25
283.051	1674.25
283.282	1793.25
283.513	1784.25
283.745	1548.25
283.976	1453.25
284.207	1457.25
284.439	1482.25
284.67	1524.25
284.901	1525.25
285.132	1581.25
285.364	1516.25
285.595	1573.25
285.826	1523.25
286.057	1535.25
286.288	1497.25
286.52	1592.25
286.751	1684.25
286.982	1767.25
287.213	1615.25
287.444	1464.25
287.675	1465.25
287.906	1554.25
288.138	1653.25
288.369	1627.25
288.6	1532.25
288.831	1467.25
289.062	1481.25
289.293	1516.25
289.524	1523.25
289.755	1584.25
289.986	1619.25
290.217	1474.25
290.448	1479.25
290.679	1570.25
290.91	1583.25
291.141	1619.25
291.371	1685.25
291.602	1636.25
291.833	1607.25
292.064	1673.25
292.295	1613.25
292.526	1643.25
292.757	1757.25
292.987	1652.25
293.218	1583.25
293.449	1706.25
293.68	1858.25
293.91	2048.25
294.141	1890.25
294.372	1766.25
294.603	1845.25
294.833	1931.25
295.064	1800.25
295.295	1659.25
295.525	1629.25
295.756	1528.25
295.987	1433.25
296.217	1438.25
296.448	1483.25
296.679	1535.25
296.909	1506.25
297.14	1486.25
297.37	1488.25
297.601	1619.25
297.831	1732.25
298.062	1782.25
298.292	1613.25
298.523	1507.25
298.753	1556.25
298.984	1547.25
299.214	1552.25
299.445	1633.25
299.675	1648.25
299.905	1627.25
300.136	1572.25
300.366	1548.25
300.597	1484.25
300.827	1483.25
301.057	1561.25
301.288	1611.25
301.518	1639.25
301.748	1665.25
301.979	1771.25
302.209	1738.25
302.439	1895.25
302.669	1956.25
302.9	1803.25
303.13	1641.25
303.36	1647.25
303.59	1711.25
303.82	1646.25
304.051	1685.25
304.281	1658.25
304.511	1647.25
304.741	1734.25
304.971	1956.25
305.201	2053.25
305.431	1915.25
305.661	1618.25
305.891	1443.25
306.121	1449.25
306.352	1528.25
306.582	1568.25
306.812	1709.25
307.042	1833.25
307.272	1799.25
307.502	1860.25
307.731	1983.25
307.961	2153.25
308.191	2036.25
308.421	1708.25
308.651	1596.25
308.881	1587.25
309.111	1597.25
309.341	1570.25
309.571	1576.25
309.8	1603.25
310.03	1579.25
310.26	1578.25
310.49	1585.25
310.72	1613.25
310.949	1673.25
311.179	1677.25
311.409	1640.25
311.639	1625.25
311.868	1632.25
312.098	1648.25
312.328	1623.25
312.557	1594.25
312.787	1623.25
313.017	1665.25
313.246	1683.25
313.476	1693.25
313.706	1716.25
313.935	1656.25
314.165	1680.25
314.394	1737.25
314.624	1824.25
314.853	1922.25
315.083	1971.25
315.312	2041.25
315.542	1943.25
315.771	1725.25
316.001	1737.25
316.23	1816.25
316.46	1809.25
316.689	1741.25
316.919	1699.25
317.148	1651.25
317.377	1616.25
317.607	1758.25
317.836	2017.25
318.065	2103.25
318.295	1955.25
318.524	1874.25
318.753	1796.25
318.983	1769.25
319.212	1720.25
319.441	1715.25
319.67	1748.25
319.9	1741.25
320.129	1825.25
320.358	1891.25
320.587	1932.25
320.816	1925.25
321.046	1882.25
321.275	1755.25
321.504	1816.25
321.733	2002.25
321.962	1899.25
322.191	1745.25
322.42	1767.25
322.649	1734.25
322.878	1742.25
323.108	1746.25
323.337	1819.25
323.566	1827.25
323.795	1799.25
324.024	1811.25
324.253	1719.25
324.482	1783.25
324.71	1701.25
324.939	1661.25
325.168	1670.25
325.397	1724.25
325.626	1832.25
325.855	1843.25
326.084	1747.25
326.313	1773.25
326.542	1782.25
326.77	1835.25
326.999	1852.25
327.228	1745.25
327.457	1692.25
327.686	1627.25
327.914	1705.25
328.143	1759.25
328.372	1757.25
328.6	1732.25
328.829	1747.25
329.058	1731.25
329.287	1677.25
329.515	1752.25
329.744	1755.25
329.972	1851.25
330.201	1945.25
330.43	1893.25
330.658	1816.25
330.887	1851.25
331.115	1856.25
331.344	1896.25
331.572	1862.25
331.801	1826.25
332.03	1826.25
332.258	1836.25
332.486	1869.25
332.715	1877.25
332.943	1911.25
333.172	1848.25
333.4	1889.25
333.629	1900.25
333.857	2009.25
334.085	2242.25
334.314	2458.25
334.542	2736.25
334.771	2544.25
334.999	2229.25
335.227	2097.25
335.455	1981.25
335.684	1946.25
335.912	2001.25
336.14	2108.25
336.369	2022.25
336.597	1951.25
336.825	1903.25
337.053	1946.25
337.281	2021.25
337.51	2135.25
337.738	2245.25
337.966	2090.25
338.194	1890.25
338.422	1859.25
338.65	1816.25
338.878	1836.25
339.106	1779.25
339.334	1748.25
339.562	1733.25
339.79	1765.25
340.018	1888.25
340.246	1939.25
340.474	1951.25
340.702	1921.25
340.93	1949.25
341.158	1897.25
341.386	1848.25
341.614	1849.25
341.842	1812.25
342.07	1836.25
342.298	1849.25
342.526	1827.25
342.754	1795.25
342.981	1800.25
343.209	1809.25
343.437	1762.25
343.665	1780.25
343.893	1851.25
344.12	1963.25
344.348	1943.25
344.576	1885.25
344.804	1825.25
345.031	1824.25
345.259	1846.25
345.487	1784.25
345.714	1728.25
345.942	1685.25
346.17	1695.25
346.397	1719.25
346.625	1742.25
346.853	1650.25
347.08	1625.25
347.308	1599.25
347.535	1658.25
347.763	1745.25
347.99	1721.25
348.218	1629.25
348.445	1655.25
348.673	1700.25
348.9	1761.25
349.128	1776.25
349.355	1869.25
349.583	1823.25
349.81	1748.25
350.037	1582.25
350.265	1592.25
350.492	1593.25
350.72	1625.25
350.947	1710.25
351.174	1748.25
351.402	1647.25
351.629	1569.25
351.856	1582.25
352.083	1593.25
352.311	1588.25
352.538	1633.25
352.765	1708.25
352.992	1799.25
353.22	1705.25
353.447	1640.25
353.674	1641.25
353.901	1685.25
354.128	1630.25
354.355	1618.25
354.583	1706.25
354.81	1730.25
355.037	1716.25
355.264	1698.25
355.491	1712.25
355.718	1706.25
355.945	1669.25
356.172	1642.25
356.399	1634.25
356.626	1622.25
356.853	1661.25
357.08	1802.25
357.307	1975.25
357.534	2013.25
357.761	1778.25
357.988	1651.25
358.215	1593.25
358.441	1608.25
358.668	1576.25
358.895	1635.25
359.122	1684.25
359.349	1843.25
359.576	1847.25
359.802	1678.25
360.029	1596.25
360.256	1589.25
360.483	1607.25
360.709	1705.25
360.936	1754.25
361.163	1783.25
361.39	1967.25
361.616	2108.25
361.843	2075.25
362.07	1956.25
362.296	1728.25
362.523	1631.25
362.749	1640.25
362.976	1684.25
363.203	1697.25
363.429	1660.25
363.656	1602.25
363.882	1649.25
364.109	1855.25
364.335	2010.25
364.562	1839.25
364.788	1767.25
365.015	1741.25
365.241	1637.25
365.468	1687.25
365.694	1741.25
365.92	1812.25
366.147	1741.25
366.373	1670.25
366.599	1612.25
366.826	1621.25
367.052	1643.25
367.278	1642.25
367.505	1652.25
367.731	1684.25
367.957	1697.25
368.184	1721.25
368.41	1835.25
368.636	1880.25
368.862	1840.25
369.089	1891.25
369.315	1837.25
369.541	1752.25
369.767	1693.25
369.993	1657.25
370.219	1681.25
370.445	1693.25
370.672	1771.25
370.898	1885.25
371.124	1908.25
371.35	1762.25
371.576	1803.25
371.802	1919.25
372.028	1815.25
372.254	1785.25
372.48	1696.25
372.706	1681.25
372.932	1706.25
373.158	1708.25
373.384	1683.25
373.61	1750.25
373.835	1899.25
374.061	1769.25
374.287	1744.25
374.513	1793.25
374.739	1739.25
374.965	1792.25
375.191	1796.25
375.416	1826.25
375.642	1812.25
375.868	1905.25
376.094	1945.25
376.319	1898.25
376.545	1764.25
376.771	1832.25
376.997	1921.25
377.222	1859.25
377.448	1804.25
377.674	1856.25
377.899	1831.25
378.125	1910.25
378.35	1907.25
378.576	1748.25
378.802	1718.25
379.027	1662.25
379.253	1720.25
379.478	1736.25
379.704	1702.25
379.929	1734.25
380.155	1768.25
380.38	1780.25
380.606	1778.25
380.831	1810.25
381.057	1845.25
381.282	1897.25
381.507	1781.25
381.733	1935.25
381.958	2013.25
382.184	1879.25
382.409	1832.25
382.634	1835.25
382.86	1855.25
383.085	1845.25
383.31	1876.25
383.535	2003.25
383.761	2103.25
383.986	2068.25
384.211	1988.25
384.436	1939.25
384.662	2039.25
384.887	2143.25
385.112	2027.25
385.337	2037.25
385.562	2007.25
385.787	2002.25
386.013	2044.25
386.238	2085.25
386.463	2010.25
386.688	2155.25
386.913	2294.25
387.138	2233.25
387.363	2079.25
387.588	2087.25
387.813	2068.25
388.038	2067.25
388.263	2148.25
388.488	2069.25
388.713	1890.25
388.938	1918.25
389.163	1949.25
389.387	2021.25
389.612	1989.25
389.837	1989.25
390.062	2052.25
390.287	2009.25
390.512	2004.25
390.736	2005.25
390.961	1975.25
391.186	1906.25
391.411	1905.25
391.636	1949.25
391.86	2031.25
392.085	1981.25
392.31	1973.25
392.534	1991.25
392.759	2052.25
392.984	2003.25
393.208	2012.25
393.433	2072.25
393.658	2135.25
393.882	2175.25
394.107	2045.25
394.331	1970.25
394.556	1987.25
394.78	2015.25
395.005	2071.25
395.229	2163.25
395.454	2300.25
395.678	2338.25
395.903	2212.25
396.127	2085.25
396.352	2112.25
396.576	2166.25
396.801	2229.25
397.025	2175.25
397.249	2229.25
397.474	2156.25
397.698	2187.25
397.922	2228.25
398.147	2327.25
398.371	2392.25
398.595	2363.25
398.82	2280.25
399.044	2357.25
399.268	2414.25
399.492	2638.25
399.717	2715.25
399.941	2754.25
400.165	2643.25
400.389	2607.25
400.613	2570.25
400.837	2792.25
401.062	3159.25
401.286	2796.25
401.51	2483.25
401.734	2641.25
401.958	2516.25
402.182	2381.25
402.406	2280.25
402.63	2311.25
402.854	2296.25
403.078	2311.25
403.302	2368.25
403.526	2411.25
403.75	2371.25
403.974	2410.25
404.198	2414.25
404.422	2416.25
404.645	2560.25
404.869	2536.25
405.093	2346.25
405.317	2335.25
405.541	2403.25
405.765	2403.25
405.988	2389.25
406.212	2427.25
406.436	2464.25
406.66	2549.25
406.883	2553.25
407.107	2853.25
407.331	3112.25
407.555	3335.25
407.778	3116.25
408.002	2549.25
408.226	2550.25
408.449	2481.25
408.673	2410.25
408.896	2463.25
409.12	2474.25
409.344	2439.25
409.567	2366.25
409.791	2391.25
410.014	2441.25
410.238	2580.25
410.461	2713.25
410.685	2460.25
410.908	2337.25
411.132	2375.25
411.355	2376.25
411.578	2305.25
411.802	2315.25
412.025	2389.25
412.249	2313.25
412.472	2259.25
412.695	2299.25
412.919	2267.25
413.142	2309.25
413.365	2298.25
413.589	2362.25
413.812	2398.25
414.035	2497.25
414.258	2281.25
414.482	2223.25
414.705	2281.25
414.928	2211.25
415.151	2220.25
415.374	2330.25
415.597	2314.25
415.821	2355.25
416.044	2405.25
416.267	2427.25
416.49	2225.25
416.713	2161.25
416.936	2244.25
417.159	2340.25
417.382	2352.25
417.605	2229.25
417.828	2329.25
418.051	2318.25
418.274	2274.25
418.497	2122.25
418.72	2238.25
418.943	2183.25
419.166	2358.25
419.389	2448.25
419.611	2344.25
419.834	2233.25
420.057	2294.25
420.28	2179.25
420.503	2205.25
420.726	2257.25
420.948	2228.25
421.171	2140.25
421.394	2209.25
421.617	2263.25
421.839	2266.25
422.062	2208.25
422.285	2156.25
422.507	2191.25
422.73	2124.25
422.953	2138.25
423.175	2111.25
423.398	2189.25
423.621	2177.25
423.843	2156.25
424.066	2258.25
424.288	2323.25
424.511	2369.25
424.733	2303.25
424.956	2118.25
425.178	2045.25
425.401	2085.25
425.623	2134.25
425.846	2140.25
426.068	2215.25
426.291	2281.25
426.513	2218.25
426.735	2241.25
426.958	2321.25
427.18	2533.25
427.402	2321.25
427.625	2333.25
427.847	2387.25
428.069	2216.25
428.292	2143.25
428.514	2078.25
428.736	2085.25
428.958	2129.25
429.181	2168.25
429.403	2401.25
429.625	2968.25
429.847	2613.25
430.069	2213.25
430.292	2381.25
430.514	2448.25
430.736	2285.25
430.958	2406.25
431.18	2301.25
431.402	2087.25
431.624	2137.25
431.846	2107.25
432.068	2041.25
432.29	2109.25
432.512	2135.25
432.734	2133.25
432.956	2203.25
433.178	2324.25
433.4	2247.25
433.622	2261.25
433.844	2154.25
434.066	2088.25
434.287	2084.25
434.509	2135.25
434.731	2295.25
434.953	2464.25
435.175	2351.25
435.397	2231.25
435.618	2241.25
435.84	2272.25
436.062	2196.25
436.284	2246.25
436.505	2276.25
436.727	2297.25
436.949	2163.25
437.17	2155.25
437.392	2104.25
437.614	2109.25
437.835	2067.25
438.057	2213.25
438.278	2268.25
438.5	2133.25
438.721	2109.25
438.943	2085.25
439.165	2121.25
439.386	2087.25
439.608	2109.25
439.829	2102.25
440.05	2081.25
440.272	2064.25
440.493	2037.25
440.715	2116.25
440.936	2236.25
441.158	2450.25
441.379	2412.25
441.6	2315.25
441.822	2302.25
442.043	2288.25
442.264	2212.25
442.486	2082.25
442.707	2099.25
442.928	2073.25
443.149	2175.25
443.371	2319.25
443.592	2403.25
443.813	2344.25
444.034	2311.25
444.255	2336.25
444.476	2366.25
444.698	2377.25
444.919	2370.25
445.14	2469.25
445.361	2483.25
445.582	2532.25
445.803	2413.25
446.024	2341.25
446.245	2417.25
446.466	2302.25
446.687	2205.25
446.908	2170.25
447.129	2123.25
447.35	2190.25
447.571	2166.25
447.792	2088.25
448.013	2036.25
448.234	2073.25
448.455	2205.25
448.675	2193.25
448.896	1981.25
449.117	1976.25
449.338	2092.25
449.559	2134.25
449.779	2247.25
450	2493.25
450.221	2668.25
450.442	2606.25
450.662	2265.25
450.883	1995.25
451.104	1956.25
451.324	2048.25
451.545	2101.25
451.766	2080.25
451.986	1941.25
452.207	1933.25
452.428	1926.25
452.648	1868.25
452.869	1947.25
453.089	2034.25
453.31	2111.25
453.53	2152.25
453.751	2038.25
453.971	1960.25
454.192	1951.25
454.412	2109.25
454.633	2071.25
454.853	1980.25
455.073	1837.25
455.294	1825.25
455.514	1816.25
455.734	1875.25
455.955	1917.25
456.175	1855.25
456.395	1906.25
456.616	1976.25
456.836	1983.25
457.056	1931.25
457.276	1928.25
457.497	1859.25
457.717	1837.25
457.937	1856.25
458.157	1921.25
458.377	1907.25
458.598	1884.25
458.818	1891.25
459.038	1985.25
459.258	2127.25
459.478	2146.25
459.698	2083.25
459.918	2081.25
460.138	2171.25
460.358	2257.25
460.578	2247.25
460.798	2308.25
461.018	2513.25
461.238	2378.25
461.458	2278.25
461.678	2284.25
461.898	2221.25
462.118	2165.25
462.338	2266.25
462.558	2230.25
462.777	2277.25
462.997	2345.25
463.217	2525.25
463.437	2528.25
463.657	2300.25
463.876	2323.25
464.096	2300.25
464.316	2244.25
464.536	2345.25
464.755	2402.25
464.975	2409.25
465.195	2301.25
465.414	2387.25
465.634	2418.25
465.854	2284.25
466.073	2416.25
466.293	2336.25
466.512	2087.25
466.732	2105.25
466.951	2165.25
467.171	2174.25
467.391	2070.25
467.61	2017.25
467.829	2053.25
468.049	2223.25
468.268	2454.25
468.488	2320.25
468.707	2187.25
468.927	2075.25
469.146	2085.25
469.365	2014.25
469.585	2068.25
469.804	2040.25
470.023	2075.25
470.243	2118.25
470.462	2092.25
470.681	2040.25
470.901	2056.25
471.12	2076.25
471.339	2055.25
471.558	1985.25
471.777	1999.25
471.997	2015.25
472.216	2058.25
472.435	1947.25
472.654	2035.25
472.873	2101.25
473.092	2191.25
473.311	2115.25
473.53	1986.25
473.749	1960.25
473.968	2026.25
474.187	2113.25
474.406	2291.25
474.625	2141.25
474.844	2063.25
475.063	2065.25
475.282	2134.25
475.501	2071.25
475.72	2082.25
475.939	2221.25
476.158	2151.25
476.377	2069.25
476.596	2123.25
476.814	2145.25
477.033	2175.25
477.252	2244.25
477.471	2340.25
477.69	2216.25
477.908	2190.25
478.127	2278.25
478.346	2439.25
478.564	2550.25
478.783	2505.25
479.002	2552.25
479.22	2447.25
479.439	2584.25
479.658	2903.25
479.876	2917.25
480.095	2504.25
480.313	2384.25
480.532	2320.25
480.751	2314.25
480.969	2405.25
481.188	2368.25
481.406	2287.25
481.624	2253.25
481.843	2272.25
482.061	2340.25
482.28	2365.25
482.498	2446.25
482.717	2390.25
482.935	2323.25
483.153	2309.25
483.372	2323.25
483.59	2277.25
483.808	2299.25
484.027	2362.25
484.245	2472.25
484.463	2857.25
484.681	3339.25
484.9	2553.25
485.118	2380.25
485.336	2374.25
485.554	2480.25
485.772	2584.25
485.99	2519.25
486.209	2530.25
486.427	2503.25
486.645	2480.25
486.863	2430.25
487.081	2498.25
487.299	2563.25
