Data from WStandard_LampEnergy8_LIBS07252019.E.O._I.C._HRD10591_15-58-10-928.txt Node
Date: Thu Jul 25 15:58:10 EDT 2019
User: cochatt
Spectrometer: HR+D1059
Trigger mode: 1
Integration Time (sec): 1.000000E-1
Scans to average: 1
Electric dark correction enabled: true
Nonlinearity correction enabled: false
Boxcar width: 0
XAxis mode: Wavelengths
Number of Pixels in Spectrum: 2048
>>>>>Begin Spectral Data<<<<<
223.165	-20.5
223.4	-20.5
223.635	-20.5
223.869	-8.5
224.104	-10.5
224.338	-15.5
224.573	-7.5
224.808	-3.5
225.042	-7.5
225.277	-12.5
225.511	-23.5
225.746	-2.5
225.98	4.5
226.215	18.5
226.449	5.5
226.683	21.5
226.918	30.5
227.152	31.5
227.387	35.5
227.621	30.5
227.856	39.5
228.09	45.5
228.324	62.5
228.559	58.5
228.793	86.5
229.027	190.5
229.262	206.5
229.496	216.5
229.73	226.5
229.964	240.5
230.199	242.5
230.433	256.5
230.667	296.5
230.901	291.5
231.136	266.5
231.37	243.5
231.604	241.5
231.838	255.5
232.072	263.5
232.306	240.5
232.541	271.5
232.775	307.5
233.009	312.5
233.243	311.5
233.477	295.5
233.711	305.5
233.945	302.5
234.179	307.5
234.413	325.5
234.647	342.5
234.881	325.5
235.115	298.5
235.349	298.5
235.583	293.5
235.817	316.5
236.051	292.5
236.285	293.5
236.519	321.5
236.753	347.5
236.987	366.5
237.221	365.5
237.455	406.5
237.689	371.5
237.922	348.5
238.156	318.5
238.39	351.5
238.624	364.5
238.858	384.5
239.091	419.5
239.325	438.5
239.559	478.5
239.793	513.5
240.027	533.5
240.26	492.5
240.494	376.5
240.728	381.5
240.961	358.5
241.195	386.5
241.429	437.5
241.662	429.5
241.896	385.5
242.13	395.5
242.363	435.5
242.597	457.5
242.83	445.5
243.064	458.5
243.298	485.5
243.531	472.5
243.765	434.5
243.998	471.5
244.232	388.5
244.465	385.5
244.699	415.5
244.932	457.5
245.166	517.5
245.399	495.5
245.633	454.5
245.866	461.5
246.099	474.5
246.333	480.5
246.566	493.5
246.8	528.5
247.033	545.5
247.266	546.5
247.5	531.5
247.733	522.5
247.966	570.5
248.2	592.5
248.433	585.5
248.666	610.5
248.899	665.5
249.133	765.5
249.366	805.5
249.599	680.5
249.832	609.5
250.066	637.5
250.299	631.5
250.532	580.5
250.765	546.5
250.998	592.5
251.231	580.5
251.465	608.5
251.698	601.5
251.931	592.5
252.164	598.5
252.397	617.5
252.63	598.5
252.863	546.5
253.096	543.5
253.329	570.5
253.562	606.5
253.795	642.5
254.028	612.5
254.261	573.5
254.494	566.5
254.727	556.5
254.96	589.5
255.193	641.5
255.426	714.5
255.659	788.5
255.892	795.5
256.124	694.5
256.357	660.5
256.59	709.5
256.823	704.5
257.056	718.5
257.289	849.5
257.521	892.5
257.754	834.5
257.987	796.5
258.22	852.5
258.452	793.5
258.685	686.5
258.918	678.5
259.151	686.5
259.383	684.5
259.616	584.5
259.849	623.5
260.081	708.5
260.314	777.5
260.547	831.5
260.779	804.5
261.012	778.5
261.244	708.5
261.477	687.5
261.71	678.5
261.942	696.5
262.175	674.5
262.407	702.5
262.64	660.5
262.872	620.5
263.105	625.5
263.337	612.5
263.57	643.5
263.802	632.5
264.035	600.5
264.267	574.5
264.499	587.5
264.732	646.5
264.964	636.5
265.197	687.5
265.429	722.5
265.661	790.5
265.894	842.5
266.126	856.5
266.358	775.5
266.591	824.5
266.823	822.5
267.055	757.5
267.287	799.5
267.52	766.5
267.752	745.5
267.984	771.5
268.216	818.5
268.448	831.5
268.681	800.5
268.913	758.5
269.145	690.5
269.377	697.5
269.609	782.5
269.841	883.5
270.073	1029.5
270.306	1090.5
270.538	1109.5
270.77	938.5
271.002	848.5
271.234	797.5
271.466	844.5
271.698	912.5
271.93	1061.5
272.162	1050.5
272.394	930.5
272.626	881.5
272.858	783.5
273.09	710.5
273.322	704.5
273.553	681.5
273.785	684.5
274.017	719.5
274.249	761.5
274.481	754.5
274.713	714.5
274.945	718.5
275.176	717.5
275.408	692.5
275.64	689.5
275.872	703.5
276.104	726.5
276.335	869.5
276.567	900.5
276.799	920.5
277.031	836.5
277.262	818.5
277.494	836.5
277.726	883.5
277.957	879.5
278.189	828.5
278.421	772.5
278.652	745.5
278.884	734.5
279.115	753.5
279.347	762.5
279.579	725.5
279.81	738.5
280.042	801.5
280.273	874.5
280.505	887.5
280.736	900.5
280.968	812.5
281.199	764.5
281.431	728.5
281.662	734.5
281.894	723.5
282.125	766.5
282.356	788.5
282.588	761.5
282.819	793.5
283.051	838.5
283.282	877.5
283.513	841.5
283.745	749.5
283.976	730.5
284.207	707.5
284.439	741.5
284.67	780.5
284.901	767.5
285.132	777.5
285.364	780.5
285.595	803.5
285.826	769.5
286.057	754.5
286.288	778.5
286.52	801.5
286.751	855.5
286.982	856.5
287.213	773.5
287.444	724.5
287.675	749.5
287.906	793.5
288.138	832.5
288.369	809.5
288.6	779.5
288.831	728.5
289.062	723.5
289.293	751.5
289.524	768.5
289.755	791.5
289.986	774.5
290.217	741.5
290.448	768.5
290.679	786.5
290.91	792.5
291.141	794.5
291.371	824.5
291.602	830.5
291.833	820.5
292.064	827.5
292.295	850.5
292.526	872.5
292.757	894.5
292.987	852.5
293.218	789.5
293.449	882.5
293.68	942.5
293.91	995.5
294.141	945.5
294.372	941.5
294.603	943.5
294.833	978.5
295.064	929.5
295.295	850.5
295.525	802.5
295.756	752.5
295.987	710.5
296.217	733.5
296.448	753.5
296.679	776.5
296.909	775.5
297.14	766.5
297.37	812.5
297.601	825.5
297.831	868.5
298.062	883.5
298.292	830.5
298.523	775.5
298.753	799.5
298.984	784.5
299.214	825.5
299.445	852.5
299.675	824.5
299.905	821.5
300.136	824.5
300.366	792.5
300.597	775.5
300.827	796.5
301.057	839.5
301.288	854.5
301.518	866.5
301.748	891.5
301.979	918.5
302.209	962.5
302.439	1012.5
302.669	972.5
302.9	929.5
303.13	841.5
303.36	841.5
303.59	856.5
303.82	848.5
304.051	849.5
304.281	881.5
304.511	878.5
304.741	941.5
304.971	1053.5
305.201	1082.5
305.431	977.5
305.661	802.5
305.891	768.5
306.121	743.5
306.352	788.5
306.582	848.5
306.812	897.5
307.042	992.5
307.272	963.5
307.502	1006.5
307.731	1044.5
307.961	1100.5
308.191	1011.5
308.421	872.5
308.651	852.5
308.881	849.5
309.111	824.5
309.341	840.5
309.571	849.5
309.8	833.5
310.03	840.5
310.26	816.5
310.49	824.5
310.72	857.5
310.949	877.5
311.179	902.5
311.409	870.5
311.639	852.5
311.868	833.5
312.098	842.5
312.328	840.5
312.557	863.5
312.787	862.5
313.017	864.5
313.246	872.5
313.476	859.5
313.706	900.5
313.935	904.5
314.165	907.5
314.394	960.5
314.624	972.5
314.853	1030.5
315.083	1056.5
315.312	1070.5
315.542	1010.5
315.771	906.5
316.001	907.5
316.23	949.5
316.46	954.5
316.689	916.5
316.919	915.5
317.148	861.5
317.377	880.5
317.607	973.5
317.836	1060.5
318.065	1094.5
318.295	1028.5
318.524	1016.5
318.753	955.5
318.983	958.5
319.212	930.5
319.441	910.5
319.67	910.5
319.9	949.5
320.129	973.5
320.358	1046.5
320.587	1041.5
320.816	1003.5
321.046	1009.5
321.275	983.5
321.504	1000.5
321.733	1061.5
321.962	987.5
322.191	919.5
322.42	945.5
322.649	911.5
322.878	906.5
323.108	926.5
323.337	949.5
323.566	979.5
323.795	960.5
324.024	965.5
324.253	941.5
324.482	932.5
324.71	897.5
324.939	886.5
325.168	914.5
325.397	906.5
325.626	993.5
325.855	968.5
326.084	927.5
326.313	948.5
326.542	935.5
326.77	991.5
326.999	979.5
327.228	902.5
327.457	880.5
327.686	860.5
327.914	896.5
328.143	933.5
328.372	926.5
328.6	925.5
328.829	900.5
329.058	909.5
329.287	919.5
329.515	935.5
329.744	952.5
329.972	991.5
330.201	1029.5
330.43	1018.5
330.658	976.5
330.887	995.5
331.115	993.5
331.344	986.5
331.572	985.5
331.801	978.5
332.03	980.5
332.258	984.5
332.486	986.5
332.715	1037.5
332.943	1057.5
333.172	992.5
333.4	987.5
333.629	1026.5
333.857	1124.5
334.085	1206.5
334.314	1370.5
334.542	1438.5
334.771	1309.5
334.999	1146.5
335.227	1087.5
335.455	1062.5
335.684	1053.5
335.912	1101.5
336.14	1103.5
336.369	1044.5
336.597	1016.5
336.825	1003.5
337.053	1033.5
337.281	1111.5
337.51	1148.5
337.738	1174.5
337.966	1093.5
338.194	988.5
338.422	985.5
338.65	1000.5
338.878	950.5
339.106	939.5
339.334	912.5
339.562	936.5
339.79	972.5
340.018	1005.5
340.246	1052.5
340.474	1051.5
340.702	1048.5
340.93	1024.5
341.158	994.5
341.386	995.5
341.614	996.5
341.842	1027.5
342.07	988.5
342.298	1000.5
342.526	986.5
342.754	970.5
342.981	956.5
343.209	974.5
343.437	969.5
343.665	1005.5
343.893	1037.5
344.12	1038.5
344.348	1060.5
344.576	994.5
344.804	997.5
345.031	1009.5
345.259	982.5
345.487	954.5
345.714	902.5
345.942	914.5
346.17	929.5
346.397	940.5
346.625	930.5
346.853	904.5
347.08	894.5
347.308	867.5
347.535	938.5
347.763	982.5
347.99	922.5
348.218	882.5
348.445	905.5
348.673	934.5
348.9	948.5
349.128	968.5
349.355	1034.5
349.583	969.5
349.81	926.5
350.037	873.5
350.265	878.5
350.492	886.5
350.72	899.5
350.947	932.5
351.174	946.5
351.402	889.5
351.629	868.5
351.856	854.5
352.083	858.5
352.311	856.5
352.538	917.5
352.765	981.5
352.992	923.5
353.22	933.5
353.447	897.5
353.674	914.5
353.901	942.5
354.128	900.5
354.355	924.5
354.583	957.5
354.81	942.5
355.037	966.5
355.264	934.5
355.491	940.5
355.718	912.5
355.945	915.5
356.172	902.5
356.399	890.5
356.626	898.5
356.853	947.5
357.08	1023.5
357.307	1119.5
357.534	1089.5
357.761	968.5
357.988	888.5
358.215	874.5
358.441	868.5
358.668	912.5
358.895	888.5
359.122	989.5
359.349	1036.5
359.576	987.5
359.802	901.5
360.029	889.5
360.256	884.5
360.483	911.5
360.709	944.5
360.936	1002.5
361.163	993.5
361.39	1113.5
361.616	1201.5
361.843	1146.5
362.07	1031.5
362.296	906.5
362.523	906.5
362.749	929.5
362.976	942.5
363.203	940.5
363.429	902.5
363.656	909.5
363.882	952.5
364.109	1048.5
364.335	1120.5
364.562	993.5
364.788	989.5
365.015	915.5
365.241	899.5
365.468	944.5
365.694	991.5
365.92	1006.5
366.147	950.5
366.373	912.5
366.599	893.5
366.826	923.5
367.052	928.5
367.278	931.5
367.505	926.5
367.731	926.5
367.957	956.5
368.184	1029.5
368.41	1048.5
368.636	1050.5
368.862	1025.5
369.089	1046.5
369.315	1001.5
369.541	983.5
369.767	939.5
369.993	941.5
370.219	929.5
370.445	975.5
370.672	1027.5
370.898	1064.5
371.124	1036.5
371.35	975.5
371.576	1027.5
371.802	1040.5
372.028	989.5
372.254	950.5
372.48	957.5
372.706	922.5
372.932	958.5
373.158	979.5
373.384	1002.5
373.61	988.5
373.835	1047.5
374.061	1001.5
374.287	960.5
374.513	966.5
374.739	969.5
374.965	1023.5
375.191	1013.5
375.416	1002.5
375.642	1047.5
375.868	1074.5
376.094	1124.5
376.319	1021.5
376.545	959.5
376.771	1024.5
376.997	1105.5
377.222	1073.5
377.448	1009.5
377.674	1053.5
377.899	1055.5
378.125	1095.5
378.35	1056.5
378.576	959.5
378.802	942.5
379.027	971.5
379.253	977.5
379.478	1000.5
379.704	966.5
379.929	965.5
380.155	988.5
380.38	1036.5
380.606	960.5
380.831	1000.5
381.057	1070.5
381.282	1078.5
381.507	1047.5
381.733	1145.5
381.958	1142.5
382.184	1035.5
382.409	1029.5
382.634	1049.5
382.86	1012.5
383.085	1059.5
383.31	1081.5
383.535	1178.5
383.761	1190.5
383.986	1198.5
384.211	1104.5
384.436	1142.5
384.662	1190.5
384.887	1196.5
385.112	1148.5
385.337	1137.5
385.562	1094.5
385.787	1122.5
386.013	1182.5
386.238	1160.5
386.463	1158.5
386.688	1267.5
386.913	1297.5
387.138	1251.5
387.363	1157.5
387.588	1143.5
387.813	1180.5
388.038	1172.5
388.263	1214.5
388.488	1140.5
388.713	1070.5
388.938	1091.5
389.163	1100.5
389.387	1121.5
389.612	1103.5
389.837	1135.5
390.062	1118.5
390.287	1144.5
390.512	1111.5
390.736	1112.5
390.961	1095.5
391.186	1041.5
391.411	1092.5
391.636	1087.5
391.86	1151.5
392.085	1126.5
392.31	1110.5
392.534	1149.5
392.759	1148.5
392.984	1136.5
393.208	1156.5
393.433	1174.5
393.658	1226.5
393.882	1223.5
394.107	1148.5
394.331	1079.5
394.556	1099.5
394.78	1148.5
395.005	1185.5
395.229	1226.5
395.454	1296.5
395.678	1277.5
395.903	1226.5
396.127	1214.5
396.352	1179.5
396.576	1244.5
396.801	1279.5
397.025	1272.5
397.249	1257.5
397.474	1229.5
397.698	1222.5
397.922	1276.5
398.147	1322.5
398.371	1406.5
398.595	1354.5
398.82	1305.5
399.044	1310.5
399.268	1350.5
399.492	1468.5
399.717	1489.5
399.941	1495.5
400.165	1453.5
400.389	1448.5
400.613	1449.5
400.837	1625.5
401.062	1791.5
401.286	1526.5
401.51	1433.5
401.734	1472.5
401.958	1385.5
402.182	1307.5
402.406	1277.5
402.63	1276.5
402.854	1260.5
403.078	1300.5
403.302	1294.5
403.526	1328.5
403.75	1324.5
403.974	1372.5
404.198	1404.5
404.422	1410.5
404.645	1509.5
404.869	1429.5
405.093	1311.5
405.317	1284.5
405.541	1376.5
405.765	1373.5
405.988	1359.5
406.212	1372.5
406.436	1407.5
406.66	1452.5
406.883	1496.5
407.107	1680.5
407.331	1801.5
407.555	1938.5
407.778	1660.5
408.002	1442.5
408.226	1394.5
408.449	1440.5
408.673	1356.5
408.896	1378.5
409.12	1404.5
409.344	1360.5
409.567	1329.5
409.791	1380.5
410.014	1401.5
410.238	1428.5
410.461	1529.5
410.685	1330.5
410.908	1316.5
411.132	1379.5
411.355	1365.5
411.578	1340.5
411.802	1328.5
412.025	1357.5
412.249	1351.5
412.472	1300.5
412.695	1272.5
412.919	1310.5
413.142	1282.5
413.365	1318.5
413.589	1381.5
413.812	1434.5
414.035	1459.5
414.258	1314.5
414.482	1305.5
414.705	1337.5
414.928	1307.5
415.151	1270.5
415.374	1305.5
415.597	1361.5
415.821	1303.5
416.044	1328.5
416.267	1330.5
416.49	1312.5
416.713	1276.5
416.936	1291.5
417.159	1387.5
417.382	1328.5
417.605	1280.5
417.828	1312.5
418.051	1330.5
418.274	1303.5
418.497	1248.5
418.72	1264.5
418.943	1272.5
419.166	1330.5
419.389	1378.5
419.611	1301.5
419.834	1289.5
420.057	1342.5
420.28	1306.5
420.503	1315.5
420.726	1321.5
420.948	1298.5
421.171	1257.5
421.394	1276.5
421.617	1316.5
421.839	1344.5
422.062	1335.5
422.285	1277.5
422.507	1265.5
422.73	1236.5
422.953	1232.5
423.175	1197.5
423.398	1243.5
423.621	1277.5
423.843	1331.5
424.066	1294.5
424.288	1372.5
424.511	1435.5
424.733	1349.5
424.956	1243.5
425.178	1214.5
425.401	1282.5
425.623	1255.5
425.846	1263.5
426.068	1335.5
426.291	1336.5
426.513	1325.5
426.735	1330.5
426.958	1417.5
427.18	1475.5
427.402	1361.5
427.625	1416.5
427.847	1385.5
428.069	1279.5
428.292	1274.5
428.514	1231.5
428.736	1214.5
428.958	1213.5
429.181	1263.5
429.403	1477.5
429.625	1749.5
429.847	1465.5
430.069	1328.5
430.292	1468.5
430.514	1449.5
430.736	1334.5
430.958	1395.5
431.18	1300.5
431.402	1209.5
431.624	1203.5
431.846	1156.5
432.068	1142.5
432.29	1129.5
432.512	1160.5
432.734	1220.5
432.956	1278.5
433.178	1298.5
433.4	1327.5
433.622	1304.5
433.844	1267.5
434.066	1229.5
434.287	1189.5
434.509	1158.5
434.731	1293.5
434.953	1379.5
435.175	1326.5
435.397	1296.5
435.618	1249.5
435.84	1249.5
436.062	1257.5
436.284	1298.5
436.505	1284.5
436.727	1289.5
436.949	1258.5
437.17	1232.5
437.392	1241.5
437.614	1224.5
437.835	1175.5
438.057	1249.5
438.278	1266.5
438.5	1223.5
438.721	1225.5
438.943	1252.5
439.165	1254.5
439.386	1223.5
439.608	1249.5
439.829	1261.5
440.05	1252.5
440.272	1232.5
440.493	1222.5
440.715	1275.5
440.936	1338.5
441.158	1430.5
441.379	1352.5
441.6	1418.5
441.822	1364.5
442.043	1318.5
442.264	1350.5
442.486	1280.5
442.707	1264.5
442.928	1265.5
443.149	1270.5
443.371	1332.5
443.592	1418.5
443.813	1353.5
444.034	1356.5
444.255	1341.5
444.476	1366.5
444.698	1382.5
444.919	1388.5
445.14	1470.5
445.361	1449.5
445.582	1451.5
445.803	1446.5
446.024	1394.5
446.245	1422.5
446.466	1392.5
446.687	1367.5
446.908	1347.5
447.129	1326.5
447.35	1311.5
447.571	1287.5
447.792	1250.5
448.013	1233.5
448.234	1246.5
448.455	1312.5
448.675	1338.5
448.896	1215.5
449.117	1180.5
449.338	1245.5
449.559	1276.5
449.779	1336.5
450	1439.5
450.221	1479.5
450.442	1442.5
450.662	1297.5
450.883	1183.5
451.104	1162.5
451.324	1210.5
451.545	1210.5
451.766	1192.5
451.986	1123.5
452.207	1141.5
452.428	1108.5
452.648	1084.5
452.869	1123.5
453.089	1098.5
453.31	1155.5
453.53	1156.5
453.751	1101.5
453.971	1020.5
454.192	1112.5
454.412	1145.5
454.633	1127.5
454.853	1127.5
455.073	1079.5
455.294	1044.5
455.514	1064.5
455.734	1097.5
455.955	1086.5
456.175	1070.5
456.395	1060.5
456.616	1090.5
456.836	1071.5
457.056	1072.5
457.276	1093.5
457.497	1070.5
457.717	992.5
457.937	1039.5
458.157	1065.5
458.377	1030.5
458.598	1052.5
458.818	1068.5
459.038	1109.5
459.258	1136.5
459.478	1134.5
459.698	1108.5
459.918	1125.5
460.138	1246.5
460.358	1245.5
460.578	1240.5
460.798	1287.5
461.018	1337.5
461.238	1319.5
461.458	1266.5
461.678	1224.5
461.898	1228.5
462.118	1204.5
462.338	1258.5
462.558	1260.5
462.777	1228.5
462.997	1317.5
463.217	1368.5
463.437	1336.5
463.657	1254.5
463.876	1299.5
464.096	1290.5
464.316	1257.5
464.536	1284.5
464.755	1272.5
464.975	1269.5
465.195	1276.5
465.414	1328.5
465.634	1301.5
465.854	1289.5
466.073	1403.5
466.293	1332.5
466.512	1223.5
466.732	1217.5
466.951	1240.5
467.171	1224.5
467.391	1160.5
467.61	1223.5
467.829	1234.5
468.049	1310.5
468.268	1446.5
468.488	1341.5
468.707	1268.5
468.927	1208.5
469.146	1214.5
469.365	1221.5
469.585	1239.5
469.804	1208.5
470.023	1219.5
470.243	1263.5
470.462	1280.5
470.681	1200.5
470.901	1214.5
471.12	1219.5
471.339	1228.5
471.558	1201.5
471.777	1188.5
471.997	1189.5
472.216	1183.5
472.435	1078.5
472.654	1114.5
472.873	1155.5
473.092	1249.5
473.311	1166.5
473.53	1145.5
473.749	1152.5
473.968	1165.5
474.187	1223.5
474.406	1257.5
474.625	1200.5
474.844	1226.5
475.063	1206.5
475.282	1224.5
475.501	1209.5
475.72	1175.5
475.939	1289.5
476.158	1243.5
476.377	1228.5
476.596	1212.5
476.814	1217.5
477.033	1224.5
477.252	1264.5
477.471	1321.5
477.69	1301.5
477.908	1257.5
478.127	1345.5
478.346	1461.5
478.564	1404.5
478.783	1379.5
479.002	1432.5
479.22	1426.5
479.439	1478.5
479.658	1578.5
479.876	1503.5
480.095	1373.5
480.313	1355.5
480.532	1317.5
480.751	1340.5
480.969	1306.5
481.188	1238.5
481.406	1248.5
481.624	1232.5
481.843	1248.5
482.061	1283.5
482.28	1324.5
482.498	1377.5
482.717	1308.5
482.935	1282.5
483.153	1374.5
483.372	1404.5
483.59	1334.5
483.808	1367.5
484.027	1373.5
484.245	1452.5
484.463	1772.5
484.681	1880.5
484.9	1493.5
485.118	1343.5
485.336	1332.5
485.554	1361.5
485.772	1358.5
485.99	1360.5
486.209	1403.5
486.427	1361.5
486.645	1377.5
486.863	1398.5
487.081	1456.5
487.299	1444.5
487.517	1439.5
487.735	1457.5
487.953	1510.5
488.171	1472.5
488.389	1424.5
488.607	1472.5
488.825	1631.5
489.043	1543.5
489.261	1388.5
489.479	1440.5
489.696	1462.5
489.914	1462.5
490.132	1446.5
490.35	1448.5
490.568	1542.5
490.786	1504.5
491.003	1453.5
491.221	1532.5
491.439	1579.5
491.657	1566.5
491.874	1582.5
492.092	1667.5
492.31	1658.5
492.527	1657.5
492.745	1653.5
492.963	1587.5
493.18	1649.5
493.398	1724.5
493.615	1700.5
493.833	1567.5
494.05	1588.5
494.268	1582.5
494.485	1612.5
494.703	1537.5
494.92	1500.5
495.138	1507.5
495.355	1579.5
495.573	1619.5
495.79	1677.5
496.008	1667.5
496.225	1594.5
496.442	1624.5
496.66	1572.5
496.877	1575.5
497.094	1685.5
497.312	1651.5
497.529	1625.5
497.746	1626.5
497.963	1822.5
498.181	1980.5
498.398	1862.5
498.615	1794.5
498.832	1744.5
499.049	1778.5
499.267	1739.5
499.484	1888.5
499.701	2028.5
499.918	2031.5
500.135	2205.5
500.352	2334.5
500.569	2377.5
500.786	2560.5
501.003	2341.5
501.22	2102.5
501.437	2051.5
501.654	2065.5
501.871	2019.5
502.088	1737.5
502.305	1760.5
502.522	1660.5
502.739	1594.5
502.956	1582.5
503.172	1546.5
503.389	1490.5
503.606	1474.5
503.823	1483.5
504.04	1467.5
504.256	1495.5
504.473	1487.5
504.69	1532.5
504.907	1452.5
505.123	1423.5
505.34	1575.5
505.557	2020.5
505.773	1619.5
505.99	1373.5
506.207	1320.5
506.423	1306.5
506.64	1286.5
506.856	1293.5
507.073	1511.5
507.289	1618.5
507.506	1515.5
507.722	1315.5
507.939	1244.5
508.155	1225.5
508.372	1255.5
508.588	1218.5
508.805	1187.5
509.021	1142.5
509.238	1145.5
509.454	1149.5
509.67	1139.5
509.887	1145.5
