Data from WStandard_LampEnergy8_LIBS07252019.E.O._I.C._HRD10591_15-58-07-929.txt Node
Date: Thu Jul 25 15:58:07 EDT 2019
User: cochatt
Spectrometer: HR+D1059
Trigger mode: 1
Integration Time (sec): 1.000000E-1
Scans to average: 1
Electric dark correction enabled: true
Nonlinearity correction enabled: false
Boxcar width: 0
XAxis mode: Wavelengths
Number of Pixels in Spectrum: 2048
>>>>>Begin Spectral Data<<<<<
223.165	-23.06
223.4	-23.06
223.635	-23.06
223.869	-19.06
224.104	-4.06
224.338	-17.06
224.573	-9.06
224.808	-7.06
225.042	-15.06
225.277	-6.06
225.511	6.94
225.746	-4.06
225.98	14.94
226.215	1.94
226.449	20.94
226.683	32.94
226.918	17.94
227.152	8.94
227.387	43.94
227.621	38.94
227.856	43.94
228.09	44.94
228.324	55.94
228.559	58.94
228.793	97.94
229.027	208.94
229.262	219.94
229.496	224.94
229.73	238.94
229.964	264.94
230.199	248.94
230.433	277.94
230.667	282.94
230.901	303.94
231.136	272.94
231.37	274.94
231.604	277.94
231.838	267.94
232.072	271.94
232.306	276.94
232.541	300.94
232.775	334.94
233.009	341.94
233.243	313.94
233.477	299.94
233.711	299.94
233.945	307.94
234.179	321.94
234.413	325.94
234.647	356.94
234.881	340.94
235.115	304.94
235.349	310.94
235.583	322.94
235.817	315.94
236.051	323.94
236.285	319.94
236.519	352.94
236.753	375.94
236.987	380.94
237.221	396.94
237.455	397.94
237.689	375.94
237.922	368.94
238.156	364.94
238.39	384.94
238.624	376.94
238.858	419.94
239.091	421.94
239.325	425.94
239.559	496.94
239.793	492.94
240.027	511.94
240.26	526.94
240.494	404.94
240.728	400.94
240.961	408.94
241.195	409.94
241.429	434.94
241.662	449.94
241.896	432.94
242.13	433.94
242.363	463.94
242.597	476.94
242.83	478.94
243.064	487.94
243.298	495.94
243.531	477.94
243.765	455.94
243.998	465.94
244.232	430.94
244.465	426.94
244.699	447.94
244.932	523.94
245.166	531.94
245.399	507.94
245.633	486.94
245.866	479.94
246.099	506.94
246.333	495.94
246.566	538.94
246.8	571.94
247.033	599.94
247.266	560.94
247.5	552.94
247.733	561.94
247.966	578.94
248.2	615.94
248.433	615.94
248.666	648.94
248.899	686.94
249.133	791.94
249.366	867.94
249.599	726.94
249.832	640.94
250.066	671.94
250.299	654.94
250.532	616.94
250.765	590.94
250.998	615.94
251.231	612.94
251.465	646.94
251.698	603.94
251.931	613.94
252.164	617.94
252.397	613.94
252.63	635.94
252.863	553.94
253.096	549.94
253.329	582.94
253.562	621.94
253.795	642.94
254.028	640.94
254.261	586.94
254.494	602.94
254.727	605.94
254.96	624.94
255.193	670.94
255.426	737.94
255.659	805.94
255.892	824.94
256.124	713.94
256.357	710.94
256.59	728.94
256.823	722.94
257.056	708.94
257.289	881.94
257.521	923.94
257.754	852.94
257.987	828.94
258.22	866.94
258.452	834.94
258.685	722.94
258.918	692.94
259.151	683.94
259.383	674.94
259.616	626.94
259.849	651.94
260.081	702.94
260.314	812.94
260.547	871.94
260.779	883.94
261.012	804.94
261.244	721.94
261.477	700.94
261.71	739.94
261.942	735.94
262.175	688.94
262.407	723.94
262.64	693.94
262.872	662.94
263.105	641.94
263.337	656.94
263.57	668.94
263.802	682.94
264.035	627.94
264.267	583.94
264.499	589.94
264.732	640.94
264.964	688.94
265.197	692.94
265.429	742.94
265.661	808.94
265.894	894.94
266.126	882.94
266.358	830.94
266.591	852.94
266.823	886.94
267.055	835.94
267.287	792.94
267.52	800.94
267.752	806.94
267.984	801.94
268.216	836.94
268.448	864.94
268.681	814.94
268.913	764.94
269.145	734.94
269.377	732.94
269.609	813.94
269.841	926.94
270.073	1028.94
270.306	1138.94
270.538	1146.94
270.77	1006.94
271.002	866.94
271.234	832.94
271.466	866.94
271.698	924.94
271.93	1125.94
272.162	1082.94
272.394	1028.94
272.626	946.94
272.858	836.94
273.09	732.94
273.322	729.94
273.553	698.94
273.785	741.94
274.017	724.94
274.249	786.94
274.481	792.94
274.713	740.94
274.945	712.94
275.176	745.94
275.408	722.94
275.64	692.94
275.872	724.94
276.104	775.94
276.335	882.94
276.567	959.94
276.799	950.94
277.031	868.94
277.262	839.94
277.494	862.94
277.726	938.94
277.957	921.94
278.189	843.94
278.421	776.94
278.652	771.94
278.884	765.94
279.115	776.94
279.347	789.94
279.579	768.94
279.81	787.94
280.042	838.94
280.273	954.94
280.505	947.94
280.736	905.94
280.968	856.94
281.199	754.94
281.431	755.94
281.662	761.94
281.894	752.94
282.125	770.94
282.356	778.94
282.588	803.94
282.819	814.94
283.051	865.94
283.282	947.94
283.513	870.94
283.745	782.94
283.976	747.94
284.207	762.94
284.439	750.94
284.67	754.94
284.901	805.94
285.132	833.94
285.364	800.94
285.595	817.94
285.826	769.94
286.057	798.94
286.288	785.94
286.52	831.94
286.751	865.94
286.982	892.94
287.213	809.94
287.444	759.94
287.675	786.94
287.906	805.94
288.138	835.94
288.369	848.94
288.6	758.94
288.831	760.94
289.062	778.94
289.293	781.94
289.524	783.94
289.755	828.94
289.986	828.94
290.217	777.94
290.448	778.94
290.679	819.94
290.91	832.94
291.141	838.94
291.371	859.94
291.602	862.94
291.833	852.94
292.064	884.94
292.295	859.94
292.526	886.94
292.757	898.94
292.987	850.94
293.218	841.94
293.449	934.94
293.68	994.94
293.91	1047.94
294.141	974.94
294.372	955.94
294.603	967.94
294.833	989.94
295.064	941.94
295.295	874.94
295.525	872.94
295.756	787.94
295.987	772.94
296.217	775.94
296.448	829.94
296.679	807.94
296.909	804.94
297.14	793.94
297.37	807.94
297.601	883.94
297.831	918.94
298.062	906.94
298.292	829.94
298.523	798.94
298.753	807.94
298.984	811.94
299.214	793.94
299.445	846.94
299.675	847.94
299.905	898.94
300.136	848.94
300.366	816.94
300.597	796.94
300.827	792.94
301.057	861.94
301.288	872.94
301.518	896.94
301.748	930.94
301.979	925.94
302.209	950.94
302.439	1015.94
302.669	1051.94
302.9	948.94
303.13	882.94
303.36	873.94
303.59	907.94
303.82	890.94
304.051	888.94
304.281	870.94
304.511	902.94
304.741	975.94
304.971	1059.94
305.201	1105.94
305.431	985.94
305.661	846.94
305.891	786.94
306.121	795.94
306.352	827.94
306.582	874.94
306.812	947.94
307.042	974.94
307.272	984.94
307.502	1034.94
307.731	1069.94
307.961	1133.94
308.191	1019.94
308.421	907.94
308.651	876.94
308.881	855.94
309.111	854.94
309.341	840.94
309.571	857.94
309.8	852.94
310.03	844.94
310.26	866.94
310.49	834.94
310.72	878.94
310.949	906.94
311.179	918.94
311.409	896.94
311.639	856.94
311.868	848.94
312.098	880.94
312.328	857.94
312.557	863.94
312.787	898.94
313.017	903.94
313.246	907.94
313.476	878.94
313.706	917.94
313.935	900.94
314.165	927.94
314.394	944.94
314.624	1030.94
314.853	1070.94
315.083	1085.94
315.312	1086.94
315.542	1006.94
315.771	907.94
316.001	962.94
316.23	1003.94
316.46	958.94
316.689	957.94
316.919	893.94
317.148	888.94
317.377	928.94
317.607	1010.94
317.836	1076.94
318.065	1152.94
318.295	1086.94
318.524	1035.94
318.753	985.94
318.983	961.94
319.212	953.94
319.441	942.94
319.67	958.94
319.9	976.94
320.129	1026.94
320.358	1061.94
320.587	1075.94
320.816	1025.94
321.046	1042.94
321.275	997.94
321.504	1039.94
321.733	1084.94
321.962	1030.94
322.191	980.94
322.42	962.94
322.649	974.94
322.878	963.94
323.108	975.94
323.337	991.94
323.566	987.94
323.795	989.94
324.024	984.94
324.253	959.94
324.482	980.94
324.71	930.94
324.939	898.94
325.168	937.94
325.397	962.94
325.626	986.94
325.855	990.94
326.084	962.94
326.313	951.94
326.542	958.94
326.77	988.94
326.999	1015.94
327.228	932.94
327.457	920.94
327.686	911.94
327.914	950.94
328.143	944.94
328.372	958.94
328.6	985.94
328.829	952.94
329.058	922.94
329.287	960.94
329.515	963.94
329.744	989.94
329.972	1039.94
330.201	1072.94
330.43	1053.94
330.658	1020.94
330.887	1010.94
331.115	1026.94
331.344	1026.94
331.572	1002.94
331.801	996.94
332.03	1006.94
332.258	1042.94
332.486	1050.94
332.715	1043.94
332.943	1000.94
333.172	971.94
333.4	1052.94
333.629	1103.94
333.857	1135.94
334.085	1286.94
334.314	1421.94
334.542	1479.94
334.771	1361.94
334.999	1194.94
335.227	1105.94
335.455	1112.94
335.684	1107.94
335.912	1105.94
336.14	1143.94
336.369	1106.94
336.597	1036.94
336.825	1036.94
337.053	1082.94
337.281	1145.94
337.51	1207.94
337.738	1202.94
337.966	1130.94
338.194	1054.94
338.422	1003.94
338.65	1006.94
338.878	973.94
339.106	980.94
339.334	964.94
339.562	975.94
339.79	1009.94
340.018	1035.94
340.246	1084.94
340.474	1059.94
340.702	1025.94
340.93	1066.94
341.158	1036.94
341.386	1017.94
341.614	978.94
341.842	986.94
342.07	1017.94
342.298	1019.94
342.526	1002.94
342.754	1026.94
342.981	979.94
343.209	993.94
343.437	977.94
343.665	982.94
343.893	1034.94
344.12	1083.94
344.348	1061.94
344.576	1058.94
344.804	1005.94
345.031	1012.94
345.259	1028.94
345.487	976.94
345.714	930.94
345.942	930.94
346.17	943.94
346.397	976.94
346.625	1006.94
346.853	906.94
347.08	878.94
347.308	916.94
347.535	944.94
347.763	988.94
347.99	960.94
348.218	922.94
348.445	939.94
348.673	919.94
348.9	986.94
349.128	1016.94
349.355	1029.94
349.583	1016.94
349.81	963.94
350.037	897.94
350.265	924.94
350.492	894.94
350.72	909.94
350.947	995.94
351.174	963.94
351.402	903.94
351.629	901.94
351.856	867.94
352.083	867.94
352.311	901.94
352.538	933.94
352.765	992.94
352.992	1001.94
353.22	936.94
353.447	906.94
353.674	984.94
353.901	938.94
354.128	907.94
354.355	940.94
354.583	967.94
354.81	959.94
355.037	993.94
355.264	1000.94
355.491	968.94
355.718	939.94
355.945	918.94
356.172	939.94
356.399	913.94
356.626	948.94
356.853	995.94
357.08	1086.94
357.307	1164.94
357.534	1101.94
357.761	1018.94
357.988	953.94
358.215	898.94
358.441	909.94
358.668	909.94
358.895	924.94
359.122	998.94
359.349	1074.94
359.576	1052.94
359.802	944.94
360.029	922.94
360.256	941.94
360.483	935.94
360.709	970.94
360.936	1000.94
361.163	1073.94
361.39	1122.94
361.616	1196.94
361.843	1164.94
362.07	1078.94
362.296	950.94
362.523	938.94
362.749	937.94
362.976	987.94
363.203	986.94
363.429	927.94
363.656	925.94
363.882	999.94
364.109	1102.94
364.335	1138.94
364.562	1063.94
364.788	1000.94
365.015	947.94
365.241	914.94
365.468	966.94
365.694	995.94
365.92	1028.94
366.147	974.94
366.373	939.94
366.599	916.94
366.826	949.94
367.052	924.94
367.278	933.94
367.505	980.94
367.731	972.94
367.957	981.94
368.184	1018.94
368.41	1084.94
368.636	1090.94
368.862	1097.94
369.089	1087.94
369.315	1032.94
369.541	1015.94
369.767	977.94
369.993	956.94
370.219	960.94
370.445	1010.94
370.672	1034.94
370.898	1076.94
371.124	1065.94
371.35	996.94
371.576	1056.94
371.802	1079.94
372.028	1018.94
372.254	987.94
372.48	985.94
372.706	952.94
372.932	954.94
373.158	978.94
373.384	1005.94
373.61	1043.94
373.835	1074.94
374.061	1000.94
374.287	1014.94
374.513	1019.94
374.739	1020.94
374.965	1045.94
375.191	1023.94
375.416	1033.94
375.642	1077.94
375.868	1133.94
376.094	1140.94
376.319	1059.94
376.545	1025.94
376.771	1047.94
376.997	1132.94
377.222	1089.94
377.448	1064.94
377.674	1094.94
377.899	1088.94
378.125	1151.94
378.35	1125.94
378.576	995.94
378.802	969.94
379.027	987.94
379.253	1002.94
379.478	1009.94
379.704	1010.94
379.929	1004.94
380.155	1011.94
380.38	1027.94
380.606	1031.94
380.831	1055.94
381.057	1113.94
381.282	1097.94
381.507	1100.94
381.733	1194.94
381.958	1162.94
382.184	1079.94
382.409	1052.94
382.634	1068.94
382.86	1072.94
383.085	1057.94
383.31	1125.94
383.535	1253.94
383.761	1240.94
383.986	1206.94
384.211	1151.94
384.436	1166.94
384.662	1220.94
384.887	1228.94
385.112	1150.94
385.337	1171.94
385.562	1153.94
385.787	1137.94
386.013	1202.94
386.238	1186.94
386.463	1202.94
386.688	1316.94
386.913	1388.94
387.138	1278.94
387.363	1210.94
387.588	1173.94
387.813	1171.94
388.038	1216.94
388.263	1265.94
388.488	1200.94
388.713	1107.94
388.938	1088.94
389.163	1138.94
389.387	1182.94
389.612	1132.94
389.837	1190.94
390.062	1170.94
390.287	1162.94
390.512	1169.94
390.736	1119.94
390.961	1138.94
391.186	1064.94
391.411	1130.94
391.636	1119.94
391.86	1179.94
392.085	1142.94
392.31	1126.94
392.534	1127.94
392.759	1151.94
392.984	1162.94
393.208	1155.94
393.433	1233.94
393.658	1264.94
393.882	1272.94
394.107	1199.94
394.331	1149.94
394.556	1153.94
394.78	1185.94
395.005	1226.94
395.229	1242.94
395.454	1340.94
395.678	1339.94
395.903	1250.94
396.127	1230.94
396.352	1248.94
396.576	1276.94
396.801	1297.94
397.025	1291.94
397.249	1282.94
397.474	1236.94
397.698	1217.94
397.922	1306.94
398.147	1365.94
398.371	1412.94
398.595	1402.94
398.82	1356.94
399.044	1360.94
399.268	1419.94
399.492	1501.94
399.717	1515.94
399.941	1538.94
400.165	1483.94
400.389	1476.94
400.613	1523.94
400.837	1665.94
401.062	1846.94
401.286	1619.94
401.51	1485.94
401.734	1494.94
401.958	1451.94
402.182	1348.94
402.406	1347.94
402.63	1342.94
402.854	1302.94
403.078	1344.94
403.302	1370.94
403.526	1357.94
403.75	1412.94
403.974	1396.94
404.198	1378.94
404.422	1435.94
404.645	1485.94
404.869	1466.94
405.093	1324.94
405.317	1338.94
405.541	1390.94
405.765	1388.94
405.988	1386.94
406.212	1413.94
406.436	1410.94
406.66	1479.94
406.883	1530.94
407.107	1748.94
407.331	1848.94
407.555	1945.94
407.778	1749.94
408.002	1504.94
408.226	1475.94
408.449	1464.94
408.673	1406.94
408.896	1407.94
409.12	1457.94
409.344	1418.94
409.567	1386.94
409.791	1379.94
410.014	1434.94
410.238	1502.94
410.461	1587.94
410.685	1376.94
410.908	1391.94
411.132	1392.94
411.355	1374.94
411.578	1373.94
411.802	1352.94
412.025	1373.94
412.249	1370.94
412.472	1321.94
412.695	1336.94
412.919	1338.94
413.142	1316.94
413.365	1332.94
413.589	1367.94
413.812	1438.94
414.035	1443.94
414.258	1347.94
414.482	1351.94
414.705	1347.94
414.928	1318.94
415.151	1335.94
415.374	1353.94
415.597	1349.94
415.821	1387.94
416.044	1399.94
416.267	1359.94
416.49	1314.94
416.713	1290.94
416.936	1368.94
417.159	1407.94
417.382	1442.94
417.605	1331.94
417.828	1345.94
418.051	1381.94
418.274	1359.94
418.497	1337.94
418.72	1328.94
418.943	1314.94
419.166	1352.94
419.389	1383.94
419.611	1316.94
419.834	1320.94
420.057	1316.94
420.28	1319.94
420.503	1293.94
420.726	1379.94
420.948	1336.94
421.171	1300.94
421.394	1299.94
421.617	1375.94
421.839	1340.94
422.062	1338.94
422.285	1303.94
422.507	1308.94
422.73	1286.94
422.953	1238.94
423.175	1257.94
423.398	1290.94
423.621	1291.94
423.843	1289.94
424.066	1346.94
424.288	1438.94
424.511	1468.94
424.733	1380.94
424.956	1297.94
425.178	1294.94
425.401	1295.94
425.623	1299.94
425.846	1326.94
426.068	1359.94
426.291	1368.94
426.513	1363.94
426.735	1373.94
426.958	1477.94
427.18	1539.94
427.402	1400.94
427.625	1398.94
427.847	1441.94
428.069	1310.94
428.292	1294.94
428.514	1238.94
428.736	1249.94
428.958	1295.94
429.181	1251.94
429.403	1520.94
429.625	1824.94
429.847	1529.94
430.069	1358.94
430.292	1497.94
430.514	1474.94
430.736	1407.94
430.958	1407.94
431.18	1325.94
431.402	1273.94
431.624	1242.94
431.846	1213.94
432.068	1168.94
432.29	1180.94
432.512	1204.94
432.734	1294.94
432.956	1316.94
433.178	1401.94
433.4	1347.94
433.622	1333.94
433.844	1278.94
434.066	1210.94
434.287	1195.94
434.509	1209.94
434.731	1306.94
434.953	1438.94
435.175	1355.94
435.397	1339.94
435.618	1321.94
435.84	1273.94
436.062	1278.94
436.284	1265.94
436.505	1315.94
436.727	1329.94
436.949	1354.94
437.17	1277.94
437.392	1286.94
437.614	1238.94
437.835	1198.94
438.057	1271.94
438.278	1281.94
438.5	1244.94
438.721	1251.94
438.943	1278.94
439.165	1266.94
439.386	1263.94
439.608	1275.94
439.829	1278.94
440.05	1314.94
440.272	1243.94
440.493	1281.94
440.715	1303.94
440.936	1407.94
441.158	1455.94
441.379	1435.94
441.6	1384.94
441.822	1410.94
442.043	1346.94
442.264	1334.94
442.486	1268.94
442.707	1250.94
442.928	1256.94
443.149	1339.94
443.371	1364.94
443.592	1402.94
443.813	1388.94
444.034	1373.94
444.255	1385.94
444.476	1427.94
444.698	1450.94
444.919	1435.94
445.14	1497.94
445.361	1480.94
445.582	1453.94
445.803	1454.94
446.024	1415.94
446.245	1472.94
446.466	1392.94
446.687	1372.94
446.908	1372.94
447.129	1320.94
447.35	1323.94
447.571	1316.94
447.792	1277.94
448.013	1236.94
448.234	1297.94
448.455	1344.94
448.675	1336.94
448.896	1284.94
449.117	1234.94
449.338	1294.94
449.559	1311.94
449.779	1353.94
450	1456.94
450.221	1528.94
450.442	1445.94
450.662	1334.94
450.883	1216.94
451.104	1208.94
451.324	1210.94
451.545	1270.94
451.766	1242.94
451.986	1167.94
452.207	1170.94
452.428	1128.94
452.648	1139.94
452.869	1131.94
453.089	1174.94
453.31	1193.94
453.53	1191.94
453.751	1134.94
453.971	1099.94
454.192	1145.94
454.412	1164.94
454.633	1160.94
454.853	1148.94
455.073	1063.94
455.294	1066.94
455.514	1107.94
455.734	1090.94
455.955	1135.94
456.175	1095.94
456.395	1111.94
456.616	1091.94
456.836	1128.94
457.056	1106.94
457.276	1101.94
457.497	1086.94
457.717	1060.94
457.937	1066.94
458.157	1093.94
458.377	1040.94
458.598	1054.94
458.818	1066.94
459.038	1138.94
459.258	1191.94
459.478	1156.94
459.698	1130.94
459.918	1189.94
460.138	1251.94
460.358	1299.94
460.578	1282.94
460.798	1311.94
461.018	1389.94
461.238	1348.94
461.458	1307.94
461.678	1286.94
461.898	1249.94
462.118	1246.94
462.338	1316.94
462.558	1291.94
462.777	1280.94
462.997	1355.94
463.217	1394.94
463.437	1353.94
463.657	1314.94
463.876	1287.94
464.096	1281.94
464.316	1309.94
464.536	1338.94
464.755	1313.94
464.975	1334.94
465.195	1330.94
465.414	1350.94
465.634	1346.94
465.854	1321.94
466.073	1412.94
466.293	1355.94
466.512	1246.94
466.732	1199.94
466.951	1291.94
467.171	1262.94
467.391	1243.94
467.61	1206.94
467.829	1269.94
468.049	1370.94
468.268	1482.94
468.488	1347.94
468.707	1283.94
468.927	1244.94
469.146	1240.94
469.365	1223.94
469.585	1293.94
469.804	1253.94
470.023	1248.94
470.243	1283.94
470.462	1279.94
470.681	1236.94
470.901	1235.94
471.12	1239.94
471.339	1270.94
471.558	1218.94
471.777	1213.94
471.997	1216.94
472.216	1197.94
472.435	1142.94
472.654	1130.94
472.873	1182.94
473.092	1256.94
473.311	1216.94
473.53	1176.94
473.749	1166.94
473.968	1206.94
474.187	1260.94
474.406	1282.94
474.625	1242.94
474.844	1229.94
475.063	1232.94
475.282	1268.94
475.501	1196.94
475.72	1242.94
475.939	1339.94
476.158	1281.94
476.377	1232.94
476.596	1254.94
476.814	1241.94
477.033	1230.94
477.252	1291.94
477.471	1338.94
477.69	1315.94
477.908	1344.94
478.127	1382.94
478.346	1473.94
478.564	1452.94
478.783	1486.94
479.002	1458.94
479.22	1440.94
479.439	1508.94
479.658	1594.94
479.876	1530.94
480.095	1416.94
480.313	1401.94
480.532	1328.94
480.751	1344.94
480.969	1340.94
481.188	1324.94
481.406	1275.94
481.624	1221.94
481.843	1278.94
482.061	1307.94
482.28	1367.94
482.498	1377.94
482.717	1340.94
482.935	1324.94
483.153	1395.94
483.372	1363.94
483.59	1358.94
483.808	1398.94
484.027	1407.94
484.245	1481.94
484.463	1760.94
484.681	1960.94
484.9	1486.94
485.118	1373.94
485.336	1388.94
485.554	1396.94
485.772	1415.94
485.99	1402.94
486.209	1409.94
486.427	1425.94
486.645	1448.94
486.863	1450.94
487.081	1463.94
487.299	1507.94
487.517	1490.94
487.735	1493.94
487.953	1536.94
488.171	1498.94
488.389	1470.94
488.607	1503.94
488.825	1657.94
489.043	1588.94
489.261	1437.94
489.479	1494.94
489.696	1500.94
489.914	1494.94
490.132	1460.94
490.35	1457.94
490.568	1540.94
490.786	1525.94
491.003	1524.94
491.221	1600.94
491.439	1648.94
491.657	1609.94
491.874	1658.94
492.092	1700.94
492.31	1747.94
492.527	1697.94
492.745	1599.94
492.963	1640.94
