Data from WStandard_LampEnergy5.5LIBS07252019.E.O._I.C._HRD10591_16-08-26-920.txt Node
Date: Thu Jul 25 16:08:26 EDT 2019
User: cochatt
Spectrometer: HR+D1059
Trigger mode: 1
Integration Time (sec): 1.000000E-1
Scans to average: 1
Electric dark correction enabled: true
Nonlinearity correction enabled: false
Boxcar width: 0
XAxis mode: Wavelengths
Number of Pixels in Spectrum: 2048
>>>>>Begin Spectral Data<<<<<
223.165	-28.56
223.4	-28.56
223.635	-28.56
223.869	-23.56
224.104	-16.56
224.338	-18.56
224.573	-23.56
224.808	-15.56
225.042	-5.56
225.277	-5.56
225.511	-6.56
225.746	10.44
225.98	12.44
226.215	20.44
226.449	10.44
226.683	28.44
226.918	34.44
227.152	27.44
227.387	36.44
227.621	30.44
227.856	40.44
228.09	48.44
228.324	45.44
228.559	74.44
228.793	139.44
229.027	337.44
229.262	367.44
229.496	385.44
229.73	376.44
229.964	420.44
230.199	447.44
230.433	479.44
230.667	499.44
230.901	518.44
231.136	490.44
231.37	465.44
231.604	446.44
231.838	474.44
232.072	484.44
232.306	415.44
232.541	470.44
232.775	564.44
233.009	613.44
233.243	579.44
233.477	516.44
233.711	543.44
233.945	552.44
234.179	539.44
234.413	588.44
234.647	613.44
234.881	585.44
235.115	523.44
235.349	535.44
235.583	576.44
235.817	520.44
236.051	543.44
236.285	562.44
236.519	560.44
236.753	657.44
236.987	674.44
237.221	648.44
237.455	719.44
237.689	723.44
237.922	666.44
238.156	647.44
238.39	645.44
238.624	715.44
238.858	730.44
239.091	746.44
239.325	799.44
239.559	921.44
239.793	928.44
240.027	1002.44
240.26	1007.44
240.494	748.44
240.728	691.44
240.961	714.44
241.195	718.44
241.429	803.44
241.662	807.44
241.896	749.44
242.13	752.44
242.363	825.44
242.597	889.44
242.83	866.44
243.064	850.44
243.298	950.44
243.531	908.44
243.765	923.44
243.998	908.44
244.232	811.44
244.465	777.44
244.699	761.44
244.932	882.44
245.166	1031.44
245.399	976.44
245.633	873.44
245.866	856.44
246.099	917.44
246.333	930.44
246.566	951.44
246.8	1025.44
247.033	1176.44
247.266	1058.44
247.5	1045.44
247.733	1036.44
247.966	1084.44
248.2	1207.44
248.433	1171.44
248.666	1176.44
248.899	1282.44
249.133	1467.44
249.366	1729.44
249.599	1396.44
249.832	1188.44
250.066	1250.44
250.299	1294.44
250.532	1186.44
250.765	1065.44
250.998	1145.44
251.231	1172.44
251.465	1217.44
251.698	1155.44
251.931	1151.44
252.164	1184.44
252.397	1223.44
252.63	1215.44
252.863	1084.44
253.096	1083.44
253.329	1120.44
253.562	1163.44
253.795	1258.44
254.028	1246.44
254.261	1127.44
254.494	1143.44
254.727	1098.44
254.96	1098.44
255.193	1209.44
255.426	1353.44
255.659	1573.44
255.892	1647.44
256.124	1326.44
256.357	1314.44
256.59	1377.44
256.823	1381.44
257.056	1396.44
257.289	1647.44
257.521	1917.44
257.754	1691.44
257.987	1556.44
258.22	1742.44
258.452	1729.44
258.685	1407.44
258.918	1337.44
259.151	1361.44
259.383	1290.44
259.616	1134.44
259.849	1201.44
260.081	1353.44
260.314	1490.44
260.547	1671.44
260.779	1680.44
261.012	1575.44
261.244	1407.44
261.477	1327.44
261.71	1397.44
261.942	1360.44
262.175	1339.44
262.407	1462.44
262.64	1336.44
262.872	1235.44
263.105	1193.44
263.337	1233.44
263.57	1249.44
263.802	1247.44
264.035	1174.44
264.267	1093.44
264.499	1087.44
264.732	1172.44
264.964	1256.44
265.197	1300.44
265.429	1368.44
265.661	1540.44
265.894	1698.44
266.126	1778.44
266.358	1579.44
266.591	1601.44
266.823	1737.44
267.055	1581.44
267.287	1583.44
267.52	1529.44
267.752	1502.44
267.984	1511.44
268.216	1577.44
268.448	1625.44
268.681	1608.44
268.913	1448.44
269.145	1386.44
269.377	1367.44
269.609	1435.44
269.841	1721.44
270.073	2003.44
270.306	2240.44
270.538	2375.44
270.77	2000.44
271.002	1718.44
271.234	1569.44
271.466	1577.44
271.698	1770.44
271.93	2125.44
272.162	2165.44
272.394	1949.44
272.626	1853.44
272.858	1628.44
273.09	1417.44
273.322	1409.44
273.553	1366.44
273.785	1359.44
274.017	1397.44
274.249	1523.44
274.481	1557.44
274.713	1409.44
274.945	1367.44
275.176	1393.44
275.408	1333.44
275.64	1345.44
275.872	1296.44
276.104	1375.44
276.335	1615.44
276.567	1848.44
276.799	1894.44
277.031	1673.44
277.262	1549.44
277.494	1628.44
277.726	1803.44
277.957	1809.44
278.189	1647.44
278.421	1494.44
278.652	1474.44
278.884	1442.44
279.115	1451.44
279.347	1517.44
279.579	1428.44
279.81	1396.44
280.042	1568.44
280.273	1712.44
280.505	1728.44
280.736	1782.44
280.968	1664.44
281.199	1500.44
281.431	1411.44
281.662	1394.44
281.894	1391.44
282.125	1443.44
282.356	1484.44
282.588	1515.44
282.819	1496.44
283.051	1619.44
283.282	1745.44
283.513	1724.44
283.745	1463.44
283.976	1362.44
284.207	1383.44
284.439	1419.44
284.67	1414.44
284.901	1452.44
285.132	1506.44
285.364	1506.44
285.595	1483.44
285.826	1471.44
286.057	1456.44
286.288	1447.44
286.52	1513.44
286.751	1661.44
286.982	1725.44
287.213	1529.44
287.444	1413.44
287.675	1413.44
287.906	1487.44
288.138	1587.44
288.369	1568.44
288.6	1482.44
288.831	1408.44
289.062	1450.44
289.293	1481.44
289.524	1470.44
289.755	1508.44
289.986	1513.44
290.217	1399.44
290.448	1433.44
290.679	1481.44
290.91	1499.44
291.141	1510.44
291.371	1583.44
291.602	1558.44
291.833	1548.44
292.064	1636.44
292.295	1570.44
292.526	1623.44
292.757	1669.44
292.987	1603.44
293.218	1463.44
293.449	1568.44
293.68	1795.44
293.91	2013.44
294.141	1852.44
294.372	1725.44
294.603	1752.44
294.833	1875.44
295.064	1776.44
295.295	1579.44
295.525	1575.44
295.756	1451.44
295.987	1360.44
296.217	1407.44
296.448	1445.44
296.679	1441.44
296.909	1440.44
297.14	1431.44
297.37	1447.44
297.601	1522.44
297.831	1643.44
298.062	1715.44
298.292	1559.44
298.523	1487.44
298.753	1508.44
298.984	1485.44
299.214	1493.44
299.445	1480.44
299.675	1573.44
299.905	1555.44
300.136	1528.44
300.366	1463.44
300.597	1403.44
300.827	1446.44
301.057	1501.44
301.288	1592.44
301.518	1568.44
301.748	1621.44
301.979	1663.44
302.209	1694.44
302.439	1772.44
302.669	1926.44
302.9	1790.44
303.13	1605.44
303.36	1601.44
303.59	1623.44
303.82	1602.44
304.051	1592.44
304.281	1607.44
304.511	1584.44
304.741	1683.44
304.971	1872.44
305.201	2065.44
305.431	1923.44
305.661	1535.44
305.891	1406.44
306.121	1407.44
306.352	1429.44
306.582	1548.44
306.812	1659.44
307.042	1746.44
307.272	1759.44
307.502	1805.44
307.731	1943.44
307.961	2083.44
308.191	1964.44
308.421	1647.44
308.651	1571.44
308.881	1557.44
309.111	1540.44
309.341	1517.44
309.571	1510.44
309.8	1540.44
310.03	1527.44
310.26	1517.44
310.49	1497.44
310.72	1598.44
310.949	1619.44
311.179	1621.44
311.409	1613.44
311.639	1559.44
311.868	1529.44
312.098	1533.44
312.328	1527.44
312.557	1529.44
312.787	1545.44
313.017	1619.44
313.246	1592.44
313.476	1592.44
313.706	1651.44
313.935	1659.44
314.165	1634.44
314.394	1660.44
314.624	1740.44
314.853	1883.44
315.083	1903.44
315.312	2018.44
315.542	1910.44
315.771	1696.44
316.001	1647.44
316.23	1707.44
316.46	1752.44
316.689	1718.44
316.919	1609.44
317.148	1577.44
317.377	1539.44
317.607	1700.44
317.836	1907.44
318.065	2010.44
318.295	1920.44
318.524	1835.44
318.753	1727.44
318.983	1719.44
319.212	1703.44
319.441	1639.44
319.67	1667.44
319.9	1715.44
320.129	1766.44
320.358	1860.44
320.587	1884.44
320.816	1854.44
321.046	1822.44
321.275	1676.44
321.504	1735.44
321.733	1851.44
321.962	1846.44
322.191	1693.44
322.42	1706.44
322.649	1657.44
322.878	1654.44
323.108	1677.44
323.337	1740.44
323.566	1761.44
323.795	1704.44
324.024	1739.44
324.253	1657.44
324.482	1691.44
324.71	1675.44
324.939	1580.44
325.168	1613.44
325.397	1653.44
325.626	1740.44
325.855	1711.44
326.084	1630.44
326.313	1707.44
326.542	1695.44
326.77	1760.44
326.999	1739.44
327.228	1706.44
327.457	1572.44
327.686	1602.44
327.914	1669.44
328.143	1657.44
328.372	1661.44
328.6	1639.44
328.829	1661.44
329.058	1643.44
329.287	1627.44
329.515	1695.44
329.744	1703.44
329.972	1793.44
330.201	1860.44
330.43	1863.44
330.658	1758.44
330.887	1781.44
331.115	1785.44
331.344	1840.44
331.572	1773.44
331.801	1738.44
332.03	1745.44
332.258	1788.44
332.486	1829.44
332.715	1774.44
332.943	1786.44
333.172	1797.44
333.4	1771.44
333.629	1819.44
333.857	1900.44
334.085	2101.44
334.314	2368.44
334.542	2649.44
334.771	2460.44
334.999	2151.44
335.227	2012.44
335.455	1881.44
335.684	1857.44
335.912	1892.44
336.14	2013.44
336.369	1940.44
336.597	1855.44
336.825	1797.44
337.053	1848.44
337.281	1917.44
337.51	2049.44
337.738	2118.44
337.966	2040.44
338.194	1865.44
338.422	1805.44
338.65	1724.44
338.878	1714.44
339.106	1733.44
339.334	1648.44
339.562	1585.44
339.79	1692.44
340.018	1790.44
340.246	1848.44
340.474	1854.44
340.702	1791.44
340.93	1849.44
341.158	1795.44
341.386	1760.44
341.614	1772.44
341.842	1740.44
342.07	1752.44
342.298	1801.44
342.526	1755.44
342.754	1727.44
342.981	1684.44
343.209	1732.44
343.437	1720.44
343.665	1741.44
343.893	1756.44
344.12	1908.44
344.348	1896.44
344.576	1788.44
344.804	1723.44
345.031	1723.44
345.259	1725.44
345.487	1699.44
345.714	1636.44
345.942	1594.44
346.17	1612.44
346.397	1673.44
346.625	1676.44
346.853	1589.44
347.08	1569.44
347.308	1550.44
347.535	1627.44
347.763	1709.44
347.99	1589.44
348.218	1555.44
348.445	1594.44
348.673	1601.44
348.9	1689.44
349.128	1732.44
349.355	1763.44
349.583	1729.44
349.81	1680.44
350.037	1516.44
350.265	1533.44
350.492	1555.44
350.72	1557.44
350.947	1610.44
351.174	1656.44
351.402	1594.44
351.629	1524.44
351.856	1496.44
352.083	1552.44
352.311	1500.44
352.538	1539.44
352.765	1598.44
352.992	1683.44
353.22	1602.44
353.447	1547.44
353.674	1576.44
353.901	1595.44
354.128	1577.44
354.355	1542.44
354.583	1664.44
354.81	1714.44
355.037	1659.44
355.264	1639.44
355.491	1599.44
355.718	1636.44
355.945	1596.44
356.172	1576.44
356.399	1531.44
356.626	1567.44
356.853	1579.44
357.08	1713.44
357.307	1879.44
357.534	1905.44
357.761	1703.44
357.988	1555.44
358.215	1497.44
358.441	1536.44
358.668	1540.44
358.895	1515.44
359.122	1611.44
359.349	1812.44
359.576	1772.44
359.802	1621.44
360.029	1536.44
360.256	1521.44
360.483	1548.44
360.709	1565.44
360.936	1657.44
361.163	1688.44
361.39	1877.44
361.616	2002.44
361.843	1986.44
362.07	1805.44
362.296	1639.44
362.523	1588.44
362.749	1598.44
362.976	1618.44
363.203	1620.44
363.429	1584.44
363.656	1540.44
363.882	1575.44
364.109	1777.44
364.335	1943.44
364.562	1813.44
364.788	1720.44
365.015	1665.44
365.241	1535.44
365.468	1575.44
365.694	1644.44
365.92	1749.44
366.147	1695.44
366.373	1542.44
366.599	1526.44
366.826	1552.44
367.052	1573.44
367.278	1572.44
367.505	1608.44
367.731	1659.44
367.957	1645.44
368.184	1637.44
368.41	1747.44
368.636	1788.44
368.862	1776.44
369.089	1799.44
369.315	1734.44
369.541	1674.44
369.767	1610.44
369.993	1589.44
370.219	1587.44
370.445	1618.44
370.672	1698.44
370.898	1784.44
371.124	1835.44
371.35	1676.44
371.576	1732.44
371.802	1809.44
372.028	1729.44
372.254	1672.44
372.48	1599.44
372.706	1604.44
372.932	1637.44
373.158	1602.44
373.384	1656.44
373.61	1704.44
373.835	1786.44
374.061	1687.44
374.287	1644.44
374.513	1661.44
374.739	1676.44
374.965	1716.44
375.191	1718.44
375.416	1731.44
375.642	1683.44
375.868	1829.44
376.094	1843.44
376.319	1803.44
376.545	1719.44
376.771	1697.44
376.997	1817.44
377.222	1752.44
377.448	1705.44
377.674	1755.44
377.899	1703.44
378.125	1827.44
378.35	1855.44
378.576	1666.44
378.802	1607.44
379.027	1627.44
379.253	1648.44
379.478	1642.44
379.704	1661.44
379.929	1660.44
380.155	1693.44
380.38	1706.44
380.606	1707.44
380.831	1704.44
381.057	1737.44
381.282	1759.44
381.507	1738.44
381.733	1813.44
381.958	1927.44
382.184	1780.44
382.409	1733.44
382.634	1743.44
382.86	1716.44
383.085	1764.44
383.31	1805.44
383.535	1928.44
383.761	2062.44
383.986	1904.44
384.211	1879.44
384.436	1869.44
384.662	1933.44
384.887	2028.44
385.112	1944.44
385.337	1929.44
385.562	1925.44
385.787	1924.44
386.013	1967.44
386.238	1957.44
386.463	1923.44
386.688	2081.44
386.913	2196.44
387.138	2132.44
387.363	1945.44
387.588	1962.44
387.813	1990.44
388.038	1955.44
388.263	2047.44
388.488	2044.44
388.713	1827.44
388.938	1793.44
389.163	1843.44
389.387	1891.44
389.612	1896.44
389.837	1915.44
390.062	1932.44
390.287	1941.44
390.512	1929.44
390.736	1842.44
390.961	1855.44
391.186	1831.44
391.411	1847.44
391.636	1907.44
391.86	1898.44
392.085	1897.44
392.31	1879.44
392.534	1916.44
392.759	1944.44
392.984	1930.44
393.208	1946.44
393.433	1980.44
393.658	2028.44
393.882	2091.44
394.107	1980.44
394.331	1945.44
394.556	1877.44
394.78	1931.44
395.005	1963.44
395.229	2010.44
395.454	2200.44
395.678	2220.44
395.903	2110.44
396.127	1979.44
396.352	2022.44
396.576	2137.44
396.801	2104.44
397.025	2098.44
397.249	2091.44
397.474	2061.44
397.698	2025.44
397.922	2126.44
398.147	2217.44
398.371	2280.44
398.595	2281.44
398.82	2231.44
399.044	2294.44
399.268	2324.44
399.492	2501.44
399.717	2573.44
399.941	2608.44
400.165	2499.44
400.389	2413.44
400.613	2417.44
400.837	2650.44
401.062	3091.44
401.286	2650.44
401.51	2374.44
401.734	2461.44
401.958	2421.44
402.182	2234.44
402.406	2183.44
402.63	2166.44
402.854	2146.44
403.078	2175.44
403.302	2240.44
403.526	2308.44
403.75	2283.44
403.974	2237.44
404.198	2300.44
404.422	2281.44
404.645	2447.44
404.869	2406.44
405.093	2254.44
405.317	2172.44
405.541	2274.44
405.765	2309.44
405.988	2258.44
406.212	2364.44
406.436	2367.44
406.66	2439.44
406.883	2419.44
407.107	2709.44
407.331	2919.44
407.555	3162.44
407.778	2969.44
408.002	2458.44
408.226	2370.44
408.449	2397.44
408.673	2348.44
408.896	2307.44
409.12	2418.44
409.344	2347.44
409.567	2245.44
409.791	2314.44
410.014	2340.44
410.238	2424.44
410.461	2551.44
410.685	2311.44
410.908	2223.44
411.132	2261.44
411.355	2309.44
411.578	2154.44
411.802	2231.44
412.025	2287.44
412.249	2232.44
412.472	2149.44
412.695	2105.44
412.919	2134.44
413.142	2100.44
413.365	2199.44
413.589	2218.44
413.812	2270.44
414.035	2412.44
414.258	2234.44
414.482	2197.44
414.705	2219.44
414.928	2154.44
415.151	2156.44
415.374	2170.44
415.597	2212.44
415.821	2219.44
416.044	2281.44
416.267	2311.44
416.49	2109.44
416.713	2078.44
416.936	2132.44
417.159	2248.44
417.382	2245.44
417.605	2112.44
417.828	2180.44
418.051	2217.44
418.274	2174.44
418.497	2092.44
418.72	2108.44
418.943	2078.44
419.166	2203.44
419.389	2363.44
419.611	2222.44
419.834	2156.44
420.057	2200.44
420.28	2070.44
420.503	2105.44
420.726	2140.44
420.948	2107.44
421.171	2059.44
421.394	2147.44
421.617	2179.44
421.839	2189.44
422.062	2133.44
422.285	2097.44
422.507	2108.44
422.73	2028.44
422.953	1988.44
423.175	2020.44
423.398	2085.44
423.621	2104.44
423.843	2109.44
424.066	2138.44
424.288	2236.44
424.511	2220.44
424.733	2144.44
424.956	1983.44
425.178	1940.44
425.401	2013.44
425.623	2035.44
425.846	1990.44
426.068	2093.44
426.291	2178.44
426.513	2172.44
426.735	2136.44
426.958	2242.44
427.18	2385.44
427.402	2198.44
427.625	2250.44
427.847	2281.44
428.069	2116.44
428.292	2092.44
428.514	2000.44
428.736	1977.44
428.958	2026.44
429.181	2055.44
429.403	2270.44
429.625	2849.44
429.847	2520.44
430.069	2072.44
430.292	2266.44
430.514	2338.44
430.736	2189.44
430.958	2304.44
431.18	2194.44
431.402	1998.44
431.624	1999.44
431.846	2009.44
432.068	1985.44
432.29	2009.44
432.512	2069.44
432.734	2081.44
432.956	2104.44
433.178	2204.44
433.4	2181.44
433.622	2193.44
433.844	2076.44
434.066	1971.44
434.287	1993.44
434.509	2108.44
434.731	2207.44
434.953	2296.44
435.175	2255.44
435.397	2160.44
435.618	2117.44
435.84	2187.44
436.062	2093.44
436.284	2124.44
436.505	2168.44
436.727	2197.44
436.949	2041.44
437.17	2035.44
437.392	2017.44
437.614	2061.44
437.835	2036.44
438.057	2105.44
438.278	2175.44
438.5	2094.44
438.721	1984.44
438.943	2078.44
439.165	2007.44
439.386	1973.44
439.608	2012.44
439.829	2006.44
440.05	2022.44
440.272	1978.44
440.493	1891.44
440.715	1996.44
440.936	2153.44
441.158	2353.44
441.379	2364.44
441.6	2237.44
441.822	2168.44
442.043	2170.44
442.264	2129.44
442.486	1989.44
442.707	2004.44
442.928	1979.44
443.149	2058.44
443.371	2248.44
443.592	2273.44
443.813	2226.44
444.034	2228.44
444.255	2228.44
444.476	2290.44
444.698	2329.44
444.919	2296.44
445.14	2324.44
445.361	2351.44
445.582	2418.44
445.803	2299.44
446.024	2225.44
446.245	2298.44
446.466	2227.44
446.687	2085.44
446.908	2127.44
447.129	2037.44
447.35	2103.44
447.571	2068.44
447.792	2007.44
448.013	1931.44
448.234	1995.44
448.455	2131.44
448.675	2146.44
448.896	1942.44
449.117	1917.44
449.338	2007.44
449.559	2041.44
449.779	2201.44
450	2421.44
450.221	2573.44
450.442	2483.44
450.662	2211.44
450.883	1921.44
451.104	1895.44
451.324	1967.44
451.545	1984.44
451.766	1962.44
451.986	1891.44
452.207	1872.44
452.428	1829.44
452.648	1813.44
452.869	1849.44
453.089	1980.44
453.31	2001.44
453.53	2001.44
453.751	1947.44
453.971	1845.44
454.192	1876.44
454.412	2042.44
454.633	1936.44
454.853	1881.44
455.073	1776.44
455.294	1774.44
455.514	1803.44
455.734	1807.44
455.955	1823.44
456.175	1823.44
456.395	1800.44
456.616	1834.44
456.836	1944.44
457.056	1865.44
457.276	1865.44
457.497	1778.44
457.717	1773.44
457.937	1797.44
458.157	1870.44
458.377	1799.44
458.598	1773.44
458.818	1794.44
459.038	1938.44
459.258	2072.44
459.478	2041.44
459.698	2010.44
459.918	2018.44
460.138	2096.44
460.358	2172.44
460.578	2196.44
460.798	2268.44
461.018	2389.44
461.238	2258.44
461.458	2139.44
461.678	2164.44
461.898	2155.44
462.118	2065.44
462.338	2183.44
462.558	2191.44
462.777	2154.44
462.997	2279.44
463.217	2431.44
463.437	2406.44
463.657	2181.44
463.876	2136.44
464.096	2166.44
464.316	2172.44
464.536	2255.44
464.755	2228.44
464.975	2315.44
465.195	2173.44
465.414	2309.44
465.634	2285.44
465.854	2153.44
466.073	2278.44
466.293	2257.44
466.512	1983.44
466.732	1967.44
466.951	2102.44
467.171	2053.44
467.391	1990.44
467.61	1886.44
467.829	1977.44
468.049	2089.44
468.268	2299.44
468.488	2186.44
468.707	2083.44
468.927	2019.44
469.146	1949.44
469.365	1927.44
469.585	1955.44
469.804	1967.44
470.023	1971.44
470.243	1986.44
470.462	1956.44
470.681	1945.44
470.901	2002.44
471.12	1955.44
471.339	1951.44
471.558	1895.44
471.777	1861.44
471.997	1951.44
472.216	1911.44
472.435	1832.44
472.654	1913.44
472.873	1972.44
473.092	2116.44
473.311	2059.44
473.53	1877.44
473.749	1889.44
473.968	1954.44
474.187	2039.44
474.406	2146.44
474.625	2043.44
474.844	2021.44
475.063	1989.44
475.282	2053.44
475.501	1991.44
475.72	2008.44
475.939	2111.44
476.158	2085.44
476.377	2000.44
476.596	2058.44
476.814	2071.44
477.033	2078.44
477.252	2166.44
477.471	2221.44
477.69	2120.44
477.908	2082.44
478.127	2206.44
478.346	2367.44
478.564	2359.44
478.783	2374.44
479.002	2453.44
479.22	2369.44
479.439	2483.44
479.658	2772.44
479.876	2793.44
480.095	2410.44
480.313	2287.44
480.532	2205.44
480.751	2256.44
480.969	2303.44
481.188	2205.44
481.406	2304.44
481.624	2172.44
481.843	2229.44
482.061	2258.44
482.28	2311.44
482.498	2317.44
482.717	2307.44
482.935	2216.44
483.153	2195.44
483.372	2237.44
483.59	2218.44
483.808	2238.44
484.027	2296.44
484.245	2412.44
484.463	2761.44
484.681	3202.44
484.9	2464.44
485.118	2288.44
485.336	2230.44
485.554	2369.44
485.772	2475.44
485.99	2423.44
486.209	2440.44
486.427	2409.44
486.645	2439.44
486.863	2343.44
487.081	2395.44
487.299	2435.44
