Data from WStandard_LampEnergy10_LIBS07252019.E.O._I.C._HRD10591_15-55-14-928.txt Node
Date: Thu Jul 25 15:55:14 EDT 2019
User: cochatt
Spectrometer: HR+D1059
Trigger mode: 1
Integration Time (sec): 1.000000E-1
Scans to average: 1
Electric dark correction enabled: true
Nonlinearity correction enabled: false
Boxcar width: 0
XAxis mode: Wavelengths
Number of Pixels in Spectrum: 2048
>>>>>Begin Spectral Data<<<<<
223.165	7.38
223.4	7.38
223.635	7.38
223.869	0.38
224.104	-23.62
224.338	-11.62
224.573	-28.62
224.808	-26.62
225.042	-18.62
225.277	-0.62
225.511	-13.62
225.746	14.38
225.98	8.38
226.215	5.38
226.449	20.38
226.683	18.38
226.918	18.38
227.152	30.38
227.387	36.38
227.621	40.38
227.856	35.38
228.09	52.38
228.324	65.38
228.559	59.38
228.793	74.38
229.027	133.38
229.262	148.38
229.496	140.38
229.73	150.38
229.964	168.38
230.199	154.38
230.433	182.38
230.667	185.38
230.901	183.38
231.136	186.38
231.37	170.38
231.604	169.38
231.838	170.38
232.072	183.38
232.306	170.38
232.541	177.38
232.775	201.38
233.009	216.38
233.243	198.38
233.477	185.38
233.711	211.38
233.945	210.38
234.179	201.38
234.413	200.38
234.647	196.38
234.881	214.38
235.115	199.38
235.349	197.38
235.583	202.38
235.817	198.38
236.051	186.38
236.285	198.38
236.519	206.38
236.753	213.38
236.987	213.38
237.221	213.38
237.455	230.38
237.689	245.38
237.922	213.38
238.156	207.38
238.39	215.38
238.624	229.38
238.858	228.38
239.091	265.38
239.325	250.38
239.559	276.38
239.793	288.38
240.027	296.38
240.26	274.38
240.494	242.38
240.728	228.38
240.961	232.38
241.195	241.38
241.429	246.38
241.662	270.38
241.896	245.38
242.13	244.38
242.363	248.38
242.597	266.38
242.83	276.38
243.064	273.38
243.298	292.38
243.531	288.38
243.765	280.38
243.998	267.38
244.232	254.38
244.465	247.38
244.699	262.38
244.932	272.38
245.166	300.38
245.399	293.38
245.633	263.38
245.866	261.38
246.099	276.38
246.333	281.38
246.566	324.38
246.8	315.38
247.033	348.38
247.266	321.38
247.5	302.38
247.733	328.38
247.966	329.38
248.2	361.38
248.433	358.38
248.666	402.38
248.899	394.38
249.133	430.38
249.366	433.38
249.599	386.38
249.832	341.38
250.066	369.38
250.299	370.38
250.532	326.38
250.765	317.38
250.998	335.38
251.231	330.38
251.465	350.38
251.698	330.38
251.931	343.38
252.164	351.38
252.397	388.38
252.63	353.38
252.863	324.38
253.096	325.38
253.329	334.38
253.562	342.38
253.795	369.38
254.028	360.38
254.261	342.38
254.494	336.38
254.727	343.38
254.96	347.38
255.193	358.38
255.426	426.38
255.659	463.38
255.892	441.38
256.124	385.38
256.357	376.38
256.59	423.38
256.823	391.38
257.056	399.38
257.289	460.38
257.521	497.38
257.754	467.38
257.987	438.38
258.22	463.38
258.452	428.38
258.685	401.38
258.918	409.38
259.151	389.38
259.383	374.38
259.616	352.38
259.849	357.38
260.081	398.38
260.314	427.38
260.547	468.38
260.779	455.38
261.012	443.38
261.244	407.38
261.477	387.38
261.71	399.38
261.942	382.38
262.175	379.38
262.407	397.38
262.64	379.38
262.872	353.38
263.105	366.38
263.337	370.38
263.57	376.38
263.802	385.38
264.035	336.38
264.267	353.38
264.499	353.38
264.732	374.38
264.964	398.38
265.197	399.38
265.429	419.38
265.661	428.38
265.894	460.38
266.126	501.38
266.358	439.38
266.591	480.38
266.823	501.38
267.055	471.38
267.287	429.38
267.52	442.38
267.752	423.38
267.984	441.38
268.216	464.38
268.448	466.38
268.681	457.38
268.913	406.38
269.145	429.38
269.377	399.38
269.609	450.38
269.841	513.38
270.073	582.38
270.306	617.38
270.538	607.38
270.77	515.38
271.002	478.38
271.234	473.38
271.466	462.38
271.698	528.38
271.93	573.38
272.162	591.38
272.394	531.38
272.626	492.38
272.858	461.38
273.09	421.38
273.322	416.38
273.553	386.38
273.785	399.38
274.017	397.38
274.249	419.38
274.481	433.38
274.713	405.38
274.945	405.38
275.176	400.38
275.408	425.38
275.64	388.38
275.872	411.38
276.104	460.38
276.335	484.38
276.567	531.38
276.799	498.38
277.031	481.38
277.262	462.38
277.494	490.38
277.726	523.38
277.957	503.38
278.189	449.38
278.421	443.38
278.652	430.38
278.884	426.38
279.115	425.38
279.347	457.38
279.579	437.38
279.81	439.38
280.042	455.38
280.273	505.38
280.505	514.38
280.736	499.38
280.968	477.38
281.199	437.38
281.431	426.38
281.662	423.38
281.894	425.38
282.125	431.38
282.356	438.38
282.588	462.38
282.819	466.38
283.051	493.38
283.282	508.38
283.513	494.38
283.745	470.38
283.976	431.38
284.207	431.38
284.439	442.38
284.67	440.38
284.901	485.38
285.132	450.38
285.364	448.38
285.595	466.38
285.826	444.38
286.057	406.38
286.288	452.38
286.52	460.38
286.751	495.38
286.982	485.38
287.213	454.38
287.444	410.38
287.675	431.38
287.906	454.38
288.138	479.38
288.369	444.38
288.6	440.38
288.831	436.38
289.062	461.38
289.293	459.38
289.524	456.38
289.755	443.38
289.986	475.38
290.217	438.38
290.448	403.38
290.679	456.38
290.91	483.38
291.141	467.38
291.371	493.38
291.602	499.38
291.833	489.38
292.064	491.38
292.295	477.38
292.526	468.38
292.757	497.38
292.987	494.38
293.218	485.38
293.449	501.38
293.68	566.38
293.91	580.38
294.141	553.38
294.372	512.38
294.603	531.38
294.833	564.38
295.064	549.38
295.295	500.38
295.525	467.38
295.756	447.38
295.987	438.38
296.217	437.38
296.448	472.38
296.679	470.38
296.909	459.38
297.14	451.38
297.37	469.38
297.601	478.38
297.831	513.38
298.062	507.38
298.292	463.38
298.523	481.38
298.753	485.38
298.984	478.38
299.214	495.38
299.445	481.38
299.675	497.38
299.905	487.38
300.136	484.38
300.366	455.38
300.597	439.38
300.827	465.38
301.057	495.38
301.288	502.38
301.518	521.38
301.748	510.38
301.979	535.38
302.209	539.38
302.439	545.38
302.669	570.38
302.9	551.38
303.13	504.38
303.36	504.38
303.59	530.38
303.82	513.38
304.051	496.38
304.281	480.38
304.511	531.38
304.741	550.38
304.971	607.38
305.201	620.38
305.431	554.38
305.661	492.38
305.891	453.38
306.121	445.38
306.352	492.38
306.582	513.38
306.812	531.38
307.042	574.38
307.272	577.38
307.502	578.38
307.731	612.38
307.961	627.38
308.191	573.38
308.421	508.38
308.651	499.38
308.881	498.38
309.111	492.38
309.341	496.38
309.571	484.38
309.8	494.38
310.03	508.38
310.26	467.38
310.49	494.38
310.72	514.38
310.949	510.38
311.179	498.38
311.409	518.38
311.639	505.38
311.868	489.38
312.098	491.38
312.328	487.38
312.557	499.38
312.787	538.38
313.017	516.38
313.246	502.38
313.476	504.38
313.706	530.38
313.935	525.38
314.165	517.38
314.394	549.38
314.624	583.38
314.853	621.38
315.083	614.38
315.312	622.38
315.542	583.38
315.771	539.38
316.001	569.38
316.23	583.38
316.46	571.38
316.689	554.38
316.919	537.38
317.148	515.38
317.377	561.38
317.607	558.38
317.836	620.38
318.065	632.38
318.295	587.38
318.524	583.38
318.753	567.38
318.983	577.38
319.212	564.38
319.441	545.38
319.67	561.38
319.9	569.38
320.129	584.38
320.358	603.38
320.587	604.38
320.816	604.38
321.046	572.38
321.275	580.38
321.504	597.38
321.733	634.38
321.962	596.38
322.191	541.38
322.42	541.38
322.649	545.38
322.878	557.38
323.108	559.38
323.337	565.38
323.566	581.38
323.795	575.38
324.024	575.38
324.253	578.38
324.482	583.38
324.71	556.38
324.939	509.38
325.168	571.38
325.397	576.38
325.626	584.38
325.855	570.38
326.084	539.38
326.313	559.38
326.542	582.38
326.77	587.38
326.999	582.38
327.228	553.38
327.457	519.38
327.686	508.38
327.914	544.38
328.143	559.38
328.372	565.38
328.6	570.38
328.829	557.38
329.058	533.38
329.287	554.38
329.515	565.38
329.744	587.38
329.972	599.38
330.201	625.38
330.43	596.38
330.658	581.38
330.887	573.38
331.115	591.38
331.344	614.38
331.572	585.38
331.801	564.38
332.03	589.38
332.258	613.38
332.486	606.38
332.715	605.38
332.943	606.38
333.172	604.38
333.4	586.38
333.629	616.38
333.857	655.38
334.085	756.38
334.314	822.38
334.542	828.38
334.771	743.38
334.999	669.38
335.227	665.38
335.455	627.38
335.684	632.38
335.912	627.38
336.14	672.38
336.369	601.38
336.597	582.38
336.825	573.38
337.053	635.38
337.281	658.38
337.51	685.38
337.738	703.38
337.966	639.38
338.194	589.38
338.422	598.38
338.65	613.38
338.878	589.38
339.106	573.38
339.334	558.38
339.562	571.38
339.79	588.38
340.018	614.38
340.246	634.38
340.474	615.38
340.702	610.38
340.93	615.38
341.158	621.38
341.386	597.38
341.614	605.38
341.842	595.38
342.07	618.38
342.298	586.38
342.526	569.38
342.754	575.38
342.981	565.38
343.209	579.38
343.437	566.38
343.665	587.38
343.893	614.38
344.12	641.38
344.348	649.38
344.576	607.38
344.804	597.38
345.031	599.38
345.259	594.38
345.487	560.38
345.714	548.38
345.942	532.38
346.17	587.38
346.397	569.38
346.625	576.38
346.853	541.38
347.08	547.38
347.308	526.38
347.535	554.38
347.763	567.38
347.99	543.38
348.218	567.38
348.445	557.38
348.673	569.38
348.9	588.38
349.128	601.38
349.355	589.38
349.583	586.38
349.81	567.38
350.037	515.38
350.265	527.38
350.492	531.38
350.72	562.38
350.947	567.38
351.174	567.38
351.402	563.38
351.629	514.38
351.856	537.38
352.083	537.38
352.311	554.38
352.538	544.38
352.765	575.38
352.992	567.38
353.22	541.38
353.447	556.38
353.674	558.38
353.901	545.38
354.128	568.38
354.355	562.38
354.583	581.38
354.81	586.38
355.037	587.38
355.264	584.38
355.491	577.38
355.718	562.38
355.945	566.38
356.172	556.38
356.399	561.38
356.626	570.38
356.853	593.38
357.08	651.38
357.307	672.38
357.534	633.38
357.761	572.38
357.988	557.38
358.215	535.38
358.441	526.38
358.668	550.38
358.895	566.38
359.122	595.38
359.349	630.38
359.576	613.38
359.802	548.38
360.029	532.38
360.256	561.38
360.483	569.38
360.709	593.38
360.936	583.38
361.163	603.38
361.39	665.38
361.616	699.38
361.843	710.38
362.07	648.38
362.296	584.38
362.523	546.38
362.749	559.38
362.976	561.38
363.203	590.38
363.429	563.38
363.656	552.38
363.882	573.38
364.109	637.38
364.335	664.38
364.562	632.38
364.788	587.38
365.015	581.38
365.241	578.38
365.468	591.38
365.694	592.38
365.92	626.38
366.147	567.38
366.373	555.38
366.599	572.38
366.826	557.38
367.052	547.38
367.278	551.38
367.505	584.38
367.731	611.38
367.957	613.38
368.184	640.38
368.41	662.38
368.636	661.38
368.862	672.38
369.089	646.38
369.315	630.38
369.541	606.38
369.767	615.38
369.993	596.38
370.219	591.38
370.445	609.38
370.672	639.38
370.898	657.38
371.124	630.38
371.35	643.38
371.576	656.38
371.802	653.38
372.028	600.38
372.254	622.38
372.48	585.38
372.706	593.38
372.932	602.38
373.158	600.38
373.384	658.38
373.61	651.38
373.835	652.38
374.061	622.38
374.287	631.38
374.513	629.38
374.739	647.38
374.965	639.38
375.191	629.38
375.416	640.38
375.642	667.38
375.868	724.38
376.094	704.38
376.319	663.38
376.545	652.38
376.771	637.38
376.997	664.38
377.222	701.38
377.448	660.38
377.674	669.38
377.899	693.38
378.125	715.38
378.35	716.38
378.576	623.38
378.802	606.38
379.027	630.38
379.253	618.38
379.478	623.38
379.704	631.38
379.929	606.38
380.155	635.38
380.38	650.38
380.606	645.38
380.831	666.38
381.057	703.38
381.282	666.38
381.507	688.38
381.733	702.38
381.958	724.38
382.184	679.38
382.409	645.38
382.634	685.38
382.86	676.38
383.085	682.38
383.31	732.38
383.535	763.38
383.761	783.38
383.986	776.38
384.211	725.38
384.436	746.38
384.662	791.38
384.887	775.38
385.112	734.38
385.337	771.38
385.562	721.38
385.787	755.38
386.013	752.38
386.238	758.38
386.463	760.38
386.688	826.38
386.913	819.38
387.138	803.38
387.363	758.38
387.588	766.38
387.813	750.38
388.038	806.38
388.263	775.38
388.488	757.38
388.713	697.38
388.938	698.38
389.163	725.38
389.387	746.38
389.612	739.38
389.837	734.38
390.062	780.38
390.287	775.38
390.512	737.38
390.736	719.38
390.961	723.38
391.186	714.38
391.411	721.38
391.636	725.38
391.86	732.38
392.085	751.38
392.31	732.38
392.534	770.38
392.759	780.38
392.984	772.38
393.208	755.38
393.433	797.38
393.658	817.38
393.882	822.38
394.107	745.38
394.331	760.38
394.556	770.38
394.78	753.38
395.005	803.38
395.229	846.38
395.454	853.38
395.678	863.38
395.903	802.38
396.127	809.38
396.352	845.38
396.576	857.38
396.801	847.38
397.025	848.38
397.249	821.38
397.474	828.38
397.698	830.38
397.922	834.38
398.147	882.38
398.371	905.38
398.595	904.38
398.82	878.38
399.044	866.38
399.268	933.38
399.492	949.38
399.717	988.38
399.941	965.38
400.165	949.38
400.389	954.38
400.613	961.38
400.837	1129.38
401.062	1199.38
401.286	992.38
401.51	981.38
401.734	965.38
401.958	945.38
402.182	891.38
402.406	869.38
402.63	884.38
402.854	887.38
403.078	901.38
403.302	911.38
403.526	907.38
403.75	911.38
403.974	931.38
404.198	906.38
404.422	992.38
404.645	1035.38
404.869	958.38
405.093	890.38
405.317	894.38
405.541	911.38
405.765	918.38
405.988	927.38
406.212	930.38
406.436	953.38
406.66	969.38
406.883	1004.38
407.107	1162.38
407.331	1213.38
407.555	1283.38
407.778	1127.38
408.002	997.38
408.226	970.38
408.449	982.38
408.673	924.38
408.896	943.38
409.12	975.38
409.344	933.38
409.567	909.38
409.791	953.38
410.014	934.38
410.238	1022.38
410.461	1073.38
410.685	942.38
410.908	907.38
411.132	937.38
411.355	942.38
411.578	915.38
411.802	919.38
412.025	951.38
412.249	923.38
412.472	906.38
412.695	906.38
412.919	900.38
413.142	883.38
413.365	910.38
413.589	930.38
413.812	986.38
414.035	987.38
414.258	935.38
414.482	912.38
414.705	924.38
414.928	918.38
415.151	902.38
415.374	911.38
415.597	933.38
415.821	946.38
416.044	922.38
416.267	938.38
416.49	915.38
416.713	907.38
416.936	962.38
417.159	984.38
417.382	949.38
417.605	949.38
417.828	954.38
418.051	953.38
418.274	945.38
418.497	915.38
418.72	925.38
418.943	936.38
419.166	965.38
419.389	988.38
419.611	939.38
419.834	949.38
420.057	956.38
420.28	947.38
420.503	953.38
420.726	950.38
420.948	938.38
421.171	919.38
421.394	945.38
421.617	962.38
421.839	990.38
422.062	971.38
422.285	945.38
422.507	929.38
422.73	884.38
422.953	867.38
423.175	903.38
423.398	891.38
423.621	933.38
423.843	910.38
424.066	989.38
424.288	1021.38
424.511	1043.38
424.733	997.38
424.956	921.38
425.178	919.38
425.401	931.38
425.623	945.38
425.846	943.38
426.068	983.38
426.291	958.38
426.513	939.38
426.735	953.38
426.958	1050.38
427.18	1068.38
427.402	1004.38
427.625	1006.38
427.847	973.38
428.069	931.38
428.292	905.38
428.514	901.38
428.736	905.38
428.958	915.38
429.181	945.38
429.403	1074.38
429.625	1224.38
429.847	1038.38
430.069	961.38
430.292	1047.38
430.514	1005.38
430.736	953.38
430.958	966.38
431.18	918.38
431.402	863.38
431.624	851.38
431.846	812.38
432.068	727.38
432.29	751.38
432.512	790.38
432.734	867.38
432.956	895.38
433.178	985.38
433.4	977.38
433.622	920.38
433.844	903.38
434.066	840.38
434.287	781.38
434.509	775.38
434.731	829.38
434.953	902.38
435.175	916.38
435.397	903.38
435.618	876.38
435.84	817.38
436.062	833.38
436.284	916.38
436.505	929.38
436.727	933.38
436.949	934.38
437.17	878.38
437.392	883.38
437.614	867.38
437.835	820.38
438.057	818.38
438.278	828.38
438.5	841.38
438.721	892.38
438.943	929.38
439.165	923.38
439.386	923.38
439.608	934.38
439.829	951.38
440.05	945.38
440.272	947.38
440.493	949.38
440.715	970.38
440.936	1010.38
441.158	1035.38
441.379	1051.38
441.6	1056.38
441.822	1017.38
442.043	987.38
442.264	996.38
442.486	966.38
442.707	933.38
442.928	963.38
443.149	941.38
443.371	969.38
443.592	966.38
443.813	1006.38
444.034	968.38
444.255	1017.38
444.476	1029.38
444.698	1035.38
444.919	1038.38
445.14	1102.38
445.361	1091.38
445.582	1053.38
445.803	1062.38
446.024	1045.38
446.245	1053.38
446.466	1053.38
446.687	1029.38
446.908	1043.38
447.129	1017.38
447.35	1000.38
447.571	1012.38
447.792	945.38
448.013	947.38
448.234	958.38
448.455	988.38
448.675	1006.38
448.896	929.38
449.117	905.38
449.338	911.38
449.559	938.38
449.779	951.38
450	985.38
450.221	1013.38
450.442	1001.38
450.662	939.38
450.883	892.38
451.104	862.38
451.324	879.38
451.545	906.38
451.766	875.38
451.986	824.38
452.207	828.38
452.428	796.38
452.648	791.38
452.869	800.38
453.089	795.38
453.31	775.38
453.53	766.38
453.751	709.38
453.971	689.38
454.192	699.38
454.412	774.38
454.633	794.38
454.853	771.38
455.073	724.38
455.294	783.38
455.514	755.38
455.734	796.38
455.955	763.38
456.175	753.38
456.395	718.38
456.616	723.38
456.836	737.38
457.056	747.38
457.276	738.38
457.497	699.38
457.717	695.38
457.937	702.38
458.157	685.38
458.377	673.38
458.598	687.38
458.818	673.38
459.038	702.38
459.258	738.38
459.478	724.38
459.698	685.38
459.918	725.38
460.138	794.38
460.358	838.38
460.578	841.38
460.798	865.38
461.018	879.38
461.238	848.38
461.458	857.38
461.678	844.38
461.898	843.38
462.118	820.38
462.338	854.38
462.558	851.38
462.777	820.38
462.997	866.38
463.217	897.38
463.437	886.38
463.657	843.38
463.876	845.38
464.096	850.38
464.316	831.38
464.536	854.38
464.755	863.38
464.975	839.38
465.195	866.38
465.414	855.38
465.634	855.38
465.854	870.38
466.073	925.38
466.293	949.38
466.512	850.38
466.732	874.38
466.951	882.38
467.171	877.38
467.391	870.38
467.61	875.38
467.829	899.38
468.049	985.38
468.268	1013.38
468.488	957.38
468.707	908.38
468.927	875.38
469.146	883.38
469.365	899.38
469.585	922.38
469.804	919.38
470.023	917.38
470.243	941.38
470.462	939.38
470.681	915.38
470.901	919.38
471.12	912.38
471.339	925.38
471.558	885.38
471.777	933.38
471.997	884.38
472.216	837.38
472.435	771.38
472.654	756.38
472.873	781.38
473.092	830.38
473.311	833.38
473.53	809.38
473.749	821.38
473.968	859.38
474.187	821.38
474.406	842.38
474.625	867.38
474.844	863.38
475.063	855.38
475.282	865.38
475.501	826.38
475.72	841.38
475.939	914.38
476.158	855.38
476.377	874.38
476.596	856.38
476.814	810.38
477.033	794.38
477.252	855.38
477.471	906.38
477.69	933.38
477.908	933.38
478.127	989.38
478.346	1027.38
478.564	998.38
478.783	994.38
479.002	1013.38
479.22	1006.38
479.439	1013.38
479.658	1023.38
479.876	998.38
480.095	900.38
480.313	888.38
480.532	892.38
480.751	847.38
480.969	817.38
481.188	805.38
481.406	799.38
481.624	777.38
481.843	781.38
482.061	827.38
482.28	863.38
482.498	897.38
482.717	853.38
482.935	884.38
483.153	972.38
483.372	1042.38
483.59	988.38
483.808	970.38
484.027	933.38
484.245	957.38
484.463	1222.38
484.681	1270.38
484.9	1023.38
485.118	987.38
485.336	919.38
485.554	903.38
485.772	857.38
485.99	885.38
486.209	897.38
486.427	915.38
486.645	931.38
486.863	986.38
487.081	1025.38
487.299	1045.38
487.517	1002.38
487.735	1132.38
487.953	1182.38
488.171	1191.38
488.389	1122.38
488.607	1075.38
488.825	1114.38
489.043	1040.38
489.261	960.38
489.479	1025.38
489.696	1046.38
489.914	1033.38
490.132	1041.38
490.35	1084.38
490.568	1163.38
490.786	1193.38
491.003	1193.38
491.221	1269.38
491.439	1254.38
491.657	1305.38
491.874	1384.38
492.092	1423.38
492.31	1509.38
492.527	1450.38
492.745	1328.38
492.963	1307.38
493.18	1318.38
493.398	1341.38
493.615	1337.38
493.833	1253.38
494.05	1219.38
494.268	1227.38
494.485	1229.38
494.703	1205.38
494.92	1209.38
495.138	1224.38
495.355	1209.38
495.573	1222.38
495.79	1267.38
496.008	1260.38
496.225	1235.38
496.442	1250.38
496.66	1227.38
496.877	1215.38
497.094	1213.38
497.312	1245.38
497.529	1205.38
497.746	1198.38
497.963	1229.38
498.181	1308.38
498.398	1233.38
498.615	1169.38
498.832	1147.38
499.049	1143.38
499.267	1157.38
499.484	1235.38
499.701	1339.38
499.918	1352.38
500.135	1490.38
500.352	1562.38
500.569	1545.38
