Data from WStandard_LampEnergy8_LIBS07252019.E.O._I.C._HRD10591_16-00-57-930.txt Node
Date: Thu Jul 25 16:00:57 EDT 2019
User: cochatt
Spectrometer: HR+D1059
Trigger mode: 1
Integration Time (sec): 1.000000E-1
Scans to average: 1
Electric dark correction enabled: true
Nonlinearity correction enabled: false
Boxcar width: 0
XAxis mode: Wavelengths
Number of Pixels in Spectrum: 2048
>>>>>Begin Spectral Data<<<<<
223.165	-24.56
223.4	-24.56
223.635	-24.56
223.869	-18.56
224.104	-24.56
224.338	-15.56
224.573	-13.56
224.808	-0.56
225.042	-9.56
225.277	-1.56
225.511	-11.56
225.746	11.44
225.98	-2.56
226.215	-0.56
226.449	30.44
226.683	27.44
226.918	35.44
227.152	18.44
227.387	34.44
227.621	25.44
227.856	33.44
228.09	39.44
228.324	44.44
228.559	44.44
228.793	102.44
229.027	179.44
229.262	187.44
229.496	201.44
229.73	225.44
229.964	244.44
230.199	267.44
230.433	248.44
230.667	263.44
230.901	268.44
231.136	258.44
231.37	240.44
231.604	251.44
231.838	249.44
232.072	256.44
232.306	244.44
232.541	248.44
232.775	292.44
233.009	328.44
233.243	291.44
233.477	267.44
233.711	288.44
233.945	301.44
234.179	303.44
234.413	312.44
234.647	338.44
234.881	316.44
235.115	299.44
235.349	294.44
235.583	276.44
235.817	312.44
236.051	304.44
236.285	298.44
236.519	309.44
236.753	325.44
236.987	357.44
237.221	341.44
237.455	361.44
237.689	353.44
237.922	334.44
238.156	331.44
238.39	338.44
238.624	355.44
238.858	378.44
239.091	389.44
239.325	411.44
239.559	464.44
239.793	460.44
240.027	479.44
240.26	486.44
240.494	378.44
240.728	376.44
240.961	384.44
241.195	384.44
241.429	400.44
241.662	379.44
241.896	377.44
242.13	398.44
242.363	416.44
242.597	452.44
242.83	434.44
243.064	452.44
243.298	457.44
243.531	454.44
243.765	447.44
243.998	442.44
244.232	401.44
244.465	370.44
244.699	405.44
244.932	448.44
245.166	500.44
245.399	480.44
245.633	447.44
245.866	407.44
246.099	457.44
246.333	450.44
246.566	491.44
246.8	516.44
247.033	549.44
247.266	519.44
247.5	501.44
247.733	509.44
247.966	540.44
248.2	585.44
248.433	565.44
248.666	581.44
248.899	636.44
249.133	707.44
249.366	783.44
249.599	667.44
249.832	567.44
250.066	591.44
250.299	596.44
250.532	565.44
250.765	530.44
250.998	565.44
251.231	549.44
251.465	579.44
251.698	549.44
251.931	557.44
252.164	557.44
252.397	588.44
252.63	587.44
252.863	541.44
253.096	506.44
253.329	527.44
253.562	561.44
253.795	592.44
254.028	587.44
254.261	556.44
254.494	561.44
254.727	533.44
254.96	552.44
255.193	617.44
255.426	666.44
255.659	720.44
255.892	771.44
256.124	645.44
256.357	617.44
256.59	667.44
256.823	660.44
257.056	665.44
257.289	791.44
257.521	851.44
257.754	797.44
257.987	744.44
258.22	792.44
258.452	782.44
258.685	643.44
258.918	663.44
259.151	646.44
259.383	619.44
259.616	563.44
259.849	603.44
260.081	663.44
260.314	723.44
260.547	783.44
260.779	793.44
261.012	729.44
261.244	674.44
261.477	641.44
261.71	681.44
261.942	679.44
262.175	653.44
262.407	673.44
262.64	610.44
262.872	625.44
263.105	571.44
263.337	614.44
263.57	620.44
263.802	596.44
264.035	562.44
264.267	554.44
264.499	529.44
264.732	589.44
264.964	616.44
265.197	665.44
265.429	689.44
265.661	749.44
265.894	814.44
266.126	855.44
266.358	730.44
266.591	760.44
266.823	834.44
267.055	765.44
267.287	754.44
267.52	720.44
267.752	734.44
267.984	748.44
268.216	754.44
268.448	761.44
268.681	754.44
268.913	707.44
269.145	653.44
269.377	665.44
269.609	742.44
269.841	845.44
270.073	959.44
270.306	1048.44
270.538	1057.44
270.77	910.44
271.002	813.44
271.234	783.44
271.466	795.44
271.698	879.44
271.93	1012.44
272.162	988.44
272.394	913.44
272.626	872.44
272.858	773.44
273.09	687.44
273.322	674.44
273.553	638.44
273.785	663.44
274.017	683.44
274.249	751.44
274.481	751.44
274.713	689.44
274.945	669.44
275.176	691.44
275.408	660.44
275.64	659.44
275.872	657.44
276.104	725.44
276.335	810.44
276.567	909.44
276.799	896.44
277.031	806.44
277.262	777.44
277.494	794.44
277.726	871.44
277.957	893.44
278.189	789.44
278.421	725.44
278.652	720.44
278.884	709.44
279.115	704.44
279.347	722.44
279.579	703.44
279.81	724.44
280.042	790.44
280.273	829.44
280.505	803.44
280.736	847.44
280.968	801.44
281.199	709.44
281.431	700.44
281.662	663.44
281.894	708.44
282.125	714.44
282.356	730.44
282.588	754.44
282.819	763.44
283.051	807.44
283.282	855.44
283.513	819.44
283.745	727.44
283.976	694.44
284.207	697.44
284.439	716.44
284.67	718.44
284.901	745.44
285.132	743.44
285.364	755.44
285.595	748.44
285.826	753.44
286.057	723.44
286.288	739.44
286.52	760.44
286.751	821.44
286.982	804.44
287.213	783.44
287.444	727.44
287.675	709.44
287.906	774.44
288.138	802.44
288.369	767.44
288.6	740.44
288.831	723.44
289.062	703.44
289.293	723.44
289.524	731.44
289.755	752.44
289.986	737.44
290.217	716.44
290.448	723.44
290.679	756.44
290.91	755.44
291.141	759.44
291.371	810.44
291.602	812.44
291.833	779.44
292.064	807.44
292.295	780.44
292.526	813.44
292.757	811.44
292.987	823.44
293.218	769.44
293.449	862.44
293.68	944.44
293.91	995.44
294.141	881.44
294.372	891.44
294.603	920.44
294.833	964.44
295.064	869.44
295.295	803.44
295.525	761.44
295.756	727.44
295.987	729.44
296.217	721.44
296.448	754.44
296.679	763.44
296.909	755.44
297.14	753.44
297.37	775.44
297.601	828.44
297.831	879.44
298.062	835.44
298.292	771.44
298.523	796.44
298.753	751.44
298.984	766.44
299.214	777.44
299.445	820.44
299.675	795.44
299.905	834.44
300.136	780.44
300.366	760.44
300.597	725.44
300.827	750.44
301.057	805.44
301.288	811.44
301.518	842.44
301.748	856.44
301.979	892.44
302.209	908.44
302.439	951.44
302.669	970.44
302.9	881.44
303.13	822.44
303.36	825.44
303.59	841.44
303.82	845.44
304.051	866.44
304.281	828.44
304.511	844.44
304.741	927.44
304.971	972.44
305.201	1041.44
305.431	935.44
305.661	793.44
305.891	752.44
306.121	739.44
306.352	769.44
306.582	809.44
306.812	890.44
307.042	929.44
307.272	928.44
307.502	979.44
307.731	1034.44
307.961	1053.44
308.191	964.44
308.421	851.44
308.651	821.44
308.881	794.44
309.111	794.44
309.341	806.44
309.571	819.44
309.8	815.44
310.03	810.44
310.26	785.44
310.49	815.44
310.72	845.44
310.949	850.44
311.179	855.44
311.409	843.44
311.639	788.44
311.868	821.44
312.098	818.44
312.328	841.44
312.557	827.44
312.787	833.44
313.017	831.44
313.246	869.44
313.476	841.44
313.706	861.44
313.935	842.44
314.165	907.44
314.394	911.44
314.624	928.44
314.853	960.44
315.083	1009.44
315.312	1019.44
315.542	947.44
315.771	876.44
316.001	871.44
316.23	912.44
316.46	920.44
316.689	906.44
316.919	857.44
317.148	827.44
317.377	858.44
317.607	938.44
317.836	1003.44
318.065	1041.44
318.295	1013.44
318.524	947.44
318.753	916.44
318.983	923.44
319.212	922.44
319.441	880.44
319.67	909.44
319.9	915.44
320.129	950.44
320.358	1004.44
320.587	1004.44
320.816	993.44
321.046	956.44
321.275	932.44
321.504	948.44
321.733	994.44
321.962	965.44
322.191	901.44
322.42	901.44
322.649	860.44
322.878	918.44
323.108	887.44
323.337	920.44
323.566	938.44
323.795	903.44
324.024	927.44
324.253	889.44
324.482	915.44
324.71	891.44
324.939	856.44
325.168	901.44
325.397	870.44
325.626	909.44
325.855	937.44
326.084	895.44
326.313	924.44
326.542	899.44
326.77	940.44
326.999	933.44
327.228	897.44
327.457	850.44
327.686	860.44
327.914	876.44
328.143	915.44
328.372	908.44
328.6	899.44
328.829	891.44
329.058	891.44
329.287	903.44
329.515	927.44
329.744	920.44
329.972	973.44
330.201	1001.44
330.43	978.44
330.658	940.44
330.887	968.44
331.115	960.44
331.344	989.44
331.572	950.44
331.801	947.44
332.03	914.44
332.258	969.44
332.486	982.44
332.715	971.44
332.943	963.44
333.172	943.44
333.4	970.44
333.629	1023.44
333.857	1075.44
334.085	1170.44
334.314	1307.44
334.542	1371.44
334.771	1247.44
334.999	1121.44
335.227	1083.44
335.455	1035.44
335.684	1009.44
335.912	1042.44
336.14	1045.44
336.369	1028.44
336.597	974.44
336.825	949.44
337.053	1021.44
337.281	1061.44
337.51	1108.44
337.738	1141.44
337.966	1067.44
338.194	984.44
338.422	986.44
338.65	968.44
338.878	948.44
339.106	941.44
339.334	893.44
339.562	912.44
339.79	912.44
340.018	1004.44
340.246	1009.44
340.474	997.44
340.702	988.44
340.93	970.44
341.158	964.44
341.386	952.44
341.614	961.44
341.842	976.44
342.07	976.44
342.298	968.44
342.526	958.44
342.754	952.44
342.981	953.44
343.209	955.44
343.437	946.44
343.665	964.44
343.893	980.44
344.12	1001.44
344.348	1025.44
344.576	954.44
344.804	945.44
345.031	965.44
345.259	941.44
345.487	933.44
345.714	881.44
345.942	882.44
346.17	899.44
346.397	882.44
346.625	901.44
346.853	889.44
347.08	870.44
347.308	874.44
347.535	909.44
347.763	913.44
347.99	921.44
348.218	880.44
348.445	865.44
348.673	931.44
348.9	941.44
349.128	949.44
349.355	978.44
349.583	972.44
349.81	915.44
350.037	846.44
350.265	847.44
350.492	894.44
350.72	887.44
350.947	899.44
351.174	913.44
351.402	876.44
351.629	858.44
351.856	851.44
352.083	857.44
352.311	867.44
352.538	892.44
352.765	895.44
352.992	917.44
353.22	867.44
353.447	867.44
353.674	895.44
353.901	869.44
354.128	875.44
354.355	889.44
354.583	936.44
354.81	916.44
355.037	920.44
355.264	912.44
355.491	902.44
355.718	883.44
355.945	913.44
356.172	850.44
356.399	871.44
356.626	867.44
356.853	931.44
357.08	1000.44
357.307	1082.44
357.534	1033.44
357.761	909.44
357.988	901.44
358.215	864.44
358.441	867.44
358.668	884.44
358.895	881.44
359.122	971.44
359.349	1000.44
359.576	997.44
359.802	898.44
360.029	852.44
360.256	879.44
360.483	897.44
360.709	913.44
360.936	947.44
361.163	1001.44
361.39	1097.44
361.616	1138.44
361.843	1124.44
362.07	1041.44
362.296	905.44
362.523	870.44
362.749	941.44
362.976	935.44
363.203	952.44
363.429	882.44
363.656	871.44
363.882	937.44
364.109	1001.44
364.335	1088.44
364.562	992.44
364.788	945.44
365.015	931.44
365.241	871.44
365.468	920.44
365.694	940.44
365.92	984.44
366.147	918.44
366.373	866.44
366.599	865.44
366.826	888.44
367.052	883.44
367.278	913.44
367.505	929.44
367.731	932.44
367.957	935.44
368.184	947.44
368.41	1002.44
368.636	1036.44
368.862	1036.44
369.089	1042.44
369.315	970.44
369.541	921.44
369.767	905.44
369.993	901.44
370.219	869.44
370.445	918.44
370.672	996.44
370.898	1065.44
371.124	985.44
371.35	989.44
371.576	987.44
371.802	998.44
372.028	939.44
372.254	929.44
372.48	929.44
372.706	907.44
372.932	916.44
373.158	924.44
373.384	955.44
373.61	984.44
373.835	1007.44
374.061	966.44
374.287	964.44
374.513	991.44
374.739	969.44
374.965	974.44
375.191	975.44
375.416	986.44
375.642	997.44
375.868	1079.44
376.094	1120.44
376.319	1016.44
376.545	955.44
376.771	1015.44
376.997	1047.44
377.222	1026.44
377.448	1001.44
377.674	1011.44
377.899	1025.44
378.125	1066.44
378.35	1053.44
378.576	960.44
378.802	921.44
379.027	948.44
379.253	993.44
379.478	943.44
379.704	975.44
379.929	932.44
380.155	944.44
380.38	986.44
380.606	983.44
380.831	996.44
381.057	1037.44
381.282	1028.44
381.507	1045.44
381.733	1092.44
381.958	1097.44
382.184	1028.44
382.409	1010.44
382.634	1031.44
382.86	1003.44
383.085	1009.44
383.31	1037.44
383.535	1132.44
383.761	1171.44
383.986	1108.44
384.211	1073.44
384.436	1073.44
384.662	1125.44
384.887	1145.44
385.112	1106.44
385.337	1121.44
385.562	1127.44
385.787	1141.44
386.013	1109.44
386.238	1116.44
386.463	1128.44
386.688	1201.44
386.913	1277.44
387.138	1207.44
387.363	1136.44
387.588	1138.44
387.813	1137.44
388.038	1152.44
388.263	1166.44
388.488	1159.44
388.713	1067.44
388.938	1078.44
389.163	1065.44
389.387	1092.44
389.612	1121.44
389.837	1130.44
390.062	1123.44
390.287	1114.44
390.512	1084.44
390.736	1101.44
390.961	1081.44
391.186	1051.44
391.411	1064.44
391.636	1075.44
391.86	1092.44
392.085	1106.44
392.31	1084.44
392.534	1098.44
392.759	1111.44
392.984	1109.44
393.208	1132.44
393.433	1153.44
393.658	1181.44
393.882	1184.44
394.107	1130.44
394.331	1120.44
394.556	1085.44
394.78	1143.44
395.005	1145.44
395.229	1211.44
395.454	1288.44
395.678	1290.44
395.903	1187.44
396.127	1173.44
396.352	1163.44
396.576	1241.44
396.801	1231.44
397.025	1216.44
397.249	1205.44
397.474	1185.44
397.698	1183.44
397.922	1214.44
398.147	1258.44
398.371	1343.44
398.595	1325.44
398.82	1256.44
399.044	1292.44
399.268	1339.44
399.492	1413.44
399.717	1445.44
399.941	1461.44
400.165	1417.44
400.389	1418.44
400.613	1436.44
400.837	1652.44
401.062	1772.44
401.286	1509.44
401.51	1384.44
401.734	1421.44
401.958	1363.44
402.182	1307.44
402.406	1253.44
402.63	1279.44
402.854	1252.44
403.078	1237.44
403.302	1316.44
403.526	1311.44
403.75	1295.44
403.974	1344.44
404.198	1321.44
404.422	1385.44
404.645	1418.44
404.869	1397.44
405.093	1294.44
405.317	1283.44
405.541	1327.44
405.765	1329.44
405.988	1316.44
406.212	1346.44
406.436	1373.44
406.66	1423.44
406.883	1422.44
407.107	1660.44
407.331	1727.44
407.555	1855.44
407.778	1668.44
408.002	1403.44
408.226	1347.44
408.449	1372.44
408.673	1317.44
408.896	1339.44
409.12	1372.44
409.344	1380.44
409.567	1293.44
409.791	1338.44
410.014	1363.44
410.238	1443.44
410.461	1501.44
410.685	1324.44
410.908	1299.44
411.132	1312.44
411.355	1303.44
411.578	1311.44
411.802	1308.44
412.025	1303.44
412.249	1285.44
412.472	1259.44
412.695	1303.44
412.919	1271.44
413.142	1248.44
413.365	1266.44
413.589	1348.44
413.812	1385.44
414.035	1395.44
414.258	1320.44
414.482	1258.44
414.705	1283.44
414.928	1256.44
415.151	1271.44
415.374	1264.44
415.597	1293.44
415.821	1307.44
416.044	1337.44
416.267	1332.44
416.49	1205.44
416.713	1226.44
416.936	1312.44
417.159	1350.44
417.382	1335.44
417.605	1275.44
417.828	1314.44
418.051	1301.44
418.274	1258.44
418.497	1228.44
418.72	1237.44
418.943	1211.44
419.166	1276.44
419.389	1345.44
419.611	1316.44
419.834	1279.44
420.057	1257.44
420.28	1258.44
420.503	1263.44
420.726	1302.44
420.948	1267.44
421.171	1285.44
421.394	1258.44
421.617	1290.44
421.839	1301.44
422.062	1311.44
422.285	1247.44
422.507	1240.44
422.73	1203.44
422.953	1168.44
423.175	1183.44
423.398	1261.44
423.621	1254.44
423.843	1293.44
424.066	1295.44
424.288	1349.44
424.511	1400.44
424.733	1335.44
424.956	1217.44
425.178	1216.44
425.401	1214.44
425.623	1244.44
425.846	1249.44
426.068	1336.44
426.291	1287.44
426.513	1291.44
426.735	1296.44
426.958	1370.44
427.18	1422.44
427.402	1356.44
427.625	1365.44
427.847	1350.44
428.069	1265.44
428.292	1195.44
428.514	1199.44
428.736	1194.44
428.958	1207.44
429.181	1223.44
429.403	1458.44
429.625	1743.44
429.847	1451.44
430.069	1275.44
430.292	1436.44
430.514	1407.44
430.736	1314.44
430.958	1336.44
431.18	1272.44
431.402	1222.44
431.624	1165.44
431.846	1162.44
432.068	1095.44
432.29	1115.44
432.512	1160.44
432.734	1240.44
432.956	1227.44
433.178	1321.44
433.4	1285.44
433.622	1278.44
433.844	1217.44
434.066	1201.44
434.287	1162.44
434.509	1163.44
434.731	1235.44
434.953	1304.44
435.175	1317.44
435.397	1263.44
435.618	1255.44
435.84	1241.44
436.062	1229.44
436.284	1237.44
436.505	1237.44
436.727	1304.44
436.949	1211.44
437.17	1213.44
437.392	1199.44
437.614	1180.44
437.835	1120.44
438.057	1167.44
438.278	1212.44
438.5	1199.44
438.721	1193.44
438.943	1195.44
439.165	1182.44
439.386	1201.44
439.608	1233.44
439.829	1216.44
440.05	1189.44
440.272	1232.44
440.493	1227.44
440.715	1226.44
440.936	1343.44
441.158	1387.44
441.379	1367.44
441.6	1331.44
441.822	1303.44
442.043	1289.44
442.264	1285.44
442.486	1239.44
442.707	1230.44
442.928	1231.44
443.149	1243.44
443.371	1308.44
443.592	1331.44
443.813	1312.44
444.034	1297.44
444.255	1331.44
444.476	1384.44
444.698	1370.44
444.919	1373.44
445.14	1420.44
445.361	1409.44
445.582	1377.44
445.803	1359.44
446.024	1350.44
446.245	1385.44
446.466	1360.44
446.687	1288.44
446.908	1287.44
447.129	1303.44
447.35	1266.44
447.571	1233.44
447.792	1207.44
448.013	1238.44
448.234	1246.44
448.455	1285.44
448.675	1283.44
448.896	1213.44
449.117	1157.44
449.338	1161.44
449.559	1235.44
449.779	1313.44
450	1403.44
450.221	1393.44
450.442	1400.44
450.662	1222.44
450.883	1138.44
451.104	1164.44
451.324	1166.44
451.545	1187.44
451.766	1172.44
451.986	1120.44
452.207	1111.44
452.428	1060.44
452.648	1054.44
452.869	1056.44
453.089	1109.44
453.31	1095.44
453.53	1139.44
453.751	1062.44
453.971	1007.44
454.192	1078.44
454.412	1120.44
454.633	1123.44
454.853	1098.44
455.073	1013.44
455.294	1059.44
455.514	1028.44
455.734	1055.44
455.955	1065.44
456.175	1010.44
456.395	1020.44
456.616	1088.44
456.836	1069.44
457.056	1101.44
457.276	1079.44
457.497	1004.44
457.717	1001.44
457.937	1027.44
458.157	1039.44
458.377	1026.44
458.598	980.44
458.818	1013.44
459.038	1084.44
459.258	1105.44
459.478	1095.44
459.698	1047.44
459.918	1120.44
460.138	1178.44
460.358	1211.44
460.578	1211.44
460.798	1268.44
461.018	1293.44
461.238	1274.44
461.458	1223.44
461.678	1222.44
461.898	1206.44
462.118	1178.44
462.338	1247.44
462.558	1215.44
462.777	1215.44
462.997	1281.44
463.217	1330.44
463.437	1267.44
463.657	1212.44
463.876	1193.44
464.096	1201.44
464.316	1263.44
464.536	1286.44
464.755	1300.44
464.975	1259.44
465.195	1238.44
465.414	1300.44
465.634	1289.44
465.854	1242.44
466.073	1341.44
466.293	1308.44
466.512	1212.44
466.732	1164.44
466.951	1202.44
467.171	1201.44
467.391	1152.44
467.61	1173.44
467.829	1186.44
468.049	1336.44
468.268	1425.44
468.488	1265.44
468.707	1244.44
468.927	1217.44
469.146	1190.44
469.365	1204.44
469.585	1207.44
469.804	1179.44
470.023	1198.44
470.243	1226.44
470.462	1223.44
470.681	1200.44
470.901	1243.44
471.12	1197.44
471.339	1213.44
471.558	1174.44
471.777	1175.44
471.997	1173.44
472.216	1163.44
472.435	1106.44
472.654	1108.44
472.873	1124.44
473.092	1197.44
473.311	1152.44
473.53	1098.44
473.749	1114.44
473.968	1173.44
474.187	1207.44
474.406	1219.44
474.625	1156.44
474.844	1146.44
475.063	1148.44
475.282	1175.44
475.501	1172.44
475.72	1175.44
475.939	1245.44
476.158	1194.44
476.377	1195.44
476.596	1184.44
476.814	1219.44
477.033	1158.44
477.252	1236.44
477.471	1279.44
477.69	1258.44
477.908	1256.44
478.127	1329.44
478.346	1370.44
478.564	1351.44
478.783	1395.44
479.002	1393.44
479.22	1356.44
479.439	1413.44
479.658	1535.44
479.876	1497.44
480.095	1333.44
480.313	1307.44
480.532	1262.44
480.751	1259.44
480.969	1297.44
481.188	1232.44
481.406	1210.44
481.624	1213.44
481.843	1242.44
482.061	1270.44
482.28	1303.44
482.498	1309.44
482.717	1251.44
482.935	1266.44
483.153	1345.44
483.372	1348.44
483.59	1337.44
483.808	1311.44
484.027	1345.44
484.245	1433.44
484.463	1713.44
484.681	1839.44
484.9	1442.44
485.118	1356.44
485.336	1296.44
485.554	1335.44
485.772	1380.44
485.99	1316.44
486.209	1332.44
486.427	1341.44
486.645	1356.44
486.863	1415.44
487.081	1451.44
487.299	1433.44
487.517	1430.44
487.735	1411.44
487.953	1456.44
488.171	1426.44
488.389	1447.44
488.607	1403.44
488.825	1563.44
489.043	1518.44
489.261	1380.44
489.479	1447.44
489.696	1464.44
489.914	1428.44
490.132	1409.44
490.35	1441.44
490.568	1487.44
490.786	1499.44
491.003	1481.44
491.221	1502.44
491.439	1575.44
491.657	1548.44
491.874	1596.44
492.092	1629.44
492.31	1661.44
492.527	1631.44
492.745	1578.44
492.963	1543.44
493.18	1588.44
493.398	1608.44
493.615	1673.44
493.833	1527.44
494.05	1539.44
