Data from WStandard_LampEnergy5.5LIBS07252019.E.O._I.C._HRD10591_16-07-10-920.txt Node
Date: Thu Jul 25 16:07:10 EDT 2019
User: cochatt
Spectrometer: HR+D1059
Trigger mode: 1
Integration Time (sec): 1.000000E-1
Scans to average: 1
Electric dark correction enabled: true
Nonlinearity correction enabled: false
Boxcar width: 0
XAxis mode: Wavelengths
Number of Pixels in Spectrum: 2048
>>>>>Begin Spectral Data<<<<<
223.165	-14.69
223.4	-14.69
223.635	-14.69
223.869	-18.69
224.104	-6.69
224.338	-9.69
224.573	-26.69
224.808	-15.69
225.042	-8.69
225.277	-4.69
225.511	-8.69
225.746	2.31
225.98	-6.69
226.215	27.31
226.449	19.31
226.683	22.31
226.918	26.31
227.152	23.31
227.387	53.31
227.621	60.31
227.856	45.31
228.09	59.31
228.324	60.31
228.559	62.31
228.793	151.31
229.027	382.31
229.262	395.31
229.496	418.31
229.73	404.31
229.964	455.31
230.199	474.31
230.433	495.31
230.667	512.31
230.901	565.31
231.136	508.31
231.37	516.31
231.604	503.31
231.838	510.31
232.072	499.31
232.306	476.31
232.541	500.31
232.775	575.31
233.009	636.31
233.243	614.31
233.477	548.31
233.711	576.31
233.945	623.31
234.179	582.31
234.413	614.31
234.647	638.31
234.881	620.31
235.115	590.31
235.349	584.31
235.583	590.31
235.817	590.31
236.051	560.31
236.285	573.31
236.519	613.31
236.753	718.31
236.987	703.31
237.221	708.31
237.455	784.31
237.689	770.31
237.922	694.31
238.156	682.31
238.39	709.31
238.624	756.31
238.858	783.31
239.091	806.31
239.325	815.31
239.559	980.31
239.793	1021.31
240.027	1102.31
240.26	1088.31
240.494	809.31
240.728	756.31
240.961	774.31
241.195	806.31
241.429	867.31
241.662	862.31
241.896	801.31
242.13	808.31
242.363	893.31
242.597	999.31
242.83	938.31
243.064	918.31
243.298	983.31
243.531	1005.31
243.765	971.31
243.998	977.31
244.232	862.31
244.465	812.31
244.699	814.31
244.932	955.31
245.166	1110.31
245.399	1032.31
245.633	940.31
245.866	921.31
246.099	977.31
246.333	1006.31
246.566	1028.31
246.8	1128.31
247.033	1262.31
247.266	1116.31
247.5	1108.31
247.733	1115.31
247.966	1174.31
248.2	1320.31
248.433	1253.31
248.666	1276.31
248.899	1369.31
249.133	1639.31
249.366	1840.31
249.599	1498.31
249.832	1314.31
250.066	1326.31
250.299	1344.31
250.532	1303.31
250.765	1124.31
250.998	1196.31
251.231	1254.31
251.465	1336.31
251.698	1251.31
251.931	1248.31
252.164	1252.31
252.397	1296.31
252.63	1314.31
252.863	1181.31
253.096	1120.31
253.329	1180.31
253.562	1239.31
253.795	1357.31
254.028	1360.31
254.261	1221.31
254.494	1240.31
254.727	1130.31
254.96	1182.31
255.193	1332.31
255.426	1487.31
255.659	1720.31
255.892	1829.31
256.124	1465.31
256.357	1405.31
256.59	1543.31
256.823	1485.31
257.056	1475.31
257.289	1817.31
257.521	2003.31
257.754	1802.31
257.987	1697.31
258.22	1911.31
258.452	1845.31
258.685	1465.31
258.918	1437.31
259.151	1457.31
259.383	1387.31
259.616	1199.31
259.849	1307.31
260.081	1460.31
260.314	1666.31
260.547	1820.31
260.779	1862.31
261.012	1674.31
261.244	1513.31
261.477	1432.31
261.71	1475.31
261.942	1488.31
262.175	1406.31
262.407	1525.31
262.64	1446.31
262.872	1383.31
263.105	1330.31
263.337	1302.31
263.57	1368.31
263.802	1354.31
264.035	1266.31
264.267	1224.31
264.499	1179.31
264.732	1250.31
264.964	1375.31
265.197	1430.31
265.429	1450.31
265.661	1643.31
265.894	1803.31
266.126	1927.31
266.358	1670.31
266.591	1729.31
266.823	1957.31
267.055	1704.31
267.287	1702.31
267.52	1681.31
267.752	1631.31
267.984	1663.31
268.216	1731.31
268.448	1747.31
268.681	1772.31
268.913	1579.31
269.145	1525.31
269.377	1478.31
269.609	1584.31
269.841	1843.31
270.073	2105.31
270.306	2434.31
270.538	2598.31
270.77	2175.31
271.002	1854.31
271.234	1756.31
271.466	1718.31
271.698	1947.31
271.93	2310.31
272.162	2324.31
272.394	2075.31
272.626	2010.31
272.858	1774.31
273.09	1501.31
273.322	1511.31
273.553	1433.31
273.785	1460.31
274.017	1511.31
274.249	1629.31
274.481	1655.31
274.713	1542.31
274.945	1497.31
275.176	1531.31
275.408	1448.31
275.64	1458.31
275.872	1443.31
276.104	1502.31
276.335	1705.31
276.567	1948.31
276.799	2026.31
277.031	1776.31
277.262	1702.31
277.494	1772.31
277.726	1938.31
277.957	1912.31
278.189	1787.31
278.421	1626.31
278.652	1555.31
278.884	1496.31
279.115	1539.31
279.347	1592.31
279.579	1518.31
279.81	1493.31
280.042	1700.31
280.273	1880.31
280.505	1868.31
280.736	1977.31
280.968	1842.31
281.199	1601.31
281.431	1491.31
281.662	1501.31
281.894	1530.31
282.125	1556.31
282.356	1618.31
282.588	1657.31
282.819	1616.31
283.051	1732.31
283.282	1910.31
283.513	1854.31
283.745	1578.31
283.976	1463.31
284.207	1440.31
284.439	1534.31
284.67	1571.31
284.901	1612.31
285.132	1653.31
285.364	1584.31
285.595	1616.31
285.826	1610.31
286.057	1574.31
286.288	1551.31
286.52	1633.31
286.751	1770.31
286.982	1814.31
287.213	1660.31
287.444	1524.31
287.675	1487.31
287.906	1599.31
288.138	1712.31
288.369	1681.31
288.6	1598.31
288.831	1496.31
289.062	1546.31
289.293	1556.31
289.524	1587.31
289.755	1621.31
289.986	1644.31
290.217	1495.31
290.448	1525.31
290.679	1597.31
290.91	1590.31
291.141	1651.31
291.371	1687.31
291.602	1676.31
291.833	1705.31
292.064	1735.31
292.295	1686.31
292.526	1759.31
292.757	1810.31
292.987	1704.31
293.218	1618.31
293.449	1709.31
293.68	1992.31
293.91	2142.31
294.141	1988.31
294.372	1876.31
294.603	1929.31
294.833	2032.31
295.064	1882.31
295.295	1689.31
295.525	1709.31
295.756	1538.31
295.987	1484.31
296.217	1504.31
296.448	1554.31
296.679	1565.31
296.909	1555.31
297.14	1550.31
297.37	1564.31
297.601	1660.31
297.831	1808.31
298.062	1833.31
298.292	1617.31
298.523	1598.31
298.753	1604.31
298.984	1606.31
299.214	1618.31
299.445	1631.31
299.675	1687.31
299.905	1692.31
300.136	1658.31
300.366	1601.31
300.597	1554.31
300.827	1560.31
301.057	1574.31
301.288	1708.31
301.518	1651.31
301.748	1706.31
301.979	1811.31
302.209	1840.31
302.439	1958.31
302.669	2065.31
302.9	1892.31
303.13	1693.31
303.36	1712.31
303.59	1794.31
303.82	1730.31
304.051	1714.31
304.281	1732.31
304.511	1659.31
304.741	1754.31
304.971	2034.31
305.201	2166.31
305.431	2039.31
305.661	1696.31
305.891	1508.31
306.121	1469.31
306.352	1544.31
306.582	1661.31
306.812	1768.31
307.042	1897.31
307.272	1885.31
307.502	1941.31
307.731	2073.31
307.961	2272.31
308.191	2090.31
308.421	1782.31
308.651	1668.31
308.881	1639.31
309.111	1690.31
309.341	1631.31
309.571	1624.31
309.8	1654.31
310.03	1624.31
310.26	1608.31
310.49	1617.31
310.72	1643.31
310.949	1714.31
311.179	1783.31
311.409	1725.31
311.639	1674.31
311.868	1623.31
312.098	1666.31
312.328	1668.31
312.557	1672.31
312.787	1688.31
313.017	1730.31
313.246	1733.31
313.476	1735.31
313.706	1766.31
313.935	1744.31
314.165	1758.31
314.394	1816.31
314.624	1893.31
314.853	2019.31
315.083	2050.31
315.312	2157.31
315.542	1995.31
315.771	1784.31
316.001	1773.31
316.23	1835.31
316.46	1907.31
316.689	1858.31
316.919	1754.31
317.148	1667.31
317.377	1720.31
317.607	1823.31
317.836	2034.31
318.065	2110.31
318.295	2082.31
318.524	1951.31
318.753	1871.31
318.983	1858.31
319.212	1833.31
319.441	1804.31
319.67	1756.31
319.9	1782.31
320.129	1892.31
320.358	1974.31
320.587	2069.31
320.816	2036.31
321.046	1983.31
321.275	1862.31
321.504	1852.31
321.733	1986.31
321.962	1993.31
322.191	1816.31
322.42	1786.31
322.649	1771.31
322.878	1759.31
323.108	1807.31
323.337	1866.31
323.566	1867.31
323.795	1836.31
324.024	1844.31
324.253	1818.31
324.482	1877.31
324.71	1796.31
324.939	1690.31
325.168	1750.31
325.397	1774.31
325.626	1854.31
325.855	1833.31
326.084	1799.31
326.313	1775.31
326.542	1774.31
326.77	1902.31
326.999	1899.31
327.228	1819.31
327.457	1683.31
327.686	1645.31
327.914	1771.31
328.143	1791.31
328.372	1753.31
328.6	1799.31
328.829	1795.31
329.058	1778.31
329.287	1743.31
329.515	1832.31
329.744	1798.31
329.972	1865.31
330.201	1991.31
330.43	1986.31
330.658	1884.31
330.887	1880.31
331.115	1891.31
331.344	1883.31
331.572	1927.31
331.801	1881.31
332.03	1914.31
332.258	1928.31
332.486	1918.31
332.715	1929.31
332.943	1926.31
333.172	1856.31
333.4	1868.31
333.629	1919.31
333.857	2076.31
334.085	2257.31
334.314	2581.31
334.542	2830.31
334.771	2653.31
334.999	2330.31
335.227	2143.31
335.455	2042.31
335.684	2015.31
335.912	2068.31
336.14	2174.31
336.369	2071.31
336.597	1922.31
336.825	1903.31
337.053	1978.31
337.281	2060.31
337.51	2176.31
337.738	2309.31
337.966	2199.31
338.194	1972.31
338.422	1924.31
338.65	1901.31
338.878	1878.31
339.106	1820.31
339.334	1818.31
339.562	1743.31
339.79	1840.31
340.018	1913.31
340.246	1994.31
340.474	2035.31
340.702	1924.31
340.93	1983.31
341.158	1942.31
341.386	1929.31
341.614	1890.31
341.842	1856.31
342.07	1862.31
342.298	1890.31
342.526	1891.31
342.754	1874.31
342.981	1857.31
343.209	1856.31
343.437	1819.31
343.665	1823.31
343.893	1908.31
344.12	2010.31
344.348	2032.31
344.576	1972.31
344.804	1861.31
345.031	1822.31
345.259	1897.31
345.487	1807.31
345.714	1726.31
345.942	1708.31
346.17	1714.31
346.397	1765.31
346.625	1770.31
346.853	1684.31
347.08	1652.31
347.308	1672.31
347.535	1721.31
347.763	1818.31
347.99	1773.31
348.218	1677.31
348.445	1659.31
348.673	1760.31
348.9	1747.31
349.128	1798.31
349.355	1868.31
349.583	1860.31
349.81	1758.31
350.037	1623.31
350.265	1633.31
350.492	1636.31
350.72	1653.31
350.947	1787.31
351.174	1766.31
351.402	1712.31
351.629	1605.31
351.856	1584.31
352.083	1579.31
352.311	1577.31
352.538	1653.31
352.765	1742.31
352.992	1776.31
353.22	1742.31
353.447	1647.31
353.674	1700.31
353.901	1742.31
354.128	1667.31
354.355	1611.31
354.583	1737.31
354.81	1778.31
355.037	1798.31
355.264	1769.31
355.491	1734.31
355.718	1800.31
355.945	1700.31
356.172	1702.31
356.399	1666.31
356.626	1663.31
356.853	1717.31
357.08	1820.31
357.307	2061.31
357.534	2064.31
357.761	1798.31
357.988	1640.31
358.215	1599.31
358.441	1659.31
358.668	1632.31
358.895	1610.31
359.122	1771.31
359.349	1928.31
359.576	1970.31
359.802	1764.31
360.029	1644.31
360.256	1586.31
360.483	1654.31
360.709	1700.31
360.936	1748.31
361.163	1799.31
361.39	1986.31
361.616	2198.31
361.843	2122.31
362.07	1978.31
362.296	1709.31
362.523	1663.31
362.749	1687.31
362.976	1704.31
363.203	1747.31
363.429	1713.31
363.656	1602.31
363.882	1691.31
364.109	1867.31
364.335	2093.31
364.562	1931.31
364.788	1826.31
365.015	1733.31
365.241	1634.31
365.468	1686.31
365.694	1815.31
365.92	1870.31
366.147	1792.31
366.373	1677.31
366.599	1638.31
366.826	1656.31
367.052	1648.31
367.278	1646.31
367.505	1700.31
367.731	1739.31
367.957	1736.31
368.184	1768.31
368.41	1881.31
368.636	1916.31
368.862	1941.31
369.089	1952.31
369.315	1853.31
369.541	1804.31
369.767	1732.31
369.993	1662.31
370.219	1684.31
370.445	1722.31
370.672	1808.31
370.898	1930.31
371.124	1920.31
371.35	1775.31
371.576	1841.31
371.802	1922.31
372.028	1829.31
372.254	1772.31
372.48	1696.31
372.706	1700.31
372.932	1679.31
373.158	1719.31
373.384	1744.31
373.61	1794.31
373.835	1911.31
374.061	1804.31
374.287	1798.31
374.513	1810.31
374.739	1766.31
374.965	1800.31
375.191	1837.31
375.416	1889.31
375.642	1874.31
375.868	1934.31
376.094	1998.31
376.319	1941.31
376.545	1810.31
376.771	1860.31
376.997	1927.31
377.222	1942.31
377.448	1850.31
377.674	1890.31
377.899	1859.31
378.125	1998.31
378.35	1970.31
378.576	1824.31
378.802	1748.31
379.027	1726.31
379.253	1769.31
379.478	1760.31
379.704	1758.31
379.929	1747.31
380.155	1750.31
380.38	1744.31
380.606	1823.31
380.831	1803.31
381.057	1876.31
381.282	1930.31
381.507	1814.31
381.733	1958.31
381.958	2068.31
382.184	1897.31
382.409	1833.31
382.634	1890.31
382.86	1886.31
383.085	1851.31
383.31	1904.31
383.535	2052.31
383.761	2158.31
383.986	2091.31
384.211	2006.31
384.436	1998.31
384.662	2056.31
384.887	2175.31
385.112	2064.31
385.337	2087.31
385.562	2039.31
385.787	2025.31
386.013	2090.31
386.238	2083.31
386.463	2063.31
386.688	2180.31
386.913	2337.31
387.138	2263.31
387.363	2132.31
387.588	2114.31
387.813	2087.31
388.038	2116.31
388.263	2182.31
388.488	2158.31
388.713	1950.31
388.938	1935.31
389.163	1955.31
389.387	2014.31
389.612	1954.31
389.837	2022.31
390.062	2090.31
390.287	2042.31
390.512	2047.31
390.736	1988.31
390.961	1936.31
391.186	1906.31
391.411	1954.31
391.636	2039.31
391.86	2027.31
392.085	2005.31
392.31	1999.31
392.534	2050.31
392.759	2029.31
392.984	2034.31
393.208	2073.31
393.433	2138.31
393.658	2182.31
393.882	2203.31
394.107	2103.31
394.331	2007.31
394.556	1967.31
394.78	2031.31
395.005	2149.31
395.229	2166.31
395.454	2355.31
395.678	2402.31
395.903	2246.31
396.127	2140.31
396.352	2156.31
396.576	2214.31
396.801	2264.31
397.025	2222.31
397.249	2238.31
397.474	2204.31
397.698	2144.31
397.922	2235.31
398.147	2353.31
398.371	2462.31
398.595	2424.31
398.82	2275.31
399.044	2354.31
399.268	2475.31
399.492	2614.31
399.717	2726.31
399.941	2794.31
400.165	2696.31
400.389	2601.31
400.613	2552.31
400.837	2844.31
401.062	3264.31
401.286	2838.31
401.51	2571.31
401.734	2678.31
401.958	2611.31
402.182	2387.31
402.406	2380.31
402.63	2279.31
402.854	2366.31
403.078	2300.31
403.302	2367.31
403.526	2429.31
403.75	2388.31
403.974	2480.31
404.198	2412.31
404.422	2476.31
404.645	2584.31
404.869	2568.31
405.093	2371.31
405.317	2328.31
405.541	2433.31
405.765	2447.31
405.988	2445.31
406.212	2468.31
406.436	2565.31
406.66	2596.31
406.883	2616.31
407.107	2872.31
407.331	3126.31
407.555	3435.31
407.778	3179.31
408.002	2616.31
408.226	2534.31
408.449	2536.31
408.673	2507.31
408.896	2455.31
409.12	2497.31
409.344	2458.31
409.567	2400.31
409.791	2471.31
410.014	2507.31
410.238	2595.31
410.461	2750.31
410.685	2509.31
410.908	2358.31
411.132	2434.31
411.355	2418.31
411.578	2370.31
411.802	2405.31
412.025	2406.31
412.249	2345.31
412.472	2275.31
412.695	2256.31
412.919	2356.31
413.142	2267.31
413.365	2327.31
413.589	2382.31
413.812	2456.31
414.035	2583.31
414.258	2373.31
414.482	2287.31
414.705	2334.31
414.928	2290.31
415.151	2287.31
415.374	2314.31
415.597	2353.31
415.821	2368.31
416.044	2433.31
416.267	2436.31
416.49	2257.31
416.713	2223.31
416.936	2302.31
417.159	2382.31
417.382	2400.31
417.605	2238.31
417.828	2339.31
418.051	2405.31
418.274	2318.31
418.497	2226.31
418.72	2234.31
418.943	2253.31
419.166	2373.31
419.389	2448.31
419.611	2334.31
419.834	2279.31
420.057	2314.31
420.28	2211.31
420.503	2222.31
420.726	2282.31
420.948	2325.31
421.171	2205.31
421.394	2218.31
421.617	2334.31
421.839	2247.31
422.062	2268.31
422.285	2214.31
422.507	2212.31
422.73	2142.31
422.953	2148.31
423.175	2157.31
423.398	2221.31
423.621	2199.31
423.843	2243.31
424.066	2264.31
424.288	2349.31
424.511	2413.31
424.733	2359.31
424.956	2148.31
425.178	2110.31
425.401	2090.31
425.623	2165.31
425.846	2157.31
426.068	2272.31
426.291	2285.31
426.513	2268.31
426.735	2265.31
426.958	2431.31
427.18	2576.31
427.402	2365.31
427.625	2428.31
427.847	2399.31
428.069	2308.31
428.292	2159.31
428.514	2149.31
428.736	2115.31
428.958	2116.31
429.181	2163.31
429.403	2404.31
429.625	3060.31
429.847	2685.31
430.069	2246.31
430.292	2418.31
430.514	2551.31
430.736	2343.31
430.958	2455.31
431.18	2318.31
431.402	2186.31
431.624	2154.31
431.846	2132.31
432.068	2081.31
432.29	2130.31
432.512	2140.31
432.734	2200.31
432.956	2231.31
433.178	2325.31
433.4	2316.31
433.622	2311.31
433.844	2186.31
434.066	2139.31
434.287	2132.31
434.509	2228.31
434.731	2336.31
434.953	2488.31
435.175	2421.31
435.397	2275.31
435.618	2251.31
435.84	2329.31
436.062	2253.31
436.284	2277.31
436.505	2313.31
436.727	2378.31
436.949	2264.31
437.17	2164.31
437.392	2154.31
437.614	2220.31
437.835	2098.31
438.057	2273.31
438.278	2360.31
438.5	2171.31
438.721	2086.31
438.943	2159.31
439.165	2125.31
439.386	2127.31
439.608	2123.31
439.829	2145.31
440.05	2140.31
440.272	2116.31
440.493	2108.31
440.715	2137.31
440.936	2255.31
441.158	2522.31
441.379	2460.31
441.6	2408.31
441.822	2326.31
442.043	2313.31
442.264	2279.31
442.486	2137.31
442.707	2088.31
442.928	2157.31
443.149	2200.31
443.371	2330.31
443.592	2452.31
443.813	2370.31
444.034	2341.31
444.255	2374.31
444.476	2414.31
444.698	2498.31
444.919	2438.31
445.14	2495.31
445.361	2501.31
445.582	2592.31
445.803	2494.31
446.024	2415.31
446.245	2480.31
446.466	2384.31
446.687	2262.31
446.908	2248.31
447.129	2184.31
447.35	2210.31
447.571	2241.31
447.792	2131.31
448.013	2109.31
448.234	2133.31
448.455	2237.31
448.675	2294.31
448.896	2113.31
449.117	2054.31
449.338	2101.31
449.559	2226.31
449.779	2359.31
450	2568.31
450.221	2756.31
450.442	2656.31
450.662	2352.31
450.883	2057.31
451.104	2012.31
451.324	2036.31
451.545	2125.31
451.766	2101.31
451.986	2020.31
452.207	1955.31
452.428	1920.31
452.648	1916.31
452.869	1960.31
453.089	2098.31
453.31	2089.31
453.53	2183.31
453.751	2088.31
453.971	1959.31
454.192	2046.31
454.412	2157.31
454.633	2083.31
454.853	2034.31
455.073	1877.31
455.294	1866.31
455.514	1921.31
455.734	1908.31
455.955	1960.31
456.175	1943.31
456.395	1959.31
456.616	2001.31
456.836	2062.31
457.056	1993.31
457.276	2012.31
457.497	1909.31
457.717	1858.31
457.937	1877.31
458.157	1997.31
458.377	1974.31
458.598	1933.31
458.818	1940.31
459.038	2064.31
459.258	2197.31
459.478	2214.31
459.698	2156.31
459.918	2126.31
460.138	2255.31
460.358	2268.31
460.578	2282.31
460.798	2408.31
461.018	2534.31
461.238	2473.31
461.458	2283.31
461.678	2347.31
461.898	2243.31
462.118	2221.31
462.338	2318.31
462.558	2265.31
462.777	2328.31
462.997	2419.31
463.217	2553.31
463.437	2528.31
463.657	2364.31
463.876	2310.31
464.096	2298.31
464.316	2277.31
464.536	2398.31
464.755	2426.31
464.975	2458.31
465.195	2312.31
465.414	2422.31
465.634	2437.31
465.854	2266.31
466.073	2473.31
466.293	2420.31
466.512	2116.31
466.732	2118.31
466.951	2206.31
467.171	2159.31
467.391	2093.31
467.61	2051.31
467.829	2082.31
468.049	2277.31
468.268	2512.31
468.488	2381.31
468.707	2259.31
468.927	2151.31
469.146	2126.31
469.365	2074.31
469.585	2152.31
469.804	2100.31
470.023	2131.31
470.243	2148.31
470.462	2106.31
470.681	2006.31
470.901	2125.31
471.12	2134.31
471.339	2102.31
471.558	2019.31
471.777	1992.31
471.997	2073.31
472.216	2066.31
472.435	2019.31
472.654	2031.31
472.873	2129.31
473.092	2244.31
473.311	2182.31
473.53	1972.31
473.749	1989.31
473.968	2108.31
474.187	2210.31
474.406	2324.31
474.625	2163.31
474.844	2136.31
475.063	2173.31
475.282	2210.31
475.501	2109.31
475.72	2186.31
475.939	2262.31
476.158	2193.31
476.377	2104.31
476.596	2169.31
476.814	2204.31
477.033	2211.31
477.252	2346.31
477.471	2346.31
477.69	2268.31
477.908	2230.31
478.127	2381.31
478.346	2544.31
478.564	2588.31
478.783	2538.31
479.002	2574.31
479.22	2569.31
479.439	2632.31
479.658	2943.31
479.876	2925.31
480.095	2542.31
480.313	2451.31
480.532	2348.31
480.751	2393.31
480.969	2456.31
481.188	2400.31
481.406	2361.31
481.624	2335.31
481.843	2331.31
482.061	2438.31
482.28	2446.31
482.498	2490.31
482.717	2501.31
482.935	2360.31
483.153	2324.31
483.372	2347.31
483.59	2342.31
483.808	2354.31
484.027	2379.31
484.245	2591.31
484.463	2973.31
484.681	3402.31
484.9	2650.31
485.118	2386.31
485.336	2371.31
485.554	2468.31
485.772	2614.31
485.99	2573.31
486.209	2531.31
486.427	2546.31
486.645	2572.31
486.863	2466.31
487.081	2548.31
487.299	2642.31
