Data from WStandard_LampEnergy8_LIBS07252019.E.O._I.C._HRD10591_16-01-00-930.txt Node
Date: Thu Jul 25 16:01:00 EDT 2019
User: cochatt
Spectrometer: HR+D1059
Trigger mode: 1
Integration Time (sec): 1.000000E-1
Scans to average: 1
Electric dark correction enabled: true
Nonlinearity correction enabled: false
Boxcar width: 0
XAxis mode: Wavelengths
Number of Pixels in Spectrum: 2048
>>>>>Begin Spectral Data<<<<<
223.165	-18.56
223.4	-18.56
223.635	-18.56
223.869	-29.56
224.104	-26.56
224.338	-14.56
224.573	-13.56
224.808	-7.56
225.042	-3.56
225.277	-7.56
225.511	-7.56
225.746	11.44
225.98	8.44
226.215	5.44
226.449	25.44
226.683	17.44
226.918	29.44
227.152	31.44
227.387	37.44
227.621	41.44
227.856	43.44
228.09	53.44
228.324	61.44
228.559	52.44
228.793	99.44
229.027	209.44
229.262	207.44
229.496	194.44
229.73	225.44
229.964	249.44
230.199	266.44
230.433	262.44
230.667	285.44
230.901	279.44
231.136	245.44
231.37	245.44
231.604	253.44
231.838	265.44
232.072	255.44
232.306	253.44
232.541	262.44
232.775	296.44
233.009	328.44
233.243	304.44
233.477	275.44
233.711	307.44
233.945	285.44
234.179	313.44
234.413	280.44
234.647	333.44
234.881	323.44
235.115	293.44
235.349	301.44
235.583	290.44
235.817	296.44
236.051	285.44
236.285	298.44
236.519	317.44
236.753	346.44
236.987	352.44
237.221	342.44
237.455	374.44
237.689	355.44
237.922	338.44
238.156	335.44
238.39	334.44
238.624	368.44
238.858	386.44
239.091	385.44
239.325	409.44
239.559	463.44
239.793	470.44
240.027	514.44
240.26	482.44
240.494	394.44
240.728	354.44
240.961	381.44
241.195	376.44
241.429	398.44
241.662	408.44
241.896	397.44
242.13	378.44
242.363	418.44
242.597	455.44
242.83	410.44
243.064	443.44
243.298	489.44
243.531	467.44
243.765	441.44
243.998	447.44
244.232	391.44
244.465	384.44
244.699	391.44
244.932	454.44
245.166	493.44
245.399	484.44
245.633	455.44
245.866	466.44
246.099	465.44
246.333	465.44
246.566	480.44
246.8	515.44
247.033	563.44
247.266	532.44
247.5	515.44
247.733	495.44
247.966	568.44
248.2	573.44
248.433	574.44
248.666	615.44
248.899	657.44
249.133	740.44
249.366	793.44
249.599	655.44
249.832	587.44
250.066	591.44
250.299	625.44
250.532	563.44
250.765	513.44
250.998	568.44
251.231	581.44
251.465	580.44
251.698	541.44
251.931	557.44
252.164	591.44
252.397	610.44
252.63	612.44
252.863	543.44
253.096	518.44
253.329	547.44
253.562	608.44
253.795	613.44
254.028	583.44
254.261	576.44
254.494	546.44
254.727	541.44
254.96	573.44
255.193	610.44
255.426	685.44
255.659	768.44
255.892	756.44
256.124	660.44
256.357	645.44
256.59	690.44
256.823	685.44
257.056	687.44
257.289	806.44
257.521	848.44
257.754	806.44
257.987	742.44
258.22	824.44
258.452	803.44
258.685	659.44
258.918	638.44
259.151	661.44
259.383	647.44
259.616	575.44
259.849	601.44
260.081	697.44
260.314	736.44
260.547	778.44
260.779	797.44
261.012	743.44
261.244	675.44
261.477	640.44
261.71	695.44
261.942	675.44
262.175	663.44
262.407	697.44
262.64	658.44
262.872	585.44
263.105	607.44
263.337	602.44
263.57	633.44
263.802	609.44
264.035	594.44
264.267	576.44
264.499	557.44
264.732	611.44
264.964	648.44
265.197	657.44
265.429	715.44
265.661	775.44
265.894	810.44
266.126	832.44
266.358	774.44
266.591	787.44
266.823	810.44
267.055	759.44
267.287	779.44
267.52	738.44
267.752	720.44
267.984	733.44
268.216	780.44
268.448	788.44
268.681	772.44
268.913	693.44
269.145	691.44
269.377	664.44
269.609	723.44
269.841	868.44
270.073	949.44
270.306	1056.44
270.538	1093.44
270.77	943.44
271.002	804.44
271.234	788.44
271.466	783.44
271.698	890.44
271.93	1030.44
272.162	986.44
272.394	920.44
272.626	866.44
272.858	750.44
273.09	727.44
273.322	673.44
273.553	653.44
273.785	641.44
274.017	715.44
274.249	752.44
274.481	739.44
274.713	697.44
274.945	685.44
275.176	693.44
275.408	697.44
275.64	660.44
275.872	658.44
276.104	725.44
276.335	829.44
276.567	909.44
276.799	903.44
277.031	828.44
277.262	787.44
277.494	853.44
277.726	878.44
277.957	853.44
278.189	791.44
278.421	731.44
278.652	704.44
278.884	700.44
279.115	717.44
279.347	741.44
279.579	719.44
279.81	728.44
280.042	793.44
280.273	869.44
280.505	884.44
280.736	832.44
280.968	808.44
281.199	735.44
281.431	689.44
281.662	698.44
281.894	711.44
282.125	720.44
282.356	749.44
282.588	769.44
282.819	744.44
283.051	814.44
283.282	873.44
283.513	833.44
283.745	745.44
283.976	719.44
284.207	717.44
284.439	742.44
284.67	746.44
284.901	765.44
285.132	757.44
285.364	767.44
285.595	763.44
285.826	756.44
286.057	729.44
286.288	754.44
286.52	775.44
286.751	819.44
286.982	828.44
287.213	774.44
287.444	697.44
287.675	738.44
287.906	784.44
288.138	827.44
288.369	769.44
288.6	739.44
288.831	736.44
289.062	746.44
289.293	753.44
289.524	755.44
289.755	807.44
289.986	770.44
290.217	719.44
290.448	738.44
290.679	765.44
290.91	769.44
291.141	791.44
291.371	803.44
291.602	795.44
291.833	809.44
292.064	826.44
292.295	810.44
292.526	838.44
292.757	842.44
292.987	806.44
293.218	783.44
293.449	863.44
293.68	958.44
293.91	965.44
294.141	937.44
294.372	905.44
294.603	930.44
294.833	966.44
295.064	898.44
295.295	822.44
295.525	791.44
295.756	745.44
295.987	700.44
296.217	749.44
296.448	775.44
296.679	745.44
296.909	765.44
297.14	767.44
297.37	777.44
297.601	819.44
297.831	838.44
298.062	882.44
298.292	780.44
298.523	754.44
298.753	745.44
298.984	795.44
299.214	806.44
299.445	801.44
299.675	827.44
299.905	828.44
300.136	785.44
300.366	787.44
300.597	736.44
300.827	753.44
301.057	791.44
301.288	845.44
301.518	858.44
301.748	879.44
301.979	899.44
302.209	907.44
302.439	966.44
302.669	985.44
302.9	915.44
303.13	825.44
303.36	838.44
303.59	857.44
303.82	846.44
304.051	835.44
304.281	864.44
304.511	856.44
304.741	928.44
304.971	1001.44
305.201	1059.44
305.431	941.44
305.661	806.44
305.891	746.44
306.121	756.44
306.352	779.44
306.582	823.44
306.812	893.44
307.042	929.44
307.272	921.44
307.502	975.44
307.731	1029.44
307.961	1090.44
308.191	956.44
308.421	871.44
308.651	825.44
308.881	837.44
309.111	805.44
309.341	809.44
309.571	823.44
309.8	819.44
310.03	808.44
310.26	815.44
310.49	805.44
310.72	830.44
310.949	869.44
311.179	877.44
311.409	844.44
311.639	852.44
311.868	835.44
312.098	837.44
312.328	856.44
312.557	825.44
312.787	845.44
313.017	837.44
313.246	869.44
313.476	887.44
313.706	887.44
313.935	886.44
314.165	903.44
314.394	916.44
314.624	962.44
314.853	993.44
315.083	1031.44
315.312	1047.44
315.542	964.44
315.771	897.44
316.001	897.44
316.23	945.44
316.46	929.44
316.689	918.44
316.919	842.44
317.148	832.44
317.377	844.44
317.607	957.44
317.836	1037.44
318.065	1056.44
318.295	1009.44
318.524	974.44
318.753	945.44
318.983	927.44
319.212	897.44
319.441	901.44
319.67	877.44
319.9	908.44
320.129	957.44
320.358	988.44
320.587	997.44
320.816	998.44
321.046	991.44
321.275	951.44
321.504	979.44
321.733	1059.44
321.962	997.44
322.191	938.44
322.42	910.44
322.649	881.44
322.878	895.44
323.108	911.44
323.337	951.44
323.566	951.44
323.795	953.44
324.024	918.44
324.253	906.44
324.482	911.44
324.71	876.44
324.939	875.44
325.168	868.44
325.397	903.44
325.626	947.44
325.855	952.44
326.084	926.44
326.313	929.44
326.542	914.44
326.77	934.44
326.999	933.44
327.228	895.44
327.457	835.44
327.686	867.44
327.914	905.44
328.143	941.44
328.372	904.44
328.6	877.44
328.829	909.44
329.058	899.44
329.287	893.44
329.515	936.44
329.744	926.44
329.972	970.44
330.201	996.44
330.43	966.44
330.658	954.44
330.887	975.44
331.115	966.44
331.344	969.44
331.572	960.44
331.801	959.44
332.03	954.44
332.258	948.44
332.486	973.44
332.715	986.44
332.943	1003.44
333.172	976.44
333.4	996.44
333.629	1023.44
333.857	1098.44
334.085	1189.44
334.314	1351.44
334.542	1392.44
334.771	1274.44
334.999	1138.44
335.227	1087.44
335.455	1052.44
335.684	1033.44
335.912	1067.44
336.14	1089.44
336.369	1058.44
336.597	1002.44
336.825	974.44
337.053	1038.44
337.281	1081.44
337.51	1124.44
337.738	1172.44
337.966	1067.44
338.194	1023.44
338.422	985.44
338.65	955.44
338.878	957.44
339.106	941.44
339.334	935.44
339.562	934.44
339.79	948.44
340.018	987.44
340.246	1051.44
340.474	1013.44
340.702	1016.44
340.93	1011.44
341.158	1001.44
341.386	964.44
341.614	973.44
341.842	971.44
342.07	979.44
342.298	991.44
342.526	947.44
342.754	959.44
342.981	975.44
343.209	969.44
343.437	959.44
343.665	968.44
343.893	987.44
344.12	1025.44
344.348	1011.44
344.576	981.44
344.804	993.44
345.031	952.44
345.259	952.44
345.487	932.44
345.714	899.44
345.942	887.44
346.17	897.44
346.397	933.44
346.625	915.44
346.853	870.44
347.08	874.44
347.308	892.44
347.535	932.44
347.763	953.44
347.99	909.44
348.218	877.44
348.445	902.44
348.673	913.44
348.9	929.44
349.128	966.44
349.355	1008.44
349.583	986.44
349.81	912.44
350.037	858.44
350.265	848.44
350.492	883.44
350.72	858.44
350.947	936.44
351.174	927.44
351.402	890.44
351.629	846.44
351.856	823.44
352.083	852.44
352.311	863.44
352.538	881.44
352.765	943.44
352.992	909.44
353.22	884.44
353.447	870.44
353.674	914.44
353.901	901.44
354.128	885.44
354.355	904.44
354.583	951.44
354.81	938.44
355.037	983.44
355.264	923.44
355.491	914.44
355.718	903.44
355.945	927.44
356.172	922.44
356.399	900.44
356.626	881.44
356.853	929.44
357.08	1001.44
357.307	1090.44
357.534	1012.44
357.761	941.44
357.988	879.44
358.215	875.44
358.441	879.44
358.668	859.44
358.895	895.44
359.122	985.44
359.349	1024.44
359.576	980.44
359.802	900.44
360.029	897.44
360.256	885.44
360.483	899.44
360.709	914.44
360.936	952.44
361.163	995.44
361.39	1046.44
361.616	1127.44
361.843	1133.44
362.07	999.44
362.296	899.44
362.523	906.44
362.749	953.44
362.976	927.44
363.203	933.44
363.429	894.44
363.656	879.44
363.882	933.44
364.109	1083.44
364.335	1081.44
364.562	1008.44
364.788	976.44
365.015	930.44
365.241	892.44
365.468	915.44
365.694	935.44
365.92	950.44
366.147	935.44
366.373	929.44
366.599	886.44
366.826	909.44
367.052	901.44
367.278	921.44
367.505	953.44
367.731	968.44
367.957	959.44
368.184	967.44
368.41	1058.44
368.636	1020.44
368.862	1049.44
369.089	1037.44
369.315	999.44
369.541	962.44
369.767	917.44
369.993	911.44
370.219	924.44
370.445	948.44
370.672	1009.44
370.898	1032.44
371.124	1045.44
371.35	1030.44
371.576	1002.44
371.802	1031.44
372.028	1009.44
372.254	950.44
372.48	938.44
372.706	950.44
372.932	927.44
373.158	959.44
373.384	977.44
373.61	961.44
373.835	1019.44
374.061	970.44
374.287	996.44
374.513	970.44
374.739	982.44
374.965	948.44
375.191	990.44
375.416	1049.44
375.642	1013.44
375.868	1093.44
376.094	1113.44
376.319	1043.44
376.545	1006.44
376.771	1016.44
376.997	1074.44
377.222	1041.44
377.448	1005.44
377.674	1035.44
377.899	1012.44
378.125	1069.44
378.35	1057.44
378.576	962.44
378.802	936.44
379.027	968.44
379.253	963.44
379.478	962.44
379.704	977.44
379.929	965.44
380.155	963.44
380.38	977.44
380.606	980.44
380.831	997.44
381.057	1053.44
381.282	1061.44
381.507	1013.44
381.733	1079.44
381.958	1152.44
382.184	1049.44
382.409	1022.44
382.634	992.44
382.86	1042.44
383.085	1053.44
383.31	1080.44
383.535	1173.44
383.761	1215.44
383.986	1153.44
384.211	1097.44
384.436	1118.44
384.662	1146.44
384.887	1147.44
385.112	1117.44
385.337	1121.44
385.562	1131.44
385.787	1114.44
386.013	1143.44
386.238	1137.44
386.463	1149.44
386.688	1235.44
386.913	1306.44
387.138	1265.44
387.363	1145.44
387.588	1141.44
387.813	1145.44
388.038	1189.44
388.263	1186.44
388.488	1159.44
388.713	1079.44
388.938	1053.44
389.163	1109.44
389.387	1118.44
389.612	1089.44
389.837	1129.44
390.062	1144.44
390.287	1109.44
390.512	1131.44
390.736	1110.44
390.961	1088.44
391.186	1058.44
391.411	1073.44
391.636	1134.44
391.86	1099.44
392.085	1112.44
392.31	1090.44
392.534	1147.44
392.759	1133.44
392.984	1105.44
393.208	1123.44
393.433	1151.44
393.658	1189.44
393.882	1215.44
394.107	1141.44
394.331	1101.44
394.556	1122.44
394.78	1170.44
395.005	1192.44
395.229	1183.44
395.454	1287.44
395.678	1267.44
395.903	1211.44
396.127	1168.44
396.352	1182.44
396.576	1233.44
396.801	1258.44
397.025	1225.44
397.249	1213.44
397.474	1210.44
397.698	1174.44
397.922	1256.44
398.147	1288.44
398.371	1311.44
398.595	1335.44
398.82	1271.44
399.044	1293.44
399.268	1339.44
399.492	1378.44
399.717	1488.44
399.941	1505.44
400.165	1465.44
400.389	1407.44
400.613	1457.44
400.837	1638.44
401.062	1789.44
401.286	1543.44
401.51	1413.44
401.734	1442.44
401.958	1365.44
402.182	1331.44
402.406	1251.44
402.63	1238.44
402.854	1269.44
403.078	1277.44
403.302	1268.44
403.526	1349.44
403.75	1360.44
403.974	1372.44
404.198	1339.44
404.422	1395.44
404.645	1422.44
404.869	1388.44
405.093	1310.44
405.317	1274.44
405.541	1322.44
405.765	1357.44
405.988	1374.44
406.212	1351.44
406.436	1376.44
406.66	1427.44
406.883	1510.44
407.107	1666.44
407.331	1787.44
407.555	1929.44
407.778	1662.44
408.002	1439.44
408.226	1390.44
408.449	1373.44
408.673	1362.44
408.896	1363.44
409.12	1368.44
409.344	1342.44
409.567	1336.44
409.791	1339.44
410.014	1385.44
410.238	1445.44
410.461	1506.44
410.685	1342.44
410.908	1336.44
411.132	1360.44
411.355	1308.44
411.578	1297.44
411.802	1351.44
412.025	1361.44
412.249	1310.44
412.472	1279.44
412.695	1306.44
412.919	1304.44
413.142	1277.44
413.365	1286.44
413.589	1349.44
413.812	1384.44
414.035	1441.44
414.258	1310.44
414.482	1275.44
414.705	1307.44
414.928	1266.44
415.151	1287.44
415.374	1291.44
415.597	1308.44
415.821	1290.44
416.044	1335.44
416.267	1355.44
416.49	1265.44
416.713	1257.44
416.936	1314.44
417.159	1385.44
417.382	1345.44
417.605	1288.44
417.828	1319.44
418.051	1339.44
418.274	1316.44
418.497	1289.44
418.72	1257.44
418.943	1258.44
419.166	1325.44
419.389	1373.44
419.611	1309.44
419.834	1281.44
420.057	1274.44
420.28	1271.44
420.503	1266.44
420.726	1342.44
420.948	1288.44
421.171	1267.44
421.394	1267.44
421.617	1330.44
421.839	1331.44
422.062	1267.44
422.285	1275.44
422.507	1249.44
422.73	1219.44
422.953	1202.44
423.175	1203.44
423.398	1261.44
423.621	1235.44
423.843	1258.44
424.066	1310.44
424.288	1358.44
424.511	1397.44
424.733	1345.44
424.956	1239.44
425.178	1211.44
425.401	1256.44
425.623	1254.44
425.846	1266.44
426.068	1304.44
426.291	1322.44
426.513	1320.44
426.735	1282.44
426.958	1411.44
427.18	1479.44
427.402	1333.44
427.625	1381.44
427.847	1361.44
428.069	1248.44
428.292	1243.44
428.514	1217.44
428.736	1217.44
428.958	1232.44
429.181	1276.44
429.403	1457.44
429.625	1720.44
429.847	1457.44
430.069	1293.44
430.292	1411.44
430.514	1441.44
430.736	1343.44
430.958	1351.44
431.18	1269.44
431.402	1216.44
431.624	1201.44
431.846	1151.44
432.068	1123.44
432.29	1108.44
432.512	1171.44
432.734	1273.44
432.956	1283.44
433.178	1342.44
433.4	1288.44
433.622	1335.44
433.844	1229.44
434.066	1173.44
434.287	1153.44
434.509	1193.44
434.731	1287.44
434.953	1334.44
435.175	1330.44
435.397	1274.44
435.618	1242.44
435.84	1228.44
436.062	1170.44
436.284	1240.44
436.505	1267.44
436.727	1311.44
436.949	1234.44
437.17	1231.44
437.392	1192.44
437.614	1206.44
437.835	1175.44
438.057	1216.44
438.278	1258.44
438.5	1194.44
438.721	1221.44
438.943	1217.44
439.165	1184.44
439.386	1185.44
439.608	1234.44
439.829	1219.44
440.05	1224.44
440.272	1239.44
440.493	1222.44
440.715	1224.44
440.936	1309.44
441.158	1397.44
441.379	1385.44
441.6	1307.44
441.822	1270.44
442.043	1307.44
442.264	1306.44
442.486	1239.44
442.707	1250.44
442.928	1239.44
443.149	1281.44
443.371	1363.44
443.592	1383.44
443.813	1376.44
444.034	1320.44
444.255	1335.44
444.476	1394.44
444.698	1394.44
444.919	1395.44
445.14	1445.44
445.361	1411.44
445.582	1426.44
445.803	1379.44
446.024	1347.44
446.245	1395.44
446.466	1355.44
446.687	1316.44
446.908	1297.44
447.129	1306.44
447.35	1294.44
447.571	1272.44
447.792	1238.44
448.013	1236.44
448.234	1270.44
448.455	1306.44
448.675	1321.44
448.896	1208.44
449.117	1192.44
449.338	1200.44
449.559	1246.44
449.779	1310.44
450	1409.44
450.221	1442.44
450.442	1386.44
450.662	1246.44
450.883	1144.44
451.104	1147.44
451.324	1170.44
451.545	1223.44
451.766	1173.44
451.986	1149.44
452.207	1117.44
452.428	1110.44
452.648	1071.44
452.869	1096.44
453.089	1130.44
453.31	1146.44
453.53	1173.44
453.751	1089.44
453.971	1037.44
454.192	1065.44
454.412	1136.44
454.633	1141.44
454.853	1103.44
455.073	1065.44
455.294	1042.44
455.514	1030.44
455.734	1065.44
455.955	1075.44
456.175	1055.44
456.395	1064.44
456.616	1074.44
456.836	1061.44
457.056	1079.44
457.276	1077.44
457.497	1046.44
457.717	971.44
457.937	1043.44
458.157	1021.44
458.377	1015.44
458.598	1008.44
458.818	1031.44
459.038	1094.44
459.258	1139.44
459.478	1113.44
459.698	1099.44
459.918	1151.44
460.138	1201.44
460.358	1245.44
460.578	1243.44
460.798	1267.44
461.018	1330.44
461.238	1279.44
461.458	1257.44
461.678	1218.44
461.898	1218.44
462.118	1173.44
462.338	1244.44
462.558	1246.44
462.777	1238.44
462.997	1289.44
463.217	1363.44
463.437	1312.44
463.657	1268.44
463.876	1247.44
464.096	1219.44
464.316	1238.44
464.536	1293.44
464.755	1281.44
464.975	1327.44
465.195	1265.44
465.414	1295.44
465.634	1288.44
465.854	1242.44
466.073	1353.44
466.293	1326.44
466.512	1173.44
466.732	1199.44
466.951	1242.44
467.171	1198.44
467.391	1174.44
467.61	1201.44
467.829	1173.44
468.049	1313.44
468.268	1407.44
468.488	1318.44
468.707	1218.44
468.927	1207.44
469.146	1199.44
469.365	1223.44
469.585	1190.44
469.804	1249.44
470.023	1200.44
470.243	1219.44
470.462	1187.44
470.681	1192.44
470.901	1234.44
471.12	1217.44
471.339	1219.44
471.558	1182.44
471.777	1167.44
471.997	1199.44
472.216	1162.44
472.435	1109.44
472.654	1119.44
472.873	1144.44
473.092	1230.44
473.311	1189.44
473.53	1130.44
473.749	1154.44
473.968	1173.44
474.187	1190.44
474.406	1212.44
474.625	1164.44
474.844	1193.44
475.063	1164.44
475.282	1217.44
475.501	1175.44
475.72	1186.44
475.939	1256.44
476.158	1240.44
476.377	1207.44
476.596	1205.44
476.814	1176.44
477.033	1180.44
477.252	1281.44
477.471	1297.44
477.69	1258.44
477.908	1271.44
478.127	1355.44
478.346	1411.44
478.564	1403.44
478.783	1384.44
479.002	1429.44
479.22	1385.44
479.439	1430.44
479.658	1544.44
479.876	1495.44
480.095	1363.44
480.313	1325.44
480.532	1304.44
480.751	1315.44
480.969	1313.44
481.188	1279.44
481.406	1270.44
481.624	1204.44
481.843	1194.44
482.061	1277.44
482.28	1315.44
482.498	1328.44
482.717	1302.44
482.935	1273.44
483.153	1322.44
483.372	1327.44
483.59	1314.44
483.808	1326.44
484.027	1328.44
484.245	1403.44
484.463	1706.44
484.681	1907.44
484.9	1443.44
485.118	1369.44
485.336	1319.44
485.554	1351.44
485.772	1355.44
485.99	1371.44
486.209	1375.44
486.427	1401.44
486.645	1403.44
486.863	1402.44
487.081	1428.44
487.299	1442.44
487.517	1413.44
487.735	1453.44
487.953	1515.44
488.171	1465.44
488.389	1465.44
488.607	1457.44
488.825	1574.44
489.043	1533.44
489.261	1389.44
489.479	1475.44
489.696	1435.44
489.914	1462.44
490.132	1402.44
490.35	1411.44
490.568	1519.44
490.786	1482.44
491.003	1449.44
491.221	1516.44
491.439	1592.44
491.657	1561.44
491.874	1605.44
492.092	1666.44
492.31	1656.44
492.527	1634.44
492.745	1601.44
492.963	1554.44
493.18	1604.44
493.398	1685.44
493.615	1673.44
493.833	1557.44
494.05	1519.44
