Data from WStandard_LampEnergy10_LIBS07252019.E.O._I.C._HRD10591_15-55-21-928.txt Node
Date: Thu Jul 25 15:55:21 EDT 2019
User: cochatt
Spectrometer: HR+D1059
Trigger mode: 1
Integration Time (sec): 1.000000E-1
Scans to average: 1
Electric dark correction enabled: true
Nonlinearity correction enabled: false
Boxcar width: 0
XAxis mode: Wavelengths
Number of Pixels in Spectrum: 2048
>>>>>Begin Spectral Data<<<<<
223.165	-14.81
223.4	-14.81
223.635	-14.81
223.869	-8.81
224.104	-5.81
224.338	-0.81
224.573	-24.81
224.808	-15.81
225.042	-9.81
225.277	2.19
225.511	0.19
225.746	-5.81
225.98	-1.81
226.215	12.19
226.449	13.19
226.683	21.19
226.918	16.19
227.152	23.19
227.387	29.19
227.621	40.19
227.856	36.19
228.09	44.19
228.324	50.19
228.559	58.19
228.793	86.19
229.027	133.19
229.262	132.19
229.496	150.19
229.73	165.19
229.964	171.19
230.199	137.19
230.433	167.19
230.667	191.19
230.901	189.19
231.136	191.19
231.37	170.19
231.604	185.19
231.838	174.19
232.072	183.19
232.306	173.19
232.541	174.19
232.775	198.19
233.009	225.19
233.243	189.19
233.477	196.19
233.711	197.19
233.945	197.19
234.179	197.19
234.413	191.19
234.647	210.19
234.881	227.19
235.115	190.19
235.349	188.19
235.583	199.19
235.817	190.19
236.051	196.19
236.285	204.19
236.519	204.19
236.753	211.19
236.987	212.19
237.221	239.19
237.455	240.19
237.689	233.19
237.922	222.19
238.156	233.19
238.39	234.19
238.624	231.19
238.858	244.19
239.091	238.19
239.325	253.19
239.559	297.19
239.793	292.19
240.027	307.19
240.26	308.19
240.494	230.19
240.728	241.19
240.961	233.19
241.195	255.19
241.429	263.19
241.662	273.19
241.896	237.19
242.13	261.19
242.363	283.19
242.597	276.19
242.83	267.19
243.064	273.19
243.298	286.19
243.531	302.19
243.765	298.19
243.998	283.19
244.232	268.19
244.465	243.19
244.699	255.19
244.932	290.19
245.166	325.19
245.399	287.19
245.633	278.19
245.866	281.19
246.099	281.19
246.333	297.19
246.566	291.19
246.8	325.19
247.033	362.19
247.266	328.19
247.5	318.19
247.733	321.19
247.966	350.19
248.2	357.19
248.433	359.19
248.666	380.19
248.899	389.19
249.133	439.19
249.366	467.19
249.599	380.19
249.832	364.19
250.066	373.19
250.299	355.19
250.532	340.19
250.765	325.19
250.998	333.19
251.231	363.19
251.465	351.19
251.698	343.19
251.931	342.19
252.164	348.19
252.397	369.19
252.63	357.19
252.863	335.19
253.096	325.19
253.329	346.19
253.562	341.19
253.795	381.19
254.028	373.19
254.261	341.19
254.494	328.19
254.727	345.19
254.96	339.19
255.193	365.19
255.426	414.19
255.659	458.19
255.892	459.19
256.124	398.19
256.357	387.19
256.59	411.19
256.823	412.19
257.056	440.19
257.289	472.19
257.521	516.19
257.754	469.19
257.987	435.19
258.22	477.19
258.452	448.19
258.685	404.19
258.918	393.19
259.151	399.19
259.383	377.19
259.616	349.19
259.849	375.19
260.081	419.19
260.314	439.19
260.547	467.19
260.779	473.19
261.012	443.19
261.244	420.19
261.477	435.19
261.71	409.19
261.942	408.19
262.175	417.19
262.407	416.19
262.64	374.19
262.872	375.19
263.105	354.19
263.337	371.19
263.57	383.19
263.802	370.19
264.035	342.19
264.267	334.19
264.499	342.19
264.732	374.19
264.964	379.19
265.197	385.19
265.429	422.19
265.661	454.19
265.894	508.19
266.126	502.19
266.358	467.19
266.591	476.19
266.823	502.19
267.055	450.19
267.287	450.19
267.52	427.19
267.752	449.19
267.984	466.19
268.216	460.19
268.448	470.19
268.681	455.19
268.913	423.19
269.145	430.19
269.377	412.19
269.609	454.19
269.841	518.19
270.073	563.19
270.306	601.19
270.538	610.19
270.77	518.19
271.002	492.19
271.234	474.19
271.466	486.19
271.698	552.19
271.93	611.19
272.162	598.19
272.394	547.19
272.626	520.19
272.858	466.19
273.09	422.19
273.322	414.19
273.553	406.19
273.785	411.19
274.017	419.19
274.249	456.19
274.481	428.19
274.713	431.19
274.945	400.19
275.176	405.19
275.408	420.19
275.64	404.19
275.872	426.19
276.104	457.19
276.335	492.19
276.567	530.19
276.799	516.19
277.031	505.19
277.262	469.19
277.494	501.19
277.726	541.19
277.957	502.19
278.189	458.19
278.421	443.19
278.652	433.19
278.884	443.19
279.115	444.19
279.347	437.19
279.579	435.19
279.81	431.19
280.042	480.19
280.273	521.19
280.505	498.19
280.736	516.19
280.968	448.19
281.199	443.19
281.431	400.19
281.662	415.19
281.894	410.19
282.125	406.19
282.356	468.19
282.588	462.19
282.819	458.19
283.051	483.19
283.282	504.19
283.513	502.19
283.745	436.19
283.976	431.19
284.207	408.19
284.439	452.19
284.67	455.19
284.901	449.19
285.132	467.19
285.364	469.19
285.595	443.19
285.826	442.19
286.057	457.19
286.288	442.19
286.52	489.19
286.751	475.19
286.982	508.19
287.213	469.19
287.444	453.19
287.675	431.19
287.906	473.19
288.138	487.19
288.369	467.19
288.6	465.19
288.831	436.19
289.062	453.19
289.293	449.19
289.524	438.19
289.755	466.19
289.986	456.19
290.217	433.19
290.448	445.19
290.679	463.19
290.91	491.19
291.141	471.19
291.371	509.19
291.602	465.19
291.833	483.19
292.064	485.19
292.295	503.19
292.526	507.19
292.757	500.19
292.987	482.19
293.218	461.19
293.449	519.19
293.68	567.19
293.91	601.19
294.141	541.19
294.372	563.19
294.603	550.19
294.833	556.19
295.064	535.19
295.295	498.19
295.525	455.19
295.756	437.19
295.987	431.19
296.217	448.19
296.448	474.19
296.679	460.19
296.909	462.19
297.14	450.19
297.37	462.19
297.601	502.19
297.831	524.19
298.062	515.19
298.292	489.19
298.523	477.19
298.753	469.19
298.984	501.19
299.214	501.19
299.445	511.19
299.675	500.19
299.905	460.19
300.136	486.19
300.366	482.19
300.597	430.19
300.827	470.19
301.057	487.19
301.288	506.19
301.518	491.19
301.748	521.19
301.979	555.19
302.209	558.19
302.439	566.19
302.669	577.19
302.9	568.19
303.13	520.19
303.36	499.19
303.59	534.19
303.82	530.19
304.051	527.19
304.281	534.19
304.511	541.19
304.741	568.19
304.971	596.19
305.201	625.19
305.431	569.19
305.661	470.19
305.891	477.19
306.121	445.19
306.352	483.19
306.582	511.19
306.812	525.19
307.042	565.19
307.272	572.19
307.502	602.19
307.731	627.19
307.961	625.19
308.191	588.19
308.421	509.19
308.651	487.19
308.881	497.19
309.111	487.19
309.341	502.19
309.571	503.19
309.8	484.19
310.03	494.19
310.26	489.19
310.49	513.19
310.72	515.19
310.949	526.19
311.179	512.19
311.409	530.19
311.639	521.19
311.868	507.19
312.098	526.19
312.328	487.19
312.557	504.19
312.787	512.19
313.017	524.19
313.246	519.19
313.476	538.19
313.706	527.19
313.935	527.19
314.165	539.19
314.394	558.19
314.624	595.19
314.853	616.19
315.083	638.19
315.312	628.19
315.542	588.19
315.771	569.19
316.001	547.19
316.23	581.19
316.46	583.19
316.689	561.19
316.919	524.19
317.148	512.19
317.377	541.19
317.607	590.19
317.836	638.19
318.065	647.19
318.295	613.19
318.524	589.19
318.753	575.19
318.983	550.19
319.212	574.19
319.441	561.19
319.67	545.19
319.9	575.19
320.129	601.19
320.358	611.19
320.587	640.19
320.816	616.19
321.046	605.19
321.275	590.19
321.504	595.19
321.733	606.19
321.962	596.19
322.191	559.19
322.42	550.19
322.649	555.19
322.878	543.19
323.108	553.19
323.337	579.19
323.566	559.19
323.795	574.19
324.024	569.19
324.253	574.19
324.482	578.19
324.71	542.19
324.939	549.19
325.168	543.19
325.397	585.19
325.626	574.19
325.855	581.19
326.084	525.19
326.313	574.19
326.542	556.19
326.77	581.19
326.999	566.19
327.228	534.19
327.457	537.19
327.686	557.19
327.914	556.19
328.143	560.19
328.372	574.19
328.6	563.19
328.829	559.19
329.058	522.19
329.287	538.19
329.515	563.19
329.744	585.19
329.972	610.19
330.201	631.19
330.43	611.19
330.658	590.19
330.887	583.19
331.115	596.19
331.344	619.19
331.572	588.19
331.801	585.19
332.03	589.19
332.258	588.19
332.486	598.19
332.715	594.19
332.943	600.19
333.172	578.19
333.4	602.19
333.629	604.19
333.857	684.19
334.085	746.19
334.314	824.19
334.542	847.19
334.771	778.19
334.999	680.19
335.227	647.19
335.455	641.19
335.684	675.19
335.912	675.19
336.14	674.19
336.369	651.19
336.597	607.19
336.825	634.19
337.053	635.19
337.281	664.19
337.51	683.19
337.738	709.19
337.966	665.19
338.194	611.19
338.422	579.19
338.65	599.19
338.878	545.19
339.106	571.19
339.334	553.19
339.562	557.19
339.79	592.19
340.018	623.19
340.246	640.19
340.474	637.19
340.702	611.19
340.93	586.19
341.158	613.19
341.386	585.19
341.614	608.19
341.842	611.19
342.07	620.19
342.298	625.19
342.526	613.19
342.754	615.19
342.981	587.19
343.209	578.19
343.437	610.19
343.665	603.19
343.893	619.19
344.12	636.19
344.348	651.19
344.576	615.19
344.804	601.19
345.031	595.19
345.259	587.19
345.487	569.19
345.714	559.19
345.942	573.19
346.17	564.19
346.397	590.19
346.625	564.19
346.853	547.19
347.08	549.19
347.308	562.19
347.535	569.19
347.763	572.19
347.99	579.19
348.218	532.19
348.445	539.19
348.673	557.19
348.9	590.19
349.128	608.19
349.355	601.19
349.583	599.19
349.81	546.19
350.037	516.19
350.265	533.19
350.492	531.19
350.72	547.19
350.947	581.19
351.174	596.19
351.402	559.19
351.629	554.19
351.856	533.19
352.083	533.19
352.311	545.19
352.538	559.19
352.765	552.19
352.992	569.19
353.22	549.19
353.447	545.19
353.674	577.19
353.901	555.19
354.128	567.19
354.355	549.19
354.583	579.19
354.81	614.19
355.037	581.19
355.264	589.19
355.491	571.19
355.718	573.19
355.945	554.19
356.172	571.19
356.399	554.19
356.626	555.19
356.853	597.19
357.08	620.19
357.307	665.19
357.534	678.19
357.761	567.19
357.988	542.19
358.215	547.19
358.441	551.19
358.668	536.19
358.895	553.19
359.122	610.19
359.349	652.19
359.576	627.19
359.802	543.19
360.029	547.19
360.256	550.19
360.483	562.19
360.709	601.19
360.936	612.19
361.163	629.19
361.39	689.19
361.616	698.19
361.843	716.19
362.07	638.19
362.296	578.19
362.523	576.19
362.749	570.19
362.976	574.19
363.203	577.19
363.429	573.19
363.656	580.19
363.882	592.19
364.109	617.19
364.335	654.19
364.562	621.19
364.788	591.19
365.015	568.19
365.241	587.19
365.468	599.19
365.694	621.19
365.92	610.19
366.147	565.19
366.373	574.19
366.599	559.19
366.826	566.19
367.052	580.19
367.278	570.19
367.505	583.19
367.731	589.19
367.957	615.19
368.184	621.19
368.41	660.19
368.636	673.19
368.862	677.19
369.089	678.19
369.315	643.19
369.541	617.19
369.767	611.19
369.993	591.19
370.219	589.19
370.445	606.19
370.672	665.19
370.898	685.19
371.124	649.19
371.35	652.19
371.576	667.19
371.802	669.19
372.028	630.19
372.254	605.19
372.48	621.19
372.706	601.19
372.932	611.19
373.158	609.19
373.384	639.19
373.61	668.19
373.835	677.19
374.061	659.19
374.287	631.19
374.513	622.19
374.739	634.19
374.965	652.19
375.191	609.19
375.416	674.19
375.642	663.19
375.868	730.19
376.094	722.19
376.319	673.19
376.545	645.19
376.771	655.19
376.997	698.19
377.222	677.19
377.448	675.19
377.674	685.19
377.899	678.19
378.125	721.19
378.35	711.19
378.576	634.19
378.802	619.19
379.027	621.19
379.253	631.19
379.478	653.19
379.704	638.19
379.929	637.19
380.155	676.19
380.38	657.19
380.606	668.19
380.831	676.19
381.057	700.19
381.282	727.19
381.507	687.19
381.733	733.19
381.958	749.19
382.184	691.19
382.409	686.19
382.634	675.19
382.86	697.19
383.085	689.19
383.31	729.19
383.535	778.19
383.761	775.19
383.986	725.19
384.211	737.19
384.436	743.19
384.662	755.19
384.887	788.19
385.112	750.19
385.337	745.19
385.562	726.19
385.787	727.19
386.013	770.19
386.238	767.19
386.463	771.19
386.688	829.19
386.913	845.19
387.138	842.19
387.363	787.19
387.588	802.19
387.813	754.19
388.038	774.19
388.263	807.19
388.488	774.19
388.713	711.19
388.938	751.19
389.163	726.19
389.387	755.19
389.612	751.19
389.837	749.19
390.062	726.19
390.287	748.19
390.512	730.19
390.736	732.19
390.961	742.19
391.186	718.19
391.411	734.19
391.636	738.19
391.86	746.19
392.085	755.19
392.31	764.19
392.534	754.19
392.759	781.19
392.984	737.19
393.208	771.19
393.433	834.19
393.658	819.19
393.882	804.19
394.107	767.19
394.331	749.19
394.556	751.19
394.78	765.19
395.005	792.19
395.229	825.19
395.454	859.19
395.678	850.19
395.903	823.19
396.127	818.19
396.352	810.19
396.576	851.19
396.801	839.19
397.025	850.19
397.249	818.19
397.474	840.19
397.698	821.19
397.922	872.19
398.147	879.19
398.371	919.19
398.595	891.19
398.82	870.19
399.044	889.19
399.268	910.19
399.492	950.19
399.717	994.19
399.941	971.19
400.165	1021.19
400.389	960.19
400.613	987.19
400.837	1115.19
401.062	1168.19
401.286	1016.19
401.51	984.19
401.734	954.19
401.958	929.19
402.182	907.19
402.406	862.19
402.63	899.19
402.854	905.19
403.078	886.19
403.302	940.19
403.526	881.19
403.75	930.19
403.974	930.19
404.198	940.19
404.422	979.19
404.645	1008.19
404.869	971.19
405.093	899.19
405.317	899.19
405.541	940.19
405.765	911.19
405.988	926.19
406.212	965.19
406.436	929.19
406.66	985.19
406.883	1011.19
407.107	1133.19
407.331	1245.19
407.555	1269.19
407.778	1129.19
408.002	990.19
408.226	986.19
408.449	975.19
408.673	958.19
408.896	932.19
409.12	934.19
409.344	963.19
409.567	933.19
409.791	961.19
410.014	954.19
410.238	1033.19
410.461	1081.19
410.685	959.19
410.908	916.19
411.132	964.19
411.355	941.19
411.578	940.19
411.802	941.19
412.025	946.19
412.249	931.19
412.472	922.19
412.695	903.19
412.919	925.19
413.142	928.19
413.365	927.19
413.589	949.19
413.812	974.19
414.035	999.19
414.258	934.19
414.482	913.19
414.705	916.19
414.928	906.19
415.151	908.19
415.374	941.19
415.597	938.19
415.821	970.19
416.044	962.19
416.267	938.19
416.49	895.19
416.713	918.19
416.936	936.19
417.159	972.19
417.382	973.19
417.605	896.19
417.828	941.19
418.051	947.19
418.274	933.19
418.497	935.19
418.72	926.19
418.943	903.19
419.166	937.19
419.389	966.19
419.611	950.19
419.834	936.19
420.057	983.19
420.28	919.19
420.503	946.19
420.726	958.19
420.948	950.19
421.171	906.19
421.394	933.19
421.617	994.19
421.839	1019.19
422.062	983.19
422.285	920.19
422.507	926.19
422.73	936.19
422.953	877.19
423.175	897.19
423.398	941.19
423.621	894.19
423.843	939.19
424.066	968.19
424.288	1009.19
424.511	1033.19
424.733	999.19
424.956	953.19
425.178	922.19
425.401	933.19
425.623	944.19
425.846	907.19
426.068	968.19
426.291	969.19
426.513	929.19
426.735	937.19
426.958	1074.19
427.18	1093.19
427.402	986.19
427.625	1018.19
427.847	969.19
428.069	939.19
428.292	929.19
428.514	889.19
428.736	902.19
428.958	910.19
429.181	914.19
429.403	1067.19
429.625	1234.19
429.847	1044.19
430.069	960.19
430.292	1073.19
430.514	1036.19
430.736	961.19
430.958	979.19
431.18	904.19
431.402	894.19
431.624	857.19
431.846	815.19
432.068	716.19
432.29	719.19
432.512	788.19
432.734	867.19
432.956	893.19
433.178	949.19
433.4	953.19
433.622	965.19
433.844	894.19
434.066	833.19
434.287	805.19
434.509	779.19
434.731	818.19
434.953	917.19
435.175	871.19
435.397	895.19
435.618	855.19
435.84	854.19
436.062	848.19
436.284	904.19
436.505	937.19
436.727	946.19
436.949	924.19
437.17	900.19
437.392	917.19
437.614	847.19
437.835	787.19
438.057	797.19
438.278	835.19
438.5	861.19
438.721	861.19
438.943	932.19
439.165	915.19
439.386	907.19
439.608	955.19
439.829	956.19
440.05	927.19
440.272	964.19
440.493	969.19
440.715	970.19
440.936	1022.19
441.158	1065.19
441.379	1047.19
441.6	1009.19
441.822	1006.19
442.043	1015.19
442.264	998.19
442.486	964.19
442.707	962.19
442.928	946.19
443.149	961.19
443.371	1004.19
443.592	1021.19
443.813	1033.19
444.034	1004.19
444.255	996.19
444.476	1012.19
444.698	1031.19
444.919	1023.19
445.14	1129.19
445.361	1086.19
445.582	1046.19
445.803	1023.19
446.024	1022.19
446.245	1083.19
446.466	1061.19
446.687	1028.19
446.908	1038.19
447.129	1018.19
447.35	1027.19
447.571	1003.19
447.792	955.19
448.013	963.19
448.234	960.19
448.455	982.19
448.675	975.19
448.896	913.19
449.117	911.19
449.338	940.19
449.559	961.19
449.779	997.19
450	1033.19
450.221	1061.19
450.442	1034.19
450.662	934.19
450.883	884.19
451.104	872.19
451.324	870.19
451.545	866.19
451.766	882.19
451.986	843.19
452.207	822.19
452.428	811.19
452.648	756.19
452.869	771.19
453.089	777.19
453.31	781.19
453.53	783.19
453.751	747.19
453.971	739.19
454.192	727.19
454.412	751.19
454.633	779.19
454.853	795.19
455.073	730.19
455.294	797.19
455.514	764.19
455.734	741.19
455.955	747.19
456.175	724.19
456.395	705.19
456.616	718.19
456.836	733.19
457.056	726.19
457.276	746.19
457.497	739.19
457.717	664.19
457.937	691.19
458.157	733.19
458.377	693.19
458.598	682.19
458.818	666.19
459.038	683.19
459.258	750.19
459.478	706.19
459.698	692.19
459.918	767.19
460.138	797.19
460.358	805.19
460.578	854.19
460.798	853.19
461.018	896.19
461.238	843.19
461.458	838.19
461.678	822.19
461.898	844.19
462.118	803.19
462.338	834.19
462.558	869.19
462.777	844.19
462.997	893.19
463.217	912.19
463.437	877.19
463.657	835.19
463.876	817.19
464.096	833.19
464.316	841.19
464.536	867.19
464.755	848.19
464.975	904.19
465.195	848.19
465.414	879.19
465.634	866.19
465.854	879.19
466.073	973.19
466.293	950.19
466.512	859.19
466.732	874.19
466.951	890.19
467.171	903.19
467.391	897.19
467.61	876.19
467.829	891.19
468.049	984.19
468.268	1044.19
468.488	982.19
468.707	941.19
468.927	900.19
469.146	906.19
469.365	943.19
469.585	926.19
469.804	910.19
470.023	927.19
470.243	930.19
470.462	923.19
470.681	913.19
470.901	949.19
471.12	923.19
471.339	941.19
471.558	898.19
471.777	922.19
471.997	914.19
472.216	853.19
472.435	777.19
472.654	769.19
472.873	783.19
473.092	804.19
473.311	828.19
473.53	818.19
473.749	811.19
473.968	844.19
474.187	845.19
474.406	845.19
474.625	851.19
474.844	907.19
475.063	884.19
475.282	868.19
475.501	831.19
475.72	822.19
475.939	916.19
476.158	870.19
476.377	860.19
476.596	853.19
476.814	837.19
477.033	827.19
477.252	843.19
477.471	920.19
477.69	942.19
477.908	944.19
478.127	981.19
478.346	1034.19
478.564	980.19
478.783	991.19
479.002	1005.19
479.22	1014.19
479.439	1055.19
479.658	1027.19
479.876	994.19
480.095	910.19
480.313	888.19
480.532	861.19
480.751	858.19
480.969	829.19
481.188	801.19
481.406	775.19
481.624	763.19
481.843	802.19
482.061	829.19
482.28	863.19
482.498	882.19
482.717	870.19
482.935	909.19
483.153	945.19
483.372	1045.19
483.59	1004.19
483.808	986.19
484.027	966.19
484.245	1033.19
484.463	1179.19
484.681	1302.19
484.9	993.19
485.118	970.19
485.336	908.19
485.554	894.19
485.772	913.19
485.99	891.19
486.209	927.19
486.427	901.19
486.645	947.19
486.863	1007.19
487.081	1062.19
487.299	1018.19
487.517	1031.19
487.735	1103.19
487.953	1202.19
488.171	1188.19
488.389	1147.19
488.607	1097.19
488.825	1149.19
489.043	1049.19
489.261	967.19
489.479	1056.19
489.696	1049.19
489.914	1025.19
490.132	1038.19
490.35	1063.19
490.568	1150.19
490.786	1195.19
491.003	1181.19
491.221	1238.19
491.439	1315.19
491.657	1315.19
491.874	1350.19
492.092	1435.19
492.31	1515.19
492.527	1443.19
492.745	1374.19
492.963	1299.19
493.18	1318.19
493.398	1327.19
493.615	1329.19
493.833	1281.19
494.05	1242.19
494.268	1221.19
494.485	1251.19
494.703	1255.19
494.92	1226.19
495.138	1221.19
495.355	1235.19
495.573	1243.19
495.79	1311.19
496.008	1292.19
496.225	1215.19
496.442	1260.19
496.66	1271.19
496.877	1220.19
497.094	1209.19
497.312	1241.19
497.529	1215.19
497.746	1172.19
497.963	1291.19
498.181	1317.19
498.398	1302.19
498.615	1226.19
498.832	1169.19
499.049	1155.19
499.267	1185.19
499.484	1264.19
499.701	1352.19
499.918	1357.19
500.135	1517.19
500.352	1554.19
