Data from WStandard_LampEnergy8_LIBS07252019.E.O._I.C._HRD10591_15-58-02-928.txt Node
Date: Thu Jul 25 15:58:02 EDT 2019
User: cochatt
Spectrometer: HR+D1059
Trigger mode: 1
Integration Time (sec): 1.000000E-1
Scans to average: 1
Electric dark correction enabled: true
Nonlinearity correction enabled: false
Boxcar width: 0
XAxis mode: Wavelengths
Number of Pixels in Spectrum: 2048
>>>>>Begin Spectral Data<<<<<
223.165	-11.19
223.4	-11.19
223.635	-11.19
223.869	-19.19
224.104	-4.19
224.338	-13.19
224.573	-15.19
224.808	-5.19
225.042	-10.19
225.277	-4.19
225.511	-7.19
225.746	-3.19
225.98	-4.19
226.215	14.81
226.449	10.81
226.683	18.81
226.918	29.81
227.152	22.81
227.387	40.81
227.621	48.81
227.856	48.81
228.09	31.81
228.324	64.81
228.559	59.81
228.793	98.81
229.027	196.81
229.262	211.81
229.496	224.81
229.73	230.81
229.964	245.81
230.199	251.81
230.433	266.81
230.667	276.81
230.901	314.81
231.136	269.81
231.37	271.81
231.604	266.81
231.838	281.81
232.072	273.81
232.306	270.81
232.541	278.81
232.775	294.81
233.009	331.81
233.243	315.81
233.477	301.81
233.711	289.81
233.945	312.81
234.179	309.81
234.413	347.81
234.647	353.81
234.881	332.81
235.115	301.81
235.349	289.81
235.583	325.81
235.817	301.81
236.051	305.81
236.285	313.81
236.519	321.81
236.753	369.81
236.987	369.81
237.221	373.81
237.455	393.81
237.689	375.81
237.922	360.81
238.156	357.81
238.39	361.81
238.624	384.81
238.858	397.81
239.091	408.81
239.325	439.81
239.559	477.81
239.793	501.81
240.027	526.81
240.26	505.81
240.494	402.81
240.728	381.81
240.961	380.81
241.195	388.81
241.429	430.81
241.662	410.81
241.896	377.81
242.13	380.81
242.363	434.81
242.597	465.81
242.83	474.81
243.064	442.81
243.298	480.81
243.531	483.81
243.765	467.81
243.998	460.81
244.232	418.81
244.465	418.81
244.699	426.81
244.932	474.81
245.166	511.81
245.399	509.81
245.633	479.81
245.866	471.81
246.099	482.81
246.333	503.81
246.566	493.81
246.8	540.81
247.033	601.81
247.266	551.81
247.5	538.81
247.733	529.81
247.966	568.81
248.2	610.81
248.433	626.81
248.666	636.81
248.899	674.81
249.133	780.81
249.366	833.81
249.599	713.81
249.832	625.81
250.066	624.81
250.299	621.81
250.532	585.81
250.765	579.81
250.998	589.81
251.231	590.81
251.465	606.81
251.698	603.81
251.931	589.81
252.164	601.81
252.397	640.81
252.63	634.81
252.863	549.81
253.096	568.81
253.329	586.81
253.562	616.81
253.795	654.81
254.028	640.81
254.261	589.81
254.494	617.81
254.727	570.81
254.96	570.81
255.193	668.81
255.426	749.81
255.659	790.81
255.892	815.81
256.124	678.81
256.357	650.81
256.59	706.81
256.823	716.81
257.056	745.81
257.289	877.81
257.521	921.81
257.754	860.81
257.987	816.81
258.22	880.81
258.452	808.81
258.685	690.81
258.918	691.81
259.151	697.81
259.383	658.81
259.616	621.81
259.849	632.81
260.081	736.81
260.314	733.81
260.547	839.81
260.779	850.81
261.012	803.81
261.244	731.81
261.477	672.81
261.71	722.81
261.942	688.81
262.175	704.81
262.407	712.81
262.64	659.81
262.872	632.81
263.105	609.81
263.337	654.81
263.57	652.81
263.802	671.81
264.035	605.81
264.267	585.81
264.499	569.81
264.732	640.81
264.964	659.81
265.197	692.81
265.429	729.81
265.661	836.81
265.894	864.81
266.126	875.81
266.358	803.81
266.591	834.81
266.823	892.81
267.055	830.81
267.287	786.81
267.52	746.81
267.752	790.81
267.984	766.81
268.216	831.81
268.448	851.81
268.681	808.81
268.913	736.81
269.145	719.81
269.377	716.81
269.609	776.81
269.841	905.81
270.073	1044.81
270.306	1154.81
270.538	1148.81
270.77	992.81
271.002	885.81
271.234	839.81
271.466	853.81
271.698	937.81
271.93	1093.81
272.162	1074.81
272.394	981.81
272.626	894.81
272.858	784.81
273.09	711.81
273.322	724.81
273.553	708.81
273.785	708.81
274.017	742.81
274.249	777.81
274.481	781.81
274.713	723.81
274.945	740.81
275.176	725.81
275.408	712.81
275.64	697.81
275.872	702.81
276.104	745.81
276.335	847.81
276.567	939.81
276.799	936.81
277.031	857.81
277.262	820.81
277.494	862.81
277.726	938.81
277.957	921.81
278.189	833.81
278.421	759.81
278.652	749.81
278.884	728.81
279.115	747.81
279.347	782.81
279.579	750.81
279.81	766.81
280.042	847.81
280.273	900.81
280.505	893.81
280.736	907.81
280.968	832.81
281.199	760.81
281.431	717.81
281.662	733.81
281.894	737.81
282.125	777.81
282.356	800.81
282.588	794.81
282.819	788.81
283.051	873.81
283.282	898.81
283.513	866.81
283.745	792.81
283.976	719.81
284.207	729.81
284.439	732.81
284.67	765.81
284.901	788.81
285.132	800.81
285.364	793.81
285.595	799.81
285.826	752.81
286.057	755.81
286.288	784.81
286.52	824.81
286.751	869.81
286.982	868.81
287.213	781.81
287.444	740.81
287.675	788.81
287.906	796.81
288.138	814.81
288.369	821.81
288.6	754.81
288.831	756.81
289.062	788.81
289.293	783.81
289.524	800.81
289.755	818.81
289.986	788.81
290.217	720.81
290.448	761.81
290.679	792.81
290.91	808.81
291.141	834.81
291.371	840.81
291.602	830.81
291.833	829.81
292.064	868.81
292.295	848.81
292.526	862.81
292.757	925.81
292.987	843.81
293.218	840.81
293.449	882.81
293.68	991.81
293.91	1056.81
294.141	966.81
294.372	936.81
294.603	980.81
294.833	991.81
295.064	938.81
295.295	860.81
295.525	805.81
295.756	788.81
295.987	749.81
296.217	760.81
296.448	770.81
296.679	780.81
296.909	810.81
297.14	758.81
297.37	801.81
297.601	878.81
297.831	915.81
298.062	892.81
298.292	838.81
298.523	786.81
298.753	774.81
298.984	795.81
299.214	814.81
299.445	838.81
299.675	870.81
299.905	825.81
300.136	820.81
300.366	808.81
300.597	792.81
300.827	795.81
301.057	824.81
301.288	852.81
301.518	856.81
301.748	890.81
301.979	944.81
302.209	945.81
302.439	995.81
302.669	993.81
302.9	970.81
303.13	869.81
303.36	884.81
303.59	875.81
303.82	868.81
304.051	867.81
304.281	870.81
304.511	900.81
304.741	982.81
304.971	1044.81
305.201	1079.81
305.431	980.81
305.661	853.81
305.891	749.81
306.121	756.81
306.352	816.81
306.582	856.81
306.812	929.81
307.042	966.81
307.272	964.81
307.502	1011.81
307.731	1092.81
307.961	1146.81
308.191	1005.81
308.421	901.81
308.651	869.81
308.881	836.81
309.111	853.81
309.341	830.81
309.571	849.81
309.8	832.81
310.03	838.81
310.26	838.81
310.49	819.81
310.72	854.81
310.949	884.81
311.179	910.81
311.409	870.81
311.639	864.81
311.868	858.81
312.098	865.81
312.328	866.81
312.557	841.81
312.787	856.81
313.017	899.81
313.246	898.81
313.476	888.81
313.706	895.81
313.935	921.81
314.165	933.81
314.394	968.81
314.624	999.81
314.853	1061.81
315.083	1070.81
315.312	1099.81
315.542	1017.81
315.771	929.81
316.001	951.81
316.23	937.81
316.46	980.81
316.689	928.81
316.919	925.81
317.148	870.81
317.377	899.81
317.607	989.81
317.836	1082.81
318.065	1107.81
318.295	1064.81
318.524	1024.81
318.753	996.81
318.983	968.81
319.212	968.81
319.441	946.81
319.67	937.81
319.9	925.81
320.129	996.81
320.358	1015.81
320.587	1057.81
320.816	1041.81
321.046	1001.81
321.275	1001.81
321.504	979.81
321.733	1065.81
321.962	1028.81
322.191	946.81
322.42	961.81
322.649	925.81
322.878	912.81
323.108	964.81
323.337	986.81
323.566	984.81
323.795	970.81
324.024	940.81
324.253	950.81
324.482	965.81
324.71	931.81
324.939	868.81
325.168	909.81
325.397	935.81
325.626	978.81
325.855	974.81
326.084	949.81
326.313	948.81
326.542	979.81
326.77	975.81
326.999	997.81
327.228	929.81
327.457	882.81
327.686	926.81
327.914	948.81
328.143	918.81
328.372	955.81
328.6	954.81
328.829	923.81
329.058	908.81
329.287	946.81
329.515	929.81
329.744	974.81
329.972	1021.81
330.201	1042.81
330.43	1012.81
330.658	999.81
330.887	1015.81
331.115	1028.81
331.344	1002.81
331.572	992.81
331.801	1000.81
332.03	986.81
332.258	1014.81
332.486	1022.81
332.715	1033.81
332.943	1003.81
333.172	1012.81
333.4	1018.81
333.629	1046.81
333.857	1116.81
334.085	1233.81
334.314	1406.81
334.542	1474.81
334.771	1348.81
334.999	1216.81
335.227	1133.81
335.455	1073.81
335.684	1058.81
335.912	1104.81
336.14	1162.81
336.369	1096.81
336.597	1075.81
336.825	1017.81
337.053	1039.81
337.281	1118.81
337.51	1172.81
337.738	1182.81
337.966	1133.81
338.194	1024.81
338.422	998.81
338.65	975.81
338.878	1011.81
339.106	959.81
339.334	940.81
339.562	926.81
339.79	967.81
340.018	1034.81
340.246	1068.81
340.474	1068.81
340.702	1057.81
340.93	1054.81
341.158	1036.81
341.386	1012.81
341.614	1018.81
341.842	1015.81
342.07	988.81
342.298	1032.81
342.526	1029.81
342.754	973.81
342.981	983.81
343.209	992.81
343.437	971.81
343.665	987.81
343.893	1033.81
344.12	1037.81
344.348	1072.81
344.576	1003.81
344.804	981.81
345.031	981.81
345.259	1008.81
345.487	954.81
345.714	911.81
345.942	898.81
346.17	940.81
346.397	963.81
346.625	946.81
346.853	901.81
347.08	900.81
347.308	924.81
347.535	917.81
347.763	967.81
347.99	938.81
348.218	940.81
348.445	907.81
348.673	948.81
348.9	974.81
349.128	1012.81
349.355	1044.81
349.583	982.81
349.81	935.81
350.037	872.81
350.265	889.81
350.492	902.81
350.72	933.81
350.947	936.81
351.174	941.81
351.402	899.81
351.629	892.81
351.856	869.81
352.083	872.81
352.311	886.81
352.538	928.81
352.765	950.81
352.992	981.81
353.22	946.81
353.447	877.81
353.674	946.81
353.901	938.81
354.128	882.81
354.355	960.81
354.583	948.81
354.81	952.81
355.037	972.81
355.264	952.81
355.491	931.81
355.718	959.81
355.945	934.81
356.172	892.81
356.399	899.81
356.626	898.81
356.853	957.81
357.08	1069.81
357.307	1143.81
357.534	1087.81
357.761	986.81
357.988	908.81
358.215	892.81
358.441	897.81
358.668	877.81
358.895	908.81
359.122	960.81
359.349	1056.81
359.576	1034.81
359.802	963.81
360.029	911.81
360.256	900.81
360.483	911.81
360.709	941.81
360.936	1024.81
361.163	1024.81
361.39	1114.81
361.616	1218.81
361.843	1185.81
362.07	1057.81
362.296	944.81
362.523	928.81
362.749	950.81
362.976	916.81
363.203	983.81
363.429	902.81
363.656	909.81
363.882	974.81
364.109	1053.81
364.335	1113.81
364.562	1030.81
364.788	973.81
365.015	931.81
365.241	913.81
365.468	962.81
365.694	1013.81
365.92	1012.81
366.147	964.81
366.373	926.81
366.599	908.81
366.826	940.81
367.052	922.81
367.278	946.81
367.505	969.81
367.731	955.81
367.957	990.81
368.184	1042.81
368.41	1083.81
368.636	1042.81
368.862	1086.81
369.089	1069.81
369.315	1022.81
369.541	990.81
369.767	953.81
369.993	950.81
370.219	948.81
370.445	939.81
370.672	1037.81
370.898	1060.81
371.124	1052.81
371.35	1001.81
371.576	1042.81
371.802	1088.81
372.028	994.81
372.254	1000.81
372.48	919.81
372.706	950.81
372.932	948.81
373.158	964.81
373.384	977.81
373.61	1044.81
373.835	1067.81
374.061	993.81
374.287	989.81
374.513	1003.81
374.739	1002.81
374.965	1033.81
375.191	1002.81
375.416	992.81
375.642	1014.81
375.868	1108.81
376.094	1120.81
376.319	1064.81
376.545	990.81
376.771	1039.81
376.997	1096.81
377.222	1036.81
377.448	1043.81
377.674	1052.81
377.899	1068.81
378.125	1112.81
378.35	1100.81
378.576	990.81
378.802	956.81
379.027	967.81
379.253	979.81
379.478	1016.81
379.704	1019.81
379.929	1004.81
380.155	1000.81
380.38	982.81
380.606	1024.81
380.831	1021.81
381.057	1100.81
381.282	1118.81
381.507	1069.81
381.733	1147.81
381.958	1168.81
382.184	1085.81
382.409	1040.81
382.634	1040.81
382.86	1039.81
383.085	1042.81
383.31	1093.81
383.535	1191.81
383.761	1240.81
383.986	1201.81
384.211	1142.81
384.436	1113.81
384.662	1193.81
384.887	1194.81
385.112	1141.81
385.337	1184.81
385.562	1156.81
385.787	1132.81
386.013	1194.81
386.238	1170.81
386.463	1193.81
386.688	1267.81
386.913	1319.81
387.138	1283.81
387.363	1224.81
387.588	1193.81
387.813	1176.81
388.038	1177.81
388.263	1251.81
388.488	1158.81
388.713	1085.81
388.938	1100.81
389.163	1124.81
389.387	1135.81
389.612	1115.81
389.837	1161.81
390.062	1182.81
390.287	1150.81
390.512	1117.81
390.736	1133.81
390.961	1119.81
391.186	1092.81
391.411	1086.81
391.636	1142.81
391.86	1103.81
392.085	1149.81
392.31	1095.81
392.534	1152.81
392.759	1172.81
392.984	1146.81
393.208	1154.81
393.433	1189.81
393.658	1243.81
393.882	1244.81
394.107	1167.81
394.331	1108.81
394.556	1152.81
394.78	1182.81
395.005	1219.81
395.229	1218.81
395.454	1346.81
395.678	1324.81
395.903	1259.81
396.127	1212.81
396.352	1197.81
396.576	1257.81
396.801	1292.81
397.025	1259.81
397.249	1251.81
397.474	1225.81
397.698	1234.81
397.922	1275.81
398.147	1344.81
398.371	1373.81
398.595	1365.81
398.82	1306.81
399.044	1341.81
399.268	1401.81
399.492	1462.81
399.717	1483.81
399.941	1506.81
400.165	1470.81
400.389	1431.81
400.613	1462.81
400.837	1661.81
401.062	1822.81
401.286	1515.81
401.51	1440.81
401.734	1513.81
401.958	1440.81
402.182	1343.81
402.406	1310.81
402.63	1245.81
402.854	1301.81
403.078	1312.81
403.302	1323.81
403.526	1379.81
403.75	1332.81
403.974	1403.81
404.198	1370.81
404.422	1424.81
404.645	1524.81
404.869	1415.81
405.093	1350.81
405.317	1300.81
405.541	1353.81
405.765	1389.81
405.988	1369.81
406.212	1451.81
406.436	1419.81
406.66	1489.81
406.883	1499.81
407.107	1670.81
407.331	1808.81
407.555	1961.81
407.778	1721.81
408.002	1434.81
408.226	1419.81
408.449	1430.81
408.673	1383.81
408.896	1432.81
409.12	1426.81
409.344	1357.81
409.567	1346.81
409.791	1364.81
410.014	1401.81
410.238	1510.81
410.461	1561.81
410.685	1361.81
410.908	1336.81
411.132	1347.81
411.355	1347.81
411.578	1329.81
411.802	1328.81
412.025	1361.81
412.249	1323.81
412.472	1274.81
412.695	1314.81
412.919	1301.81
413.142	1318.81
413.365	1307.81
413.589	1369.81
413.812	1441.81
414.035	1456.81
414.258	1339.81
414.482	1336.81
414.705	1337.81
414.928	1314.81
415.151	1325.81
415.374	1299.81
415.597	1336.81
415.821	1306.81
416.044	1385.81
416.267	1366.81
416.49	1292.81
416.713	1287.81
416.936	1319.81
417.159	1410.81
417.382	1384.81
417.605	1310.81
417.828	1362.81
418.051	1344.81
418.274	1337.81
418.497	1294.81
418.72	1315.81
418.943	1311.81
419.166	1326.81
419.389	1380.81
419.611	1303.81
419.834	1297.81
420.057	1338.81
420.28	1284.81
420.503	1278.81
420.726	1332.81
420.948	1328.81
421.171	1252.81
421.394	1300.81
421.617	1368.81
421.839	1330.81
422.062	1321.81
422.285	1244.81
422.507	1270.81
422.73	1250.81
422.953	1219.81
423.175	1245.81
423.398	1251.81
423.621	1268.81
423.843	1312.81
424.066	1322.81
424.288	1406.81
424.511	1440.81
424.733	1353.81
424.956	1222.81
425.178	1249.81
425.401	1273.81
425.623	1262.81
425.846	1286.81
426.068	1377.81
426.291	1369.81
426.513	1344.81
426.735	1331.81
426.958	1458.81
427.18	1517.81
427.402	1406.81
427.625	1464.81
427.847	1417.81
428.069	1289.81
428.292	1262.81
428.514	1245.81
428.736	1228.81
428.958	1238.81
429.181	1262.81
429.403	1486.81
429.625	1793.81
429.847	1486.81
430.069	1338.81
430.292	1475.81
430.514	1458.81
430.736	1388.81
430.958	1375.81
431.18	1308.81
431.402	1240.81
431.624	1201.81
431.846	1179.81
432.068	1146.81
432.29	1171.81
432.512	1176.81
432.734	1231.81
432.956	1293.81
433.178	1322.81
433.4	1311.81
433.622	1297.81
433.844	1277.81
434.066	1236.81
434.287	1197.81
434.509	1230.81
434.731	1268.81
434.953	1422.81
435.175	1375.81
435.397	1298.81
435.618	1294.81
435.84	1265.81
436.062	1234.81
436.284	1292.81
436.505	1310.81
436.727	1345.81
436.949	1296.81
437.17	1235.81
437.392	1268.81
437.614	1199.81
437.835	1166.81
438.057	1229.81
438.278	1290.81
438.5	1236.81
438.721	1219.81
438.943	1248.81
439.165	1235.81
439.386	1185.81
439.608	1280.81
439.829	1258.81
440.05	1238.81
440.272	1261.81
440.493	1255.81
440.715	1289.81
440.936	1365.81
441.158	1421.81
441.379	1402.81
441.6	1374.81
441.822	1363.81
442.043	1338.81
442.264	1302.81
442.486	1283.81
442.707	1275.81
442.928	1278.81
443.149	1315.81
443.371	1356.81
443.592	1399.81
443.813	1400.81
444.034	1366.81
444.255	1371.81
444.476	1383.81
444.698	1378.81
444.919	1391.81
445.14	1501.81
445.361	1466.81
445.582	1453.81
445.803	1404.81
446.024	1378.81
446.245	1404.81
446.466	1352.81
446.687	1356.81
446.908	1348.81
447.129	1327.81
447.35	1306.81
447.571	1334.81
447.792	1284.81
448.013	1256.81
448.234	1306.81
448.455	1319.81
448.675	1328.81
448.896	1208.81
449.117	1191.81
449.338	1223.81
449.559	1264.81
449.779	1344.81
450	1458.81
450.221	1476.81
450.442	1468.81
450.662	1297.81
450.883	1156.81
451.104	1174.81
451.324	1188.81
451.545	1268.81
451.766	1193.81
451.986	1168.81
452.207	1095.81
452.428	1123.81
452.648	1095.81
452.869	1084.81
453.089	1160.81
453.31	1167.81
453.53	1190.81
453.751	1128.81
453.971	1074.81
454.192	1097.81
454.412	1195.81
454.633	1153.81
454.853	1118.81
455.073	1046.81
455.294	1068.81
455.514	1080.81
455.734	1090.81
455.955	1109.81
456.175	1091.81
456.395	1047.81
456.616	1096.81
456.836	1079.81
457.056	1116.81
457.276	1098.81
457.497	1056.81
457.717	1003.81
457.937	1048.81
458.157	1082.81
458.377	1069.81
458.598	1030.81
458.818	1038.81
459.038	1113.81
459.258	1146.81
459.478	1156.81
459.698	1124.81
459.918	1178.81
460.138	1235.81
460.358	1254.81
460.578	1264.81
460.798	1337.81
461.018	1346.81
461.238	1307.81
461.458	1253.81
461.678	1270.81
461.898	1239.81
462.118	1206.81
462.338	1249.81
462.558	1311.81
462.777	1304.81
462.997	1291.81
463.217	1373.81
463.437	1340.81
463.657	1272.81
463.876	1260.81
464.096	1257.81
464.316	1270.81
464.536	1321.81
464.755	1334.81
464.975	1322.81
465.195	1282.81
465.414	1307.81
465.634	1288.81
465.854	1312.81
466.073	1406.81
466.293	1368.81
466.512	1219.81
466.732	1225.81
466.951	1281.81
467.171	1238.81
467.391	1216.81
467.61	1209.81
467.829	1216.81
468.049	1368.81
468.268	1501.81
468.488	1357.81
468.707	1272.81
468.927	1236.81
469.146	1179.81
469.365	1227.81
469.585	1260.81
469.804	1221.81
470.023	1257.81
470.243	1262.81
470.462	1250.81
470.681	1226.81
470.901	1254.81
471.12	1229.81
471.339	1229.81
471.558	1220.81
471.777	1220.81
471.997	1212.81
472.216	1150.81
472.435	1124.81
472.654	1145.81
472.873	1190.81
473.092	1229.81
473.311	1191.81
473.53	1140.81
473.749	1121.81
473.968	1196.81
474.187	1221.81
474.406	1273.81
474.625	1226.81
474.844	1216.81
475.063	1218.81
475.282	1261.81
475.501	1208.81
475.72	1222.81
475.939	1288.81
476.158	1261.81
476.377	1216.81
476.596	1222.81
476.814	1204.81
477.033	1250.81
477.252	1270.81
477.471	1307.81
477.69	1289.81
477.908	1276.81
478.127	1371.81
478.346	1412.81
478.564	1446.81
478.783	1429.81
479.002	1423.81
479.22	1411.81
479.439	1406.81
479.658	1614.81
479.876	1514.81
480.095	1381.81
480.313	1339.81
480.532	1300.81
480.751	1304.81
480.969	1294.81
481.188	1277.81
481.406	1272.81
481.624	1219.81
481.843	1232.81
482.061	1288.81
482.28	1330.81
482.498	1353.81
482.717	1304.81
482.935	1295.81
483.153	1370.81
483.372	1366.81
483.59	1370.81
483.808	1400.81
484.027	1387.81
484.245	1451.81
484.463	1757.81
484.681	1924.81
484.9	1506.81
485.118	1373.81
485.336	1355.81
485.554	1364.81
485.772	1393.81
485.99	1368.81
486.209	1417.81
486.427	1346.81
486.645	1416.81
486.863	1457.81
487.081	1454.81
487.299	1490.81
487.517	1474.81
487.735	1475.81
487.953	1528.81
488.171	1511.81
488.389	1516.81
488.607	1457.81
488.825	1613.81
489.043	1568.81
489.261	1439.81
489.479	1477.81
489.696	1450.81
489.914	1448.81
490.132	1441.81
490.35	1468.81
490.568	1545.81
490.786	1512.81
491.003	1475.81
491.221	1563.81
491.439	1604.81
491.657	1594.81
491.874	1586.81
492.092	1687.81
492.31	1732.81
492.527	1636.81
492.745	1596.81
492.963	1608.81
493.18	1635.81
