Data from WStandard_LampEnergy8_LIBS07252019.E.O._I.C._HRD10591_15-59-16-929.txt Node
Date: Thu Jul 25 15:59:16 EDT 2019
User: cochatt
Spectrometer: HR+D1059
Trigger mode: 1
Integration Time (sec): 1.000000E-1
Scans to average: 1
Electric dark correction enabled: true
Nonlinearity correction enabled: false
Boxcar width: 0
XAxis mode: Wavelengths
Number of Pixels in Spectrum: 2048
>>>>>Begin Spectral Data<<<<<
223.165	-12.62
223.4	-12.62
223.635	-12.62
223.869	-23.62
224.104	-20.62
224.338	-8.62
224.573	-9.62
224.808	-13.62
225.042	-19.62
225.277	-8.62
225.511	-4.62
225.746	7.38
225.98	0.38
226.215	23.38
226.449	13.38
226.683	12.38
226.918	31.38
227.152	33.38
227.387	17.38
227.621	36.38
227.856	47.38
228.09	44.38
228.324	56.38
228.559	64.38
228.793	101.38
229.027	186.38
229.262	213.38
229.496	197.38
229.73	228.38
229.964	250.38
230.199	267.38
230.433	271.38
230.667	282.38
230.901	274.38
231.136	261.38
231.37	269.38
231.604	266.38
231.838	268.38
232.072	239.38
232.306	241.38
232.541	265.38
232.775	313.38
233.009	330.38
233.243	299.38
233.477	299.38
233.711	285.38
233.945	284.38
234.179	288.38
234.413	329.38
234.647	326.38
234.881	315.38
235.115	307.38
235.349	323.38
235.583	300.38
235.817	281.38
236.051	299.38
236.285	306.38
236.519	321.38
236.753	347.38
236.987	363.38
237.221	346.38
237.455	375.38
237.689	367.38
237.922	334.38
238.156	348.38
238.39	335.38
238.624	379.38
238.858	379.38
239.091	407.38
239.325	424.38
239.559	464.38
239.793	499.38
240.027	515.38
240.26	507.38
240.494	385.38
240.728	371.38
240.961	386.38
241.195	405.38
241.429	431.38
241.662	435.38
241.896	386.38
242.13	409.38
242.363	466.38
242.597	477.38
242.83	452.38
243.064	447.38
243.298	465.38
243.531	453.38
243.765	454.38
243.998	467.38
244.232	407.38
244.465	387.38
244.699	417.38
244.932	454.38
245.166	511.38
245.399	498.38
245.633	466.38
245.866	451.38
246.099	470.38
246.333	477.38
246.566	509.38
246.8	531.38
247.033	565.38
247.266	551.38
247.5	521.38
247.733	536.38
247.966	562.38
248.2	589.38
248.433	601.38
248.666	604.38
248.899	681.38
249.133	740.38
249.366	809.38
249.599	678.38
249.832	626.38
250.066	604.38
250.299	621.38
250.532	583.38
250.765	525.38
250.998	575.38
251.231	600.38
251.465	611.38
251.698	586.38
251.931	599.38
252.164	606.38
252.397	626.38
252.63	605.38
252.863	545.38
253.096	520.38
253.329	564.38
253.562	595.38
253.795	605.38
254.028	611.38
254.261	586.38
254.494	537.38
254.727	548.38
254.96	585.38
255.193	633.38
255.426	695.38
255.659	783.38
255.892	795.38
256.124	689.38
256.357	637.38
256.59	684.38
256.823	709.38
257.056	719.38
257.289	845.38
257.521	885.38
257.754	796.38
257.987	787.38
258.22	821.38
258.452	804.38
258.685	696.38
258.918	662.38
259.151	683.38
259.383	653.38
259.616	587.38
259.849	608.38
260.081	681.38
260.314	761.38
260.547	827.38
260.779	819.38
261.012	759.38
261.244	694.38
261.477	675.38
261.71	693.38
261.942	692.38
262.175	701.38
262.407	707.38
262.64	666.38
262.872	611.38
263.105	621.38
263.337	652.38
263.57	643.38
263.802	628.38
264.035	582.38
264.267	561.38
264.499	585.38
264.732	602.38
264.964	645.38
265.197	671.38
265.429	729.38
265.661	784.38
265.894	857.38
266.126	862.38
266.358	788.38
266.591	812.38
266.823	840.38
267.055	786.38
267.287	796.38
267.52	773.38
267.752	731.38
267.984	750.38
268.216	795.38
268.448	786.38
268.681	781.38
268.913	737.38
269.145	714.38
269.377	675.38
269.609	773.38
269.841	873.38
270.073	988.38
270.306	1099.38
270.538	1114.38
270.77	965.38
271.002	842.38
271.234	823.38
271.466	815.38
271.698	904.38
271.93	1044.38
272.162	1023.38
272.394	943.38
272.626	914.38
272.858	803.38
273.09	715.38
273.322	718.38
273.553	684.38
273.785	693.38
274.017	726.38
274.249	744.38
274.481	755.38
274.713	697.38
274.945	687.38
275.176	692.38
275.408	695.38
275.64	696.38
275.872	694.38
276.104	738.38
276.335	793.38
276.567	921.38
276.799	923.38
277.031	823.38
277.262	804.38
277.494	845.38
277.726	898.38
277.957	903.38
278.189	837.38
278.421	750.38
278.652	740.38
278.884	728.38
279.115	731.38
279.347	755.38
279.579	738.38
279.81	719.38
280.042	811.38
280.273	861.38
280.505	877.38
280.736	887.38
280.968	827.38
281.199	762.38
281.431	708.38
281.662	715.38
281.894	756.38
282.125	746.38
282.356	756.38
282.588	773.38
282.819	776.38
283.051	831.38
283.282	886.38
283.513	855.38
283.745	781.38
283.976	711.38
284.207	717.38
284.439	756.38
284.67	773.38
284.901	754.38
285.132	806.38
285.364	776.38
285.595	792.38
285.826	755.38
286.057	754.38
286.288	768.38
286.52	802.38
286.751	835.38
286.982	864.38
287.213	771.38
287.444	745.38
287.675	758.38
287.906	782.38
288.138	851.38
288.369	810.38
288.6	761.38
288.831	726.38
289.062	760.38
289.293	761.38
289.524	789.38
289.755	787.38
289.986	796.38
290.217	707.38
290.448	759.38
290.679	787.38
290.91	781.38
291.141	817.38
291.371	836.38
291.602	848.38
291.833	820.38
292.064	836.38
292.295	819.38
292.526	824.38
292.757	863.38
292.987	845.38
293.218	829.38
293.449	889.38
293.68	965.38
293.91	991.38
294.141	952.38
294.372	942.38
294.603	953.38
294.833	983.38
295.064	908.38
295.295	842.38
295.525	801.38
295.756	751.38
295.987	724.38
296.217	764.38
296.448	782.38
296.679	786.38
296.909	771.38
297.14	811.38
297.37	778.38
297.601	857.38
297.831	903.38
298.062	893.38
298.292	836.38
298.523	795.38
298.753	801.38
298.984	811.38
299.214	806.38
299.445	840.38
299.675	835.38
299.905	823.38
300.136	811.38
300.366	783.38
300.597	771.38
300.827	778.38
301.057	814.38
301.288	858.38
301.518	881.38
301.748	897.38
301.979	926.38
302.209	935.38
302.439	1000.38
302.669	1000.38
302.9	963.38
303.13	888.38
303.36	855.38
303.59	891.38
303.82	869.38
304.051	894.38
304.281	869.38
304.511	863.38
304.741	939.38
304.971	1035.38
305.201	1043.38
305.431	963.38
305.661	815.38
305.891	740.38
306.121	758.38
306.352	820.38
306.582	835.38
306.812	896.38
307.042	930.38
307.272	964.38
307.502	992.38
307.731	1067.38
307.961	1100.38
308.191	996.38
308.421	885.38
308.651	819.38
308.881	811.38
309.111	842.38
309.341	860.38
309.571	852.38
309.8	843.38
310.03	857.38
310.26	790.38
310.49	847.38
310.72	864.38
310.949	907.38
311.179	880.38
311.409	857.38
311.639	839.38
311.868	836.38
312.098	859.38
312.328	843.38
312.557	842.38
312.787	851.38
313.017	867.38
313.246	868.38
313.476	882.38
313.706	903.38
313.935	905.38
314.165	913.38
314.394	921.38
314.624	984.38
314.853	1041.38
315.083	1038.38
315.312	1087.38
315.542	989.38
315.771	931.38
316.001	915.38
316.23	969.38
316.46	946.38
316.689	932.38
316.919	883.38
317.148	868.38
317.377	901.38
317.607	985.38
317.836	1067.38
318.065	1079.38
318.295	1023.38
318.524	972.38
318.753	967.38
318.983	953.38
319.212	932.38
319.441	930.38
319.67	894.38
319.9	926.38
320.129	1018.38
320.358	1027.38
320.587	1059.38
320.816	1036.38
321.046	994.38
321.275	964.38
321.504	978.38
321.733	1071.38
321.962	993.38
322.191	936.38
322.42	924.38
322.649	916.38
322.878	949.38
323.108	965.38
323.337	969.38
323.566	989.38
323.795	967.38
324.024	966.38
324.253	951.38
324.482	899.38
324.71	927.38
324.939	889.38
325.168	917.38
325.397	948.38
325.626	988.38
325.855	952.38
326.084	938.38
326.313	972.38
326.542	936.38
326.77	965.38
326.999	968.38
327.228	897.38
327.457	893.38
327.686	888.38
327.914	915.38
328.143	940.38
328.372	953.38
328.6	936.38
328.829	921.38
329.058	888.38
329.287	924.38
329.515	969.38
329.744	947.38
329.972	1041.38
330.201	1066.38
330.43	1001.38
330.658	994.38
330.887	1016.38
331.115	992.38
331.344	1000.38
331.572	971.38
331.801	995.38
332.03	993.38
332.258	1001.38
332.486	1013.38
332.715	1040.38
332.943	1027.38
333.172	991.38
333.4	1033.38
333.629	1039.38
333.857	1119.38
334.085	1221.38
334.314	1345.38
334.542	1434.38
334.771	1301.38
334.999	1165.38
335.227	1116.38
335.455	1073.38
335.684	1061.38
335.912	1132.38
336.14	1108.38
336.369	1069.38
336.597	1027.38
336.825	1002.38
337.053	1042.38
337.281	1102.38
337.51	1180.38
337.738	1181.38
337.966	1115.38
338.194	1048.38
338.422	982.38
338.65	994.38
338.878	988.38
339.106	949.38
339.334	961.38
339.562	929.38
339.79	976.38
340.018	1028.38
340.246	1049.38
340.474	1037.38
340.702	1014.38
340.93	1023.38
341.158	1001.38
341.386	1015.38
341.614	1009.38
341.842	979.38
342.07	987.38
342.298	1023.38
342.526	983.38
342.754	967.38
342.981	990.38
343.209	975.38
343.437	997.38
343.665	985.38
343.893	1044.38
344.12	1052.38
344.348	1030.38
344.576	998.38
344.804	1020.38
345.031	969.38
345.259	996.38
345.487	968.38
345.714	911.38
345.942	939.38
346.17	960.38
346.397	955.38
346.625	950.38
346.853	908.38
347.08	908.38
347.308	906.38
347.535	938.38
347.763	934.38
347.99	931.38
348.218	893.38
348.445	921.38
348.673	923.38
348.9	967.38
349.128	967.38
349.355	1012.38
349.583	985.38
349.81	943.38
350.037	879.38
350.265	861.38
350.492	891.38
350.72	893.38
350.947	965.38
351.174	959.38
351.402	899.38
351.629	889.38
351.856	906.38
352.083	849.38
352.311	856.38
352.538	891.38
352.765	941.38
352.992	960.38
353.22	925.38
353.447	882.38
353.674	920.38
353.901	943.38
354.128	896.38
354.355	931.38
354.583	940.38
354.81	976.38
355.037	959.38
355.264	946.38
355.491	953.38
355.718	938.38
355.945	912.38
356.172	897.38
356.399	899.38
356.626	921.38
356.853	967.38
357.08	1063.38
357.307	1120.38
357.534	1087.38
357.761	967.38
357.988	899.38
358.215	860.38
358.441	889.38
358.668	901.38
358.895	909.38
359.122	969.38
359.349	1057.38
359.576	1012.38
359.802	933.38
360.029	885.38
360.256	874.38
360.483	909.38
360.709	948.38
360.936	996.38
361.163	1061.38
361.39	1119.38
361.616	1154.38
361.843	1135.38
362.07	1066.38
362.296	954.38
362.523	916.38
362.749	942.38
362.976	964.38
363.203	990.38
363.429	922.38
363.656	920.38
363.882	975.38
364.109	1067.38
364.335	1101.38
364.562	1050.38
364.788	1012.38
365.015	921.38
365.241	904.38
365.468	947.38
365.694	983.38
365.92	992.38
366.147	961.38
366.373	921.38
366.599	927.38
366.826	919.38
367.052	935.38
367.278	951.38
367.505	946.38
367.731	985.38
367.957	956.38
368.184	996.38
368.41	1059.38
368.636	1081.38
368.862	1082.38
369.089	1058.38
369.315	1007.38
369.541	993.38
369.767	952.38
369.993	913.38
370.219	929.38
370.445	990.38
370.672	1023.38
370.898	1055.38
371.124	1033.38
371.35	1023.38
371.576	1028.38
371.802	1068.38
372.028	999.38
372.254	977.38
372.48	945.38
372.706	939.38
372.932	946.38
373.158	961.38
373.384	976.38
373.61	1038.38
373.835	1064.38
374.061	995.38
374.287	1002.38
374.513	997.38
374.739	1002.38
374.965	1023.38
375.191	1003.38
375.416	1033.38
375.642	1036.38
375.868	1108.38
376.094	1122.38
376.319	1068.38
376.545	997.38
376.771	1043.38
376.997	1108.38
377.222	1046.38
377.448	995.38
377.674	1003.38
377.899	1067.38
378.125	1119.38
378.35	1083.38
378.576	990.38
378.802	966.38
379.027	992.38
379.253	993.38
379.478	992.38
379.704	991.38
379.929	1033.38
380.155	1016.38
380.38	1021.38
380.606	1043.38
380.831	1020.38
381.057	1078.38
381.282	1045.38
381.507	1057.38
381.733	1121.38
381.958	1171.38
382.184	1043.38
382.409	1032.38
382.634	1041.38
382.86	1011.38
383.085	1045.38
383.31	1086.38
383.535	1196.38
383.761	1236.38
383.986	1176.38
384.211	1129.38
384.436	1126.38
384.662	1165.38
384.887	1206.38
385.112	1177.38
385.337	1135.38
385.562	1149.38
385.787	1157.38
386.013	1196.38
386.238	1146.38
386.463	1185.38
386.688	1267.38
386.913	1320.38
387.138	1251.38
387.363	1144.38
387.588	1189.38
387.813	1154.38
388.038	1176.38
388.263	1220.38
388.488	1134.38
388.713	1084.38
388.938	1066.38
389.163	1119.38
389.387	1135.38
389.612	1142.38
389.837	1175.38
390.062	1143.38
390.287	1145.38
390.512	1136.38
390.736	1148.38
390.961	1101.38
391.186	1075.38
391.411	1082.38
391.636	1107.38
391.86	1156.38
392.085	1128.38
392.31	1120.38
392.534	1143.38
392.759	1141.38
392.984	1163.38
393.208	1190.38
393.433	1176.38
393.658	1219.38
393.882	1217.38
394.107	1175.38
394.331	1151.38
394.556	1185.38
394.78	1168.38
395.005	1194.38
395.229	1264.38
395.454	1318.38
395.678	1310.38
395.903	1244.38
396.127	1231.38
396.352	1251.38
396.576	1275.38
396.801	1291.38
397.025	1249.38
397.249	1248.38
397.474	1242.38
397.698	1222.38
397.922	1258.38
398.147	1319.38
398.371	1343.38
398.595	1342.38
398.82	1298.38
399.044	1339.38
399.268	1403.38
399.492	1481.38
399.717	1525.38
399.941	1496.38
400.165	1531.38
400.389	1468.38
400.613	1471.38
400.837	1660.38
401.062	1815.38
401.286	1570.38
401.51	1447.38
401.734	1482.38
401.958	1418.38
402.182	1343.38
402.406	1307.38
402.63	1267.38
402.854	1298.38
403.078	1309.38
403.302	1322.38
403.526	1374.38
403.75	1376.38
403.974	1387.38
404.198	1375.38
404.422	1449.38
404.645	1494.38
404.869	1444.38
405.093	1339.38
405.317	1313.38
405.541	1387.38
405.765	1356.38
405.988	1377.38
406.212	1381.38
406.436	1412.38
406.66	1495.38
406.883	1537.38
407.107	1654.38
407.331	1791.38
407.555	1941.38
407.778	1677.38
408.002	1490.38
408.226	1413.38
408.449	1443.38
408.673	1361.38
408.896	1415.38
409.12	1402.38
409.344	1383.38
409.567	1321.38
409.791	1364.38
410.014	1387.38
410.238	1490.38
410.461	1523.38
410.685	1413.38
410.908	1339.38
411.132	1366.38
411.355	1353.38
411.578	1333.38
411.802	1335.38
412.025	1385.38
412.249	1319.38
412.472	1316.38
412.695	1306.38
412.919	1309.38
413.142	1323.38
413.365	1340.38
413.589	1362.38
413.812	1447.38
414.035	1446.38
414.258	1339.38
414.482	1337.38
414.705	1331.38
414.928	1299.38
415.151	1279.38
415.374	1305.38
415.597	1332.38
415.821	1345.38
416.044	1360.38
416.267	1356.38
416.49	1261.38
416.713	1295.38
416.936	1324.38
417.159	1385.38
417.382	1388.38
417.605	1309.38
417.828	1338.38
418.051	1331.38
418.274	1299.38
418.497	1285.38
418.72	1299.38
418.943	1273.38
419.166	1343.38
419.389	1386.38
419.611	1315.38
419.834	1300.38
420.057	1308.38
420.28	1265.38
420.503	1331.38
420.726	1352.38
420.948	1327.38
421.171	1285.38
421.394	1299.38
421.617	1368.38
421.839	1361.38
422.062	1314.38
422.285	1283.38
422.507	1304.38
422.73	1249.38
422.953	1249.38
423.175	1216.38
423.398	1304.38
423.621	1279.38
423.843	1289.38
424.066	1338.38
424.288	1423.38
424.511	1428.38
424.733	1384.38
424.956	1279.38
425.178	1265.38
425.401	1261.38
425.623	1268.38
425.846	1283.38
426.068	1349.38
426.291	1364.38
426.513	1343.38
426.735	1334.38
426.958	1443.38
427.18	1487.38
427.402	1378.38
427.625	1425.38
427.847	1396.38
428.069	1285.38
428.292	1238.38
428.514	1276.38
428.736	1225.38
428.958	1251.38
429.181	1279.38
429.403	1511.38
429.625	1757.38
429.847	1463.38
430.069	1316.38
430.292	1469.38
430.514	1438.38
430.736	1361.38
430.958	1376.38
431.18	1330.38
431.402	1229.38
431.624	1212.38
431.846	1179.38
432.068	1160.38
432.29	1161.38
432.512	1172.38
432.734	1223.38
432.956	1290.38
433.178	1332.38
433.4	1355.38
433.622	1303.38
433.844	1237.38
434.066	1191.38
434.287	1177.38
434.509	1229.38
434.731	1283.38
434.953	1376.38
435.175	1336.38
435.397	1287.38
435.618	1281.38
435.84	1263.38
436.062	1242.38
436.284	1281.38
436.505	1302.38
436.727	1331.38
436.949	1269.38
437.17	1229.38
437.392	1245.38
437.614	1211.38
437.835	1187.38
438.057	1261.38
438.278	1284.38
438.5	1259.38
438.721	1201.38
438.943	1244.38
439.165	1263.38
439.386	1235.38
439.608	1228.38
439.829	1279.38
440.05	1251.38
440.272	1254.38
440.493	1290.38
440.715	1294.38
440.936	1335.38
441.158	1425.38
441.379	1394.38
441.6	1338.38
441.822	1341.38
442.043	1355.38
442.264	1336.38
442.486	1238.38
442.707	1272.38
442.928	1281.38
443.149	1290.38
443.371	1383.38
443.592	1407.38
443.813	1382.38
444.034	1351.38
444.255	1355.38
444.476	1408.38
444.698	1405.38
444.919	1393.38
445.14	1475.38
445.361	1460.38
445.582	1495.38
445.803	1390.38
446.024	1376.38
446.245	1425.38
446.466	1387.38
446.687	1347.38
446.908	1364.38
447.129	1309.38
447.35	1290.38
447.571	1280.38
447.792	1243.38
448.013	1221.38
448.234	1274.38
448.455	1337.38
448.675	1347.38
448.896	1218.38
449.117	1184.38
449.338	1235.38
449.559	1307.38
449.779	1378.38
450	1438.38
450.221	1512.38
450.442	1475.38
450.662	1271.38
450.883	1166.38
451.104	1182.38
451.324	1184.38
451.545	1232.38
451.766	1203.38
451.986	1148.38
452.207	1123.38
452.428	1091.38
452.648	1101.38
452.869	1111.38
453.089	1131.38
453.31	1151.38
453.53	1165.38
453.751	1128.38
453.971	1101.38
454.192	1090.38
454.412	1143.38
454.633	1147.38
454.853	1117.38
455.073	1092.38
455.294	1094.38
455.514	1086.38
455.734	1081.38
455.955	1093.38
456.175	1058.38
456.395	1057.38
456.616	1097.38
456.836	1123.38
457.056	1116.38
457.276	1060.38
457.497	1059.38
457.717	1015.38
457.937	1066.38
458.157	1078.38
458.377	1066.38
458.598	1043.38
458.818	1073.38
459.038	1137.38
459.258	1162.38
459.478	1165.38
459.698	1117.38
459.918	1148.38
460.138	1237.38
460.358	1252.38
460.578	1255.38
460.798	1314.38
461.018	1343.38
461.238	1319.38
461.458	1269.38
461.678	1275.38
461.898	1239.38
462.118	1248.38
462.338	1275.38
462.558	1260.38
462.777	1265.38
462.997	1337.38
463.217	1391.38
463.437	1343.38
463.657	1281.38
463.876	1288.38
464.096	1278.38
464.316	1252.38
464.536	1312.38
464.755	1306.38
464.975	1322.38
465.195	1284.38
465.414	1319.38
465.634	1288.38
465.854	1281.38
466.073	1396.38
466.293	1375.38
466.512	1219.38
466.732	1230.38
466.951	1259.38
467.171	1274.38
467.391	1204.38
467.61	1202.38
467.829	1250.38
468.049	1315.38
468.268	1474.38
468.488	1320.38
468.707	1255.38
468.927	1239.38
469.146	1218.38
469.365	1203.38
469.585	1215.38
469.804	1228.38
470.023	1240.38
470.243	1265.38
470.462	1241.38
470.681	1228.38
470.901	1201.38
471.12	1213.38
471.339	1264.38
471.558	1219.38
471.777	1176.38
471.997	1237.38
472.216	1158.38
472.435	1135.38
472.654	1147.38
472.873	1186.38
473.092	1229.38
473.311	1170.38
473.53	1147.38
473.749	1137.38
473.968	1168.38
474.187	1226.38
474.406	1240.38
474.625	1231.38
474.844	1184.38
475.063	1192.38
475.282	1203.38
475.501	1205.38
475.72	1223.38
475.939	1270.38
476.158	1252.38
476.377	1201.38
476.596	1236.38
476.814	1225.38
477.033	1212.38
477.252	1243.38
477.471	1284.38
477.69	1283.38
477.908	1300.38
478.127	1340.38
478.346	1472.38
478.564	1431.38
478.783	1430.38
479.002	1469.38
479.22	1412.38
479.439	1455.38
479.658	1598.38
479.876	1576.38
480.095	1397.38
480.313	1316.38
480.532	1313.38
480.751	1333.38
480.969	1314.38
481.188	1259.38
481.406	1269.38
481.624	1210.38
481.843	1268.38
482.061	1268.38
482.28	1327.38
482.498	1293.38
482.717	1291.38
482.935	1319.38
483.153	1367.38
483.372	1411.38
483.59	1380.38
483.808	1351.38
484.027	1380.38
484.245	1495.38
484.463	1767.38
484.681	1894.38
484.9	1498.38
485.118	1376.38
485.336	1347.38
485.554	1360.38
485.772	1364.38
485.99	1386.38
486.209	1419.38
486.427	1377.38
486.645	1415.38
486.863	1425.38
487.081	1493.38
487.299	1485.38
487.517	1436.38
487.735	1480.38
487.953	1533.38
488.171	1489.38
488.389	1450.38
488.607	1441.38
488.825	1606.38
489.043	1511.38
489.261	1404.38
489.479	1475.38
489.696	1512.38
489.914	1477.38
490.132	1447.38
490.35	1432.38
490.568	1547.38
490.786	1532.38
491.003	1512.38
491.221	1562.38
491.439	1590.38
491.657	1603.38
491.874	1613.38
492.092	1668.38
492.31	1722.38
492.527	1685.38
492.745	1598.38
492.963	1599.38
493.18	1622.38
493.398	1737.38
493.615	1706.38
