Data from WStandard_LampEnergy10_LIBS07252019.E.O._I.C._HRD10591_15-55-25-929.txt Node
Date: Thu Jul 25 15:55:25 EDT 2019
User: cochatt
Spectrometer: HR+D1059
Trigger mode: 1
Integration Time (sec): 1.000000E-1
Scans to average: 1
Electric dark correction enabled: true
Nonlinearity correction enabled: false
Boxcar width: 0
XAxis mode: Wavelengths
Number of Pixels in Spectrum: 2048
>>>>>Begin Spectral Data<<<<<
223.165	-14.19
223.4	-14.19
223.635	-14.19
223.869	-11.19
224.104	-17.19
224.338	-9.19
224.573	-16.19
224.808	-2.19
225.042	-19.19
225.277	-7.19
225.511	-7.19
225.746	-5.19
225.98	10.81
226.215	12.81
226.449	14.81
226.683	29.81
226.918	24.81
227.152	15.81
227.387	32.81
227.621	39.81
227.856	43.81
228.09	50.81
228.324	66.81
228.559	74.81
228.793	88.81
229.027	148.81
229.262	145.81
229.496	145.81
229.73	147.81
229.964	147.81
230.199	173.81
230.433	163.81
230.667	180.81
230.901	192.81
231.136	168.81
231.37	166.81
231.604	154.81
231.838	171.81
232.072	184.81
232.306	180.81
232.541	172.81
232.775	216.81
233.009	215.81
233.243	184.81
233.477	185.81
233.711	186.81
233.945	192.81
234.179	207.81
234.413	206.81
234.647	192.81
234.881	211.81
235.115	186.81
235.349	201.81
235.583	208.81
235.817	183.81
236.051	199.81
236.285	199.81
236.519	203.81
236.753	216.81
236.987	231.81
237.221	223.81
237.455	254.81
237.689	222.81
237.922	217.81
238.156	226.81
238.39	218.81
238.624	220.81
238.858	246.81
239.091	228.81
239.325	246.81
239.559	272.81
239.793	292.81
240.027	288.81
240.26	299.81
240.494	258.81
240.728	242.81
240.961	218.81
241.195	235.81
241.429	246.81
241.662	247.81
241.896	244.81
242.13	241.81
242.363	268.81
242.597	292.81
242.83	289.81
243.064	283.81
243.298	293.81
243.531	277.81
243.765	280.81
243.998	281.81
244.232	254.81
244.465	266.81
244.699	252.81
244.932	294.81
245.166	300.81
245.399	287.81
245.633	292.81
245.866	271.81
246.099	285.81
246.333	314.81
246.566	308.81
246.8	295.81
247.033	346.81
247.266	334.81
247.5	310.81
247.733	335.81
247.966	338.81
248.2	346.81
248.433	348.81
248.666	351.81
248.899	378.81
249.133	436.81
249.366	457.81
249.599	384.81
249.832	363.81
250.066	360.81
250.299	363.81
250.532	344.81
250.765	321.81
250.998	339.81
251.231	358.81
251.465	350.81
251.698	335.81
251.931	357.81
252.164	337.81
252.397	370.81
252.63	343.81
252.863	341.81
253.096	338.81
253.329	339.81
253.562	341.81
253.795	348.81
254.028	367.81
254.261	322.81
254.494	333.81
254.727	339.81
254.96	346.81
255.193	381.81
255.426	410.81
255.659	435.81
255.892	456.81
256.124	383.81
256.357	392.81
256.59	401.81
256.823	408.81
257.056	412.81
257.289	460.81
257.521	498.81
257.754	466.81
257.987	439.81
258.22	471.81
258.452	455.81
258.685	398.81
258.918	376.81
259.151	394.81
259.383	385.81
259.616	353.81
259.849	363.81
260.081	406.81
260.314	427.81
260.547	430.81
260.779	479.81
261.012	433.81
261.244	411.81
261.477	400.81
261.71	408.81
261.942	407.81
262.175	397.81
262.407	397.81
262.64	387.81
262.872	357.81
263.105	361.81
263.337	392.81
263.57	354.81
263.802	362.81
264.035	350.81
264.267	345.81
264.499	341.81
264.732	371.81
264.964	373.81
265.197	394.81
265.429	415.81
265.661	465.81
265.894	486.81
266.126	490.81
266.358	462.81
266.591	484.81
266.823	486.81
267.055	464.81
267.287	432.81
267.52	444.81
267.752	437.81
267.984	436.81
268.216	452.81
268.448	478.81
268.681	442.81
268.913	426.81
269.145	403.81
269.377	420.81
269.609	448.81
269.841	488.81
270.073	559.81
270.306	606.81
270.538	608.81
270.77	539.81
271.002	504.81
271.234	449.81
271.466	477.81
271.698	546.81
271.93	595.81
272.162	571.81
272.394	514.81
272.626	524.81
272.858	460.81
273.09	425.81
273.322	411.81
273.553	398.81
273.785	421.81
274.017	403.81
274.249	440.81
274.481	448.81
274.713	424.81
274.945	386.81
275.176	415.81
275.408	414.81
275.64	404.81
275.872	395.81
276.104	453.81
276.335	481.81
276.567	528.81
276.799	516.81
277.031	500.81
277.262	492.81
277.494	491.81
277.726	524.81
277.957	501.81
278.189	467.81
278.421	445.81
278.652	431.81
278.884	429.81
279.115	451.81
279.347	458.81
279.579	450.81
279.81	431.81
280.042	468.81
280.273	499.81
280.505	512.81
280.736	504.81
280.968	465.81
281.199	414.81
281.431	413.81
281.662	403.81
281.894	421.81
282.125	446.81
282.356	460.81
282.588	437.81
282.819	463.81
283.051	486.81
283.282	509.81
283.513	482.81
283.745	434.81
283.976	405.81
284.207	435.81
284.439	442.81
284.67	450.81
284.901	467.81
285.132	453.81
285.364	457.81
285.595	436.81
285.826	450.81
286.057	419.81
286.288	456.81
286.52	469.81
286.751	506.81
286.982	494.81
287.213	455.81
287.444	430.81
287.675	446.81
287.906	439.81
288.138	482.81
288.369	460.81
288.6	462.81
288.831	413.81
289.062	436.81
289.293	462.81
289.524	464.81
289.755	487.81
289.986	454.81
290.217	458.81
290.448	443.81
290.679	479.81
290.91	454.81
291.141	484.81
291.371	482.81
291.602	502.81
291.833	466.81
292.064	480.81
292.295	525.81
292.526	472.81
292.757	495.81
292.987	489.81
293.218	496.81
293.449	522.81
293.68	551.81
293.91	584.81
294.141	563.81
294.372	522.81
294.603	545.81
294.833	548.81
295.064	529.81
295.295	498.81
295.525	472.81
295.756	444.81
295.987	433.81
296.217	437.81
296.448	454.81
296.679	461.81
296.909	461.81
297.14	463.81
297.37	462.81
297.601	485.81
297.831	514.81
298.062	526.81
298.292	487.81
298.523	463.81
298.753	490.81
298.984	458.81
299.214	474.81
299.445	507.81
299.675	487.81
299.905	492.81
300.136	471.81
300.366	479.81
300.597	475.81
300.827	451.81
301.057	501.81
301.288	502.81
301.518	494.81
301.748	516.81
301.979	562.81
302.209	545.81
302.439	600.81
302.669	578.81
302.9	549.81
303.13	506.81
303.36	523.81
303.59	530.81
303.82	534.81
304.051	534.81
304.281	519.81
304.511	549.81
304.741	586.81
304.971	607.81
305.201	632.81
305.431	568.81
305.661	466.81
305.891	450.81
306.121	458.81
306.352	468.81
306.582	523.81
306.812	535.81
307.042	566.81
307.272	567.81
307.502	587.81
307.731	586.81
307.961	629.81
308.191	590.81
308.421	502.81
308.651	499.81
308.881	512.81
309.111	509.81
309.341	511.81
309.571	501.81
309.8	496.81
310.03	513.81
310.26	492.81
310.49	484.81
310.72	525.81
310.949	522.81
311.179	513.81
311.409	504.81
311.639	518.81
311.868	493.81
312.098	506.81
312.328	502.81
312.557	491.81
312.787	526.81
313.017	523.81
313.246	511.81
313.476	520.81
313.706	522.81
313.935	533.81
314.165	547.81
314.394	576.81
314.624	575.81
314.853	602.81
315.083	624.81
315.312	601.81
315.542	594.81
315.771	554.81
316.001	557.81
316.23	584.81
316.46	564.81
316.689	570.81
316.919	514.81
317.148	523.81
317.377	543.81
317.607	571.81
317.836	629.81
318.065	635.81
318.295	601.81
318.524	582.81
318.753	557.81
318.983	571.81
319.212	561.81
319.441	548.81
319.67	559.81
319.9	581.81
320.129	596.81
320.358	608.81
320.587	613.81
320.816	601.81
321.046	608.81
321.275	590.81
321.504	588.81
321.733	611.81
321.962	588.81
322.191	564.81
322.42	555.81
322.649	553.81
322.878	542.81
323.108	555.81
323.337	574.81
323.566	575.81
323.795	564.81
324.024	576.81
324.253	548.81
324.482	555.81
324.71	530.81
324.939	536.81
325.168	554.81
325.397	564.81
325.626	570.81
325.855	558.81
326.084	553.81
326.313	567.81
326.542	584.81
326.77	570.81
326.999	570.81
327.228	525.81
327.457	527.81
327.686	527.81
327.914	555.81
328.143	564.81
328.372	554.81
328.6	562.81
328.829	543.81
329.058	545.81
329.287	564.81
329.515	561.81
329.744	592.81
329.972	629.81
330.201	630.81
330.43	610.81
330.658	601.81
330.887	601.81
331.115	595.81
331.344	611.81
331.572	588.81
331.801	571.81
332.03	596.81
332.258	607.81
332.486	616.81
332.715	591.81
332.943	581.81
333.172	584.81
333.4	597.81
333.629	617.81
333.857	700.81
334.085	741.81
334.314	822.81
334.542	828.81
334.771	761.81
334.999	705.81
335.227	636.81
335.455	613.81
335.684	659.81
335.912	646.81
336.14	642.81
336.369	617.81
336.597	615.81
336.825	593.81
337.053	643.81
337.281	662.81
337.51	693.81
337.738	702.81
337.966	656.81
338.194	603.81
338.422	588.81
338.65	596.81
338.878	592.81
339.106	564.81
339.334	571.81
339.562	550.81
339.79	582.81
340.018	618.81
340.246	639.81
340.474	640.81
340.702	610.81
340.93	623.81
341.158	614.81
341.386	601.81
341.614	612.81
341.842	585.81
342.07	590.81
342.298	603.81
342.526	591.81
342.754	604.81
342.981	582.81
343.209	593.81
343.437	585.81
343.665	591.81
343.893	618.81
344.12	637.81
344.348	637.81
344.576	606.81
344.804	596.81
345.031	587.81
345.259	588.81
345.487	585.81
345.714	571.81
345.942	564.81
346.17	540.81
346.397	573.81
346.625	571.81
346.853	566.81
347.08	519.81
347.308	541.81
347.535	574.81
347.763	560.81
347.99	566.81
348.218	563.81
348.445	562.81
348.673	589.81
348.9	596.81
349.128	587.81
349.355	612.81
349.583	592.81
349.81	564.81
350.037	538.81
350.265	552.81
350.492	547.81
350.72	544.81
350.947	564.81
351.174	557.81
351.402	541.81
351.629	533.81
351.856	534.81
352.083	516.81
352.311	541.81
352.538	563.81
352.765	598.81
352.992	595.81
353.22	559.81
353.447	562.81
353.674	555.81
353.901	564.81
354.128	544.81
354.355	564.81
354.583	584.81
354.81	593.81
355.037	586.81
355.264	575.81
355.491	556.81
355.718	566.81
355.945	549.81
356.172	557.81
356.399	534.81
356.626	549.81
356.853	598.81
357.08	642.81
357.307	679.81
357.534	667.81
357.761	602.81
357.988	555.81
358.215	550.81
358.441	550.81
358.668	539.81
358.895	586.81
359.122	631.81
359.349	652.81
359.576	605.81
359.802	568.81
360.029	565.81
360.256	551.81
360.483	581.81
360.709	576.81
360.936	610.81
361.163	628.81
361.39	670.81
361.616	714.81
361.843	706.81
362.07	636.81
362.296	578.81
362.523	556.81
362.749	566.81
362.976	567.81
363.203	598.81
363.429	550.81
363.656	539.81
363.882	600.81
364.109	635.81
364.335	684.81
364.562	614.81
364.788	588.81
365.015	562.81
365.241	562.81
365.468	575.81
365.694	616.81
365.92	614.81
366.147	602.81
366.373	556.81
366.599	544.81
366.826	560.81
367.052	576.81
367.278	588.81
367.505	596.81
367.731	599.81
367.957	605.81
368.184	637.81
368.41	668.81
368.636	654.81
368.862	647.81
369.089	664.81
369.315	638.81
369.541	635.81
369.767	606.81
369.993	610.81
370.219	595.81
370.445	626.81
370.672	668.81
370.898	678.81
371.124	664.81
371.35	625.81
371.576	668.81
371.802	657.81
372.028	650.81
372.254	597.81
372.48	592.81
372.706	604.81
372.932	604.81
373.158	607.81
373.384	628.81
373.61	615.81
373.835	644.81
374.061	645.81
374.287	626.81
374.513	624.81
374.739	628.81
374.965	624.81
375.191	638.81
375.416	632.81
375.642	675.81
375.868	710.81
376.094	696.81
376.319	680.81
376.545	662.81
376.771	651.81
376.997	702.81
377.222	680.81
377.448	670.81
377.674	684.81
377.899	682.81
378.125	707.81
378.35	687.81
378.576	631.81
378.802	624.81
379.027	634.81
379.253	648.81
379.478	650.81
379.704	645.81
379.929	649.81
380.155	641.81
380.38	639.81
380.606	653.81
380.831	655.81
381.057	706.81
381.282	698.81
381.507	713.81
381.733	749.81
381.958	774.81
382.184	672.81
382.409	679.81
382.634	694.81
382.86	681.81
383.085	676.81
383.31	729.81
383.535	774.81
383.761	789.81
383.986	770.81
384.211	728.81
384.436	724.81
384.662	781.81
384.887	769.81
385.112	739.81
385.337	704.81
385.562	748.81
385.787	718.81
386.013	754.81
386.238	737.81
386.463	755.81
386.688	818.81
386.913	876.81
387.138	821.81
387.363	781.81
387.588	776.81
387.813	802.81
388.038	799.81
388.263	815.81
388.488	755.81
388.713	702.81
388.938	708.81
389.163	708.81
389.387	734.81
389.612	731.81
389.837	760.81
390.062	756.81
390.287	759.81
390.512	751.81
390.736	746.81
390.961	725.81
391.186	712.81
391.411	717.81
391.636	765.81
391.86	791.81
392.085	748.81
392.31	732.81
392.534	741.81
392.759	772.81
392.984	783.81
393.208	764.81
393.433	791.81
393.658	823.81
393.882	803.81
394.107	756.81
394.331	759.81
394.556	750.81
394.78	788.81
395.005	826.81
395.229	834.81
395.454	898.81
395.678	871.81
395.903	821.81
396.127	806.81
396.352	820.81
396.576	853.81
396.801	848.81
397.025	828.81
397.249	854.81
397.474	830.81
397.698	825.81
397.922	860.81
398.147	891.81
398.371	914.81
398.595	915.81
398.82	869.81
399.044	904.81
399.268	934.81
399.492	955.81
399.717	984.81
399.941	986.81
400.165	964.81
400.389	947.81
400.613	996.81
400.837	1117.81
401.062	1181.81
401.286	1014.81
401.51	971.81
401.734	970.81
401.958	935.81
402.182	904.81
402.406	873.81
402.63	884.81
402.854	886.81
403.078	895.81
403.302	921.81
403.526	901.81
403.75	934.81
403.974	961.81
404.198	946.81
404.422	982.81
404.645	1003.81
404.869	999.81
405.093	914.81
405.317	898.81
405.541	938.81
405.765	927.81
405.988	924.81
406.212	948.81
406.436	946.81
406.66	983.81
406.883	1036.81
407.107	1126.81
407.331	1218.81
407.555	1268.81
407.778	1113.81
408.002	959.81
408.226	958.81
408.449	939.81
408.673	940.81
408.896	961.81
409.12	973.81
409.344	924.81
409.567	931.81
409.791	939.81
410.014	977.81
410.238	1030.81
410.461	1042.81
410.685	937.81
410.908	913.81
411.132	947.81
411.355	915.81
411.578	921.81
411.802	951.81
412.025	918.81
412.249	916.81
412.472	904.81
412.695	903.81
412.919	915.81
413.142	915.81
413.365	912.81
413.589	961.81
413.812	983.81
414.035	1014.81
414.258	946.81
414.482	915.81
414.705	926.81
414.928	946.81
415.151	938.81
415.374	918.81
415.597	950.81
415.821	947.81
416.044	937.81
416.267	946.81
416.49	910.81
416.713	915.81
416.936	966.81
417.159	978.81
417.382	956.81
417.605	933.81
417.828	914.81
418.051	941.81
418.274	933.81
418.497	920.81
418.72	907.81
418.943	932.81
419.166	940.81
419.389	975.81
419.611	933.81
419.834	926.81
420.057	984.81
420.28	926.81
420.503	918.81
420.726	964.81
420.948	957.81
421.171	896.81
421.394	931.81
421.617	972.81
421.839	986.81
422.062	969.81
422.285	918.81
422.507	922.81
422.73	908.81
422.953	887.81
423.175	901.81
423.398	925.81
423.621	909.81
423.843	933.81
424.066	991.81
424.288	1018.81
424.511	1052.81
424.733	1014.81
424.956	904.81
425.178	942.81
425.401	941.81
425.623	948.81
425.846	926.81
426.068	992.81
426.291	974.81
426.513	973.81
426.735	973.81
426.958	1037.81
427.18	1051.81
427.402	994.81
427.625	1036.81
427.847	976.81
428.069	898.81
428.292	898.81
428.514	911.81
428.736	887.81
428.958	883.81
429.181	970.81
429.403	1097.81
429.625	1235.81
429.847	1082.81
430.069	936.81
430.292	1035.81
430.514	1032.81
430.736	989.81
430.958	963.81
431.18	894.81
431.402	869.81
431.624	846.81
431.846	805.81
432.068	750.81
432.29	734.81
432.512	783.81
432.734	875.81
432.956	920.81
433.178	966.81
433.4	937.81
433.622	935.81
433.844	896.81
434.066	852.81
434.287	778.81
434.509	792.81
434.731	835.81
434.953	914.81
435.175	932.81
435.397	908.81
435.618	891.81
435.84	837.81
436.062	854.81
436.284	896.81
436.505	908.81
436.727	944.81
436.949	942.81
437.17	893.81
437.392	909.81
437.614	841.81
437.835	798.81
438.057	790.81
438.278	845.81
438.5	867.81
438.721	898.81
438.943	933.81
439.165	935.81
439.386	915.81
439.608	911.81
439.829	956.81
440.05	960.81
440.272	949.81
440.493	952.81
440.715	1002.81
440.936	962.81
441.158	1063.81
441.379	1031.81
441.6	1047.81
441.822	1019.81
442.043	995.81
442.264	983.81
442.486	926.81
442.707	953.81
442.928	940.81
443.149	989.81
443.371	984.81
443.592	1027.81
443.813	1018.81
444.034	1010.81
444.255	1015.81
444.476	1028.81
444.698	1048.81
444.919	1032.81
445.14	1138.81
445.361	1078.81
445.582	1048.81
445.803	1044.81
446.024	1051.81
446.245	1078.81
446.466	1071.81
446.687	1043.81
446.908	1026.81
447.129	1011.81
447.35	998.81
447.571	1012.81
447.792	962.81
448.013	954.81
448.234	975.81
448.455	983.81
448.675	981.81
448.896	932.81
449.117	893.81
449.338	946.81
449.559	943.81
449.779	993.81
450	996.81
450.221	1041.81
450.442	1013.81
450.662	961.81
450.883	890.81
451.104	892.81
451.324	880.81
451.545	860.81
451.766	851.81
451.986	804.81
452.207	826.81
452.428	818.81
452.648	780.81
452.869	777.81
453.089	802.81
453.31	784.81
453.53	748.81
453.751	760.81
453.971	712.81
454.192	748.81
454.412	777.81
454.633	795.81
454.853	786.81
455.073	768.81
455.294	778.81
455.514	778.81
455.734	748.81
455.955	754.81
456.175	746.81
456.395	729.81
456.616	713.81
456.836	744.81
457.056	728.81
457.276	730.81
457.497	690.81
457.717	683.81
457.937	697.81
458.157	724.81
458.377	713.81
458.598	670.81
458.818	652.81
459.038	699.81
459.258	713.81
459.478	717.81
459.698	678.81
459.918	732.81
460.138	804.81
460.358	823.81
460.578	843.81
460.798	866.81
461.018	875.81
461.238	862.81
461.458	890.81
461.678	830.81
461.898	841.81
462.118	803.81
462.338	832.81
462.558	842.81
462.777	850.81
462.997	843.81
463.217	834.81
463.437	870.81
463.657	859.81
463.876	833.81
464.096	825.81
464.316	829.81
464.536	890.81
464.755	882.81
464.975	902.81
465.195	857.81
465.414	887.81
465.634	875.81
465.854	895.81
466.073	984.81
466.293	942.81
466.512	880.81
466.732	883.81
466.951	932.81
467.171	892.81
467.391	877.81
467.61	873.81
467.829	919.81
468.049	977.81
468.268	1060.81
468.488	949.81
468.707	916.81
468.927	898.81
469.146	911.81
469.365	903.81
469.585	924.81
469.804	940.81
470.023	941.81
470.243	932.81
470.462	942.81
470.681	918.81
470.901	938.81
471.12	947.81
471.339	910.81
471.558	922.81
471.777	882.81
471.997	906.81
472.216	853.81
472.435	784.81
472.654	756.81
472.873	763.81
473.092	836.81
473.311	834.81
473.53	812.81
473.749	826.81
473.968	838.81
474.187	854.81
474.406	824.81
474.625	843.81
474.844	892.81
475.063	893.81
475.282	864.81
475.501	847.81
475.72	851.81
475.939	902.81
476.158	878.81
476.377	855.81
476.596	844.81
476.814	826.81
477.033	808.81
477.252	875.81
477.471	879.81
477.69	926.81
477.908	924.81
478.127	988.81
478.346	974.81
478.564	974.81
478.783	987.81
479.002	1028.81
479.22	994.81
479.439	1025.81
479.658	1059.81
479.876	1016.81
480.095	905.81
480.313	873.81
480.532	884.81
480.751	864.81
480.969	820.81
481.188	802.81
481.406	774.81
481.624	794.81
481.843	797.81
482.061	846.81
482.28	866.81
482.498	892.81
482.717	847.81
482.935	884.81
483.153	978.81
483.372	1031.81
483.59	1036.81
483.808	997.81
484.027	949.81
484.245	1004.81
484.463	1210.81
484.681	1296.81
484.9	1022.81
485.118	976.81
485.336	926.81
485.554	912.81
485.772	900.81
485.99	868.81
486.209	892.81
486.427	888.81
486.645	932.81
486.863	994.81
487.081	1049.81
487.299	1003.81
487.517	1012.81
487.735	1132.81
487.953	1230.81
488.171	1174.81
488.389	1113.81
488.607	1091.81
488.825	1169.81
489.043	1046.81
489.261	1000.81
489.479	1072.81
489.696	1046.81
489.914	1022.81
490.132	1046.81
490.35	1110.81
490.568	1164.81
490.786	1167.81
491.003	1180.81
491.221	1252.81
491.439	1308.81
491.657	1335.81
491.874	1349.81
492.092	1417.81
492.31	1503.81
492.527	1466.81
492.745	1333.81
492.963	1314.81
493.18	1326.81
493.398	1302.81
493.615	1322.81
493.833	1291.81
494.05	1246.81
494.268	1251.81
494.485	1229.81
494.703	1219.81
494.92	1211.81
495.138	1226.81
495.355	1255.81
495.573	1266.81
495.79	1287.81
496.008	1275.81
496.225	1247.81
496.442	1212.81
496.66	1216.81
496.877	1197.81
497.094	1224.81
497.312	1230.81
497.529	1190.81
497.746	1182.81
497.963	1250.81
498.181	1313.81
498.398	1258.81
498.615	1194.81
498.832	1155.81
499.049	1148.81
499.267	1210.81
499.484	1228.81
499.701	1321.81
499.918	1383.81
500.135	1491.81
500.352	1550.81
