Data from WStandard_LampEnergy10_LIBS07252019.E.O._I.C._HRD10591_15-55-09-928.txt Node
Date: Thu Jul 25 15:55:09 EDT 2019
User: cochatt
Spectrometer: HR+D1059
Trigger mode: 1
Integration Time (sec): 1.000000E-1
Scans to average: 1
Electric dark correction enabled: true
Nonlinearity correction enabled: false
Boxcar width: 0
XAxis mode: Wavelengths
Number of Pixels in Spectrum: 2048
>>>>>Begin Spectral Data<<<<<
223.165	-17.44
223.4	-17.44
223.635	-17.44
223.869	-23.44
224.104	-31.44
224.338	-10.44
224.573	-17.44
224.808	-11.44
225.042	-11.44
225.277	-7.44
225.511	7.56
225.746	2.56
225.98	5.56
226.215	15.56
226.449	19.56
226.683	25.56
226.918	24.56
227.152	29.56
227.387	40.56
227.621	26.56
227.856	34.56
228.09	45.56
228.324	57.56
228.559	55.56
228.793	101.56
229.027	113.56
229.262	138.56
229.496	146.56
229.73	163.56
229.964	170.56
230.199	162.56
230.433	179.56
230.667	171.56
230.901	183.56
231.136	167.56
231.37	180.56
231.604	192.56
231.838	181.56
232.072	175.56
232.306	182.56
232.541	184.56
232.775	203.56
233.009	232.56
233.243	205.56
233.477	203.56
233.711	201.56
233.945	173.56
234.179	195.56
234.413	219.56
234.647	219.56
234.881	186.56
235.115	185.56
235.349	210.56
235.583	202.56
235.817	218.56
236.051	191.56
236.285	204.56
236.519	220.56
236.753	223.56
236.987	219.56
237.221	228.56
237.455	221.56
237.689	211.56
237.922	212.56
238.156	217.56
238.39	225.56
238.624	237.56
238.858	238.56
239.091	261.56
239.325	253.56
239.559	286.56
239.793	292.56
240.027	323.56
240.26	300.56
240.494	251.56
240.728	225.56
240.961	226.56
241.195	250.56
241.429	273.56
241.662	257.56
241.896	242.56
242.13	245.56
242.363	282.56
242.597	289.56
242.83	284.56
243.064	289.56
243.298	289.56
243.531	273.56
243.765	278.56
243.998	288.56
244.232	270.56
244.465	247.56
244.699	273.56
244.932	287.56
245.166	293.56
245.399	300.56
245.633	273.56
245.866	277.56
246.099	271.56
246.333	280.56
246.566	332.56
246.8	333.56
247.033	360.56
247.266	338.56
247.5	352.56
247.733	307.56
247.966	339.56
248.2	367.56
248.433	361.56
248.666	379.56
248.899	382.56
249.133	433.56
249.366	472.56
249.599	400.56
249.832	359.56
250.066	355.56
250.299	369.56
250.532	358.56
250.765	338.56
250.998	328.56
251.231	382.56
251.465	357.56
251.698	348.56
251.931	358.56
252.164	364.56
252.397	377.56
252.63	354.56
252.863	329.56
253.096	340.56
253.329	352.56
253.562	363.56
253.795	381.56
254.028	360.56
254.261	337.56
254.494	345.56
254.727	322.56
254.96	346.56
255.193	384.56
255.426	413.56
255.659	447.56
255.892	458.56
256.124	393.56
256.357	394.56
256.59	405.56
256.823	392.56
257.056	419.56
257.289	479.56
257.521	496.56
257.754	464.56
257.987	442.56
258.22	479.56
258.452	463.56
258.685	403.56
258.918	382.56
259.151	385.56
259.383	365.56
259.616	355.56
259.849	370.56
260.081	434.56
260.314	430.56
260.547	457.56
260.779	483.56
261.012	441.56
261.244	429.56
261.477	389.56
261.71	403.56
261.942	397.56
262.175	406.56
262.407	423.56
262.64	382.56
262.872	377.56
263.105	346.56
263.337	389.56
263.57	389.56
263.802	382.56
264.035	359.56
264.267	363.56
264.499	345.56
264.732	371.56
264.964	401.56
265.197	422.56
265.429	443.56
265.661	457.56
265.894	507.56
266.126	505.56
266.358	449.56
266.591	471.56
266.823	497.56
267.055	447.56
267.287	443.56
267.52	448.56
267.752	455.56
267.984	441.56
268.216	463.56
268.448	472.56
268.681	485.56
268.913	422.56
269.145	410.56
269.377	407.56
269.609	451.56
269.841	519.56
270.073	577.56
270.306	640.56
270.538	636.56
270.77	550.56
271.002	485.56
271.234	476.56
271.466	484.56
271.698	523.56
271.93	587.56
272.162	595.56
272.394	532.56
272.626	505.56
272.858	458.56
273.09	422.56
273.322	406.56
273.553	383.56
273.785	411.56
274.017	401.56
274.249	445.56
274.481	451.56
274.713	420.56
274.945	433.56
275.176	417.56
275.408	403.56
275.64	393.56
275.872	415.56
276.104	453.56
276.335	482.56
276.567	526.56
276.799	521.56
277.031	496.56
277.262	494.56
277.494	492.56
277.726	536.56
277.957	511.56
278.189	466.56
278.421	451.56
278.652	428.56
278.884	441.56
279.115	421.56
279.347	455.56
279.579	448.56
279.81	446.56
280.042	499.56
280.273	530.56
280.505	531.56
280.736	540.56
280.968	498.56
281.199	424.56
281.431	435.56
281.662	408.56
281.894	422.56
282.125	432.56
282.356	457.56
282.588	467.56
282.819	469.56
283.051	489.56
283.282	506.56
283.513	498.56
283.745	457.56
283.976	439.56
284.207	437.56
284.439	444.56
284.67	455.56
284.901	472.56
285.132	470.56
285.364	463.56
285.595	457.56
285.826	438.56
286.057	454.56
286.288	444.56
286.52	490.56
286.751	517.56
286.982	499.56
287.213	432.56
287.444	423.56
287.675	435.56
287.906	481.56
288.138	501.56
288.369	471.56
288.6	445.56
288.831	438.56
289.062	441.56
289.293	466.56
289.524	435.56
289.755	447.56
289.986	455.56
290.217	423.56
290.448	454.56
290.679	454.56
290.91	467.56
291.141	486.56
291.371	473.56
291.602	486.56
291.833	503.56
292.064	484.56
292.295	481.56
292.526	494.56
292.757	521.56
292.987	505.56
293.218	480.56
293.449	538.56
293.68	581.56
293.91	591.56
294.141	558.56
294.372	541.56
294.603	563.56
294.833	565.56
295.064	558.56
295.295	483.56
295.525	475.56
295.756	457.56
295.987	450.56
296.217	448.56
296.448	445.56
296.679	457.56
296.909	460.56
297.14	451.56
297.37	493.56
297.601	496.56
297.831	507.56
298.062	515.56
298.292	491.56
298.523	483.56
298.753	451.56
298.984	491.56
299.214	470.56
299.445	492.56
299.675	493.56
299.905	503.56
300.136	490.56
300.366	471.56
300.597	466.56
300.827	477.56
301.057	482.56
301.288	493.56
301.518	511.56
301.748	526.56
301.979	546.56
302.209	557.56
302.439	589.56
302.669	609.56
302.9	553.56
303.13	502.56
303.36	503.56
303.59	522.56
303.82	513.56
304.051	504.56
304.281	537.56
304.511	541.56
304.741	587.56
304.971	636.56
305.201	662.56
305.431	562.56
305.661	487.56
305.891	441.56
306.121	448.56
306.352	476.56
306.582	528.56
306.812	540.56
307.042	584.56
307.272	559.56
307.502	599.56
307.731	630.56
307.961	640.56
308.191	594.56
308.421	523.56
308.651	510.56
308.881	515.56
309.111	489.56
309.341	511.56
309.571	499.56
309.8	492.56
310.03	496.56
310.26	492.56
310.49	487.56
310.72	534.56
310.949	527.56
311.179	521.56
311.409	503.56
311.639	517.56
311.868	511.56
312.098	529.56
312.328	502.56
312.557	513.56
312.787	516.56
313.017	523.56
313.246	542.56
313.476	534.56
313.706	522.56
313.935	563.56
314.165	552.56
314.394	552.56
314.624	606.56
314.853	617.56
315.083	631.56
315.312	624.56
315.542	591.56
315.771	560.56
316.001	547.56
316.23	589.56
316.46	571.56
316.689	557.56
316.919	537.56
317.148	490.56
317.377	547.56
317.607	602.56
317.836	660.56
318.065	649.56
318.295	628.56
318.524	587.56
318.753	573.56
318.983	553.56
319.212	549.56
319.441	550.56
319.67	569.56
319.9	597.56
320.129	601.56
320.358	610.56
320.587	615.56
320.816	625.56
321.046	605.56
321.275	605.56
321.504	589.56
321.733	602.56
321.962	611.56
322.191	558.56
322.42	559.56
322.649	543.56
322.878	563.56
323.108	568.56
323.337	588.56
323.566	598.56
323.795	577.56
324.024	596.56
324.253	556.56
324.482	575.56
324.71	553.56
324.939	547.56
325.168	555.56
325.397	565.56
325.626	584.56
325.855	596.56
326.084	570.56
326.313	578.56
326.542	569.56
326.77	609.56
326.999	573.56
327.228	535.56
327.457	530.56
327.686	533.56
327.914	554.56
328.143	581.56
328.372	561.56
328.6	583.56
328.829	561.56
329.058	550.56
329.287	557.56
329.515	578.56
329.744	598.56
329.972	622.56
330.201	643.56
330.43	592.56
330.658	595.56
330.887	591.56
331.115	619.56
331.344	604.56
331.572	617.56
331.801	588.56
332.03	610.56
332.258	609.56
332.486	592.56
332.715	617.56
332.943	609.56
333.172	610.56
333.4	613.56
333.629	622.56
333.857	663.56
334.085	754.56
334.314	814.56
334.542	818.56
334.771	753.56
334.999	684.56
335.227	644.56
335.455	633.56
335.684	655.56
335.912	644.56
336.14	653.56
336.369	625.56
336.597	613.56
336.825	615.56
337.053	635.56
337.281	682.56
337.51	700.56
337.738	700.56
337.966	642.56
338.194	605.56
338.422	599.56
338.65	600.56
338.878	585.56
339.106	581.56
339.334	562.56
339.562	559.56
339.79	579.56
340.018	612.56
340.246	641.56
340.474	645.56
340.702	617.56
340.93	636.56
341.158	626.56
341.386	612.56
341.614	597.56
341.842	589.56
342.07	621.56
342.298	610.56
342.526	588.56
342.754	586.56
342.981	597.56
343.209	597.56
343.437	593.56
343.665	596.56
343.893	615.56
344.12	650.56
344.348	636.56
344.576	597.56
344.804	605.56
345.031	609.56
345.259	606.56
345.487	573.56
345.714	550.56
345.942	534.56
346.17	593.56
346.397	600.56
346.625	565.56
346.853	545.56
347.08	562.56
347.308	570.56
347.535	556.56
347.763	565.56
347.99	575.56
348.218	550.56
348.445	554.56
348.673	577.56
348.9	597.56
349.128	591.56
349.355	600.56
349.583	579.56
349.81	567.56
350.037	525.56
350.265	521.56
350.492	549.56
350.72	579.56
350.947	557.56
351.174	570.56
351.402	557.56
351.629	533.56
351.856	514.56
352.083	530.56
352.311	531.56
352.538	560.56
352.765	598.56
352.992	571.56
353.22	560.56
353.447	557.56
353.674	566.56
353.901	553.56
354.128	559.56
354.355	607.56
354.583	603.56
354.81	604.56
355.037	580.56
355.264	590.56
355.491	570.56
355.718	563.56
355.945	561.56
356.172	541.56
356.399	559.56
356.626	577.56
356.853	589.56
357.08	645.56
357.307	683.56
357.534	640.56
357.761	589.56
357.988	556.56
358.215	546.56
358.441	541.56
358.668	536.56
358.895	571.56
359.122	618.56
359.349	672.56
359.576	623.56
359.802	553.56
360.029	532.56
360.256	545.56
360.483	584.56
360.709	586.56
360.936	598.56
361.163	650.56
361.39	686.56
361.616	713.56
361.843	701.56
362.07	641.56
362.296	583.56
362.523	553.56
362.749	571.56
362.976	597.56
363.203	612.56
363.429	557.56
363.656	558.56
363.882	589.56
364.109	656.56
364.335	675.56
364.562	642.56
364.788	594.56
365.015	578.56
365.241	537.56
365.468	581.56
365.694	617.56
365.92	624.56
366.147	582.56
366.373	559.56
366.599	556.56
366.826	545.56
367.052	567.56
367.278	578.56
367.505	570.56
367.731	609.56
367.957	603.56
368.184	635.56
368.41	667.56
368.636	686.56
368.862	668.56
369.089	650.56
369.315	615.56
369.541	628.56
369.767	625.56
369.993	594.56
370.219	592.56
370.445	611.56
370.672	636.56
370.898	685.56
371.124	665.56
371.35	643.56
371.576	673.56
371.802	640.56
372.028	626.56
372.254	609.56
372.48	592.56
372.706	607.56
372.932	611.56
373.158	616.56
373.384	622.56
373.61	661.56
373.835	664.56
374.061	645.56
374.287	613.56
374.513	629.56
374.739	643.56
374.965	631.56
375.191	649.56
375.416	649.56
375.642	657.56
375.868	701.56
376.094	703.56
376.319	675.56
376.545	654.56
376.771	673.56
376.997	699.56
377.222	702.56
377.448	682.56
377.674	685.56
377.899	707.56
378.125	708.56
378.35	682.56
378.576	634.56
378.802	622.56
379.027	643.56
379.253	659.56
379.478	625.56
379.704	642.56
379.929	638.56
380.155	641.56
380.38	659.56
380.606	672.56
380.831	655.56
381.057	727.56
381.282	721.56
381.507	685.56
381.733	710.56
381.958	745.56
382.184	690.56
382.409	682.56
382.634	701.56
382.86	682.56
383.085	695.56
383.31	702.56
383.535	796.56
383.761	800.56
383.986	749.56
384.211	729.56
384.436	759.56
384.662	753.56
384.887	755.56
385.112	728.56
385.337	723.56
385.562	747.56
385.787	748.56
386.013	746.56
386.238	760.56
386.463	768.56
386.688	832.56
386.913	863.56
387.138	816.56
387.363	795.56
387.588	744.56
387.813	757.56
388.038	779.56
388.263	794.56
388.488	745.56
388.713	714.56
388.938	719.56
389.163	713.56
389.387	745.56
389.612	758.56
389.837	738.56
390.062	754.56
390.287	753.56
390.512	752.56
390.736	724.56
390.961	725.56
391.186	701.56
391.411	732.56
391.636	759.56
391.86	761.56
392.085	727.56
392.31	752.56
392.534	730.56
392.759	774.56
392.984	732.56
393.208	793.56
393.433	801.56
393.658	829.56
393.882	821.56
394.107	782.56
394.331	780.56
394.556	770.56
394.78	773.56
395.005	809.56
395.229	851.56
395.454	859.56
395.678	890.56
395.903	831.56
396.127	837.56
396.352	819.56
396.576	832.56
396.801	840.56
397.025	840.56
397.249	849.56
397.474	851.56
397.698	844.56
397.922	857.56
398.147	889.56
398.371	928.56
398.595	907.56
398.82	882.56
399.044	882.56
399.268	931.56
399.492	985.56
399.717	977.56
399.941	1010.56
400.165	973.56
400.389	958.56
400.613	1008.56
400.837	1112.56
401.062	1215.56
401.286	1039.56
401.51	989.56
401.734	1010.56
401.958	938.56
402.182	902.56
402.406	880.56
402.63	874.56
402.854	886.56
403.078	891.56
403.302	898.56
403.526	921.56
403.75	961.56
403.974	918.56
404.198	908.56
404.422	963.56
404.645	991.56
404.869	979.56
405.093	892.56
405.317	915.56
405.541	906.56
405.765	896.56
405.988	897.56
406.212	951.56
406.436	957.56
406.66	1001.56
406.883	1031.56
407.107	1152.56
407.331	1195.56
407.555	1264.56
407.778	1111.56
408.002	965.56
408.226	941.56
408.449	962.56
408.673	961.56
408.896	962.56
409.12	960.56
409.344	950.56
409.567	932.56
409.791	951.56
410.014	962.56
410.238	1013.56
410.461	1074.56
410.685	942.56
410.908	963.56
411.132	973.56
411.355	928.56
411.578	936.56
411.802	919.56
412.025	956.56
412.249	939.56
412.472	912.56
412.695	911.56
412.919	901.56
413.142	902.56
413.365	927.56
413.589	942.56
413.812	998.56
414.035	1009.56
414.258	945.56
414.482	933.56
414.705	920.56
414.928	904.56
415.151	905.56
415.374	933.56
415.597	911.56
415.821	941.56
416.044	951.56
416.267	943.56
416.49	903.56
416.713	934.56
416.936	968.56
417.159	985.56
417.382	969.56
417.605	928.56
417.828	937.56
418.051	958.56
418.274	946.56
418.497	897.56
418.72	897.56
418.943	917.56
419.166	971.56
419.389	968.56
419.611	958.56
419.834	953.56
420.057	981.56
420.28	934.56
420.503	927.56
420.726	944.56
420.948	943.56
421.171	893.56
421.394	934.56
421.617	963.56
421.839	974.56
422.062	976.56
422.285	928.56
422.507	905.56
422.73	859.56
422.953	879.56
423.175	879.56
423.398	905.56
423.621	940.56
423.843	935.56
424.066	965.56
424.288	1007.56
424.511	1041.56
424.733	974.56
424.956	917.56
425.178	934.56
425.401	929.56
425.623	965.56
425.846	903.56
426.068	961.56
426.291	982.56
426.513	945.56
426.735	962.56
426.958	1040.56
427.18	1082.56
427.402	1031.56
427.625	1063.56
427.847	976.56
428.069	938.56
428.292	943.56
428.514	916.56
428.736	913.56
428.958	921.56
429.181	938.56
429.403	1086.56
429.625	1243.56
429.847	1068.56
430.069	964.56
430.292	1061.56
430.514	1035.56
430.736	978.56
430.958	977.56
431.18	917.56
431.402	872.56
431.624	841.56
431.846	791.56
432.068	753.56
432.29	751.56
432.512	788.56
432.734	876.56
432.956	924.56
433.178	969.56
433.4	983.56
433.622	937.56
433.844	931.56
434.066	832.56
434.287	777.56
434.509	788.56
434.731	821.56
434.953	917.56
435.175	939.56
435.397	930.56
435.618	892.56
435.84	839.56
436.062	849.56
436.284	877.56
436.505	931.56
436.727	971.56
436.949	926.56
437.17	907.56
437.392	895.56
437.614	844.56
437.835	809.56
438.057	843.56
438.278	871.56
438.5	870.56
438.721	887.56
438.943	942.56
439.165	919.56
439.386	896.56
439.608	950.56
439.829	962.56
440.05	949.56
440.272	980.56
440.493	941.56
440.715	973.56
440.936	1030.56
441.158	1046.56
441.379	1045.56
441.6	1053.56
441.822	1052.56
442.043	1015.56
442.264	966.56
442.486	946.56
442.707	960.56
442.928	980.56
443.149	971.56
443.371	990.56
443.592	1021.56
443.813	1013.56
444.034	1034.56
444.255	1002.56
444.476	1013.56
444.698	1025.56
444.919	1013.56
445.14	1180.56
445.361	1114.56
445.582	1049.56
445.803	1064.56
446.024	1049.56
446.245	1065.56
446.466	1056.56
446.687	1053.56
446.908	1057.56
447.129	1032.56
447.35	1008.56
447.571	983.56
447.792	974.56
448.013	947.56
448.234	961.56
448.455	991.56
448.675	993.56
448.896	954.56
449.117	914.56
449.338	943.56
449.559	958.56
449.779	993.56
450	1029.56
450.221	1036.56
450.442	1013.56
450.662	933.56
450.883	895.56
451.104	874.56
451.324	899.56
451.545	910.56
451.766	863.56
451.986	825.56
452.207	823.56
452.428	771.56
452.648	815.56
452.869	797.56
453.089	797.56
453.31	768.56
453.53	774.56
453.751	722.56
453.971	710.56
454.192	734.56
454.412	778.56
454.633	754.56
454.853	770.56
455.073	753.56
455.294	778.56
455.514	779.56
455.734	770.56
455.955	784.56
456.175	739.56
456.395	752.56
456.616	747.56
456.836	747.56
457.056	727.56
457.276	766.56
457.497	709.56
457.717	679.56
457.937	730.56
458.157	707.56
458.377	715.56
458.598	701.56
458.818	699.56
459.038	719.56
459.258	719.56
459.478	745.56
459.698	723.56
459.918	747.56
460.138	831.56
460.358	832.56
460.578	858.56
460.798	881.56
461.018	905.56
461.238	867.56
461.458	871.56
461.678	863.56
461.898	802.56
462.118	792.56
462.338	833.56
462.558	837.56
462.777	834.56
462.997	852.56
463.217	880.56
463.437	870.56
463.657	869.56
463.876	846.56
464.096	827.56
464.316	832.56
464.536	889.56
464.755	869.56
464.975	883.56
465.195	866.56
465.414	874.56
465.634	897.56
465.854	897.56
466.073	973.56
466.293	946.56
466.512	881.56
466.732	863.56
466.951	899.56
467.171	874.56
467.391	888.56
467.61	873.56
467.829	908.56
468.049	1007.56
468.268	1059.56
468.488	970.56
468.707	929.56
468.927	892.56
469.146	909.56
469.365	931.56
469.585	944.56
469.804	916.56
470.023	962.56
470.243	960.56
470.462	960.56
470.681	939.56
470.901	943.56
471.12	954.56
471.339	930.56
471.558	915.56
471.777	930.56
471.997	890.56
472.216	871.56
472.435	805.56
472.654	738.56
472.873	782.56
473.092	841.56
473.311	828.56
473.53	819.56
473.749	851.56
473.968	816.56
474.187	832.56
474.406	861.56
474.625	864.56
474.844	859.56
475.063	877.56
475.282	890.56
475.501	818.56
475.72	835.56
475.939	914.56
476.158	876.56
476.377	857.56
476.596	852.56
476.814	823.56
477.033	790.56
477.252	836.56
477.471	871.56
477.69	929.56
477.908	933.56
478.127	977.56
478.346	1011.56
478.564	1010.56
478.783	973.56
479.002	1041.56
479.22	978.56
479.439	1033.56
479.658	1054.56
479.876	991.56
480.095	898.56
480.313	907.56
480.532	885.56
480.751	847.56
480.969	837.56
481.188	806.56
481.406	778.56
481.624	772.56
481.843	801.56
482.061	838.56
482.28	886.56
482.498	896.56
482.717	868.56
482.935	901.56
483.153	980.56
483.372	1026.56
483.59	1025.56
483.808	971.56
484.027	948.56
484.245	1011.56
484.463	1257.56
484.681	1298.56
484.9	1045.56
485.118	973.56
485.336	934.56
485.554	900.56
485.772	905.56
485.99	879.56
486.209	923.56
486.427	908.56
486.645	958.56
486.863	1013.56
487.081	1056.56
487.299	1029.56
487.517	1006.56
487.735	1103.56
487.953	1201.56
488.171	1195.56
488.389	1101.56
488.607	1117.56
488.825	1145.56
489.043	1075.56
489.261	989.56
489.479	1025.56
489.696	1058.56
489.914	1063.56
490.132	1049.56
490.35	1095.56
490.568	1147.56
490.786	1161.56
491.003	1180.56
491.221	1239.56
491.439	1277.56
491.657	1318.56
491.874	1376.56
492.092	1442.56
492.31	1512.56
492.527	1472.56
492.745	1380.56
492.963	1313.56
493.18	1291.56
493.398	1329.56
493.615	1348.56
493.833	1290.56
494.05	1240.56
494.268	1262.56
494.485	1240.56
494.703	1219.56
494.92	1229.56
495.138	1230.56
495.355	1239.56
495.573	1256.56
495.79	1288.56
496.008	1317.56
496.225	1251.56
496.442	1239.56
496.66	1245.56
496.877	1222.56
497.094	1252.56
497.312	1205.56
497.529	1186.56
497.746	1193.56
497.963	1287.56
498.181	1312.56
498.398	1271.56
498.615	1202.56
498.832	1149.56
499.049	1165.56
499.267	1173.56
499.484	1268.56
499.701	1348.56
499.918	1362.56
500.135	1425.56
500.352	1545.56
