Data from WStandard_LampEnergy5.5LIBS07252019.E.O._I.C._HRD10591_16-09-23-921.txt Node
Date: Thu Jul 25 16:09:23 EDT 2019
User: cochatt
Spectrometer: HR+D1059
Trigger mode: 1
Integration Time (sec): 1.000000E-1
Scans to average: 1
Electric dark correction enabled: true
Nonlinearity correction enabled: false
Boxcar width: 0
XAxis mode: Wavelengths
Number of Pixels in Spectrum: 2048
>>>>>Begin Spectral Data<<<<<
223.165	-18.56
223.4	-18.56
223.635	-18.56
223.869	-16.56
224.104	-13.56
224.338	-8.56
224.573	-16.56
224.808	-1.56
225.042	-6.56
225.277	-6.56
225.511	-4.56
225.746	5.44
225.98	6.44
226.215	7.44
226.449	14.44
226.683	18.44
226.918	15.44
227.152	25.44
227.387	36.44
227.621	40.44
227.856	47.44
228.09	52.44
228.324	36.44
228.559	68.44
228.793	141.44
229.027	348.44
229.262	364.44
229.496	369.44
229.73	367.44
229.964	436.44
230.199	451.44
230.433	438.44
230.667	481.44
230.901	505.44
231.136	451.44
231.37	452.44
231.604	450.44
231.838	440.44
232.072	440.44
232.306	422.44
232.541	454.44
232.775	520.44
233.009	584.44
233.243	570.44
233.477	487.44
233.711	533.44
233.945	540.44
234.179	521.44
234.413	555.44
234.647	618.44
234.881	549.44
235.115	523.44
235.349	519.44
235.583	557.44
235.817	532.44
236.051	523.44
236.285	523.44
236.519	566.44
236.753	644.44
236.987	664.44
237.221	643.44
237.455	726.44
237.689	683.44
237.922	648.44
238.156	614.44
238.39	638.44
238.624	686.44
238.858	708.44
239.091	751.44
239.325	758.44
239.559	875.44
239.793	918.44
240.027	1000.44
240.26	982.44
240.494	729.44
240.728	690.44
240.961	705.44
241.195	698.44
241.429	796.44
241.662	774.44
241.896	715.44
242.13	728.44
242.363	822.44
242.597	843.44
242.83	816.44
243.064	854.44
243.298	898.44
243.531	864.44
243.765	885.44
243.998	862.44
244.232	754.44
244.465	743.44
244.699	748.44
244.932	848.44
245.166	961.44
245.399	948.44
245.633	857.44
245.866	843.44
246.099	890.44
246.333	902.44
246.566	910.44
246.8	1018.44
247.033	1107.44
247.266	1004.44
247.5	1005.44
247.733	1006.44
247.966	1070.44
248.2	1193.44
248.433	1141.44
248.666	1150.44
248.899	1253.44
249.133	1477.44
249.366	1645.44
249.599	1370.44
249.832	1209.44
250.066	1236.44
250.299	1223.44
250.532	1153.44
250.765	1011.44
250.998	1102.44
251.231	1138.44
251.465	1180.44
251.698	1114.44
251.931	1116.44
252.164	1145.44
252.397	1187.44
252.63	1163.44
252.863	1061.44
253.096	1072.44
253.329	1115.44
253.562	1113.44
253.795	1227.44
254.028	1204.44
254.261	1110.44
254.494	1129.44
254.727	1051.44
254.96	1082.44
255.193	1208.44
255.426	1350.44
255.659	1562.44
255.892	1610.44
256.124	1313.44
256.357	1293.44
256.59	1348.44
256.823	1359.44
257.056	1318.44
257.289	1622.44
257.521	1833.44
257.754	1637.44
257.987	1522.44
258.22	1662.44
258.452	1637.44
258.685	1355.44
258.918	1301.44
259.151	1315.44
259.383	1271.44
259.616	1102.44
259.849	1188.44
260.081	1334.44
260.314	1495.44
260.547	1639.44
260.779	1619.44
261.012	1533.44
261.244	1378.44
261.477	1281.44
261.71	1340.44
261.942	1361.44
262.175	1309.44
262.407	1371.44
262.64	1324.44
262.872	1235.44
263.105	1180.44
263.337	1205.44
263.57	1234.44
263.802	1260.44
264.035	1162.44
264.267	1087.44
264.499	1078.44
264.732	1143.44
264.964	1268.44
265.197	1301.44
265.429	1362.44
265.661	1445.44
265.894	1608.44
266.126	1715.44
266.358	1520.44
266.591	1564.44
266.823	1686.44
267.055	1556.44
267.287	1495.44
267.52	1493.44
267.752	1443.44
267.984	1509.44
268.216	1571.44
268.448	1601.44
268.681	1539.44
268.913	1441.44
269.145	1322.44
269.377	1328.44
269.609	1415.44
269.841	1636.44
270.073	1955.44
270.306	2178.44
270.538	2331.44
270.77	1932.44
271.002	1634.44
271.234	1584.44
271.466	1550.44
271.698	1741.44
271.93	2091.44
272.162	2104.44
272.394	1912.44
272.626	1816.44
272.858	1617.44
273.09	1368.44
273.322	1380.44
273.553	1310.44
273.785	1343.44
274.017	1358.44
274.249	1487.44
274.481	1491.44
274.713	1390.44
274.945	1338.44
275.176	1364.44
275.408	1319.44
275.64	1299.44
275.872	1294.44
276.104	1386.44
276.335	1571.44
276.567	1802.44
276.799	1812.44
277.031	1621.44
277.262	1558.44
277.494	1561.44
277.726	1776.44
277.957	1768.44
278.189	1632.44
278.421	1482.44
278.652	1416.44
278.884	1381.44
279.115	1399.44
279.347	1428.44
279.579	1415.44
279.81	1414.44
280.042	1549.44
280.273	1722.44
280.505	1705.44
280.736	1756.44
280.968	1653.44
281.199	1482.44
281.431	1374.44
281.662	1394.44
281.894	1409.44
282.125	1407.44
282.356	1497.44
282.588	1467.44
282.819	1486.44
283.051	1570.44
283.282	1706.44
283.513	1687.44
283.745	1472.44
283.976	1351.44
284.207	1360.44
284.439	1418.44
284.67	1406.44
284.901	1484.44
285.132	1477.44
285.364	1452.44
285.595	1515.44
285.826	1472.44
286.057	1474.44
286.288	1435.44
286.52	1472.44
286.751	1622.44
286.982	1662.44
287.213	1528.44
287.444	1377.44
287.675	1400.44
287.906	1478.44
288.138	1586.44
288.369	1528.44
288.6	1446.44
288.831	1411.44
289.062	1422.44
289.293	1452.44
289.524	1463.44
289.755	1522.44
289.986	1511.44
290.217	1380.44
290.448	1397.44
290.679	1448.44
290.91	1477.44
291.141	1474.44
291.371	1546.44
291.602	1554.44
291.833	1511.44
292.064	1606.44
292.295	1543.44
292.526	1554.44
292.757	1667.44
292.987	1594.44
293.218	1488.44
293.449	1593.44
293.68	1786.44
293.91	1974.44
294.141	1806.44
294.372	1668.44
294.603	1731.44
294.833	1876.44
295.064	1686.44
295.295	1573.44
295.525	1513.44
295.756	1422.44
295.987	1342.44
296.217	1412.44
296.448	1434.44
296.679	1409.44
296.909	1452.44
297.14	1449.44
297.37	1464.44
297.601	1528.44
297.831	1684.44
298.062	1676.44
298.292	1542.44
298.523	1482.44
298.753	1463.44
298.984	1490.44
299.214	1477.44
299.445	1476.44
299.675	1575.44
299.905	1558.44
300.136	1520.44
300.366	1478.44
300.597	1423.44
300.827	1422.44
301.057	1483.44
301.288	1571.44
301.518	1606.44
301.748	1570.44
301.979	1662.44
302.209	1686.44
302.439	1835.44
302.669	1871.44
302.9	1753.44
303.13	1572.44
303.36	1556.44
303.59	1606.44
303.82	1588.44
304.051	1561.44
304.281	1557.44
304.511	1586.44
304.741	1634.44
304.971	1817.44
305.201	2016.44
305.431	1873.44
305.661	1532.44
305.891	1403.44
306.121	1387.44
306.352	1430.44
306.582	1513.44
306.812	1600.44
307.042	1703.44
307.272	1695.44
307.502	1742.44
307.731	1917.44
307.961	2008.44
308.191	1928.44
308.421	1657.44
308.651	1575.44
308.881	1505.44
309.111	1522.44
309.341	1495.44
309.571	1466.44
309.8	1540.44
310.03	1517.44
310.26	1459.44
310.49	1481.44
310.72	1538.44
310.949	1610.44
311.179	1614.44
311.409	1613.44
311.639	1534.44
311.868	1511.44
312.098	1562.44
312.328	1562.44
312.557	1539.44
312.787	1544.44
313.017	1608.44
313.246	1570.44
313.476	1589.44
313.706	1629.44
313.935	1623.44
314.165	1633.44
314.394	1659.44
314.624	1748.44
314.853	1836.44
315.083	1859.44
315.312	1954.44
315.542	1869.44
315.771	1650.44
316.001	1643.44
316.23	1700.44
316.46	1689.44
316.689	1703.44
316.919	1581.44
317.148	1582.44
317.377	1576.44
317.607	1661.44
317.836	1869.44
318.065	1947.44
318.295	1880.44
318.524	1798.44
318.753	1720.44
318.983	1714.44
319.212	1693.44
319.441	1639.44
319.67	1625.44
319.9	1655.44
320.129	1721.44
320.358	1799.44
320.587	1831.44
320.816	1833.44
321.046	1797.44
321.275	1696.44
321.504	1747.44
321.733	1874.44
321.962	1799.44
322.191	1682.44
322.42	1677.44
322.649	1662.44
322.878	1661.44
323.108	1685.44
323.337	1711.44
323.566	1689.44
323.795	1735.44
324.024	1731.44
324.253	1702.44
324.482	1717.44
324.71	1658.44
324.939	1562.44
325.168	1573.44
325.397	1642.44
325.626	1733.44
325.855	1738.44
326.084	1659.44
326.313	1652.44
326.542	1703.44
326.77	1708.44
326.999	1799.44
327.228	1660.44
327.457	1602.44
327.686	1586.44
327.914	1578.44
328.143	1683.44
328.372	1682.44
328.6	1674.44
328.829	1621.44
329.058	1634.44
329.287	1618.44
329.515	1651.44
329.744	1704.44
329.972	1770.44
330.201	1861.44
330.43	1819.44
330.658	1776.44
330.887	1742.44
331.115	1758.44
331.344	1749.44
331.572	1774.44
331.801	1734.44
332.03	1734.44
332.258	1745.44
332.486	1798.44
332.715	1815.44
332.943	1836.44
333.172	1737.44
333.4	1776.44
333.629	1762.44
333.857	1918.44
334.085	2076.44
334.314	2330.44
334.542	2593.44
334.771	2404.44
334.999	2090.44
335.227	1978.44
335.455	1900.44
335.684	1908.44
335.912	1920.44
336.14	1999.44
336.369	1946.44
336.597	1802.44
336.825	1785.44
337.053	1830.44
337.281	1905.44
337.51	2016.44
337.738	2076.44
337.966	1998.44
338.194	1854.44
338.422	1784.44
338.65	1751.44
338.878	1709.44
339.106	1664.44
339.334	1670.44
339.562	1655.44
339.79	1722.44
340.018	1773.44
340.246	1854.44
340.474	1861.44
340.702	1803.44
340.93	1826.44
341.158	1799.44
341.386	1754.44
341.614	1737.44
341.842	1750.44
342.07	1742.44
342.298	1776.44
342.526	1744.44
342.754	1731.44
342.981	1740.44
343.209	1761.44
343.437	1736.44
343.665	1705.44
343.893	1725.44
344.12	1868.44
344.348	1900.44
344.576	1776.44
344.804	1712.44
345.031	1692.44
345.259	1752.44
345.487	1683.44
345.714	1622.44
345.942	1600.44
346.17	1606.44
346.397	1667.44
346.625	1688.44
346.853	1592.44
347.08	1530.44
347.308	1563.44
347.535	1610.44
347.763	1647.44
347.99	1605.44
348.218	1596.44
348.445	1577.44
348.673	1636.44
348.9	1648.44
349.128	1699.44
349.355	1735.44
349.583	1710.44
349.81	1612.44
350.037	1560.44
350.265	1483.44
350.492	1536.44
350.72	1562.44
350.947	1610.44
351.174	1633.44
351.402	1614.44
351.629	1562.44
351.856	1478.44
352.083	1482.44
352.311	1486.44
352.538	1558.44
352.765	1642.44
352.992	1661.44
353.22	1641.44
353.447	1522.44
353.674	1592.44
353.901	1628.44
354.128	1558.44
354.355	1556.44
354.583	1627.44
354.81	1661.44
355.037	1643.44
355.264	1627.44
355.491	1609.44
355.718	1622.44
355.945	1592.44
356.172	1554.44
356.399	1616.44
356.626	1530.44
356.853	1570.44
357.08	1690.44
357.307	1910.44
357.534	1921.44
357.761	1675.44
357.988	1561.44
358.215	1520.44
358.441	1522.44
358.668	1493.44
358.895	1512.44
359.122	1581.44
359.349	1758.44
359.576	1788.44
359.802	1620.44
360.029	1575.44
360.256	1487.44
360.483	1570.44
360.709	1611.44
360.936	1652.44
361.163	1685.44
361.39	1824.44
361.616	1991.44
361.843	1960.44
362.07	1821.44
362.296	1618.44
362.523	1580.44
362.749	1564.44
362.976	1611.44
363.203	1645.44
363.429	1611.44
363.656	1572.44
363.882	1613.44
364.109	1781.44
364.335	1938.44
364.562	1762.44
364.788	1677.44
365.015	1611.44
365.241	1561.44
365.468	1594.44
365.694	1660.44
365.92	1701.44
366.147	1672.44
366.373	1558.44
366.599	1538.44
366.826	1555.44
367.052	1536.44
367.278	1600.44
367.505	1564.44
367.731	1627.44
367.957	1611.44
368.184	1677.44
368.41	1741.44
368.636	1784.44
368.862	1769.44
369.089	1806.44
369.315	1714.44
369.541	1696.44
369.767	1653.44
369.993	1597.44
370.219	1582.44
370.445	1627.44
370.672	1685.44
370.898	1787.44
371.124	1812.44
371.35	1677.44
371.576	1722.44
371.802	1828.44
372.028	1718.44
372.254	1641.44
372.48	1626.44
372.706	1618.44
372.932	1657.44
373.158	1617.44
373.384	1635.44
373.61	1721.44
373.835	1800.44
374.061	1702.44
374.287	1708.44
374.513	1669.44
374.739	1694.44
374.965	1686.44
375.191	1698.44
375.416	1729.44
375.642	1725.44
375.868	1818.44
376.094	1846.44
376.319	1802.44
376.545	1659.44
376.771	1712.44
376.997	1771.44
377.222	1746.44
377.448	1720.44
377.674	1716.44
377.899	1751.44
378.125	1856.44
378.35	1824.44
378.576	1677.44
378.802	1616.44
379.027	1622.44
379.253	1662.44
379.478	1651.44
379.704	1656.44
379.929	1659.44
380.155	1651.44
380.38	1676.44
380.606	1703.44
380.831	1668.44
381.057	1770.44
381.282	1753.44
381.507	1735.44
381.733	1829.44
381.958	1905.44
382.184	1738.44
382.409	1709.44
382.634	1732.44
382.86	1713.44
383.085	1735.44
383.31	1790.44
383.535	1918.44
383.761	2050.44
383.986	1905.44
384.211	1894.44
384.436	1862.44
384.662	1920.44
384.887	2023.44
385.112	1932.44
385.337	1940.44
385.562	1932.44
385.787	1930.44
386.013	2017.44
386.238	1968.44
386.463	1938.44
386.688	2021.44
386.913	2213.44
387.138	2145.44
387.363	1996.44
387.588	1915.44
387.813	1932.44
388.038	1958.44
388.263	2059.44
388.488	2006.44
388.713	1835.44
388.938	1842.44
389.163	1841.44
389.387	1912.44
389.612	1897.44
389.837	1950.44
390.062	1951.44
390.287	1924.44
390.512	1926.44
390.736	1858.44
390.961	1832.44
391.186	1815.44
391.411	1810.44
391.636	1897.44
391.86	1912.44
392.085	1924.44
392.31	1875.44
392.534	1946.44
392.759	1989.44
392.984	1946.44
393.208	1950.44
393.433	1979.44
393.658	1991.44
393.882	2078.44
394.107	1954.44
394.331	1930.44
394.556	1882.44
394.78	1960.44
395.005	1994.44
395.229	2044.44
395.454	2180.44
395.678	2220.44
395.903	2121.44
396.127	2013.44
396.352	2058.44
396.576	2123.44
396.801	2122.44
397.025	2073.44
397.249	2061.44
397.474	2033.44
397.698	2085.44
397.922	2074.44
398.147	2180.44
398.371	2260.44
398.595	2294.44
398.82	2189.44
399.044	2255.44
399.268	2338.44
399.492	2505.44
399.717	2632.44
399.941	2616.44
400.165	2504.44
400.389	2468.44
400.613	2429.44
400.837	2644.44
401.062	3056.44
401.286	2631.44
401.51	2389.44
401.734	2474.44
401.958	2403.44
402.182	2246.44
402.406	2180.44
402.63	2151.44
402.854	2197.44
403.078	2209.44
403.302	2201.44
403.526	2317.44
403.75	2283.44
403.974	2297.44
404.198	2242.44
404.422	2332.44
404.645	2432.44
404.869	2459.44
405.093	2268.44
405.317	2198.44
405.541	2280.44
405.765	2309.44
405.988	2290.44
406.212	2333.44
406.436	2364.44
406.66	2432.44
406.883	2505.44
407.107	2752.44
407.331	2984.44
407.555	3173.44
407.778	3021.44
408.002	2477.44
408.226	2441.44
408.449	2373.44
408.673	2344.44
408.896	2316.44
409.12	2363.44
409.344	2340.44
409.567	2270.44
409.791	2291.44
410.014	2324.44
410.238	2411.44
410.461	2560.44
410.685	2347.44
410.908	2190.44
411.132	2288.44
411.355	2278.44
411.578	2174.44
411.802	2202.44
412.025	2260.44
412.249	2240.44
412.472	2164.44
412.695	2143.44
412.919	2185.44
413.142	2136.44
413.365	2144.44
413.589	2246.44
413.812	2298.44
414.035	2408.44
414.258	2201.44
414.482	2185.44
414.705	2228.44
414.928	2173.44
415.151	2171.44
415.374	2199.44
415.597	2207.44
415.821	2246.44
416.044	2295.44
416.267	2317.44
416.49	2066.44
416.713	2066.44
416.936	2136.44
417.159	2213.44
417.382	2280.44
417.605	2142.44
417.828	2181.44
418.051	2244.44
418.274	2194.44
418.497	2106.44
418.72	2064.44
418.943	2106.44
419.166	2241.44
419.389	2344.44
419.611	2181.44
419.834	2159.44
420.057	2191.44
420.28	2091.44
420.503	2085.44
420.726	2170.44
420.948	2120.44
421.171	2090.44
421.394	2108.44
421.617	2197.44
421.839	2156.44
422.062	2107.44
422.285	2062.44
422.507	2076.44
422.73	2065.44
422.953	2025.44
423.175	2011.44
423.398	2088.44
423.621	2046.44
423.843	2122.44
424.066	2154.44
424.288	2225.44
424.511	2221.44
424.733	2216.44
424.956	2014.44
425.178	1998.44
425.401	2019.44
425.623	2048.44
425.846	2030.44
426.068	2153.44
426.291	2188.44
426.513	2140.44
426.735	2132.44
426.958	2272.44
427.18	2408.44
427.402	2172.44
427.625	2219.44
427.847	2276.44
428.069	2177.44
428.292	2054.44
428.514	1980.44
428.736	1998.44
428.958	2044.44
429.181	2027.44
429.403	2277.44
429.625	2854.44
429.847	2516.44
430.069	2088.44
430.292	2290.44
430.514	2389.44
430.736	2164.44
430.958	2305.44
431.18	2165.44
431.402	2035.44
431.624	1997.44
431.846	2015.44
432.068	1988.44
432.29	2021.44
432.512	2040.44
432.734	2042.44
432.956	2134.44
433.178	2194.44
433.4	2167.44
433.622	2178.44
433.844	2106.44
434.066	2006.44
434.287	1997.44
434.509	2080.44
434.731	2140.44
434.953	2299.44
435.175	2277.44
435.397	2153.44
435.618	2141.44
435.84	2158.44
436.062	2101.44
436.284	2125.44
436.505	2147.44
436.727	2144.44
436.949	2096.44
437.17	2053.44
437.392	2040.44
437.614	2022.44
437.835	2008.44
438.057	2105.44
438.278	2210.44
438.5	2050.44
438.721	2036.44
438.943	2041.44
439.165	1989.44
439.386	1965.44
439.608	1960.44
439.829	2004.44
440.05	2012.44
440.272	2020.44
440.493	1982.44
440.715	2026.44
440.936	2096.44
441.158	2397.44
441.379	2328.44
441.6	2214.44
441.822	2155.44
442.043	2190.44
442.264	2093.44
442.486	1972.44
442.707	1977.44
442.928	1982.44
443.149	2097.44
443.371	2205.44
443.592	2234.44
443.813	2201.44
444.034	2218.44
444.255	2192.44
444.476	2248.44
444.698	2324.44
444.919	2290.44
445.14	2384.44
445.361	2392.44
445.582	2380.44
445.803	2332.44
446.024	2189.44
446.245	2308.44
446.466	2216.44
446.687	2136.44
446.908	2101.44
447.129	2026.44
447.35	2076.44
447.571	2047.44
447.792	2028.44
448.013	1956.44
448.234	2004.44
448.455	2069.44
448.675	2130.44
448.896	1910.44
449.117	1896.44
449.338	1998.44
449.559	2081.44
449.779	2156.44
450	2413.44
450.221	2571.44
450.442	2466.44
450.662	2162.44
450.883	1936.44
451.104	1864.44
451.324	1955.44
451.545	2010.44
451.766	1960.44
451.986	1883.44
452.207	1889.44
452.428	1848.44
452.648	1821.44
452.869	1863.44
453.089	1989.44
453.31	1984.44
453.53	2017.44
453.751	1982.44
453.971	1812.44
454.192	1860.44
454.412	2024.44
454.633	1969.44
454.853	1876.44
455.073	1732.44
455.294	1708.44
455.514	1813.44
455.734	1748.44
455.955	1850.44
456.175	1774.44
456.395	1812.44
456.616	1840.44
456.836	1937.44
457.056	1867.44
457.276	1854.44
457.497	1797.44
457.717	1753.44
457.937	1750.44
458.157	1828.44
458.377	1832.44
458.598	1815.44
458.818	1838.44
459.038	1926.44
459.258	2034.44
459.478	2059.44
459.698	1959.44
459.918	1998.44
460.138	2147.44
460.358	2152.44
460.578	2147.44
460.798	2252.44
461.018	2387.44
461.238	2294.44
461.458	2164.44
461.678	2137.44
461.898	2132.44
462.118	2064.44
462.338	2189.44
462.558	2156.44
462.777	2153.44
462.997	2234.44
463.217	2413.44
463.437	2416.44
463.657	2176.44
463.876	2173.44
464.096	2149.44
464.316	2157.44
464.536	2201.44
464.755	2263.44
464.975	2279.44
465.195	2191.44
465.414	2276.44
465.634	2300.44
465.854	2197.44
466.073	2241.44
466.293	2221.44
466.512	2014.44
466.732	1955.44
466.951	2078.44
467.171	2034.44
467.391	1953.44
467.61	1900.44
467.829	1970.44
468.049	2120.44
468.268	2332.44
468.488	2190.44
468.707	2076.44
468.927	2016.44
469.146	1989.44
469.365	1922.44
469.585	1960.44
469.804	1959.44
470.023	1987.44
470.243	2010.44
470.462	1992.44
470.681	1944.44
470.901	1949.44
471.12	1987.44
471.339	1961.44
471.558	1882.44
471.777	1932.44
471.997	1994.44
472.216	1959.44
472.435	1876.44
472.654	1900.44
472.873	2007.44
473.092	2156.44
473.311	2054.44
473.53	1864.44
473.749	1871.44
473.968	1972.44
474.187	2072.44
474.406	2151.44
474.625	1987.44
474.844	2004.44
475.063	1970.44
475.282	2056.44
475.501	1991.44
475.72	1972.44
475.939	2124.44
476.158	2030.44
476.377	1996.44
476.596	2036.44
476.814	2088.44
477.033	2073.44
477.252	2168.44
477.471	2213.44
477.69	2117.44
477.908	2072.44
478.127	2198.44
478.346	2411.44
478.564	2373.44
478.783	2355.44
479.002	2425.44
479.22	2361.44
479.439	2445.44
479.658	2745.44
479.876	2766.44
480.095	2396.44
480.313	2278.44
480.532	2210.44
480.751	2213.44
480.969	2281.44
481.188	2276.44
481.406	2244.44
481.624	2162.44
481.843	2208.44
482.061	2288.44
482.28	2285.44
482.498	2350.44
482.717	2305.44
482.935	2212.44
483.153	2239.44
483.372	2200.44
483.59	2209.44
483.808	2244.44
484.027	2276.44
484.245	2328.44
484.463	2761.44
484.681	3176.44
484.9	2460.44
485.118	2314.44
485.336	2261.44
485.554	2314.44
485.772	2431.44
485.99	2401.44
486.209	2403.44
486.427	2369.44
486.645	2401.44
486.863	2363.44
487.081	2407.44
487.299	2499.44
487.517	2455.44
