Data from WStandard_LampEnergy5.5LIBS07252019.E.O._I.C._HRD10591_16-09-07-920.txt Node
Date: Thu Jul 25 16:09:07 EDT 2019
User: cochatt
Spectrometer: HR+D1059
Trigger mode: 1
Integration Time (sec): 1.000000E-1
Scans to average: 1
Electric dark correction enabled: true
Nonlinearity correction enabled: false
Boxcar width: 0
XAxis mode: Wavelengths
Number of Pixels in Spectrum: 2048
>>>>>Begin Spectral Data<<<<<
223.165	8
223.4	8
223.635	8
223.869	-34
224.104	-22
224.338	-19
224.573	-15
224.808	-17
225.042	5
225.277	3
225.511	4
225.746	9
225.98	-3
226.215	4
226.449	16
226.683	21
226.918	18
227.152	22
227.387	24
227.621	41
227.856	39
228.09	48
228.324	47
228.559	49
228.793	128
229.027	349
229.262	370
229.496	372
229.73	379
229.964	437
230.199	458
230.433	468
230.667	489
230.901	508
231.136	479
231.37	463
231.604	464
231.838	427
232.072	476
232.306	445
232.541	464
232.775	542
233.009	591
233.243	569
233.477	517
233.711	514
233.945	552
234.179	533
234.413	559
234.647	605
234.881	575
235.115	525
235.349	541
235.583	565
235.817	542
236.051	529
236.285	533
236.519	578
236.753	667
236.987	663
237.221	647
237.455	746
237.689	709
237.922	656
238.156	662
238.39	639
238.624	677
238.858	729
239.091	746
239.325	764
239.559	900
239.793	947
240.027	1042
240.26	996
240.494	731
240.728	695
240.961	729
241.195	714
241.429	792
241.662	810
241.896	718
242.13	704
242.363	821
242.597	865
242.83	849
243.064	855
243.298	932
243.531	903
243.765	926
243.998	896
244.232	804
244.465	770
244.699	743
244.932	863
245.166	1001
245.399	954
245.633	879
245.866	855
246.099	893
246.333	925
246.566	945
246.8	1015
247.033	1135
247.266	1079
247.5	1046
247.733	1027
247.966	1100
248.2	1187
248.433	1156
248.666	1169
248.899	1290
249.133	1466
249.366	1695
249.599	1400
249.832	1214
250.066	1243
250.299	1229
250.532	1183
250.765	1057
250.998	1120
251.231	1157
251.465	1202
251.698	1142
251.931	1163
252.164	1173
252.397	1185
252.63	1231
252.863	1081
253.096	1067
253.329	1120
253.562	1160
253.795	1233
254.028	1220
254.261	1114
254.494	1125
254.727	1063
254.96	1085
255.193	1229
255.426	1352
255.659	1583
255.892	1597
256.124	1333
256.357	1284
256.59	1400
256.823	1413
257.056	1387
257.289	1683
257.521	1858
257.754	1678
257.987	1551
258.22	1730
258.452	1691
258.685	1364
258.918	1317
259.151	1344
259.383	1302
259.616	1165
259.849	1226
260.081	1363
260.314	1523
260.547	1621
260.779	1656
261.012	1543
261.244	1381
261.477	1313
261.71	1397
261.942	1365
262.175	1340
262.407	1423
262.64	1319
262.872	1240
263.105	1215
263.337	1231
263.57	1246
263.802	1276
264.035	1194
264.267	1128
264.499	1080
264.732	1171
264.964	1301
265.197	1308
265.429	1328
265.661	1513
265.894	1671
266.126	1752
266.358	1542
266.591	1591
266.823	1739
267.055	1574
267.287	1571
267.52	1507
267.752	1511
267.984	1507
268.216	1547
268.448	1630
268.681	1608
268.913	1466
269.145	1356
269.377	1325
269.609	1444
269.841	1693
270.073	1979
270.306	2188
270.538	2364
270.77	1986
271.002	1687
271.234	1593
271.466	1552
271.698	1788
271.93	2144
272.162	2136
272.394	1899
272.626	1826
272.858	1662
273.09	1426
273.322	1388
273.553	1337
273.785	1374
274.017	1409
274.249	1543
274.481	1534
274.713	1418
274.945	1360
275.176	1349
275.408	1343
275.64	1364
275.872	1308
276.104	1416
276.335	1614
276.567	1791
276.799	1851
277.031	1640
277.262	1539
277.494	1587
277.726	1775
277.957	1783
278.189	1632
278.421	1495
278.652	1409
278.884	1439
279.115	1419
279.347	1458
279.579	1458
279.81	1421
280.042	1585
280.273	1681
280.505	1701
280.736	1739
280.968	1682
281.199	1470
281.431	1380
281.662	1372
281.894	1407
282.125	1455
282.356	1526
282.588	1476
282.819	1476
283.051	1613
283.282	1773
283.513	1731
283.745	1505
283.976	1379
284.207	1393
284.439	1417
284.67	1447
284.901	1498
285.132	1545
285.364	1481
285.595	1512
285.826	1481
286.057	1490
286.288	1484
286.52	1503
286.751	1617
286.982	1683
287.213	1577
287.444	1431
287.675	1404
287.906	1504
288.138	1615
288.369	1588
288.6	1495
288.831	1443
289.062	1415
289.293	1475
289.524	1469
289.755	1553
289.986	1531
290.217	1419
290.448	1421
290.679	1487
290.91	1487
291.141	1526
291.371	1614
291.602	1551
291.833	1556
292.064	1610
292.295	1566
292.526	1623
292.757	1687
292.987	1623
293.218	1565
293.449	1621
293.68	1840
293.91	2001
294.141	1851
294.372	1768
294.603	1776
294.833	1903
295.064	1797
295.295	1640
295.525	1558
295.756	1447
295.987	1350
296.217	1404
296.448	1487
296.679	1486
296.909	1455
297.14	1443
297.37	1496
297.601	1534
297.831	1678
298.062	1703
298.292	1568
298.523	1455
298.753	1481
298.984	1539
299.214	1483
299.445	1553
299.675	1586
299.905	1567
300.136	1542
300.366	1492
300.597	1439
300.827	1447
301.057	1505
301.288	1604
301.518	1563
301.748	1623
301.979	1678
302.209	1700
302.439	1795
302.669	1945
302.9	1797
303.13	1595
303.36	1577
303.59	1626
303.82	1595
304.051	1580
304.281	1631
304.511	1601
304.741	1673
304.971	1871
305.201	2026
305.431	1888
305.661	1569
305.891	1440
306.121	1377
306.352	1443
306.582	1543
306.812	1664
307.042	1798
307.272	1736
307.502	1821
307.731	1905
307.961	2105
308.191	1942
308.421	1679
308.651	1591
308.881	1539
309.111	1527
309.341	1543
309.571	1523
309.8	1529
310.03	1522
310.26	1503
310.49	1537
310.72	1549
310.949	1622
311.179	1663
311.409	1629
311.639	1556
311.868	1533
312.098	1554
312.328	1585
312.557	1508
312.787	1568
313.017	1634
313.246	1588
313.476	1624
313.706	1644
313.935	1632
314.165	1656
314.394	1687
314.624	1780
314.853	1874
315.083	1920
315.312	1997
315.542	1870
315.771	1659
316.001	1659
316.23	1730
316.46	1753
316.689	1779
316.919	1668
317.148	1619
317.377	1604
317.607	1714
317.836	1963
318.065	1999
318.295	1912
318.524	1817
318.753	1737
318.983	1689
319.212	1712
319.441	1662
319.67	1663
319.9	1664
320.129	1770
320.358	1865
320.587	1939
320.816	1877
321.046	1858
321.275	1755
321.504	1715
321.733	1896
321.962	1887
322.191	1683
322.42	1700
322.649	1684
322.878	1650
323.108	1691
323.337	1739
323.566	1764
323.795	1772
324.024	1736
324.253	1699
324.482	1735
324.71	1636
324.939	1617
325.168	1626
325.397	1668
325.626	1714
325.855	1760
326.084	1659
326.313	1692
326.542	1686
326.77	1761
326.999	1762
327.228	1703
327.457	1618
327.686	1578
327.914	1619
328.143	1679
328.372	1682
328.6	1700
328.829	1688
329.058	1660
329.287	1641
329.515	1696
329.744	1702
329.972	1799
330.201	1845
330.43	1826
330.658	1795
330.887	1828
331.115	1808
331.344	1849
331.572	1769
331.801	1729
332.03	1730
332.258	1754
332.486	1799
332.715	1836
332.943	1850
333.172	1773
333.4	1856
333.629	1830
333.857	1944
334.085	2109
334.314	2400
334.542	2641
334.771	2416
334.999	2116
335.227	2038
335.455	1913
335.684	1872
335.912	1934
336.14	2003
336.369	1952
336.597	1849
336.825	1798
337.053	1870
337.281	1987
337.51	2011
337.738	2125
337.966	2033
338.194	1836
338.422	1754
338.65	1778
338.878	1750
339.106	1734
339.334	1705
339.562	1670
339.79	1728
340.018	1796
340.246	1836
340.474	1904
340.702	1805
340.93	1820
341.158	1808
341.386	1764
341.614	1780
341.842	1795
342.07	1753
342.298	1860
342.526	1796
342.754	1749
342.981	1724
343.209	1729
343.437	1715
343.665	1739
343.893	1810
344.12	1887
344.348	1913
344.576	1844
344.804	1748
345.031	1736
345.259	1771
345.487	1705
345.714	1661
345.942	1639
346.17	1627
346.397	1672
346.625	1679
346.853	1605
347.08	1570
347.308	1616
347.535	1624
347.763	1675
347.99	1628
348.218	1612
348.445	1605
348.673	1625
348.9	1691
349.128	1717
349.355	1793
349.583	1720
349.81	1652
350.037	1548
350.265	1548
350.492	1552
350.72	1595
350.947	1656
351.174	1725
351.402	1636
351.629	1565
351.856	1539
352.083	1504
352.311	1567
352.538	1552
352.765	1718
352.992	1715
353.22	1612
353.447	1560
353.674	1605
353.901	1603
354.128	1605
354.355	1572
354.583	1675
354.81	1690
355.037	1696
355.264	1711
355.491	1635
355.718	1655
355.945	1648
356.172	1587
356.399	1579
356.626	1563
356.853	1628
357.08	1739
357.307	1889
357.534	1934
357.761	1696
357.988	1594
358.215	1555
358.441	1570
358.668	1561
358.895	1565
359.122	1638
359.349	1839
359.576	1828
359.802	1577
360.029	1555
360.256	1536
360.483	1559
360.709	1606
360.936	1658
361.163	1731
361.39	1871
361.616	2048
361.843	1980
362.07	1907
362.296	1648
362.523	1653
362.749	1597
362.976	1645
363.203	1643
363.429	1624
363.656	1564
363.882	1627
364.109	1776
364.335	1946
364.562	1805
364.788	1693
365.015	1665
365.241	1587
365.468	1617
365.694	1661
365.92	1700
366.147	1693
366.373	1610
366.599	1575
366.826	1587
367.052	1566
367.278	1614
367.505	1645
367.731	1685
367.957	1663
368.184	1667
368.41	1763
368.636	1839
368.862	1817
369.089	1856
369.315	1782
369.541	1697
369.767	1673
369.993	1596
370.219	1617
370.445	1635
370.672	1726
370.898	1792
371.124	1827
371.35	1699
371.576	1748
371.802	1781
372.028	1728
372.254	1657
372.48	1633
372.706	1659
372.932	1617
373.158	1670
373.384	1681
373.61	1676
373.835	1807
374.061	1715
374.287	1692
374.513	1713
374.739	1724
374.965	1736
375.191	1752
375.416	1789
375.642	1778
375.868	1856
376.094	1897
376.319	1848
376.545	1724
376.771	1739
376.997	1845
377.222	1802
377.448	1719
377.674	1768
377.899	1765
378.125	1864
378.35	1865
378.576	1719
378.802	1658
379.027	1618
379.253	1649
379.478	1675
379.704	1646
379.929	1668
380.155	1686
380.38	1750
380.606	1710
380.831	1711
381.057	1766
381.282	1821
381.507	1775
381.733	1842
381.958	1979
382.184	1799
382.409	1794
382.634	1787
382.86	1807
383.085	1800
383.31	1819
383.535	1970
383.761	2051
383.986	1951
384.211	1930
384.436	1890
384.662	1964
384.887	2054
385.112	1949
385.337	1971
385.562	1953
385.787	1945
386.013	1977
386.238	2012
386.463	1967
386.688	2086
386.913	2273
387.138	2165
387.363	2029
387.588	1988
387.813	1988
388.038	1990
388.263	2070
388.488	2017
388.713	1869
388.938	1862
389.163	1874
389.387	1891
389.612	1920
389.837	1940
390.062	1967
390.287	1925
390.512	1925
390.736	1865
390.961	1848
391.186	1849
391.411	1875
391.636	1933
391.86	1942
392.085	1936
392.31	1941
392.534	1953
392.759	1960
392.984	1904
393.208	1931
393.433	1988
393.658	2098
393.882	2072
394.107	2011
394.331	1952
394.556	1929
394.78	1923
395.005	2016
395.229	2092
395.454	2231
395.678	2247
395.903	2124
396.127	2043
396.352	2035
396.576	2097
396.801	2136
397.025	2083
397.249	2109
397.474	2059
397.698	2077
397.922	2095
398.147	2237
398.371	2317
398.595	2344
398.82	2213
399.044	2236
399.268	2325
399.492	2507
399.717	2584
399.941	2631
400.165	2591
400.389	2499
400.613	2428
400.837	2660
401.062	3087
401.286	2668
401.51	2388
401.734	2519
401.958	2460
402.182	2293
402.406	2205
402.63	2181
402.854	2223
403.078	2253
403.302	2287
403.526	2309
403.75	2321
403.974	2310
404.198	2287
404.422	2379
404.645	2491
404.869	2452
405.093	2248
405.317	2215
405.541	2288
405.765	2339
405.988	2307
406.212	2390
406.436	2391
406.66	2500
406.883	2469
407.107	2774
407.331	2997
407.555	3230
407.778	3061
408.002	2519
408.226	2430
408.449	2415
408.673	2400
408.896	2365
409.12	2452
409.344	2335
409.567	2299
409.791	2321
410.014	2383
410.238	2441
410.461	2618
410.685	2364
410.908	2258
411.132	2276
411.355	2322
411.578	2193
411.802	2262
412.025	2307
412.249	2227
412.472	2235
412.695	2187
412.919	2189
413.142	2226
413.365	2200
413.589	2253
413.812	2326
414.035	2429
414.258	2211
414.482	2195
414.705	2249
414.928	2189
415.151	2199
415.374	2251
415.597	2231
415.821	2237
416.044	2324
416.267	2364
416.49	2179
416.713	2119
416.936	2181
417.159	2247
417.382	2262
417.605	2125
417.828	2199
418.051	2241
418.274	2168
418.497	2103
418.72	2154
418.943	2113
419.166	2300
419.389	2382
419.611	2228
419.834	2171
420.057	2226
420.28	2114
420.503	2118
420.726	2163
420.948	2186
421.171	2101
421.394	2107
421.617	2191
421.839	2184
422.062	2179
422.285	2103
422.507	2131
422.73	2020
422.953	2012
423.175	2017
423.398	2125
423.621	2121
423.843	2113
424.066	2193
424.288	2200
424.511	2288
424.733	2218
424.956	2036
425.178	2047
425.401	2073
425.623	2087
425.846	2038
426.068	2136
426.291	2182
426.513	2155
426.735	2158
426.958	2308
427.18	2443
427.402	2189
427.625	2271
427.847	2320
428.069	2136
428.292	2089
428.514	2048
428.736	2005
428.958	2024
429.181	2028
429.403	2280
429.625	2906
429.847	2544
430.069	2119
430.292	2315
430.514	2435
430.736	2213
430.958	2276
431.18	2232
431.402	2072
431.624	2067
431.846	2116
432.068	1956
432.29	2022
432.512	2064
432.734	2155
432.956	2193
433.178	2185
433.4	2189
433.622	2249
433.844	2098
434.066	2059
434.287	2062
434.509	2072
434.731	2180
434.953	2369
435.175	2284
435.397	2206
435.618	2188
435.84	2161
436.062	2135
436.284	2177
436.505	2176
436.727	2160
436.949	2108
437.17	2055
437.392	2068
437.614	2106
437.835	2064
438.057	2143
438.278	2305
438.5	2101
438.721	2022
438.943	2024
439.165	2000
439.386	2020
439.608	2040
439.829	2038
440.05	2045
440.272	2019
440.493	1973
440.715	2061
440.936	2211
441.158	2393
441.379	2373
441.6	2262
441.822	2207
442.043	2180
442.264	2164
442.486	2060
442.707	2033
442.928	2031
443.149	2101
443.371	2200
443.592	2330
443.813	2277
444.034	2267
444.255	2236
444.476	2259
444.698	2368
444.919	2281
445.14	2355
445.361	2335
445.582	2456
445.803	2353
446.024	2243
446.245	2329
446.466	2228
446.687	2109
446.908	2157
447.129	2075
447.35	2103
447.571	2087
447.792	2035
448.013	1995
448.234	1979
448.455	2121
448.675	2136
448.896	2003
449.117	1941
449.338	1999
449.559	2038
449.779	2189
450	2360
450.221	2639
450.442	2499
450.662	2222
450.883	1959
451.104	1919
451.324	1931
451.545	2019
451.766	1984
451.986	1904
452.207	1884
452.428	1829
452.648	1804
452.869	1921
453.089	2019
453.31	1974
453.53	2054
453.751	1971
453.971	1843
454.192	1880
454.412	2031
454.633	1972
454.853	1900
455.073	1775
455.294	1752
455.514	1786
455.734	1811
455.955	1842
456.175	1819
456.395	1860
456.616	1864
456.836	1913
457.056	1876
457.276	1901
457.497	1799
457.717	1761
457.937	1810
458.157	1829
458.377	1881
458.598	1843
458.818	1838
459.038	2001
459.258	2024
459.478	2101
459.698	1997
459.918	2028
460.138	2188
460.358	2230
460.578	2220
460.798	2285
461.018	2401
461.238	2284
461.458	2182
461.678	2229
461.898	2182
462.118	2072
462.338	2201
462.558	2220
462.777	2177
462.997	2316
463.217	2435
463.437	2380
463.657	2259
463.876	2182
464.096	2197
464.316	2195
464.536	2263
464.755	2284
464.975	2296
465.195	2225
465.414	2344
465.634	2329
465.854	2173
466.073	2320
466.293	2277
466.512	2004
466.732	1972
466.951	2061
467.171	2093
467.391	2012
467.61	1945
467.829	1989
468.049	2125
468.268	2392
468.488	2230
468.707	2095
468.927	2052
469.146	1957
469.365	1998
469.585	1984
469.804	2007
470.023	1983
470.243	2020
470.462	1990
470.681	1933
470.901	2013
471.12	2007
471.339	1950
471.558	1924
471.777	1928
471.997	1963
472.216	1986
472.435	1888
472.654	1938
472.873	2041
473.092	2134
473.311	2067
473.53	1968
473.749	1905
473.968	1983
474.187	2083
474.406	2147
474.625	2047
474.844	2004
475.063	2009
475.282	2059
475.501	1993
475.72	1995
475.939	2128
476.158	2073
476.377	1992
476.596	2055
476.814	2118
477.033	2083
477.252	2175
477.471	2255
477.69	2125
477.908	2105
478.127	2197
478.346	2376
478.564	2399
478.783	2368
479.002	2472
479.22	2427
479.439	2507
479.658	2821
479.876	2792
480.095	2434
480.313	2325
480.532	2250
480.751	2275
480.969	2340
481.188	2277
481.406	2261
481.624	2243
481.843	2238
482.061	2264
482.28	2325
482.498	2355
482.717	2273
482.935	2231
483.153	2218
483.372	2217
483.59	2192
483.808	2270
484.027	2304
484.245	2449
484.463	2751
484.681	3191
484.9	2440
485.118	2325
485.336	2253
485.554	2354
485.772	2512
485.99	2391
486.209	2447
486.427	2427
486.645	2407
486.863	2394
487.081	2449
487.299	2517
487.517	2489
487.735	2346
487.953	2325
488.171	2252
488.389	2311
488.607	2332
488.825	2574
489.043	2643
489.261	2363
489.479	2457
489.696	2481
489.914	2471
490.132	2439
490.35	2320
490.568	2466
490.786	2371
491.003	2323
491.221	2361
491.439	2464
491.657	2430
491.874	2405
492.092	2446
492.31	2415
492.527	2419
492.745	2392
492.963	2374
493.18	2401
493.398	2622
493.615	2635
493.833	2468
494.05	2412
494.268	2427
494.485	2517
494.703	2499
494.92	2413
495.138	2403
495.355	2482
495.573	2548
495.79	2731
496.008	2711
496.225	2566
496.442	2546
496.66	2605
496.877	2536
497.094	2686
497.312	2680
497.529	2689
497.746	2701
497.963	3160
498.181	3549
498.398	3267
498.615	3198
498.832	3133
499.049	3110
499.267	3140
499.484	3299
499.701	3595
499.918	3599
500.135	3843
500.352	4128
500.569	4140
500.786	4327
501.003	4123
501.22	3698
501.437	3622
501.654	3547
501.871	3493
502.088	3056
502.305	3098
502.522	3007
502.739	2802
502.956	2756
503.172	2728
503.389	2603
503.606	2589
503.823	2583
504.04	2569
504.256	2659
504.473	2601
504.69	2716
504.907	2551
505.123	2412
505.34	2559
505.557	3278
505.773	2785
505.99	2377
506.207	2236
506.423	2184
506.64	2220
506.856	2215
507.073	2491
507.289	2721
507.506	2592
507.722	2241
507.939	2116
508.155	2131
508.372	2142
508.588	2055
508.805	2031
509.021	2016
509.238	2001
509.454	1967
509.67	1987
509.887	1984
510.103	2004
510.319	1993
510.536	2113
510.752	2172
510.968	2162
511.184	2270
511.401	2304
511.617	2028
511.833	1962
512.049	1925
512.265	1970
512.481	1958
512.698	2020
512.914	2151
513.13	2010
513.346	1922
513.562	1916
513.778	1979
513.994	2078
514.21	2139
514.426	2154
514.642	2364
514.858	2271
515.074	2063
515.29	1962
515.506	2011
515.721	2098
515.937	2095
516.153	2310
516.369	2235
516.585	2145
516.801	2039
517.016	2039
517.232	2099
517.448	2124
517.664	2157
517.879	2164
518.095	2253
518.311	2199
518.527	2071
518.742	2035
518.958	1963
519.173	1973
519.389	1975
519.605	2023
519.82	2000
520.036	2057
520.251	1951
520.467	1995
520.682	2099
520.898	2197
521.113	1973
521.329	1939
521.544	2070
521.76	2016
521.975	1913
522.19	1891
522.406	1868
522.621	2239
522.836	2264
523.052	1865
523.267	1861
523.482	1894
523.698	1789
523.913	1713
524.128	1780
524.343	1909
524.559	1961
524.774	1838
524.989	1777
525.204	1793
525.419	1773
525.634	1717
525.849	1785
526.064	1771
526.28	1812
526.495	1764
526.71	1741
526.925	1771
527.14	1717
527.355	1706
527.57	1683
527.785	1757
527.999	1729
528.214	1668
528.429	1642
528.644	1666
528.859	1709
529.074	1701
529.289	1694
529.503	1729
529.718	1703
529.933	1702
530.148	1672
530.363	1620
530.577	1671
530.792	1713
531.007	1721
531.221	1703
531.436	1745
531.651	1799
531.865	1843
532.08	1795
532.295	1674
532.509	1578
532.724	1639
532.938	1715
533.153	1835
533.367	1729
533.582	1727
533.796	1657
534.011	1697
534.225	1735
534.44	1659
534.654	1617
534.868	1631
535.083	1738
535.297	1734
535.511	1705
535.726	1695
535.94	1654
536.154	1625
536.369	1647
536.583	1599
536.797	1643
537.011	1670
537.225	1602
537.44	1570
537.654	1661
537.868	1598
538.082	1514
538.296	1498
538.51	1533
538.724	1567
538.938	1509
539.153	1581
539.367	1584
539.581	1575
539.795	1677
540.009	1654
540.222	1574
540.436	1651
540.65	1733
540.864	1794
541.078	1679
541.292	1553
541.506	1556
541.72	1610
541.934	1593
