Data from WStandard_LampEnergy5.5LIBS07252019.E.O._I.C._HRD10591_16-08-47-920.txt Node
Date: Thu Jul 25 16:08:47 EDT 2019
User: cochatt
Spectrometer: HR+D1059
Trigger mode: 1
Integration Time (sec): 1.000000E-1
Scans to average: 1
Electric dark correction enabled: true
Nonlinearity correction enabled: false
Boxcar width: 0
XAxis mode: Wavelengths
Number of Pixels in Spectrum: 2048
>>>>>Begin Spectral Data<<<<<
223.165	-13.62
223.4	-13.62
223.635	-13.62
223.869	-8.62
224.104	-24.62
224.338	-3.62
224.573	-27.62
224.808	-17.62
225.042	-8.62
225.277	-4.62
225.511	2.38
225.746	12.38
225.98	10.38
226.215	14.38
226.449	5.38
226.683	6.38
226.918	30.38
227.152	27.38
227.387	42.38
227.621	48.38
227.856	61.38
228.09	60.38
228.324	55.38
228.559	38.38
228.793	132.38
229.027	341.38
229.262	357.38
229.496	372.38
229.73	386.38
229.964	416.38
230.199	466.38
230.433	436.38
230.667	510.38
230.901	526.38
231.136	474.38
231.37	437.38
231.604	440.38
231.838	466.38
232.072	490.38
232.306	416.38
232.541	438.38
232.775	536.38
233.009	622.38
233.243	582.38
233.477	543.38
233.711	540.38
233.945	558.38
234.179	522.38
234.413	571.38
234.647	616.38
234.881	597.38
235.115	557.38
235.349	546.38
235.583	560.38
235.817	546.38
236.051	523.38
236.285	546.38
236.519	589.38
236.753	634.38
236.987	644.38
237.221	644.38
237.455	733.38
237.689	718.38
237.922	650.38
238.156	629.38
238.39	635.38
238.624	690.38
238.858	720.38
239.091	754.38
239.325	802.38
239.559	902.38
239.793	916.38
240.027	1033.38
240.26	1038.38
240.494	755.38
240.728	691.38
240.961	732.38
241.195	720.38
241.429	806.38
241.662	778.38
241.896	740.38
242.13	749.38
242.363	845.38
242.597	881.38
242.83	867.38
243.064	866.38
243.298	952.38
243.531	893.38
243.765	924.38
243.998	910.38
244.232	804.38
244.465	744.38
244.699	788.38
244.932	892.38
245.166	998.38
245.399	973.38
245.633	855.38
245.866	866.38
246.099	922.38
246.333	952.38
246.566	941.38
246.8	1012.38
247.033	1129.38
247.266	1079.38
247.5	1044.38
247.733	1030.38
247.966	1100.38
248.2	1185.38
248.433	1181.38
248.666	1195.38
248.899	1273.38
249.133	1462.38
249.366	1720.38
249.599	1401.38
249.832	1192.38
250.066	1246.38
250.299	1266.38
250.532	1190.38
250.765	1058.38
250.998	1107.38
251.231	1177.38
251.465	1214.38
251.698	1129.38
251.931	1172.38
252.164	1190.38
252.397	1235.38
252.63	1198.38
252.863	1061.38
253.096	1063.38
253.329	1106.38
253.562	1158.38
253.795	1266.38
254.028	1236.38
254.261	1162.38
254.494	1140.38
254.727	1074.38
254.96	1105.38
255.193	1244.38
255.426	1372.38
255.659	1577.38
255.892	1658.38
256.124	1358.38
256.357	1260.38
256.59	1384.38
256.823	1397.38
257.056	1380.38
257.289	1682.38
257.521	1876.38
257.754	1686.38
257.987	1560.38
258.22	1738.38
258.452	1716.38
258.685	1370.38
258.918	1328.38
259.151	1369.38
259.383	1316.38
259.616	1165.38
259.849	1204.38
260.081	1338.38
260.314	1513.38
260.547	1645.38
260.779	1694.38
261.012	1556.38
261.244	1412.38
261.477	1327.38
261.71	1365.38
261.942	1381.38
262.175	1347.38
262.407	1418.38
262.64	1348.38
262.872	1276.38
263.105	1242.38
263.337	1279.38
263.57	1278.38
263.802	1293.38
264.035	1188.38
264.267	1141.38
264.499	1090.38
264.732	1239.38
264.964	1277.38
265.197	1322.38
265.429	1389.38
265.661	1535.38
265.894	1704.38
266.126	1752.38
266.358	1578.38
266.591	1610.38
266.823	1757.38
267.055	1580.38
267.287	1514.38
267.52	1522.38
267.752	1522.38
267.984	1517.38
268.216	1556.38
268.448	1637.38
268.681	1635.38
268.913	1469.38
269.145	1393.38
269.377	1366.38
269.609	1460.38
269.841	1741.38
270.073	1987.38
270.306	2226.38
270.538	2370.38
270.77	2010.38
271.002	1668.38
271.234	1614.38
271.466	1607.38
271.698	1739.38
271.93	2160.38
272.162	2185.38
272.394	1900.38
272.626	1861.38
272.858	1668.38
273.09	1413.38
273.322	1405.38
273.553	1383.38
273.785	1376.38
274.017	1440.38
274.249	1542.38
274.481	1522.38
274.713	1391.38
274.945	1372.38
275.176	1382.38
275.408	1384.38
275.64	1351.38
275.872	1295.38
276.104	1409.38
276.335	1600.38
276.567	1858.38
276.799	1871.38
277.031	1665.38
277.262	1578.38
277.494	1618.38
277.726	1813.38
277.957	1784.38
278.189	1658.38
278.421	1484.38
278.652	1447.38
278.884	1438.38
279.115	1499.38
279.347	1493.38
279.579	1424.38
279.81	1467.38
280.042	1607.38
280.273	1754.38
280.505	1743.38
280.736	1756.38
280.968	1729.38
281.199	1497.38
281.431	1419.38
281.662	1416.38
281.894	1416.38
282.125	1447.38
282.356	1496.38
282.588	1534.38
282.819	1507.38
283.051	1680.38
283.282	1793.38
283.513	1739.38
283.745	1458.38
283.976	1378.38
284.207	1414.38
284.439	1418.38
284.67	1476.38
284.901	1520.38
285.132	1560.38
285.364	1505.38
285.595	1536.38
285.826	1484.38
286.057	1466.38
286.288	1472.38
286.52	1518.38
286.751	1667.38
286.982	1725.38
287.213	1564.38
287.444	1442.38
287.675	1433.38
287.906	1522.38
288.138	1624.38
288.369	1604.38
288.6	1490.38
288.831	1432.38
289.062	1457.38
289.293	1487.38
289.524	1501.38
289.755	1550.38
289.986	1519.38
290.217	1383.38
290.448	1421.38
290.679	1510.38
290.91	1493.38
291.141	1526.38
291.371	1584.38
291.602	1593.38
291.833	1573.38
292.064	1627.38
292.295	1562.38
292.526	1641.38
292.757	1686.38
292.987	1602.38
293.218	1504.38
293.449	1628.38
293.68	1858.38
293.91	1948.38
294.141	1837.38
294.372	1721.38
294.603	1771.38
294.833	1894.38
295.064	1770.38
295.295	1602.38
295.525	1550.38
295.756	1464.38
295.987	1390.38
296.217	1422.38
296.448	1487.38
296.679	1504.38
296.909	1493.38
297.14	1446.38
297.37	1466.38
297.601	1567.38
297.831	1680.38
298.062	1717.38
298.292	1571.38
298.523	1492.38
298.753	1497.38
298.984	1535.38
299.214	1527.38
299.445	1539.38
299.675	1592.38
299.905	1597.38
300.136	1540.38
300.366	1446.38
300.597	1466.38
300.827	1449.38
301.057	1508.38
301.288	1604.38
301.518	1607.38
301.748	1632.38
301.979	1703.38
302.209	1718.38
302.439	1814.38
302.669	1946.38
302.9	1812.38
303.13	1598.38
303.36	1618.38
303.59	1638.38
303.82	1644.38
304.051	1625.38
304.281	1634.38
304.511	1625.38
304.741	1688.38
304.971	1830.38
305.201	2019.38
305.431	1892.38
305.661	1611.38
305.891	1409.38
306.121	1424.38
306.352	1477.38
306.582	1554.38
306.812	1631.38
307.042	1786.38
307.272	1790.38
307.502	1790.38
307.731	1955.38
307.961	2123.38
308.191	1997.38
308.421	1672.38
308.651	1572.38
308.881	1562.38
309.111	1590.38
309.341	1523.38
309.571	1554.38
309.8	1551.38
310.03	1547.38
310.26	1525.38
310.49	1506.38
310.72	1572.38
310.949	1643.38
311.179	1660.38
311.409	1658.38
311.639	1568.38
311.868	1551.38
312.098	1556.38
312.328	1569.38
312.557	1538.38
312.787	1574.38
313.017	1658.38
313.246	1622.38
313.476	1613.38
313.706	1703.38
313.935	1682.38
314.165	1672.38
314.394	1705.38
314.624	1824.38
314.853	1874.38
315.083	1939.38
315.312	2007.38
315.542	1885.38
315.771	1695.38
316.001	1659.38
316.23	1796.38
316.46	1781.38
316.689	1721.38
316.919	1657.38
317.148	1605.38
317.377	1602.38
317.607	1708.38
317.836	1926.38
318.065	1992.38
318.295	1931.38
318.524	1853.38
318.753	1769.38
318.983	1757.38
319.212	1744.38
319.441	1716.38
319.67	1665.38
319.9	1702.38
320.129	1746.38
320.358	1859.38
320.587	1916.38
320.816	1917.38
321.046	1862.38
321.275	1740.38
321.504	1749.38
321.733	1952.38
321.962	1870.38
322.191	1718.38
322.42	1699.38
322.649	1661.38
322.878	1682.38
323.108	1682.38
323.337	1780.38
323.566	1745.38
323.795	1708.38
324.024	1756.38
324.253	1681.38
324.482	1746.38
324.71	1670.38
324.939	1597.38
325.168	1636.38
325.397	1695.38
325.626	1800.38
325.855	1769.38
326.084	1684.38
326.313	1723.38
326.542	1724.38
326.77	1781.38
326.999	1819.38
327.228	1720.38
327.457	1594.38
327.686	1610.38
327.914	1664.38
328.143	1678.38
328.372	1690.38
328.6	1666.38
328.829	1664.38
329.058	1665.38
329.287	1696.38
329.515	1731.38
329.744	1757.38
329.972	1792.38
330.201	1908.38
330.43	1846.38
330.658	1807.38
330.887	1792.38
331.115	1792.38
331.344	1805.38
331.572	1790.38
331.801	1794.38
332.03	1751.38
332.258	1787.38
332.486	1843.38
332.715	1837.38
332.943	1842.38
333.172	1781.38
333.4	1831.38
333.629	1861.38
333.857	1968.38
334.085	2172.38
334.314	2360.38
334.542	2633.38
334.771	2465.38
334.999	2153.38
335.227	2044.38
335.455	1946.38
335.684	1886.38
335.912	1979.38
336.14	2044.38
336.369	1961.38
336.597	1893.38
336.825	1853.38
337.053	1854.38
337.281	1987.38
337.51	2048.38
337.738	2161.38
337.966	2067.38
338.194	1853.38
338.422	1812.38
338.65	1800.38
338.878	1818.38
339.106	1718.38
339.334	1664.38
339.562	1682.38
339.79	1728.38
340.018	1842.38
340.246	1875.38
340.474	1909.38
340.702	1837.38
340.93	1877.38
341.158	1787.38
341.386	1823.38
341.614	1790.38
341.842	1754.38
342.07	1742.38
342.298	1832.38
342.526	1786.38
342.754	1768.38
342.981	1729.38
343.209	1769.38
343.437	1715.38
343.665	1776.38
343.893	1816.38
344.12	1898.38
344.348	1940.38
344.576	1846.38
344.804	1785.38
345.031	1733.38
345.259	1786.38
345.487	1724.38
345.714	1650.38
345.942	1648.38
346.17	1648.38
346.397	1662.38
346.625	1708.38
346.853	1606.38
347.08	1592.38
347.308	1585.38
347.535	1639.38
347.763	1670.38
347.99	1674.38
348.218	1617.38
348.445	1600.38
348.673	1658.38
348.9	1692.38
349.128	1720.38
349.355	1820.38
349.583	1748.38
349.81	1669.38
350.037	1564.38
350.265	1526.38
350.492	1578.38
350.72	1564.38
350.947	1673.38
351.174	1696.38
351.402	1630.38
351.629	1545.38
351.856	1550.38
352.083	1543.38
352.311	1570.38
352.538	1610.38
352.765	1699.38
352.992	1706.38
353.22	1637.38
353.447	1589.38
353.674	1601.38
353.901	1639.38
354.128	1594.38
354.355	1575.38
354.583	1661.38
354.81	1691.38
355.037	1677.38
355.264	1696.38
355.491	1688.38
355.718	1673.38
355.945	1650.38
356.172	1589.38
356.399	1592.38
356.626	1579.38
356.853	1628.38
357.08	1734.38
357.307	1934.38
357.534	1941.38
357.761	1714.38
357.988	1621.38
358.215	1538.38
358.441	1551.38
358.668	1572.38
358.895	1542.38
359.122	1659.38
359.349	1803.38
359.576	1785.38
359.802	1659.38
360.029	1606.38
360.256	1569.38
360.483	1570.38
360.709	1623.38
360.936	1692.38
361.163	1772.38
361.39	1874.38
361.616	2029.38
361.843	1994.38
362.07	1917.38
362.296	1678.38
362.523	1633.38
362.749	1628.38
362.976	1645.38
363.203	1672.38
363.429	1592.38
363.656	1583.38
363.882	1600.38
364.109	1769.38
364.335	1933.38
364.562	1790.38
364.788	1694.38
365.015	1658.38
365.241	1607.38
365.468	1640.38
365.694	1682.38
365.92	1778.38
366.147	1709.38
366.373	1602.38
366.599	1626.38
366.826	1593.38
367.052	1602.38
367.278	1581.38
367.505	1590.38
367.731	1636.38
367.957	1669.38
368.184	1705.38
368.41	1807.38
368.636	1824.38
368.862	1786.38
369.089	1848.38
369.315	1824.38
369.541	1734.38
369.767	1699.38
369.993	1649.38
370.219	1648.38
370.445	1653.38
370.672	1731.38
370.898	1850.38
371.124	1813.38
371.35	1734.38
371.576	1763.38
371.802	1826.38
372.028	1752.38
372.254	1670.38
372.48	1656.38
372.706	1614.38
372.932	1645.38
373.158	1668.38
373.384	1651.38
373.61	1723.38
373.835	1804.38
374.061	1690.38
374.287	1707.38
374.513	1725.38
374.739	1764.38
374.965	1772.38
375.191	1733.38
375.416	1813.38
375.642	1765.38
375.868	1877.38
376.094	1922.38
376.319	1856.38
376.545	1718.38
376.771	1688.38
376.997	1818.38
377.222	1816.38
377.448	1742.38
377.674	1766.38
377.899	1760.38
378.125	1875.38
378.35	1845.38
378.576	1744.38
378.802	1640.38
379.027	1650.38
379.253	1664.38
379.478	1674.38
379.704	1703.38
379.929	1702.38
380.155	1685.38
380.38	1702.38
380.606	1754.38
380.831	1709.38
381.057	1838.38
381.282	1839.38
381.507	1756.38
381.733	1860.38
381.958	2008.38
382.184	1852.38
382.409	1749.38
382.634	1788.38
382.86	1747.38
383.085	1829.38
383.31	1867.38
383.535	1958.38
383.761	2089.38
383.986	2042.38
384.211	1904.38
384.436	1910.38
384.662	1956.38
384.887	2084.38
385.112	1996.38
385.337	1958.38
385.562	1942.38
385.787	1989.38
386.013	2033.38
386.238	2029.38
386.463	2007.38
386.688	2121.38
386.913	2228.38
387.138	2172.38
387.363	1985.38
387.588	2032.38
387.813	2018.38
388.038	1995.38
388.263	2093.38
388.488	2033.38
388.713	1874.38
388.938	1869.38
389.163	1904.38
389.387	1924.38
389.612	1916.38
389.837	1974.38
390.062	1973.38
390.287	1996.38
390.512	1938.38
390.736	1912.38
390.961	1908.38
391.186	1836.38
391.411	1860.38
391.636	1889.38
391.86	1975.38
392.085	1971.38
392.31	1949.38
392.534	1999.38
392.759	1999.38
392.984	1958.38
393.208	1954.38
393.433	2041.38
393.658	2061.38
393.882	2099.38
394.107	1976.38
394.331	1954.38
394.556	1934.38
394.78	2000.38
395.005	2086.38
395.229	2070.38
395.454	2274.38
395.678	2318.38
395.903	2196.38
396.127	2056.38
396.352	2052.38
396.576	2092.38
396.801	2107.38
397.025	2139.38
397.249	2135.38
397.474	2094.38
397.698	2112.38
397.922	2174.38
398.147	2249.38
398.371	2283.38
398.595	2382.38
398.82	2240.38
399.044	2303.38
399.268	2337.38
399.492	2538.38
399.717	2638.38
399.941	2682.38
400.165	2566.38
400.389	2492.38
400.613	2468.38
400.837	2708.38
401.062	3110.38
401.286	2633.38
401.51	2415.38
401.734	2548.38
401.958	2465.38
402.182	2308.38
402.406	2220.38
402.63	2176.38
402.854	2215.38
403.078	2227.38
403.302	2259.38
403.526	2328.38
403.75	2282.38
403.974	2328.38
404.198	2308.38
404.422	2372.38
404.645	2524.38
404.869	2482.38
405.093	2294.38
405.317	2264.38
405.541	2304.38
405.765	2366.38
405.988	2335.38
406.212	2367.38
406.436	2381.38
406.66	2526.38
406.883	2512.38
407.107	2790.38
407.331	3000.38
407.555	3312.38
407.778	3000.38
408.002	2510.38
408.226	2430.38
408.449	2441.38
408.673	2356.38
408.896	2366.38
409.12	2417.38
409.344	2370.38
409.567	2319.38
409.791	2386.38
410.014	2412.38
410.238	2478.38
410.461	2656.38
410.685	2403.38
410.908	2308.38
411.132	2344.38
411.355	2345.38
411.578	2277.38
411.802	2260.38
412.025	2318.38
412.249	2304.38
412.472	2224.38
412.695	2145.38
412.919	2230.38
413.142	2208.38
413.365	2182.38
413.589	2257.38
413.812	2370.38
414.035	2472.38
414.258	2264.38
414.482	2208.38
414.705	2230.38
414.928	2232.38
415.151	2171.38
415.374	2245.38
415.597	2242.38
415.821	2273.38
416.044	2326.38
416.267	2393.38
416.49	2182.38
416.713	2120.38
416.936	2179.38
417.159	2304.38
417.382	2281.38
417.605	2160.38
417.828	2282.38
418.051	2261.38
418.274	2189.38
418.497	2134.38
418.72	2142.38
418.943	2109.38
419.166	2292.38
419.389	2425.38
419.611	2255.38
419.834	2228.38
420.057	2208.38
420.28	2150.38
420.503	2141.38
420.726	2192.38
420.948	2187.38
421.171	2125.38
421.394	2187.38
421.617	2208.38
421.839	2214.38
422.062	2176.38
422.285	2113.38
422.507	2110.38
422.73	2059.38
422.953	2048.38
423.175	2057.38
423.398	2100.38
423.621	2088.38
423.843	2187.38
424.066	2216.38
424.288	2217.38
424.511	2249.38
424.733	2236.38
424.956	2008.38
425.178	2013.38
425.401	2069.38
425.623	2081.38
425.846	2051.38
426.068	2182.38
426.291	2212.38
426.513	2203.38
426.735	2167.38
426.958	2331.38
427.18	2452.38
427.402	2284.38
427.625	2274.38
427.847	2323.38
428.069	2182.38
428.292	2089.38
428.514	2004.38
428.736	2070.38
428.958	2059.38
429.181	2074.38
429.403	2284.38
429.625	2900.38
429.847	2571.38
430.069	2164.38
430.292	2343.38
430.514	2436.38
430.736	2242.38
430.958	2323.38
431.18	2246.38
431.402	2089.38
431.624	2030.38
431.846	2066.38
432.068	2008.38
432.29	2050.38
432.512	2139.38
432.734	2166.38
432.956	2130.38
433.178	2239.38
433.4	2269.38
433.622	2275.38
433.844	2137.38
434.066	2050.38
434.287	2042.38
434.509	2102.38
434.731	2231.38
434.953	2368.38
435.175	2336.38
435.397	2197.38
435.618	2196.38
435.84	2193.38
436.062	2130.38
436.284	2154.38
436.505	2242.38
436.727	2189.38
436.949	2145.38
437.17	2067.38
437.392	2054.38
437.614	2122.38
437.835	2054.38
438.057	2148.38
438.278	2292.38
438.5	2119.38
438.721	2029.38
438.943	2061.38
439.165	2093.38
439.386	2005.38
439.608	2037.38
439.829	2044.38
440.05	2062.38
440.272	2009.38
440.493	2009.38
440.715	2090.38
440.936	2203.38
441.158	2435.38
441.379	2321.38
441.6	2262.38
441.822	2254.38
442.043	2248.38
442.264	2198.38
442.486	2061.38
442.707	1996.38
442.928	2046.38
443.149	2132.38
443.371	2253.38
443.592	2334.38
443.813	2252.38
444.034	2243.38
444.255	2226.38
444.476	2314.38
444.698	2344.38
444.919	2306.38
445.14	2401.38
445.361	2392.38
445.582	2478.38
445.803	2338.38
446.024	2243.38
446.245	2329.38
446.466	2284.38
446.687	2152.38
446.908	2159.38
447.129	2066.38
447.35	2133.38
447.571	2137.38
447.792	2018.38
448.013	1961.38
448.234	2054.38
448.455	2152.38
448.675	2196.38
448.896	1998.38
449.117	1938.38
449.338	2041.38
449.559	2118.38
449.779	2214.38
450	2440.38
450.221	2602.38
450.442	2531.38
450.662	2229.38
450.883	1968.38
451.104	1904.38
451.324	1984.38
451.545	2074.38
451.766	2008.38
451.986	1892.38
452.207	1907.38
452.428	1870.38
452.648	1821.38
452.869	1898.38
453.089	2031.38
453.31	1994.38
453.53	2083.38
453.751	1992.38
453.971	1892.38
454.192	1992.38
454.412	2044.38
454.633	1999.38
454.853	1930.38
455.073	1794.38
455.294	1800.38
455.514	1802.38
455.734	1781.38
455.955	1864.38
456.175	1859.38
456.395	1868.38
456.616	1886.38
456.836	1960.38
457.056	1874.38
457.276	1915.38
457.497	1826.38
457.717	1793.38
457.937	1794.38
458.157	1876.38
458.377	1859.38
458.598	1835.38
458.818	1866.38
459.038	1984.38
459.258	2125.38
459.478	2108.38
459.698	2029.38
459.918	2081.38
460.138	2129.38
460.358	2225.38
460.578	2205.38
460.798	2326.38
461.018	2403.38
461.238	2283.38
461.458	2180.38
461.678	2216.38
461.898	2174.38
462.118	2104.38
462.338	2213.38
462.558	2202.38
462.777	2208.38
462.997	2308.38
463.217	2476.38
463.437	2450.38
463.657	2277.38
463.876	2219.38
464.096	2238.38
464.316	2162.38
464.536	2315.38
464.755	2291.38
464.975	2324.38
465.195	2242.38
465.414	2320.38
465.634	2337.38
465.854	2228.38
466.073	2287.38
466.293	2281.38
466.512	2021.38
466.732	2067.38
466.951	2098.38
467.171	2069.38
467.391	1999.38
467.61	1916.38
467.829	2026.38
468.049	2146.38
468.268	2361.38
468.488	2251.38
468.707	2129.38
468.927	2052.38
469.146	2003.38
469.365	2010.38
469.585	2009.38
469.804	2008.38
470.023	1989.38
470.243	2051.38
470.462	2027.38
470.681	1949.38
470.901	2052.38
471.12	1988.38
471.339	1994.38
471.558	1951.38
471.777	1948.38
471.997	1924.38
472.216	1966.38
472.435	1908.38
472.654	1924.38
472.873	2002.38
473.092	2144.38
473.311	2089.38
473.53	1943.38
473.749	1940.38
473.968	2017.38
474.187	2118.38
474.406	2171.38
474.625	2092.38
474.844	2034.38
475.063	2032.38
475.282	2118.38
475.501	2076.38
475.72	2004.38
475.939	2176.38
476.158	2084.38
476.377	2072.38
476.596	2073.38
476.814	2102.38
477.033	2117.38
477.252	2186.38
477.471	2248.38
477.69	2172.38
477.908	2125.38
478.127	2257.38
478.346	2461.38
478.564	2466.38
478.783	2370.38
479.002	2518.38
479.22	2432.38
479.439	2531.38
479.658	2821.38
479.876	2825.38
480.095	2428.38
480.313	2362.38
480.532	2243.38
480.751	2282.38
480.969	2301.38
481.188	2308.38
481.406	2266.38
481.624	2231.38
481.843	2215.38
482.061	2296.38
482.28	2329.38
482.498	2403.38
482.717	2352.38
482.935	2291.38
483.153	2226.38
483.372	2254.38
483.59	2230.38
483.808	2252.38
484.027	2285.38
484.245	2467.38
484.463	2771.38
484.681	3166.38
484.9	2511.38
485.118	2338.38
485.336	2290.38
485.554	2360.38
485.772	2498.38
485.99	2424.38
486.209	2474.38
486.427	2389.38
486.645	2447.38
486.863	2381.38
487.081	2432.38
487.299	2558.38
487.517	2448.38
