Data from WStandard_LampEnergy5.5LIBS07252019.E.O._I.C._HRD10591_16-08-03-920.txt Node
Date: Thu Jul 25 16:08:03 EDT 2019
User: cochatt
Spectrometer: HR+D1059
Trigger mode: 1
Integration Time (sec): 1.000000E-1
Scans to average: 1
Electric dark correction enabled: true
Nonlinearity correction enabled: false
Boxcar width: 0
XAxis mode: Wavelengths
Number of Pixels in Spectrum: 2048
>>>>>Begin Spectral Data<<<<<
223.165	-9.25
223.4	-9.25
223.635	-9.25
223.869	-15.25
224.104	-18.25
224.338	-1.25
224.573	-19.25
224.808	-23.25
225.042	-9.25
225.277	-11.25
225.511	0.75
225.746	4.75
225.98	13.75
226.215	23.75
226.449	-4.25
226.683	19.75
226.918	24.75
227.152	23.75
227.387	40.75
227.621	47.75
227.856	40.75
228.09	58.75
228.324	30.75
228.559	42.75
228.793	156.75
229.027	350.75
229.262	404.75
229.496	380.75
229.73	394.75
229.964	436.75
230.199	444.75
230.433	469.75
230.667	489.75
230.901	521.75
231.136	494.75
231.37	464.75
231.604	461.75
231.838	485.75
232.072	477.75
232.306	448.75
232.541	452.75
232.775	548.75
233.009	606.75
233.243	600.75
233.477	530.75
233.711	559.75
233.945	548.75
234.179	557.75
234.413	607.75
234.647	632.75
234.881	606.75
235.115	548.75
235.349	547.75
235.583	567.75
235.817	573.75
236.051	535.75
236.285	544.75
236.519	597.75
236.753	645.75
236.987	671.75
237.221	685.75
237.455	754.75
237.689	708.75
237.922	680.75
238.156	657.75
238.39	660.75
238.624	702.75
238.858	749.75
239.091	754.75
239.325	804.75
239.559	910.75
239.793	955.75
240.027	1045.75
240.26	1048.75
240.494	774.75
240.728	732.75
240.961	714.75
241.195	733.75
241.429	817.75
241.662	834.75
241.896	773.75
242.13	752.75
242.363	854.75
242.597	909.75
242.83	868.75
243.064	885.75
243.298	959.75
243.531	948.75
243.765	929.75
243.998	940.75
244.232	809.75
244.465	794.75
244.699	785.75
244.932	928.75
245.166	1029.75
245.399	984.75
245.633	882.75
245.866	921.75
246.099	928.75
246.333	929.75
246.566	979.75
246.8	1036.75
247.033	1183.75
247.266	1097.75
247.5	1051.75
247.733	1073.75
247.966	1135.75
248.2	1271.75
248.433	1201.75
248.666	1237.75
248.899	1312.75
249.133	1504.75
249.366	1769.75
249.599	1425.75
249.832	1218.75
250.066	1256.75
250.299	1279.75
250.532	1198.75
250.765	1101.75
250.998	1159.75
251.231	1230.75
251.465	1267.75
251.698	1212.75
251.931	1178.75
252.164	1198.75
252.397	1291.75
252.63	1242.75
252.863	1088.75
253.096	1060.75
253.329	1139.75
253.562	1185.75
253.795	1289.75
254.028	1295.75
254.261	1188.75
254.494	1200.75
254.727	1116.75
254.96	1156.75
255.193	1280.75
255.426	1394.75
255.659	1656.75
255.892	1712.75
256.124	1369.75
256.357	1321.75
256.59	1431.75
256.823	1456.75
257.056	1414.75
257.289	1703.75
257.521	1916.75
257.754	1701.75
257.987	1586.75
258.22	1825.75
258.452	1725.75
258.685	1447.75
258.918	1405.75
259.151	1394.75
259.383	1355.75
259.616	1192.75
259.849	1216.75
260.081	1382.75
260.314	1533.75
260.547	1716.75
260.779	1749.75
261.012	1617.75
261.244	1445.75
261.477	1397.75
261.71	1457.75
261.942	1425.75
262.175	1380.75
262.407	1467.75
262.64	1390.75
262.872	1286.75
263.105	1243.75
263.337	1269.75
263.57	1306.75
263.802	1327.75
264.035	1251.75
264.267	1151.75
264.499	1140.75
264.732	1246.75
264.964	1284.75
265.197	1362.75
265.429	1412.75
265.661	1604.75
265.894	1732.75
266.126	1827.75
266.358	1621.75
266.591	1634.75
266.823	1822.75
267.055	1638.75
267.287	1629.75
267.52	1546.75
267.752	1560.75
267.984	1571.75
268.216	1639.75
268.448	1646.75
268.681	1666.75
268.913	1512.75
269.145	1445.75
269.377	1405.75
269.609	1477.75
269.841	1737.75
270.073	1996.75
270.306	2311.75
270.538	2430.75
270.77	2086.75
271.002	1769.75
271.234	1666.75
271.466	1647.75
271.698	1816.75
271.93	2203.75
272.162	2232.75
272.394	1998.75
272.626	1942.75
272.858	1713.75
273.09	1484.75
273.322	1472.75
273.553	1381.75
273.785	1395.75
274.017	1452.75
274.249	1573.75
274.481	1583.75
274.713	1468.75
274.945	1424.75
275.176	1452.75
275.408	1411.75
275.64	1366.75
275.872	1349.75
276.104	1478.75
276.335	1675.75
276.567	1893.75
276.799	1904.75
277.031	1728.75
277.262	1619.75
277.494	1666.75
277.726	1907.75
277.957	1848.75
278.189	1701.75
278.421	1547.75
278.652	1504.75
278.884	1485.75
279.115	1527.75
279.347	1558.75
279.579	1482.75
279.81	1454.75
280.042	1659.75
280.273	1797.75
280.505	1787.75
280.736	1819.75
280.968	1710.75
281.199	1517.75
281.431	1447.75
281.662	1420.75
281.894	1457.75
282.125	1477.75
282.356	1538.75
282.588	1531.75
282.819	1540.75
283.051	1652.75
283.282	1812.75
283.513	1754.75
283.745	1555.75
283.976	1456.75
284.207	1433.75
284.439	1467.75
284.67	1480.75
284.901	1493.75
285.132	1555.75
285.364	1529.75
285.595	1579.75
285.826	1517.75
286.057	1462.75
286.288	1524.75
286.52	1559.75
286.751	1710.75
286.982	1742.75
287.213	1620.75
287.444	1438.75
287.675	1460.75
287.906	1523.75
288.138	1684.75
288.369	1640.75
288.6	1551.75
288.831	1493.75
289.062	1502.75
289.293	1518.75
289.524	1494.75
289.755	1598.75
289.986	1574.75
290.217	1434.75
290.448	1498.75
290.679	1569.75
290.91	1532.75
291.141	1629.75
291.371	1670.75
291.602	1647.75
291.833	1632.75
292.064	1659.75
292.295	1666.75
292.526	1679.75
292.757	1765.75
292.987	1645.75
293.218	1559.75
293.449	1692.75
293.68	1879.75
293.91	2072.75
294.141	1864.75
294.372	1812.75
294.603	1884.75
294.833	1928.75
295.064	1829.75
295.295	1660.75
295.525	1614.75
295.756	1531.75
295.987	1417.75
296.217	1460.75
296.448	1475.75
296.679	1552.75
296.909	1518.75
297.14	1502.75
297.37	1556.75
297.601	1649.75
297.831	1739.75
298.062	1753.75
298.292	1626.75
298.523	1502.75
298.753	1573.75
298.984	1594.75
299.214	1577.75
299.445	1568.75
299.675	1608.75
299.905	1634.75
300.136	1590.75
300.366	1565.75
300.597	1520.75
300.827	1508.75
301.057	1536.75
301.288	1630.75
301.518	1655.75
301.748	1657.75
301.979	1719.75
302.209	1763.75
302.439	1900.75
302.669	1954.75
302.9	1831.75
303.13	1638.75
303.36	1681.75
303.59	1686.75
303.82	1661.75
304.051	1654.75
304.281	1687.75
304.511	1681.75
304.741	1772.75
304.971	1910.75
305.201	2076.75
305.431	1966.75
305.661	1627.75
305.891	1445.75
306.121	1439.75
306.352	1520.75
306.582	1557.75
306.812	1714.75
307.042	1820.75
307.272	1839.75
307.502	1873.75
307.731	2010.75
307.961	2153.75
308.191	2004.75
308.421	1698.75
308.651	1602.75
308.881	1581.75
309.111	1587.75
309.341	1600.75
309.571	1606.75
309.8	1594.75
310.03	1561.75
310.26	1592.75
310.49	1531.75
310.72	1590.75
310.949	1652.75
311.179	1705.75
311.409	1651.75
311.639	1660.75
311.868	1606.75
312.098	1634.75
312.328	1631.75
312.557	1574.75
312.787	1632.75
313.017	1690.75
313.246	1680.75
313.476	1672.75
313.706	1690.75
313.935	1697.75
314.165	1700.75
314.394	1737.75
314.624	1824.75
314.853	1920.75
315.083	2005.75
315.312	2084.75
315.542	1917.75
315.771	1732.75
316.001	1707.75
316.23	1836.75
316.46	1794.75
316.689	1793.75
316.919	1671.75
317.148	1628.75
317.377	1639.75
317.607	1766.75
317.836	2020.75
318.065	2038.75
318.295	1977.75
318.524	1915.75
318.753	1788.75
318.983	1803.75
319.212	1764.75
319.441	1712.75
319.67	1734.75
319.9	1724.75
320.129	1833.75
320.358	1889.75
320.587	1939.75
320.816	1923.75
321.046	1944.75
321.275	1779.75
321.504	1814.75
321.733	1953.75
321.962	1921.75
322.191	1782.75
322.42	1782.75
322.649	1724.75
322.878	1729.75
323.108	1739.75
323.337	1843.75
323.566	1811.75
323.795	1821.75
324.024	1803.75
324.253	1796.75
324.482	1821.75
324.71	1751.75
324.939	1614.75
325.168	1704.75
325.397	1714.75
325.626	1806.75
325.855	1782.75
326.084	1746.75
326.313	1740.75
326.542	1770.75
326.77	1853.75
326.999	1785.75
327.228	1762.75
327.457	1678.75
327.686	1636.75
327.914	1674.75
328.143	1748.75
328.372	1764.75
328.6	1736.75
328.829	1720.75
329.058	1729.75
329.287	1702.75
329.515	1777.75
329.744	1792.75
329.972	1876.75
330.201	1986.75
330.43	1936.75
330.658	1824.75
330.887	1853.75
331.115	1865.75
331.344	1884.75
331.572	1845.75
331.801	1812.75
332.03	1832.75
332.258	1833.75
332.486	1878.75
332.715	1908.75
332.943	1887.75
333.172	1836.75
333.4	1895.75
333.629	1893.75
333.857	2002.75
334.085	2209.75
334.314	2482.75
334.542	2751.75
334.771	2545.75
334.999	2206.75
335.227	2098.75
335.455	2000.75
335.684	1951.75
335.912	1993.75
336.14	2102.75
336.369	2015.75
336.597	1909.75
336.825	1880.75
337.053	1928.75
337.281	2019.75
337.51	2138.75
337.738	2217.75
337.966	2144.75
338.194	1956.75
338.422	1886.75
338.65	1856.75
338.878	1807.75
339.106	1777.75
339.334	1776.75
339.562	1712.75
339.79	1776.75
340.018	1874.75
340.246	1934.75
340.474	1982.75
340.702	1902.75
340.93	1912.75
341.158	1881.75
341.386	1852.75
341.614	1867.75
341.842	1849.75
342.07	1850.75
342.298	1860.75
342.526	1803.75
342.754	1811.75
342.981	1810.75
343.209	1853.75
343.437	1779.75
343.665	1833.75
343.893	1906.75
344.12	1925.75
344.348	1940.75
344.576	1878.75
344.804	1823.75
345.031	1836.75
345.259	1826.75
345.487	1769.75
345.714	1735.75
345.942	1655.75
346.17	1693.75
346.397	1712.75
346.625	1758.75
346.853	1658.75
347.08	1627.75
347.308	1657.75
347.535	1716.75
347.763	1756.75
347.99	1708.75
348.218	1650.75
348.445	1656.75
348.673	1672.75
348.9	1730.75
349.128	1799.75
349.355	1842.75
349.583	1802.75
349.81	1725.75
350.037	1600.75
350.265	1583.75
350.492	1607.75
350.72	1644.75
350.947	1680.75
351.174	1681.75
351.402	1657.75
351.629	1626.75
351.856	1538.75
352.083	1560.75
352.311	1591.75
352.538	1642.75
352.765	1696.75
352.992	1766.75
353.22	1685.75
353.447	1628.75
353.674	1649.75
353.901	1665.75
354.128	1610.75
354.355	1617.75
354.583	1719.75
354.81	1738.75
355.037	1758.75
355.264	1723.75
355.491	1672.75
355.718	1721.75
355.945	1688.75
356.172	1652.75
356.399	1636.75
356.626	1648.75
356.853	1694.75
357.08	1811.75
357.307	1993.75
357.534	2013.75
357.761	1762.75
357.988	1642.75
358.215	1582.75
358.441	1626.75
358.668	1633.75
358.895	1662.75
359.122	1715.75
359.349	1886.75
359.576	1840.75
359.802	1704.75
360.029	1632.75
360.256	1628.75
360.483	1602.75
360.709	1646.75
360.936	1722.75
361.163	1774.75
361.39	1920.75
361.616	2109.75
361.843	2034.75
362.07	1914.75
362.296	1728.75
362.523	1686.75
362.749	1680.75
362.976	1694.75
363.203	1757.75
363.429	1675.75
363.656	1616.75
363.882	1663.75
364.109	1838.75
364.335	1970.75
364.562	1894.75
364.788	1752.75
365.015	1697.75
365.241	1630.75
365.468	1686.75
365.694	1780.75
365.92	1770.75
366.147	1758.75
366.373	1646.75
366.599	1628.75
366.826	1622.75
367.052	1655.75
367.278	1674.75
367.505	1669.75
367.731	1693.75
367.957	1712.75
368.184	1739.75
368.41	1848.75
368.636	1889.75
368.862	1888.75
369.089	1925.75
369.315	1846.75
369.541	1790.75
369.767	1693.75
369.993	1661.75
370.219	1646.75
370.445	1710.75
370.672	1793.75
370.898	1891.75
371.124	1836.75
371.35	1779.75
371.576	1804.75
371.802	1873.75
372.028	1807.75
372.254	1735.75
372.48	1688.75
372.706	1700.75
372.932	1680.75
373.158	1722.75
373.384	1765.75
373.61	1765.75
373.835	1884.75
374.061	1798.75
374.287	1767.75
374.513	1743.75
374.739	1782.75
374.965	1769.75
375.191	1807.75
375.416	1838.75
375.642	1793.75
375.868	1890.75
376.094	1951.75
376.319	1923.75
376.545	1764.75
376.771	1780.75
376.997	1901.75
377.222	1907.75
377.448	1796.75
377.674	1832.75
377.899	1815.75
378.125	1929.75
378.35	1972.75
378.576	1768.75
378.802	1730.75
379.027	1700.75
379.253	1732.75
379.478	1776.75
379.704	1762.75
379.929	1746.75
380.155	1736.75
380.38	1753.75
380.606	1792.75
380.831	1736.75
381.057	1860.75
381.282	1891.75
381.507	1827.75
381.733	1912.75
381.958	2049.75
382.184	1894.75
382.409	1776.75
382.634	1838.75
382.86	1834.75
383.085	1812.75
383.31	1880.75
383.535	2011.75
383.761	2138.75
383.986	2092.75
384.211	1985.75
384.436	1956.75
384.662	2030.75
384.887	2104.75
385.112	2026.75
385.337	2042.75
385.562	2035.75
385.787	1981.75
386.013	2118.75
386.238	2051.75
386.463	1988.75
386.688	2194.75
386.913	2288.75
387.138	2286.75
387.363	2115.75
387.588	2087.75
387.813	2076.75
388.038	2090.75
388.263	2162.75
388.488	2104.75
388.713	1941.75
388.938	1924.75
389.163	1952.75
389.387	2031.75
389.612	1981.75
389.837	2067.75
390.062	2046.75
390.287	2013.75
390.512	1996.75
390.736	1987.75
390.961	1916.75
391.186	1917.75
391.411	1951.75
391.636	1948.75
391.86	1993.75
392.085	1976.75
392.31	1940.75
392.534	1956.75
392.759	2056.75
392.984	2021.75
393.208	2021.75
393.433	2045.75
393.658	2134.75
393.882	2159.75
394.107	2032.75
394.331	1979.75
394.556	1940.75
394.78	2020.75
395.005	2089.75
395.229	2141.75
395.454	2289.75
395.678	2278.75
395.903	2200.75
396.127	2117.75
396.352	2110.75
396.576	2189.75
396.801	2247.75
397.025	2225.75
397.249	2144.75
397.474	2179.75
397.698	2130.75
397.922	2174.75
398.147	2320.75
398.371	2381.75
398.595	2373.75
398.82	2258.75
399.044	2333.75
399.268	2442.75
399.492	2590.75
399.717	2725.75
399.941	2759.75
400.165	2654.75
400.389	2606.75
400.613	2498.75
400.837	2791.75
401.062	3236.75
401.286	2768.75
401.51	2481.75
401.734	2629.75
401.958	2565.75
402.182	2392.75
402.406	2246.75
402.63	2293.75
402.854	2273.75
403.078	2324.75
403.302	2395.75
403.526	2404.75
403.75	2413.75
403.974	2392.75
404.198	2408.75
404.422	2474.75
404.645	2578.75
404.869	2522.75
405.093	2391.75
405.317	2316.75
405.541	2384.75
405.765	2379.75
405.988	2369.75
406.212	2441.75
406.436	2487.75
406.66	2540.75
406.883	2548.75
407.107	2883.75
407.331	3144.75
407.555	3379.75
407.778	3075.75
408.002	2598.75
408.226	2525.75
408.449	2538.75
408.673	2429.75
408.896	2448.75
409.12	2522.75
409.344	2441.75
409.567	2332.75
409.791	2392.75
410.014	2465.75
410.238	2544.75
410.461	2682.75
410.685	2444.75
410.908	2340.75
411.132	2400.75
411.355	2364.75
411.578	2313.75
411.802	2323.75
412.025	2390.75
412.249	2353.75
412.472	2283.75
412.695	2252.75
412.919	2252.75
413.142	2252.75
413.365	2261.75
413.589	2289.75
413.812	2457.75
414.035	2492.75
414.258	2373.75
414.482	2278.75
414.705	2303.75
414.928	2278.75
415.151	2242.75
415.374	2287.75
415.597	2328.75
415.821	2324.75
416.044	2421.75
416.267	2427.75
416.49	2224.75
416.713	2172.75
416.936	2245.75
417.159	2357.75
417.382	2374.75
417.605	2179.75
417.828	2254.75
418.051	2301.75
418.274	2288.75
418.497	2217.75
418.72	2217.75
418.943	2210.75
419.166	2344.75
419.389	2467.75
419.611	2313.75
419.834	2263.75
420.057	2320.75
420.28	2206.75
420.503	2233.75
420.726	2240.75
420.948	2235.75
421.171	2171.75
421.394	2213.75
421.617	2297.75
421.839	2222.75
422.062	2240.75
422.285	2170.75
422.507	2189.75
422.73	2148.75
422.953	2104.75
423.175	2096.75
423.398	2184.75
423.621	2174.75
423.843	2209.75
424.066	2232.75
424.288	2320.75
424.511	2353.75
424.733	2292.75
424.956	2102.75
425.178	2074.75
425.401	2145.75
425.623	2176.75
425.846	2102.75
426.068	2259.75
426.291	2306.75
426.513	2276.75
426.735	2262.75
426.958	2362.75
427.18	2533.75
427.402	2291.75
427.625	2378.75
427.847	2375.75
428.069	2207.75
428.292	2177.75
428.514	2061.75
428.736	2077.75
428.958	2151.75
429.181	2150.75
429.403	2386.75
429.625	3029.75
429.847	2590.75
430.069	2195.75
430.292	2411.75
430.514	2501.75
430.736	2291.75
430.958	2410.75
431.18	2286.75
431.402	2122.75
431.624	2108.75
431.846	2123.75
432.068	2071.75
432.29	2110.75
432.512	2142.75
432.734	2142.75
432.956	2239.75
433.178	2293.75
433.4	2300.75
433.622	2236.75
433.844	2198.75
434.066	2110.75
434.287	2112.75
434.509	2212.75
434.731	2254.75
434.953	2436.75
435.175	2377.75
435.397	2234.75
435.618	2241.75
435.84	2237.75
436.062	2165.75
436.284	2223.75
436.505	2218.75
436.727	2311.75
436.949	2208.75
437.17	2142.75
437.392	2124.75
437.614	2127.75
437.835	2105.75
438.057	2245.75
438.278	2271.75
438.5	2170.75
438.721	2082.75
438.943	2161.75
439.165	2084.75
439.386	2025.75
439.608	2072.75
439.829	2060.75
440.05	2097.75
440.272	2054.75
440.493	2078.75
440.715	2104.75
440.936	2264.75
441.158	2496.75
441.379	2445.75
441.6	2309.75
441.822	2299.75
442.043	2276.75
442.264	2202.75
442.486	2086.75
442.707	2107.75
442.928	2100.75
443.149	2166.75
443.371	2310.75
443.592	2401.75
443.813	2334.75
444.034	2353.75
444.255	2312.75
444.476	2350.75
444.698	2411.75
444.919	2397.75
445.14	2505.75
445.361	2420.75
445.582	2516.75
445.803	2432.75
446.024	2283.75
446.245	2375.75
446.466	2298.75
446.687	2188.75
446.908	2195.75
447.129	2188.75
447.35	2228.75
447.571	2169.75
447.792	2074.75
448.013	2044.75
448.234	2099.75
448.455	2186.75
448.675	2207.75
448.896	2045.75
449.117	2006.75
449.338	2087.75
449.559	2110.75
449.779	2286.75
450	2506.75
450.221	2687.75
450.442	2570.75
450.662	2294.75
450.883	2022.75
451.104	1951.75
451.324	2040.75
451.545	2076.75
451.766	2049.75
451.986	1948.75
452.207	2011.75
452.428	1887.75
452.648	1885.75
452.869	1954.75
453.089	2080.75
453.31	2064.75
453.53	2115.75
453.751	2046.75
453.971	1925.75
454.192	1964.75
454.412	2084.75
454.633	2040.75
454.853	1937.75
455.073	1869.75
455.294	1843.75
455.514	1841.75
455.734	1869.75
455.955	1866.75
456.175	1916.75
456.395	1906.75
456.616	1943.75
456.836	2011.75
457.056	1924.75
457.276	1934.75
457.497	1893.75
457.717	1806.75
457.937	1866.75
458.157	1917.75
458.377	1889.75
458.598	1902.75
458.818	1947.75
459.038	2044.75
459.258	2130.75
459.478	2136.75
459.698	2050.75
459.918	2142.75
460.138	2236.75
460.358	2288.75
460.578	2290.75
460.798	2363.75
461.018	2505.75
461.238	2344.75
461.458	2249.75
461.678	2316.75
461.898	2247.75
462.118	2143.75
462.338	2317.75
462.558	2269.75
462.777	2288.75
462.997	2398.75
463.217	2522.75
463.437	2511.75
463.657	2345.75
463.876	2311.75
464.096	2276.75
464.316	2271.75
464.536	2380.75
464.755	2365.75
464.975	2415.75
465.195	2284.75
465.414	2435.75
465.634	2391.75
465.854	2240.75
466.073	2403.75
466.293	2348.75
466.512	2072.75
466.732	2054.75
466.951	2154.75
467.171	2136.75
467.391	2056.75
467.61	2014.75
467.829	2051.75
468.049	2203.75
468.268	2476.75
468.488	2352.75
468.707	2200.75
468.927	2096.75
469.146	2104.75
469.365	2037.75
469.585	2058.75
469.804	2067.75
470.023	2030.75
470.243	2100.75
470.462	2073.75
470.681	2058.75
470.901	2039.75
471.12	2074.75
471.339	2065.75
471.558	2009.75
471.777	1980.75
471.997	2032.75
472.216	2076.75
472.435	1968.75
472.654	1998.75
472.873	2078.75
473.092	2226.75
473.311	2088.75
473.53	1961.75
473.749	1964.75
473.968	2019.75
474.187	2130.75
474.406	2242.75
474.625	2166.75
474.844	2085.75
475.063	2070.75
475.282	2162.75
475.501	2123.75
475.72	2137.75
475.939	2248.75
476.158	2162.75
476.377	2077.75
476.596	2136.75
476.814	2206.75
477.033	2178.75
477.252	2284.75
477.471	2360.75
477.69	2197.75
477.908	2166.75
478.127	2286.75
478.346	2487.75
478.564	2490.75
478.783	2420.75
479.002	2504.75
479.22	2469.75
479.439	2553.75
479.658	2930.75
479.876	2917.75
480.095	2536.75
480.313	2392.75
480.532	2304.75
480.751	2368.75
480.969	2429.75
481.188	2365.75
481.406	2307.75
481.624	2277.75
481.843	2295.75
482.061	2376.75
482.28	2416.75
482.498	2432.75
482.717	2399.75
482.935	2310.75
483.153	2324.75
483.372	2314.75
483.59	2273.75
483.808	2327.75
484.027	2407.75
484.245	2492.75
484.463	2872.75
484.681	3328.75
484.9	2599.75
485.118	2393.75
485.336	2356.75
485.554	2432.75
485.772	2545.75
485.99	2516.75
486.209	2515.75
486.427	2516.75
486.645	2488.75
486.863	2372.75
487.081	2516.75
487.299	2581.75
487.517	2518.75
