Data from WStandard_LampEnergy8_LIBS07252019.E.O._I.C._HRD10591_16-00-32-930.txt Node
Date: Thu Jul 25 16:00:32 EDT 2019
User: cochatt
Spectrometer: HR+D1059
Trigger mode: 1
Integration Time (sec): 1.000000E-1
Scans to average: 1
Electric dark correction enabled: true
Nonlinearity correction enabled: false
Boxcar width: 0
XAxis mode: Wavelengths
Number of Pixels in Spectrum: 2048
>>>>>Begin Spectral Data<<<<<
223.165	-21
223.4	-21
223.635	-21
223.869	-13
224.104	-23
224.338	-9
224.573	-4
224.808	-15
225.042	4
225.277	-14
225.511	9
225.746	-1
225.98	-2
226.215	2
226.449	24
226.683	18
226.918	24
227.152	21
227.387	40
227.621	45
227.856	34
228.09	33
228.324	55
228.559	56
228.793	106
229.027	218
229.262	205
229.496	213
229.73	223
229.964	243
230.199	255
230.433	278
230.667	275
230.901	274
231.136	267
231.37	248
231.604	264
231.838	265
232.072	257
232.306	253
232.541	248
232.775	309
233.009	313
233.243	291
233.477	287
233.711	293
233.945	297
234.179	307
234.413	313
234.647	321
234.881	323
235.115	257
235.349	287
235.583	298
235.817	310
236.051	283
236.285	288
236.519	294
236.753	339
236.987	342
237.221	353
237.455	377
237.689	347
237.922	333
238.156	327
238.39	335
238.624	362
238.858	368
239.091	391
239.325	417
239.559	453
239.793	465
240.027	514
240.26	481
240.494	385
240.728	376
240.961	365
241.195	374
241.429	407
241.662	397
241.896	409
242.13	375
242.363	408
242.597	439
242.83	430
243.064	427
243.298	474
243.531	472
243.765	458
243.998	451
244.232	393
244.465	389
244.699	398
244.932	446
245.166	509
245.399	471
245.633	465
245.866	450
246.099	467
246.333	477
246.566	478
246.8	491
247.033	554
247.266	555
247.5	537
247.733	516
247.966	533
248.2	566
248.433	561
248.666	607
248.899	654
249.133	718
249.366	782
249.599	647
249.832	581
250.066	625
250.299	579
250.532	574
250.765	522
250.998	581
251.231	579
251.465	587
251.698	557
251.931	539
252.164	581
252.397	597
252.63	595
252.863	550
253.096	536
253.329	566
253.562	574
253.795	619
254.028	599
254.261	577
254.494	547
254.727	554
254.96	558
255.193	641
255.426	675
255.659	764
255.892	767
256.124	667
256.357	620
256.59	670
256.823	661
257.056	708
257.289	830
257.521	858
257.754	791
257.987	758
258.22	808
258.452	778
258.685	653
258.918	669
259.151	639
259.383	626
259.616	557
259.849	611
260.081	680
260.314	725
260.547	777
260.779	795
261.012	748
261.244	675
261.477	663
261.71	664
261.942	667
262.175	636
262.407	683
262.64	641
262.872	612
263.105	616
263.337	627
263.57	631
263.802	613
264.035	583
264.267	550
264.499	557
264.732	603
264.964	631
265.197	669
265.429	696
265.661	746
265.894	829
266.126	838
266.358	776
266.591	805
266.823	827
267.055	794
267.287	730
267.52	727
267.752	736
267.984	740
268.216	762
268.448	781
268.681	769
268.913	718
269.145	668
269.377	682
269.609	738
269.841	855
270.073	988
270.306	1054
270.538	1079
270.77	935
271.002	811
271.234	797
271.466	808
271.698	903
271.93	1048
272.162	1023
272.394	933
272.626	869
272.858	769
273.09	697
273.322	659
273.553	651
273.785	683
274.017	689
274.249	733
274.481	711
274.713	701
274.945	693
275.176	685
275.408	659
275.64	668
275.872	652
276.104	713
276.335	823
276.567	921
276.799	892
277.031	815
277.262	761
277.494	823
277.726	881
277.957	869
278.189	802
278.421	757
278.652	730
278.884	732
279.115	736
279.347	747
279.579	671
279.81	729
280.042	777
280.273	879
280.505	848
280.736	877
280.968	804
281.199	733
281.431	709
281.662	668
281.894	701
282.125	708
282.356	763
282.588	746
282.819	770
283.051	811
283.282	875
283.513	833
283.745	748
283.976	684
284.207	723
284.439	731
284.67	742
284.901	758
285.132	774
285.364	749
285.595	757
285.826	713
286.057	753
286.288	725
286.52	797
286.751	822
286.982	794
287.213	769
287.444	721
287.675	742
287.906	760
288.138	828
288.369	796
288.6	749
288.831	747
289.062	728
289.293	741
289.524	758
289.755	778
289.986	767
290.217	727
290.448	727
290.679	745
290.91	760
291.141	803
291.371	793
291.602	794
291.833	785
292.064	837
292.295	818
292.526	850
292.757	840
292.987	818
293.218	799
293.449	862
293.68	942
293.91	942
294.141	926
294.372	895
294.603	949
294.833	949
295.064	892
295.295	805
295.525	787
295.756	754
295.987	717
296.217	746
296.448	734
296.679	789
296.909	773
297.14	771
297.37	781
297.601	836
297.831	863
298.062	895
298.292	791
298.523	773
298.753	773
298.984	778
299.214	783
299.445	797
299.675	829
299.905	819
300.136	794
300.366	787
300.597	772
300.827	755
301.057	781
301.288	823
301.518	832
301.748	867
301.979	881
302.209	909
302.439	1003
302.669	980
302.9	898
303.13	815
303.36	855
303.59	869
303.82	833
304.051	831
304.281	878
304.511	864
304.741	924
304.971	996
305.201	1068
305.431	918
305.661	779
305.891	742
306.121	751
306.352	788
306.582	832
306.812	892
307.042	936
307.272	933
307.502	959
307.731	1040
307.961	1059
308.191	988
308.421	854
308.651	833
308.881	834
309.111	823
309.341	823
309.571	818
309.8	825
310.03	818
310.26	803
310.49	795
310.72	843
310.949	865
311.179	870
311.409	865
311.639	837
311.868	798
312.098	845
312.328	837
312.557	819
312.787	843
313.017	878
313.246	829
313.476	854
313.706	847
313.935	883
314.165	897
314.394	929
314.624	954
314.853	1017
315.083	1031
315.312	1054
315.542	974
315.771	886
316.001	893
316.23	940
316.46	936
316.689	908
316.919	898
317.148	852
317.377	859
317.607	917
317.836	1035
318.065	1039
318.295	1021
318.524	981
318.753	922
318.983	941
319.212	938
319.441	890
319.67	913
319.9	935
320.129	1003
320.358	1023
320.587	999
320.816	1028
321.046	969
321.275	956
321.504	965
321.733	1061
321.962	983
322.191	932
322.42	930
322.649	910
322.878	911
323.108	925
323.337	941
323.566	935
323.795	962
324.024	945
324.253	932
324.482	915
324.71	893
324.939	858
325.168	874
325.397	923
325.626	917
325.855	921
326.084	920
326.313	912
326.542	927
326.77	931
326.999	958
327.228	918
327.457	868
327.686	887
327.914	888
328.143	918
328.372	929
328.6	933
328.829	919
329.058	901
329.287	908
329.515	939
329.744	962
329.972	989
330.201	1018
330.43	987
330.658	959
330.887	973
331.115	965
331.344	971
331.572	979
331.801	963
332.03	975
332.258	987
332.486	967
332.715	983
332.943	983
333.172	958
333.4	1001
333.629	983
333.857	1083
334.085	1178
334.314	1321
334.542	1390
334.771	1281
334.999	1155
335.227	1086
335.455	1041
335.684	1031
335.912	1094
336.14	1077
336.369	1049
336.597	989
336.825	1013
337.053	1013
337.281	1074
337.51	1161
337.738	1177
337.966	1058
338.194	1013
338.422	961
338.65	934
338.878	941
339.106	957
339.334	947
339.562	921
339.79	945
340.018	1012
340.246	1031
340.474	1027
340.702	990
340.93	1015
341.158	1025
341.386	984
341.614	967
341.842	981
342.07	970
342.298	993
342.526	972
342.754	961
342.981	947
343.209	975
343.437	946
343.665	966
343.893	1018
344.12	1032
344.348	1035
344.576	979
344.804	954
345.031	970
345.259	994
345.487	949
345.714	911
345.942	876
346.17	920
346.397	957
346.625	954
346.853	878
347.08	838
347.308	845
347.535	929
347.763	940
347.99	928
348.218	899
348.445	911
348.673	917
348.9	946
349.128	978
349.355	982
349.583	987
349.81	876
350.037	864
350.265	869
350.492	875
350.72	897
350.947	915
351.174	911
351.402	897
351.629	869
351.856	853
352.083	855
352.311	861
352.538	881
352.765	936
352.992	954
353.22	940
353.447	893
353.674	884
353.901	903
354.128	904
354.355	889
354.583	937
354.81	953
355.037	928
355.264	950
355.491	921
355.718	947
355.945	911
356.172	893
356.399	886
356.626	898
356.853	960
357.08	1017
357.307	1109
357.534	1041
357.761	911
357.988	891
358.215	871
358.441	889
358.668	846
358.895	901
359.122	965
359.349	1044
359.576	967
359.802	877
360.029	887
360.256	890
360.483	911
360.709	907
360.936	945
361.163	974
361.39	1091
361.616	1166
361.843	1105
362.07	1021
362.296	952
362.523	898
362.749	902
362.976	935
363.203	905
363.429	884
363.656	905
363.882	926
364.109	1039
364.335	1082
364.562	1009
364.788	951
365.015	928
365.241	899
365.468	933
365.694	969
365.92	966
366.147	941
366.373	905
366.599	890
366.826	881
367.052	905
367.278	915
367.505	925
367.731	924
367.957	950
368.184	994
368.41	1036
368.636	1007
368.862	1063
369.089	1061
369.315	1012
369.541	942
369.767	941
369.993	923
370.219	905
370.445	957
370.672	1039
370.898	1064
371.124	1015
371.35	974
371.576	999
371.802	1037
372.028	989
372.254	937
372.48	919
372.706	945
372.932	933
373.158	973
373.384	975
373.61	981
373.835	1015
374.061	965
374.287	967
374.513	975
374.739	1005
374.965	1005
375.191	989
375.416	1012
375.642	1033
375.868	1096
376.094	1097
376.319	1034
376.545	1012
376.771	1012
376.997	1062
377.222	1047
377.448	1017
377.674	1029
377.899	1059
378.125	1116
378.35	1068
378.576	969
378.802	936
379.027	957
379.253	953
379.478	985
379.704	958
379.929	977
380.155	964
380.38	986
380.606	979
380.831	1014
381.057	1056
381.282	1058
381.507	1010
381.733	1111
381.958	1143
382.184	1067
382.409	1033
382.634	1023
382.86	1040
383.085	1034
383.31	1094
383.535	1141
383.761	1206
383.986	1157
384.211	1124
384.436	1070
384.662	1178
384.887	1190
385.112	1151
385.337	1141
385.562	1094
385.787	1086
386.013	1159
386.238	1125
386.463	1169
386.688	1264
386.913	1295
387.138	1268
387.363	1122
387.588	1153
387.813	1113
388.038	1202
388.263	1215
388.488	1161
388.713	1098
388.938	1095
389.163	1107
389.387	1126
389.612	1134
389.837	1121
390.062	1126
390.287	1123
390.512	1099
390.736	1090
390.961	1076
391.186	1054
391.411	1084
391.636	1098
391.86	1144
392.085	1109
392.31	1112
392.534	1135
392.759	1133
392.984	1106
393.208	1137
393.433	1172
393.658	1211
393.882	1253
394.107	1157
394.331	1113
394.556	1110
394.78	1138
395.005	1152
395.229	1221
395.454	1284
395.678	1273
395.903	1238
396.127	1212
396.352	1199
396.576	1221
396.801	1240
397.025	1223
397.249	1205
397.474	1218
397.698	1214
397.922	1238
398.147	1321
398.371	1307
398.595	1330
398.82	1299
399.044	1330
399.268	1356
399.492	1453
399.717	1490
399.941	1459
400.165	1460
400.389	1429
400.613	1454
400.837	1630
401.062	1820
401.286	1531
401.51	1427
401.734	1418
401.958	1377
402.182	1359
402.406	1266
402.63	1268
402.854	1261
403.078	1318
403.302	1307
403.526	1355
403.75	1309
403.974	1353
404.198	1320
404.422	1390
404.645	1459
404.869	1420
405.093	1281
405.317	1305
405.541	1318
405.765	1338
405.988	1332
406.212	1352
406.436	1390
406.66	1444
406.883	1468
407.107	1651
407.331	1776
407.555	1920
407.778	1707
408.002	1420
408.226	1404
408.449	1403
408.673	1358
408.896	1384
409.12	1384
409.344	1366
409.567	1308
409.791	1353
410.014	1419
410.238	1438
410.461	1535
410.685	1404
410.908	1334
411.132	1395
411.355	1311
411.578	1333
411.802	1341
412.025	1370
412.249	1329
412.472	1320
412.695	1316
412.919	1295
413.142	1290
413.365	1315
413.589	1351
413.812	1429
414.035	1433
414.258	1317
414.482	1309
414.705	1315
414.928	1287
415.151	1280
415.374	1300
415.597	1319
415.821	1347
416.044	1330
416.267	1323
416.49	1268
416.713	1256
416.936	1321
417.159	1358
417.382	1347
417.605	1289
417.828	1311
418.051	1311
418.274	1327
418.497	1274
418.72	1263
418.943	1241
419.166	1316
419.389	1342
419.611	1313
419.834	1271
420.057	1308
420.28	1273
420.503	1289
420.726	1312
420.948	1290
421.171	1259
421.394	1303
421.617	1318
421.839	1342
422.062	1314
422.285	1248
422.507	1270
422.73	1225
422.953	1184
423.175	1228
423.398	1244
423.621	1267
423.843	1269
424.066	1346
424.288	1388
424.511	1396
424.733	1349
424.956	1236
425.178	1217
425.401	1245
425.623	1267
425.846	1256
426.068	1317
426.291	1311
426.513	1288
426.735	1331
426.958	1425
427.18	1465
427.402	1349
427.625	1367
427.847	1356
428.069	1290
428.292	1252
428.514	1213
428.736	1226
428.958	1274
429.181	1245
429.403	1488
429.625	1731
429.847	1444
430.069	1295
430.292	1438
430.514	1446
430.736	1355
430.958	1387
431.18	1278
431.402	1206
431.624	1194
431.846	1160
432.068	1120
432.29	1158
432.512	1209
432.734	1241
432.956	1292
433.178	1309
433.4	1323
433.622	1327
433.844	1232
434.066	1201
434.287	1180
434.509	1221
434.731	1274
434.953	1325
435.175	1336
435.397	1270
435.618	1259
435.84	1219
436.062	1207
436.284	1257
436.505	1287
436.727	1321
436.949	1253
437.17	1239
437.392	1235
437.614	1202
437.835	1176
438.057	1187
438.278	1246
438.5	1212
438.721	1192
438.943	1231
439.165	1237
439.386	1193
439.608	1219
439.829	1220
440.05	1249
440.272	1230
440.493	1230
440.715	1244
440.936	1331
441.158	1435
441.379	1391
441.6	1341
441.822	1324
442.043	1326
442.264	1318
442.486	1250
442.707	1269
442.928	1261
443.149	1292
443.371	1361
443.592	1381
443.813	1354
444.034	1359
444.255	1371
444.476	1377
444.698	1379
444.919	1409
445.14	1487
445.361	1459
445.582	1438
445.803	1406
446.024	1353
446.245	1401
446.466	1345
446.687	1345
446.908	1317
447.129	1286
447.35	1274
447.571	1288
447.792	1245
448.013	1239
448.234	1253
448.455	1269
448.675	1327
448.896	1205
449.117	1203
449.338	1220
449.559	1317
449.779	1305
450	1403
450.221	1495
450.442	1394
450.662	1294
450.883	1173
451.104	1176
451.324	1192
451.545	1221
451.766	1161
451.986	1130
452.207	1122
452.428	1090
452.648	1093
452.869	1086
453.089	1113
453.31	1144
453.53	1131
453.751	1100
453.971	1038
454.192	1086
454.412	1130
454.633	1116
454.853	1092
455.073	1055
455.294	1047
455.514	1059
455.734	1068
455.955	1073
456.175	1070
456.395	1071
456.616	1060
456.836	1089
457.056	1074
457.276	1077
457.497	1035
457.717	1006
457.937	1034
458.157	1079
458.377	1018
458.598	996
458.818	1036
459.038	1098
459.258	1145
459.478	1134
459.698	1104
459.918	1141
460.138	1243
460.358	1255
460.578	1234
460.798	1265
461.018	1317
461.238	1292
461.458	1257
461.678	1246
461.898	1179
462.118	1204
462.338	1265
462.558	1244
462.777	1265
462.997	1306
463.217	1337
463.437	1326
463.657	1261
463.876	1222
464.096	1239
464.316	1258
464.536	1298
464.755	1282
464.975	1318
465.195	1257
465.414	1303
465.634	1280
465.854	1262
466.073	1377
466.293	1313
466.512	1184
466.732	1231
466.951	1239
467.171	1223
467.391	1214
467.61	1161
467.829	1194
468.049	1295
468.268	1416
468.488	1313
468.707	1237
468.927	1225
469.146	1196
469.365	1212
469.585	1231
469.804	1199
470.023	1236
470.243	1226
470.462	1224
470.681	1193
470.901	1190
471.12	1220
471.339	1217
471.558	1218
471.777	1159
471.997	1188
472.216	1145
472.435	1100
472.654	1119
472.873	1144
473.092	1219
473.311	1153
473.53	1138
473.749	1138
473.968	1172
474.187	1224
474.406	1230
474.625	1180
474.844	1184
475.063	1218
475.282	1212
475.501	1196
475.72	1174
475.939	1281
476.158	1233
476.377	1156
476.596	1168
476.814	1234
477.033	1219
477.252	1264
477.471	1298
477.69	1255
477.908	1268
478.127	1354
478.346	1417
478.564	1399
478.783	1350
479.002	1432
479.22	1413
479.439	1461
479.658	1570
479.876	1525
480.095	1368
480.313	1326
480.532	1281
480.751	1283
480.969	1279
481.188	1250
481.406	1269
481.624	1227
481.843	1286
482.061	1275
482.28	1312
482.498	1359
482.717	1304
482.935	1272
483.153	1322
483.372	1407
483.59	1345
483.808	1345
484.027	1351
484.245	1435
484.463	1699
484.681	1865
484.9	1462
485.118	1337
485.336	1326
485.554	1359
485.772	1353
485.99	1367
486.209	1399
486.427	1367
486.645	1385
486.863	1403
487.081	1471
487.299	1452
487.517	1458
487.735	1432
487.953	1492
488.171	1483
488.389	1415
488.607	1468
488.825	1582
489.043	1543
489.261	1410
489.479	1464
489.696	1484
489.914	1486
490.132	1449
490.35	1471
490.568	1483
490.786	1487
491.003	1470
491.221	1538
491.439	1592
491.657	1604
491.874	1603
492.092	1645
492.31	1693
492.527	1643
492.745	1617
492.963	1597
493.18	1610
493.398	1653
493.615	1715
493.833	1577
494.05	1555
494.268	1524
494.485	1530
494.703	1557
494.92	1547
495.138	1547
495.355	1549
495.573	1586
495.79	1685
496.008	1664
496.225	1578
496.442	1557
496.66	1556
496.877	1614
497.094	1620
497.312	1630
497.529	1579
497.746	1637
497.963	1818
498.181	1935
498.398	1841
498.615	1838
498.832	1746
499.049	1753
499.267	1759
499.484	1898
499.701	2013
499.918	2037
500.135	2183
500.352	2350
500.569	2315
500.786	2530
501.003	2266
501.22	2092
501.437	2059
501.654	2066
501.871	2000
502.088	1733
502.305	1720
502.522	1681
502.739	1601
502.956	1559
503.172	1571
503.389	1496
503.606	1504
503.823	1467
504.04	1492
504.256	1478
504.473	1484
504.69	1536
504.907	1428
505.123	1395
505.34	1540
505.557	1924
505.773	1606
505.99	1378
506.207	1322
506.423	1313
506.64	1287
506.856	1320
507.073	1501
507.289	1573
507.506	1450
507.722	1304
507.939	1251
508.155	1233
508.372	1266
508.588	1211
508.805	1171
509.021	1155
509.238	1139
509.454	1102
509.67	1127
509.887	1108
510.103	1102
510.319	1141
510.536	1164
510.752	1191
510.968	1170
511.184	1274
511.401	1222
511.617	1129
511.833	1094
512.049	1069
512.265	1094
512.481	1090
512.698	1118
512.914	1162
513.13	1140
513.346	1097
513.562	1083
513.778	1118
513.994	1154
514.21	1169
514.426	1194
514.642	1285
514.858	1219
515.074	1155
515.29	1150
515.506	1130
515.721	1115
515.937	1163
516.153	1290
516.369	1221
516.585	1147
516.801	1144
517.016	1142
517.232	1194
517.448	1215
517.664	1206
517.879	1210
518.095	1252
518.311	1199
518.527	1176
518.742	1151
518.958	1123
519.173	1100
519.389	1151
519.605	1151
519.82	1118
520.036	1156
520.251	1141
520.467	1140
520.682	1211
520.898	1258
521.113	1143
521.329	1120
521.544	1163
521.76	1124
521.975	1067
522.19	1085
522.406	1083
522.621	1330
522.836	1271
523.052	1097
523.267	1084
523.482	1102
523.698	1076
523.913	1015
524.128	1088
524.343	1171
524.559	1150
524.774	1089
524.989	1057
525.204	1081
525.419	1039
525.634	1055
525.849	1057
526.064	1051
526.28	1073
526.495	1010
526.71	994
526.925	987
527.14	995
527.355	955
527.57	974
527.785	1045
527.999	990
528.214	961
528.429	979
528.644	1031
528.859	1091
529.074	1081
529.289	1099
529.503	1126
529.718	1076
529.933	998
530.148	968
530.363	963
530.577	942
530.792	975
531.007	975
531.221	985
531.436	1019
531.651	996
531.865	1037
532.08	997
532.295	955
532.509	936
532.724	951
532.938	997
533.153	1050
533.367	1049
533.582	1021
533.796	1011
534.011	1019
534.225	990
534.44	957
534.654	957
534.868	969
535.083	1005
535.297	1019
535.511	983
535.726	974
535.94	999
536.154	975
536.369	951
536.583	916
536.797	921
537.011	957
537.225	920
537.44	924
537.654	981
537.868	939
538.082	896
538.296	884
538.51	898
538.724	913
538.938	963
539.153	998
539.367	994
539.581	931
539.795	972
540.009	969
540.222	941
540.436	969
540.65	1042
540.864	1052
541.078	1016
541.292	1035
541.506	1078
541.72	1113
541.934	1117
542.147	1174
542.361	1133
542.575	1054
542.789	1012
543.002	935
543.216	963
543.43	1012
543.644	1035
543.857	1092
544.071	1102
544.285	1083
544.498	1052
544.712	1080
544.925	1107
545.139	1069
545.352	1054
545.566	1043
545.779	1061
545.993	1080
546.206	1082
546.42	1070
546.633	1048
546.847	1051
547.06	1051
547.274	1073
547.487	1066
547.7	1086
547.914	1091
548.127	1106
548.34	1075
548.554	1030
548.767	1086
548.98	1065
549.193	1039
549.407	1100
549.62	1112
549.833	1050
550.046	1039
550.259	1043
550.473	1021
