Data from WStandard_LampEnergy8_LIBS07252019.E.O._I.C._HRD10591_15-59-49-929.txt Node
Date: Thu Jul 25 15:59:49 EDT 2019
User: cochatt
Spectrometer: HR+D1059
Trigger mode: 1
Integration Time (sec): 1.000000E-1
Scans to average: 1
Electric dark correction enabled: true
Nonlinearity correction enabled: false
Boxcar width: 0
XAxis mode: Wavelengths
Number of Pixels in Spectrum: 2048
>>>>>Begin Spectral Data<<<<<
223.165	-28.56
223.4	-28.56
223.635	-28.56
223.869	-20.56
224.104	-20.56
224.338	-40.56
224.573	-7.56
224.808	-13.56
225.042	2.44
225.277	-2.56
225.511	10.44
225.746	1.44
225.98	5.44
226.215	7.44
226.449	19.44
226.683	27.44
226.918	38.44
227.152	21.44
227.387	35.44
227.621	37.44
227.856	44.44
228.09	43.44
228.324	52.44
228.559	70.44
228.793	96.44
229.027	196.44
229.262	199.44
229.496	227.44
229.73	231.44
229.964	232.44
230.199	255.44
230.433	255.44
230.667	277.44
230.901	300.44
231.136	272.44
231.37	250.44
231.604	253.44
231.838	265.44
232.072	271.44
232.306	256.44
232.541	266.44
232.775	299.44
233.009	316.44
233.243	312.44
233.477	290.44
233.711	300.44
233.945	301.44
234.179	278.44
234.413	304.44
234.647	335.44
234.881	328.44
235.115	291.44
235.349	294.44
235.583	316.44
235.817	310.44
236.051	275.44
236.285	309.44
236.519	315.44
236.753	338.44
236.987	358.44
237.221	334.44
237.455	377.44
237.689	362.44
237.922	367.44
238.156	356.44
238.39	345.44
238.624	365.44
238.858	387.44
239.091	375.44
239.325	429.44
239.559	460.44
239.793	488.44
240.027	490.44
240.26	482.44
240.494	393.44
240.728	371.44
240.961	374.44
241.195	377.44
241.429	411.44
241.662	408.44
241.896	382.44
242.13	389.44
242.363	445.44
242.597	466.44
242.83	422.44
243.064	453.44
243.298	455.44
243.531	451.44
243.765	453.44
243.998	447.44
244.232	398.44
244.465	402.44
244.699	418.44
244.932	449.44
245.166	531.44
245.399	483.44
245.633	458.44
245.866	443.44
246.099	476.44
246.333	488.44
246.566	477.44
246.8	522.44
247.033	554.44
247.266	549.44
247.5	516.44
247.733	537.44
247.966	559.44
248.2	590.44
248.433	603.44
248.666	613.44
248.899	671.44
249.133	779.44
249.366	805.44
249.599	667.44
249.832	611.44
250.066	606.44
250.299	631.44
250.532	567.44
250.765	549.44
250.998	570.44
251.231	601.44
251.465	595.44
251.698	550.44
251.931	560.44
252.164	570.44
252.397	588.44
252.63	583.44
252.863	542.44
253.096	551.44
253.329	573.44
253.562	585.44
253.795	629.44
254.028	595.44
254.261	560.44
254.494	559.44
254.727	527.44
254.96	573.44
255.193	665.44
255.426	700.44
255.659	763.44
255.892	795.44
256.124	664.44
256.357	653.44
256.59	697.44
256.823	674.44
257.056	696.44
257.289	801.44
257.521	864.44
257.754	824.44
257.987	770.44
258.22	832.44
258.452	783.44
258.685	672.44
258.918	657.44
259.151	673.44
259.383	637.44
259.616	572.44
259.849	599.44
260.081	665.44
260.314	769.44
260.547	793.44
260.779	800.44
261.012	752.44
261.244	681.44
261.477	672.44
261.71	708.44
261.942	689.44
262.175	649.44
262.407	714.44
262.64	656.44
262.872	620.44
263.105	594.44
263.337	630.44
263.57	639.44
263.802	625.44
264.035	581.44
264.267	555.44
264.499	560.44
264.732	631.44
264.964	633.44
265.197	648.44
265.429	693.44
265.661	763.44
265.894	844.44
266.126	865.44
266.358	793.44
266.591	829.44
266.823	867.44
267.055	779.44
267.287	788.44
267.52	775.44
267.752	756.44
267.984	753.44
268.216	819.44
268.448	804.44
268.681	771.44
268.913	728.44
269.145	688.44
269.377	703.44
269.609	723.44
269.841	855.44
270.073	961.44
270.306	1099.44
270.538	1103.44
270.77	919.44
271.002	817.44
271.234	800.44
271.466	832.44
271.698	899.44
271.93	1047.44
272.162	1024.44
272.394	963.44
272.626	867.44
272.858	821.44
273.09	705.44
273.322	715.44
273.553	678.44
273.785	708.44
274.017	693.44
274.249	748.44
274.481	744.44
274.713	692.44
274.945	695.44
275.176	678.44
275.408	695.44
275.64	673.44
275.872	656.44
276.104	713.44
276.335	807.44
276.567	896.44
276.799	897.44
277.031	819.44
277.262	794.44
277.494	815.44
277.726	890.44
277.957	874.44
278.189	808.44
278.421	732.44
278.652	729.44
278.884	726.44
279.115	716.44
279.347	733.44
279.579	715.44
279.81	736.44
280.042	798.44
280.273	842.44
280.505	876.44
280.736	885.44
280.968	844.44
281.199	726.44
281.431	685.44
281.662	720.44
281.894	713.44
282.125	724.44
282.356	761.44
282.588	756.44
282.819	772.44
283.051	836.44
283.282	866.44
283.513	841.44
283.745	748.44
283.976	705.44
284.207	736.44
284.439	727.44
284.67	771.44
284.901	771.44
285.132	761.44
285.364	785.44
285.595	746.44
285.826	731.44
286.057	740.44
286.288	762.44
286.52	791.44
286.751	859.44
286.982	848.44
287.213	785.44
287.444	735.44
287.675	716.44
287.906	784.44
288.138	819.44
288.369	768.44
288.6	761.44
288.831	709.44
289.062	756.44
289.293	746.44
289.524	768.44
289.755	807.44
289.986	772.44
290.217	746.44
290.448	741.44
290.679	764.44
290.91	763.44
291.141	822.44
291.371	828.44
291.602	811.44
291.833	806.44
292.064	835.44
292.295	831.44
292.526	840.44
292.757	865.44
292.987	806.44
293.218	812.44
293.449	875.44
293.68	957.44
293.91	996.44
294.141	931.44
294.372	911.44
294.603	927.44
294.833	949.44
295.064	911.44
295.295	845.44
295.525	804.44
295.756	773.44
295.987	758.44
296.217	748.44
296.448	767.44
296.679	790.44
296.909	776.44
297.14	770.44
297.37	802.44
297.601	842.44
297.831	895.44
298.062	891.44
298.292	794.44
298.523	777.44
298.753	771.44
298.984	785.44
299.214	805.44
299.445	846.44
299.675	852.44
299.905	832.44
300.136	801.44
300.366	804.44
300.597	753.44
300.827	772.44
301.057	807.44
301.288	823.44
301.518	827.44
301.748	870.44
301.979	907.44
302.209	917.44
302.439	985.44
302.669	991.44
302.9	929.44
303.13	851.44
303.36	861.44
303.59	863.44
303.82	865.44
304.051	849.44
304.281	880.44
304.511	890.44
304.741	935.44
304.971	1014.44
305.201	1060.44
305.431	952.44
305.661	820.44
305.891	747.44
306.121	753.44
306.352	817.44
306.582	837.44
306.812	923.44
307.042	934.44
307.272	945.44
307.502	993.44
307.731	1076.44
307.961	1069.44
308.191	994.44
308.421	881.44
308.651	825.44
308.881	831.44
309.111	806.44
309.341	810.44
309.571	811.44
309.8	802.44
310.03	823.44
310.26	801.44
310.49	799.44
310.72	863.44
310.949	868.44
311.179	879.44
311.409	847.44
311.639	838.44
311.868	843.44
312.098	825.44
312.328	851.44
312.557	839.44
312.787	884.44
313.017	883.44
313.246	895.44
313.476	856.44
313.706	891.44
313.935	898.44
314.165	895.44
314.394	909.44
314.624	1004.44
314.853	1017.44
315.083	1067.44
315.312	1027.44
315.542	956.44
315.771	891.44
316.001	897.44
316.23	925.44
316.46	940.44
316.689	913.44
316.919	866.44
317.148	829.44
317.377	916.44
317.607	961.44
317.836	1074.44
318.065	1073.44
318.295	1059.44
318.524	996.44
318.753	955.44
318.983	966.44
319.212	917.44
319.441	889.44
319.67	920.44
319.9	950.44
320.129	964.44
320.358	1003.44
320.587	1013.44
320.816	1047.44
321.046	989.44
321.275	929.44
321.504	983.44
321.733	1052.44
321.962	1009.44
322.191	953.44
322.42	908.44
322.649	926.44
322.878	928.44
323.108	912.44
323.337	966.44
323.566	963.44
323.795	947.44
324.024	958.44
324.253	915.44
324.482	951.44
324.71	918.44
324.939	897.44
325.168	886.44
325.397	925.44
325.626	948.44
325.855	947.44
326.084	903.44
326.313	909.44
326.542	910.44
326.77	985.44
326.999	978.44
327.228	942.44
327.457	889.44
327.686	880.44
327.914	891.44
328.143	929.44
328.372	941.44
328.6	932.44
328.829	933.44
329.058	893.44
329.287	892.44
329.515	969.44
329.744	968.44
329.972	1013.44
330.201	1044.44
330.43	1000.44
330.658	981.44
330.887	953.44
331.115	1003.44
331.344	981.44
331.572	979.44
331.801	991.44
332.03	960.44
332.258	967.44
332.486	975.44
332.715	1015.44
332.943	1016.44
333.172	961.44
333.4	990.44
333.629	1049.44
333.857	1091.44
334.085	1204.44
334.314	1353.44
334.542	1425.44
334.771	1252.44
334.999	1155.44
335.227	1084.44
335.455	1053.44
335.684	1044.44
335.912	1073.44
336.14	1082.44
336.369	1054.44
336.597	998.44
336.825	998.44
337.053	1045.44
337.281	1084.44
337.51	1137.44
337.738	1159.44
337.966	1103.44
338.194	1013.44
338.422	981.44
338.65	961.44
338.878	953.44
339.106	968.44
339.334	943.44
339.562	934.44
339.79	955.44
340.018	997.44
340.246	1036.44
340.474	1053.44
340.702	989.44
340.93	1017.44
341.158	1017.44
341.386	1002.44
341.614	962.44
341.842	960.44
342.07	968.44
342.298	977.44
342.526	972.44
342.754	969.44
342.981	966.44
343.209	972.44
343.437	941.44
343.665	991.44
343.893	1023.44
344.12	1056.44
344.348	1064.44
344.576	995.44
344.804	963.44
345.031	968.44
345.259	973.44
345.487	964.44
345.714	901.44
345.942	904.44
346.17	918.44
346.397	926.44
346.625	932.44
346.853	899.44
347.08	890.44
347.308	932.44
347.535	929.44
347.763	987.44
347.99	943.44
348.218	919.44
348.445	900.44
348.673	934.44
348.9	943.44
349.128	992.44
349.355	986.44
349.583	953.44
349.81	928.44
350.037	876.44
350.265	869.44
350.492	889.44
350.72	891.44
350.947	938.44
351.174	933.44
351.402	885.44
351.629	866.44
351.856	849.44
352.083	868.44
352.311	884.44
352.538	883.44
352.765	936.44
352.992	948.44
353.22	900.44
353.447	906.44
353.674	930.44
353.901	908.44
354.128	900.44
354.355	877.44
354.583	959.44
354.81	953.44
355.037	964.44
355.264	939.44
355.491	925.44
355.718	926.44
355.945	922.44
356.172	917.44
356.399	899.44
356.626	924.44
356.853	925.44
357.08	1011.44
357.307	1103.44
357.534	1043.44
357.761	945.44
357.988	881.44
358.215	864.44
358.441	857.44
358.668	884.44
358.895	897.44
359.122	980.44
359.349	1017.44
359.576	1004.44
359.802	923.44
360.029	887.44
360.256	896.44
360.483	924.44
360.709	939.44
360.936	965.44
361.163	982.44
361.39	1108.44
361.616	1161.44
361.843	1096.44
362.07	1039.44
362.296	921.44
362.523	880.44
362.749	896.44
362.976	957.44
363.203	976.44
363.429	931.44
363.656	911.44
363.882	968.44
364.109	1093.44
364.335	1096.44
364.562	1028.44
364.788	972.44
365.015	912.44
365.241	898.44
365.468	927.44
365.694	972.44
365.92	990.44
366.147	970.44
366.373	921.44
366.599	919.44
366.826	908.44
367.052	908.44
367.278	915.44
367.505	938.44
367.731	947.44
367.957	951.44
368.184	986.44
368.41	1049.44
368.636	1047.44
368.862	1089.44
369.089	1059.44
369.315	1013.44
369.541	954.44
369.767	929.44
369.993	899.44
370.219	941.44
370.445	972.44
370.672	1018.44
370.898	1048.44
371.124	1027.44
371.35	1008.44
371.576	1026.44
371.802	1050.44
372.028	1019.44
372.254	963.44
372.48	955.44
372.706	929.44
372.932	924.44
373.158	969.44
373.384	976.44
373.61	987.44
373.835	1019.44
374.061	970.44
374.287	996.44
374.513	985.44
374.739	993.44
374.965	1023.44
375.191	1000.44
375.416	1015.44
375.642	1035.44
375.868	1103.44
376.094	1095.44
376.319	1051.44
376.545	996.44
376.771	1009.44
376.997	1037.44
377.222	1068.44
377.448	1031.44
377.674	1019.44
377.899	1053.44
378.125	1097.44
378.35	1077.44
378.576	980.44
378.802	970.44
379.027	931.44
379.253	963.44
379.478	972.44
379.704	977.44
379.929	988.44
380.155	991.44
380.38	988.44
380.606	986.44
380.831	1018.44
381.057	1069.44
381.282	1049.44
381.507	1040.44
381.733	1136.44
381.958	1127.44
382.184	1045.44
382.409	994.44
382.634	1043.44
382.86	1031.44
383.085	1035.44
383.31	1045.44
383.535	1175.44
383.761	1203.44
383.986	1151.44
384.211	1136.44
384.436	1119.44
384.662	1173.44
384.887	1226.44
385.112	1143.44
385.337	1141.44
385.562	1116.44
385.787	1143.44
386.013	1159.44
386.238	1169.44
386.463	1149.44
386.688	1225.44
386.913	1328.44
387.138	1257.44
387.363	1181.44
387.588	1184.44
387.813	1201.44
388.038	1177.44
388.263	1201.44
388.488	1144.44
388.713	1059.44
388.938	1103.44
389.163	1104.44
389.387	1138.44
389.612	1131.44
389.837	1155.44
390.062	1146.44
390.287	1142.44
390.512	1107.44
390.736	1069.44
390.961	1106.44
391.186	1089.44
391.411	1101.44
391.636	1111.44
391.86	1139.44
392.085	1115.44
392.31	1115.44
392.534	1133.44
392.759	1164.44
392.984	1107.44
393.208	1136.44
393.433	1172.44
393.658	1211.44
393.882	1213.44
394.107	1144.44
394.331	1137.44
394.556	1130.44
394.78	1166.44
395.005	1184.44
395.229	1240.44
395.454	1292.44
395.678	1317.44
395.903	1204.44
396.127	1190.44
396.352	1218.44
396.576	1233.44
396.801	1223.44
397.025	1228.44
397.249	1206.44
397.474	1227.44
397.698	1219.44
397.922	1249.44
398.147	1320.44
398.371	1353.44
398.595	1351.44
398.82	1318.44
399.044	1333.44
399.268	1372.44
399.492	1472.44
399.717	1514.44
399.941	1508.44
400.165	1444.44
400.389	1427.44
400.613	1460.44
400.837	1663.44
401.062	1819.44
401.286	1537.44
401.51	1404.44
401.734	1461.44
401.958	1379.44
402.182	1327.44
402.406	1292.44
402.63	1279.44
402.854	1279.44
403.078	1305.44
403.302	1327.44
403.526	1333.44
403.75	1352.44
403.974	1357.44
404.198	1346.44
404.422	1414.44
404.645	1511.44
404.869	1468.44
405.093	1348.44
405.317	1294.44
405.541	1362.44
405.765	1370.44
405.988	1362.44
406.212	1361.44
406.436	1402.44
406.66	1480.44
406.883	1476.44
407.107	1640.44
407.331	1763.44
407.555	1865.44
407.778	1672.44
408.002	1436.44
408.226	1418.44
408.449	1406.44
408.673	1345.44
408.896	1386.44
409.12	1380.44
409.344	1339.44
409.567	1338.44
409.791	1334.44
410.014	1382.44
410.238	1479.44
410.461	1510.44
410.685	1344.44
410.908	1327.44
411.132	1342.44
411.355	1343.44
411.578	1343.44
411.802	1336.44
412.025	1357.44
412.249	1346.44
412.472	1335.44
412.695	1295.44
412.919	1277.44
413.142	1272.44
413.365	1321.44
413.589	1353.44
413.812	1416.44
414.035	1411.44
414.258	1337.44
414.482	1303.44
414.705	1337.44
414.928	1313.44
415.151	1315.44
415.374	1320.44
415.597	1330.44
415.821	1320.44
416.044	1360.44
416.267	1357.44
416.49	1279.44
416.713	1297.44
416.936	1324.44
417.159	1343.44
417.382	1339.44
417.605	1274.44
417.828	1298.44
418.051	1309.44
418.274	1292.44
418.497	1261.44
418.72	1280.44
418.943	1285.44
419.166	1346.44
419.389	1402.44
419.611	1317.44
419.834	1257.44
420.057	1314.44
420.28	1295.44
420.503	1319.44
420.726	1317.44
420.948	1302.44
421.171	1240.44
421.394	1302.44
421.617	1321.44
421.839	1334.44
422.062	1303.44
422.285	1241.44
422.507	1276.44
422.73	1235.44
422.953	1213.44
423.175	1230.44
423.398	1256.44
423.621	1269.44
423.843	1241.44
424.066	1319.44
424.288	1353.44
424.511	1385.44
424.733	1336.44
424.956	1257.44
425.178	1241.44
425.401	1280.44
425.623	1268.44
425.846	1251.44
426.068	1313.44
426.291	1311.44
426.513	1325.44
426.735	1315.44
426.958	1398.44
427.18	1461.44
427.402	1370.44
427.625	1418.44
427.847	1360.44
428.069	1285.44
428.292	1259.44
428.514	1237.44
428.736	1242.44
428.958	1223.44
429.181	1253.44
429.403	1455.44
429.625	1739.44
429.847	1472.44
430.069	1312.44
430.292	1425.44
430.514	1427.44
430.736	1366.44
430.958	1380.44
431.18	1279.44
431.402	1219.44
431.624	1207.44
431.846	1185.44
432.068	1161.44
432.29	1154.44
432.512	1203.44
432.734	1228.44
432.956	1284.44
433.178	1344.44
433.4	1286.44
433.622	1281.44
433.844	1237.44
434.066	1195.44
434.287	1180.44
434.509	1186.44
434.731	1250.44
434.953	1364.44
435.175	1328.44
435.397	1287.44
435.618	1261.44
435.84	1257.44
436.062	1209.44
436.284	1264.44
436.505	1268.44
436.727	1299.44
436.949	1272.44
437.17	1233.44
437.392	1205.44
437.614	1183.44
437.835	1161.44
438.057	1265.44
438.278	1266.44
438.5	1213.44
438.721	1220.44
438.943	1230.44
439.165	1229.44
439.386	1218.44
439.608	1248.44
439.829	1235.44
440.05	1263.44
440.272	1281.44
440.493	1253.44
440.715	1259.44
440.936	1362.44
441.158	1401.44
441.379	1393.44
441.6	1344.44
441.822	1349.44
442.043	1328.44
442.264	1289.44
442.486	1252.44
442.707	1251.44
442.928	1271.44
443.149	1281.44
443.371	1343.44
443.592	1362.44
443.813	1346.44
444.034	1356.44
444.255	1351.44
444.476	1391.44
444.698	1383.44
444.919	1416.44
445.14	1541.44
445.361	1452.44
445.582	1462.44
445.803	1374.44
446.024	1338.44
446.245	1385.44
446.466	1376.44
446.687	1301.44
446.908	1362.44
447.129	1290.44
447.35	1307.44
447.571	1274.44
447.792	1282.44
448.013	1235.44
448.234	1281.44
448.455	1333.44
448.675	1289.44
448.896	1207.44
449.117	1175.44
449.338	1211.44
449.559	1241.44
449.779	1315.44
450	1440.44
450.221	1486.44
450.442	1437.44
450.662	1308.44
450.883	1195.44
451.104	1177.44
451.324	1179.44
451.545	1211.44
451.766	1162.44
451.986	1132.44
452.207	1129.44
452.428	1101.44
452.648	1085.44
452.869	1108.44
453.089	1118.44
453.31	1128.44
453.53	1164.44
453.751	1102.44
453.971	1052.44
454.192	1092.44
454.412	1118.44
454.633	1138.44
454.853	1107.44
455.073	1057.44
455.294	1051.44
455.514	1076.44
455.734	1065.44
455.955	1082.44
456.175	1085.44
456.395	1056.44
456.616	1105.44
456.836	1100.44
457.056	1087.44
457.276	1085.44
457.497	1039.44
457.717	995.44
457.937	1038.44
458.157	1053.44
458.377	1060.44
458.598	1038.44
458.818	1037.44
459.038	1108.44
459.258	1130.44
459.478	1136.44
459.698	1123.44
459.918	1147.44
460.138	1235.44
460.358	1240.44
460.578	1234.44
460.798	1272.44
461.018	1310.44
461.238	1295.44
461.458	1272.44
461.678	1275.44
461.898	1213.44
462.118	1188.44
462.338	1259.44
462.558	1238.44
462.777	1260.44
462.997	1334.44
463.217	1355.44
463.437	1362.44
463.657	1262.44
463.876	1249.44
464.096	1277.44
464.316	1265.44
464.536	1266.44
464.755	1301.44
464.975	1313.44
465.195	1269.44
465.414	1304.44
465.634	1294.44
465.854	1281.44
466.073	1399.44
466.293	1366.44
466.512	1202.44
466.732	1200.44
466.951	1223.44
467.171	1240.44
467.391	1197.44
467.61	1176.44
467.829	1206.44
468.049	1331.44
468.268	1432.44
468.488	1309.44
468.707	1203.44
468.927	1227.44
469.146	1215.44
469.365	1207.44
469.585	1217.44
469.804	1216.44
470.023	1241.44
470.243	1218.44
470.462	1251.44
470.681	1203.44
470.901	1222.44
471.12	1240.44
471.339	1220.44
471.558	1200.44
471.777	1160.44
471.997	1220.44
472.216	1162.44
472.435	1133.44
472.654	1129.44
472.873	1148.44
473.092	1217.44
473.311	1184.44
473.53	1121.44
473.749	1117.44
473.968	1178.44
474.187	1221.44
474.406	1236.44
474.625	1212.44
474.844	1217.44
475.063	1186.44
475.282	1220.44
475.501	1197.44
475.72	1185.44
475.939	1272.44
476.158	1211.44
476.377	1202.44
476.596	1195.44
476.814	1207.44
477.033	1199.44
477.252	1266.44
477.471	1300.44
477.69	1260.44
477.908	1287.44
478.127	1347.44
478.346	1436.44
478.564	1437.44
478.783	1399.44
479.002	1446.44
479.22	1409.44
479.439	1457.44
479.658	1580.44
479.876	1506.44
480.095	1362.44
480.313	1329.44
480.532	1312.44
480.751	1321.44
480.969	1301.44
481.188	1268.44
481.406	1242.44
481.624	1227.44
481.843	1273.44
482.061	1301.44
482.28	1318.44
482.498	1341.44
482.717	1301.44
482.935	1303.44
483.153	1362.44
483.372	1349.44
483.59	1347.44
483.808	1348.44
484.027	1341.44
484.245	1395.44
484.463	1750.44
484.681	1855.44
484.9	1459.44
485.118	1363.44
485.336	1336.44
485.554	1359.44
485.772	1394.44
485.99	1336.44
486.209	1391.44
486.427	1405.44
486.645	1408.44
486.863	1423.44
487.081	1465.44
487.299	1457.44
487.517	1449.44
487.735	1489.44
487.953	1491.44
488.171	1476.44
488.389	1469.44
488.607	1435.44
488.825	1569.44
489.043	1560.44
489.261	1394.44
489.479	1450.44
489.696	1471.44
489.914	1472.44
490.132	1421.44
490.35	1442.44
490.568	1482.44
490.786	1466.44
491.003	1444.44
491.221	1547.44
491.439	1592.44
491.657	1593.44
491.874	1591.44
492.092	1666.44
492.31	1707.44
492.527	1695.44
492.745	1610.44
492.963	1617.44
493.18	1610.44
493.398	1714.44
493.615	1673.44
493.833	1573.44
