Data from WStandard_LampEnergy5.5LIBS07252019.E.O._I.C._HRD10591_16-07-45-920.txt Node
Date: Thu Jul 25 16:07:45 EDT 2019
User: cochatt
Spectrometer: HR+D1059
Trigger mode: 1
Integration Time (sec): 1.000000E-1
Scans to average: 1
Electric dark correction enabled: true
Nonlinearity correction enabled: false
Boxcar width: 0
XAxis mode: Wavelengths
Number of Pixels in Spectrum: 2048
>>>>>Begin Spectral Data<<<<<
223.165	-18.88
223.4	-18.88
223.635	-18.88
223.869	-20.88
224.104	-2.88
224.338	-18.88
224.573	-7.88
224.808	-10.88
225.042	-10.88
225.277	-9.88
225.511	-8.88
225.746	-8.88
225.98	13.12
226.215	5.12
226.449	18.12
226.683	16.12
226.918	29.12
227.152	37.12
227.387	43.12
227.621	43.12
227.856	47.12
228.09	47.12
228.324	51.12
228.559	60.12
228.793	152.12
229.027	348.12
229.262	372.12
229.496	402.12
229.73	410.12
229.964	420.12
230.199	477.12
230.433	474.12
230.667	535.12
230.901	528.12
231.136	489.12
231.37	494.12
231.604	474.12
231.838	485.12
232.072	477.12
232.306	452.12
232.541	455.12
232.775	564.12
233.009	621.12
233.243	602.12
233.477	555.12
233.711	544.12
233.945	570.12
234.179	553.12
234.413	586.12
234.647	638.12
234.881	596.12
235.115	559.12
235.349	582.12
235.583	588.12
235.817	571.12
236.051	536.12
236.285	558.12
236.519	593.12
236.753	681.12
236.987	679.12
237.221	681.12
237.455	759.12
237.689	770.12
237.922	687.12
238.156	696.12
238.39	649.12
238.624	708.12
238.858	751.12
239.091	787.12
239.325	798.12
239.559	930.12
239.793	944.12
240.027	1054.12
240.26	1052.12
240.494	780.12
240.728	726.12
240.961	719.12
241.195	734.12
241.429	826.12
241.662	823.12
241.896	755.12
242.13	791.12
242.363	862.12
242.597	906.12
242.83	885.12
243.064	915.12
243.298	951.12
243.531	946.12
243.765	939.12
243.998	966.12
244.232	850.12
244.465	770.12
244.699	795.12
244.932	920.12
245.166	1044.12
245.399	995.12
245.633	904.12
245.866	923.12
246.099	945.12
246.333	966.12
246.566	987.12
246.8	1064.12
247.033	1202.12
247.266	1063.12
247.5	1092.12
247.733	1063.12
247.966	1121.12
248.2	1272.12
248.433	1193.12
248.666	1245.12
248.899	1356.12
249.133	1491.12
249.366	1763.12
249.599	1433.12
249.832	1230.12
250.066	1291.12
250.299	1310.12
250.532	1212.12
250.765	1080.12
250.998	1161.12
251.231	1216.12
251.465	1246.12
251.698	1204.12
251.931	1202.12
252.164	1241.12
252.397	1270.12
252.63	1257.12
252.863	1076.12
253.096	1093.12
253.329	1181.12
253.562	1226.12
253.795	1288.12
254.028	1287.12
254.261	1209.12
254.494	1172.12
254.727	1124.12
254.96	1176.12
255.193	1272.12
255.426	1431.12
255.659	1619.12
255.892	1678.12
256.124	1406.12
256.357	1330.12
256.59	1444.12
256.823	1433.12
257.056	1432.12
257.289	1751.12
257.521	1885.12
257.754	1688.12
257.987	1582.12
258.22	1779.12
258.452	1754.12
258.685	1421.12
258.918	1394.12
259.151	1406.12
259.383	1308.12
259.616	1206.12
259.849	1258.12
260.081	1395.12
260.314	1556.12
260.547	1687.12
260.779	1695.12
261.012	1600.12
261.244	1458.12
261.477	1358.12
261.71	1402.12
261.942	1439.12
262.175	1392.12
262.407	1509.12
262.64	1408.12
262.872	1325.12
263.105	1282.12
263.337	1300.12
263.57	1307.12
263.802	1301.12
264.035	1255.12
264.267	1172.12
264.499	1146.12
264.732	1232.12
264.964	1302.12
265.197	1354.12
265.429	1446.12
265.661	1600.12
265.894	1758.12
266.126	1789.12
266.358	1614.12
266.591	1657.12
266.823	1781.12
267.055	1631.12
267.287	1591.12
267.52	1580.12
267.752	1556.12
267.984	1541.12
268.216	1614.12
268.448	1648.12
268.681	1637.12
268.913	1538.12
269.145	1470.12
269.377	1443.12
269.609	1508.12
269.841	1751.12
270.073	2077.12
270.306	2280.12
270.538	2445.12
270.77	2080.12
271.002	1809.12
271.234	1652.12
271.466	1615.12
271.698	1836.12
271.93	2199.12
272.162	2238.12
272.394	1968.12
272.626	1957.12
272.858	1685.12
273.09	1460.12
273.322	1453.12
273.553	1409.12
273.785	1414.12
274.017	1451.12
274.249	1581.12
274.481	1562.12
274.713	1447.12
274.945	1436.12
275.176	1443.12
275.408	1425.12
275.64	1366.12
275.872	1367.12
276.104	1486.12
276.335	1659.12
276.567	1904.12
276.799	1891.12
277.031	1689.12
277.262	1598.12
277.494	1688.12
277.726	1888.12
277.957	1894.12
278.189	1695.12
278.421	1556.12
278.652	1520.12
278.884	1499.12
279.115	1488.12
279.347	1543.12
279.579	1481.12
279.81	1469.12
280.042	1624.12
280.273	1804.12
280.505	1756.12
280.736	1868.12
280.968	1735.12
281.199	1498.12
281.431	1399.12
281.662	1431.12
281.894	1474.12
282.125	1493.12
282.356	1544.12
282.588	1570.12
282.819	1516.12
283.051	1647.12
283.282	1765.12
283.513	1742.12
283.745	1537.12
283.976	1426.12
284.207	1410.12
284.439	1482.12
284.67	1486.12
284.901	1535.12
285.132	1578.12
285.364	1526.12
285.595	1561.12
285.826	1533.12
286.057	1528.12
286.288	1538.12
286.52	1533.12
286.751	1656.12
286.982	1716.12
287.213	1602.12
287.444	1448.12
287.675	1437.12
287.906	1545.12
288.138	1676.12
288.369	1616.12
288.6	1532.12
288.831	1468.12
289.062	1478.12
289.293	1517.12
289.524	1489.12
289.755	1583.12
289.986	1552.12
290.217	1427.12
290.448	1471.12
290.679	1541.12
290.91	1516.12
291.141	1608.12
291.371	1621.12
291.602	1634.12
291.833	1622.12
292.064	1652.12
292.295	1616.12
292.526	1658.12
292.757	1747.12
292.987	1665.12
293.218	1575.12
293.449	1683.12
293.68	1897.12
293.91	2043.12
294.141	1950.12
294.372	1758.12
294.603	1811.12
294.833	1932.12
295.064	1842.12
295.295	1624.12
295.525	1613.12
295.756	1531.12
295.987	1423.12
296.217	1459.12
296.448	1502.12
296.679	1519.12
296.909	1532.12
297.14	1507.12
297.37	1528.12
297.601	1584.12
297.831	1764.12
298.062	1739.12
298.292	1594.12
298.523	1512.12
298.753	1539.12
298.984	1518.12
299.214	1563.12
299.445	1598.12
299.675	1625.12
299.905	1620.12
300.136	1575.12
300.366	1556.12
300.597	1506.12
300.827	1515.12
301.057	1589.12
301.288	1645.12
301.518	1613.12
301.748	1672.12
301.979	1730.12
302.209	1769.12
302.439	1876.12
302.669	2002.12
302.9	1848.12
303.13	1636.12
303.36	1670.12
303.59	1684.12
303.82	1664.12
304.051	1644.12
304.281	1686.12
304.511	1633.12
304.741	1756.12
304.971	1924.12
305.201	2111.12
305.431	1947.12
305.661	1637.12
305.891	1438.12
306.121	1428.12
306.352	1519.12
306.582	1577.12
306.812	1689.12
307.042	1817.12
307.272	1785.12
307.502	1857.12
307.731	2019.12
307.961	2202.12
308.191	2004.12
308.421	1716.12
308.651	1654.12
308.881	1583.12
309.111	1606.12
309.341	1546.12
309.571	1568.12
309.8	1606.12
310.03	1550.12
310.26	1593.12
310.49	1544.12
310.72	1574.12
310.949	1655.12
311.179	1741.12
311.409	1666.12
311.639	1634.12
311.868	1553.12
312.098	1597.12
312.328	1589.12
312.557	1587.12
312.787	1633.12
313.017	1664.12
313.246	1688.12
313.476	1661.12
313.706	1710.12
313.935	1681.12
314.165	1708.12
314.394	1735.12
314.624	1834.12
314.853	1912.12
315.083	1995.12
315.312	2106.12
315.542	1924.12
315.771	1722.12
316.001	1690.12
316.23	1818.12
316.46	1812.12
316.689	1755.12
316.919	1671.12
317.148	1601.12
317.377	1624.12
317.607	1739.12
317.836	1956.12
318.065	2024.12
318.295	1956.12
318.524	1861.12
318.753	1815.12
318.983	1802.12
319.212	1781.12
319.441	1726.12
319.67	1710.12
319.9	1718.12
320.129	1842.12
320.358	1883.12
320.587	1919.12
320.816	1911.12
321.046	1903.12
321.275	1732.12
321.504	1753.12
321.733	1995.12
321.962	1909.12
322.191	1773.12
322.42	1769.12
322.649	1714.12
322.878	1732.12
323.108	1696.12
323.337	1779.12
323.566	1782.12
323.795	1775.12
324.024	1796.12
324.253	1754.12
324.482	1797.12
324.71	1708.12
324.939	1654.12
325.168	1660.12
325.397	1759.12
325.626	1789.12
325.855	1830.12
326.084	1717.12
326.313	1727.12
326.542	1742.12
326.77	1829.12
326.999	1819.12
327.228	1752.12
327.457	1660.12
327.686	1614.12
327.914	1660.12
328.143	1739.12
328.372	1756.12
328.6	1739.12
328.829	1705.12
329.058	1666.12
329.287	1708.12
329.515	1762.12
329.744	1762.12
329.972	1818.12
330.201	1932.12
330.43	1902.12
330.658	1850.12
330.887	1843.12
331.115	1822.12
331.344	1840.12
331.572	1778.12
331.801	1789.12
332.03	1805.12
332.258	1828.12
332.486	1865.12
332.715	1843.12
332.943	1891.12
333.172	1849.12
333.4	1885.12
333.629	1881.12
333.857	1966.12
334.085	2178.12
334.314	2486.12
334.542	2719.12
334.771	2537.12
334.999	2222.12
335.227	2083.12
335.455	1990.12
335.684	1956.12
335.912	2005.12
336.14	2096.12
336.369	2027.12
336.597	1900.12
336.825	1848.12
337.053	1858.12
337.281	2002.12
337.51	2126.12
337.738	2199.12
337.966	2083.12
338.194	1854.12
338.422	1828.12
338.65	1810.12
338.878	1795.12
339.106	1732.12
339.334	1726.12
339.562	1714.12
339.79	1722.12
340.018	1861.12
340.246	1895.12
340.474	1939.12
340.702	1858.12
340.93	1882.12
341.158	1872.12
341.386	1851.12
341.614	1812.12
341.842	1814.12
342.07	1794.12
342.298	1823.12
342.526	1847.12
342.754	1802.12
342.981	1787.12
343.209	1805.12
343.437	1778.12
343.665	1795.12
343.893	1830.12
344.12	1980.12
344.348	1949.12
344.576	1874.12
344.804	1779.12
345.031	1800.12
345.259	1824.12
345.487	1763.12
345.714	1687.12
345.942	1646.12
346.17	1660.12
346.397	1706.12
346.625	1730.12
346.853	1651.12
347.08	1627.12
347.308	1609.12
347.535	1682.12
347.763	1725.12
347.99	1698.12
348.218	1586.12
348.445	1655.12
348.673	1696.12
348.9	1756.12
349.128	1803.12
349.355	1872.12
349.583	1801.12
349.81	1721.12
350.037	1556.12
350.265	1596.12
350.492	1576.12
350.72	1636.12
350.947	1700.12
351.174	1725.12
351.402	1622.12
351.629	1546.12
351.856	1551.12
352.083	1510.12
352.311	1549.12
352.538	1624.12
352.765	1706.12
352.992	1722.12
353.22	1704.12
353.447	1612.12
353.674	1613.12
353.901	1672.12
354.128	1647.12
354.355	1614.12
354.583	1728.12
354.81	1711.12
355.037	1744.12
355.264	1712.12
355.491	1679.12
355.718	1723.12
355.945	1696.12
356.172	1651.12
356.399	1570.12
356.626	1623.12
356.853	1660.12
357.08	1818.12
357.307	1992.12
357.534	2003.12
357.761	1748.12
357.988	1615.12
358.215	1548.12
358.441	1590.12
358.668	1599.12
358.895	1602.12
359.122	1698.12
359.349	1893.12
359.576	1901.12
359.802	1699.12
360.029	1605.12
360.256	1595.12
360.483	1581.12
360.709	1666.12
360.936	1700.12
361.163	1779.12
361.39	1936.12
361.616	2078.12
361.843	2019.12
362.07	1922.12
362.296	1699.12
362.523	1616.12
362.749	1624.12
362.976	1632.12
363.203	1725.12
363.429	1670.12
363.656	1619.12
363.882	1650.12
364.109	1819.12
364.335	1993.12
364.562	1834.12
364.788	1773.12
365.015	1682.12
365.241	1602.12
365.468	1632.12
365.694	1694.12
365.92	1829.12
366.147	1771.12
366.373	1636.12
366.599	1608.12
366.826	1596.12
367.052	1616.12
367.278	1620.12
367.505	1647.12
367.731	1712.12
367.957	1706.12
368.184	1733.12
368.41	1823.12
368.636	1863.12
368.862	1859.12
369.089	1909.12
369.315	1826.12
369.541	1746.12
369.767	1711.12
369.993	1659.12
370.219	1627.12
370.445	1664.12
370.672	1751.12
370.898	1832.12
371.124	1838.12
371.35	1751.12
371.576	1779.12
371.802	1865.12
372.028	1817.12
372.254	1706.12
372.48	1654.12
372.706	1653.12
372.932	1689.12
373.158	1679.12
373.384	1703.12
373.61	1745.12
373.835	1854.12
374.061	1778.12
374.287	1734.12
374.513	1765.12
374.739	1769.12
374.965	1735.12
375.191	1743.12
375.416	1804.12
375.642	1792.12
375.868	1828.12
376.094	1949.12
376.319	1863.12
376.545	1782.12
376.771	1747.12
376.997	1884.12
377.222	1843.12
377.448	1779.12
377.674	1799.12
377.899	1800.12
378.125	1927.12
378.35	1961.12
378.576	1753.12
378.802	1684.12
379.027	1693.12
379.253	1689.12
379.478	1717.12
379.704	1715.12
379.929	1754.12
380.155	1711.12
380.38	1738.12
380.606	1747.12
380.831	1773.12
381.057	1822.12
381.282	1859.12
381.507	1807.12
381.733	1867.12
381.958	1975.12
382.184	1841.12
382.409	1801.12
382.634	1827.12
382.86	1812.12
383.085	1835.12
383.31	1855.12
383.535	1969.12
383.761	2097.12
383.986	2069.12
384.211	1952.12
384.436	1932.12
384.662	2002.12
384.887	2095.12
385.112	1978.12
385.337	2021.12
385.562	1991.12
385.787	1989.12
386.013	2035.12
386.238	2054.12
386.463	2019.12
386.688	2081.12
386.913	2251.12
387.138	2221.12
387.363	2063.12
387.588	2060.12
387.813	2041.12
388.038	2042.12
388.263	2123.12
388.488	2075.12
388.713	1887.12
388.938	1911.12
389.163	1917.12
389.387	2007.12
389.612	1966.12
389.837	2024.12
390.062	2010.12
390.287	1982.12
390.512	1986.12
390.736	1979.12
390.961	1910.12
391.186	1858.12
391.411	1886.12
391.636	1980.12
391.86	1957.12
392.085	1970.12
392.31	1944.12
392.534	1975.12
392.759	1975.12
392.984	1974.12
393.208	1988.12
393.433	1999.12
393.658	2082.12
393.882	2133.12
394.107	2013.12
394.331	1954.12
394.556	1973.12
394.78	1960.12
395.005	2057.12
395.229	2050.12
395.454	2255.12
395.678	2281.12
395.903	2160.12
396.127	2058.12
396.352	2123.12
396.576	2183.12
396.801	2188.12
397.025	2131.12
397.249	2182.12
397.474	2137.12
397.698	2085.12
397.922	2141.12
398.147	2320.12
398.371	2389.12
398.595	2353.12
398.82	2260.12
399.044	2279.12
399.268	2382.12
399.492	2570.12
399.717	2631.12
399.941	2687.12
400.165	2568.12
400.389	2559.12
400.613	2523.12
400.837	2705.12
401.062	3180.12
401.286	2693.12
401.51	2441.12
401.734	2600.12
401.958	2518.12
402.182	2368.12
402.406	2254.12
402.63	2244.12
402.854	2203.12
403.078	2306.12
403.302	2335.12
403.526	2360.12
403.75	2361.12
403.974	2376.12
404.198	2352.12
404.422	2408.12
404.645	2506.12
404.869	2522.12
405.093	2243.12
405.317	2293.12
405.541	2346.12
405.765	2374.12
405.988	2318.12
406.212	2406.12
406.436	2448.12
406.66	2542.12
406.883	2566.12
407.107	2773.12
407.331	3097.12
407.555	3271.12
407.778	3086.12
408.002	2536.12
408.226	2457.12
408.449	2480.12
408.673	2393.12
408.896	2438.12
409.12	2494.12
409.344	2427.12
409.567	2314.12
409.791	2366.12
410.014	2385.12
410.238	2538.12
410.461	2694.12
410.685	2407.12
410.908	2308.12
411.132	2322.12
411.355	2377.12
411.578	2290.12
411.802	2338.12
412.025	2368.12
412.249	2330.12
412.472	2263.12
412.695	2272.12
412.919	2235.12
413.142	2242.12
413.365	2214.12
413.589	2310.12
413.812	2367.12
414.035	2493.12
414.258	2302.12
414.482	2214.12
414.705	2283.12
414.928	2190.12
415.151	2202.12
415.374	2268.12
415.597	2224.12
415.821	2302.12
416.044	2355.12
416.267	2393.12
416.49	2228.12
416.713	2157.12
416.936	2287.12
417.159	2360.12
417.382	2344.12
417.605	2214.12
417.828	2258.12
418.051	2335.12
418.274	2259.12
418.497	2159.12
418.72	2151.12
418.943	2111.12
419.166	2272.12
419.389	2426.12
419.611	2273.12
419.834	2186.12
420.057	2244.12
420.28	2198.12
420.503	2173.12
420.726	2175.12
420.948	2204.12
421.171	2155.12
421.394	2199.12
421.617	2259.12
421.839	2242.12
422.062	2213.12
422.285	2162.12
422.507	2113.12
422.73	2117.12
422.953	2057.12
423.175	2044.12
423.398	2146.12
423.621	2188.12
423.843	2191.12
424.066	2189.12
424.288	2232.12
424.511	2271.12
424.733	2254.12
424.956	2085.12
425.178	2063.12
425.401	2072.12
425.623	2135.12
425.846	2095.12
426.068	2212.12
426.291	2255.12
426.513	2180.12
426.735	2175.12
426.958	2341.12
427.18	2491.12
427.402	2261.12
427.625	2354.12
427.847	2371.12
428.069	2207.12
428.292	2152.12
428.514	2063.12
428.736	2060.12
428.958	2094.12
429.181	2098.12
429.403	2377.12
429.625	2969.12
429.847	2580.12
430.069	2178.12
430.292	2324.12
430.514	2424.12
430.736	2300.12
430.958	2381.12
431.18	2263.12
431.402	2100.12
431.624	2076.12
431.846	2110.12
432.068	2034.12
432.29	2076.12
432.512	2114.12
432.734	2154.12
432.956	2170.12
433.178	2279.12
433.4	2288.12
433.622	2240.12
433.844	2174.12
434.066	2101.12
434.287	2082.12
434.509	2192.12
434.731	2218.12
434.953	2401.12
435.175	2341.12
435.397	2206.12
435.618	2253.12
435.84	2211.12
436.062	2200.12
436.284	2174.12
436.505	2187.12
436.727	2253.12
436.949	2238.12
437.17	2113.12
437.392	2171.12
437.614	2128.12
437.835	2031.12
438.057	2196.12
438.278	2250.12
438.5	2123.12
438.721	2109.12
438.943	2127.12
439.165	2069.12
439.386	2022.12
439.608	2092.12
439.829	2104.12
440.05	2102.12
440.272	2036.12
440.493	2070.12
440.715	2109.12
440.936	2226.12
441.158	2429.12
441.379	2401.12
441.6	2347.12
441.822	2224.12
442.043	2250.12
442.264	2214.12
442.486	2069.12
442.707	2099.12
442.928	2071.12
443.149	2139.12
443.371	2285.12
443.592	2384.12
443.813	2304.12
444.034	2293.12
444.255	2270.12
444.476	2357.12
444.698	2347.12
444.919	2341.12
445.14	2444.12
445.361	2415.12
445.582	2485.12
445.803	2386.12
446.024	2302.12
446.245	2380.12
446.466	2299.12
446.687	2182.12
446.908	2209.12
447.129	2106.12
447.35	2157.12
447.571	2172.12
447.792	2087.12
448.013	2032.12
448.234	2054.12
448.455	2168.12
448.675	2181.12
448.896	2015.12
449.117	1975.12
449.338	2069.12
449.559	2106.12
449.779	2249.12
450	2473.12
450.221	2709.12
450.442	2612.12
450.662	2281.12
450.883	2022.12
451.104	1970.12
451.324	2014.12
451.545	2064.12
451.766	2046.12
451.986	1944.12
452.207	1971.12
452.428	1912.12
452.648	1871.12
452.869	1908.12
453.089	2036.12
453.31	2068.12
453.53	2081.12
453.751	1994.12
453.971	1878.12
454.192	1974.12
454.412	2104.12
454.633	2000.12
454.853	1949.12
455.073	1820.12
455.294	1774.12
455.514	1862.12
455.734	1803.12
455.955	1881.12
456.175	1889.12
456.395	1883.12
456.616	1927.12
456.836	1970.12
457.056	1914.12
457.276	1926.12
457.497	1855.12
457.717	1806.12
457.937	1867.12
458.157	1898.12
458.377	1898.12
458.598	1871.12
458.818	1895.12
459.038	2019.12
459.258	2156.12
459.478	2130.12
459.698	2059.12
459.918	2112.12
460.138	2180.12
460.358	2228.12
460.578	2247.12
460.798	2323.12
461.018	2464.12
461.238	2352.12
461.458	2262.12
461.678	2245.12
461.898	2140.12
462.118	2153.12
462.338	2271.12
462.558	2233.12
462.777	2264.12
462.997	2372.12
463.217	2498.12
463.437	2474.12
463.657	2342.12
463.876	2294.12
464.096	2199.12
464.316	2230.12
464.536	2368.12
464.755	2346.12
464.975	2350.12
465.195	2299.12
465.414	2360.12
465.634	2400.12
465.854	2216.12
466.073	2367.12
466.293	2364.12
466.512	2095.12
466.732	2059.12
466.951	2166.12
467.171	2134.12
467.391	2036.12
467.61	1953.12
467.829	1989.12
468.049	2166.12
468.268	2438.12
468.488	2286.12
468.707	2187.12
468.927	2071.12
469.146	2072.12
469.365	1979.12
469.585	2032.12
469.804	2023.12
470.023	2026.12
470.243	2063.12
470.462	2037.12
470.681	1965.12
470.901	2040.12
471.12	2090.12
471.339	2044.12
471.558	1956.12
471.777	1943.12
471.997	1986.12
472.216	2008.12
472.435	1946.12
472.654	1986.12
472.873	2037.12
473.092	2187.12
473.311	2104.12
473.53	1930.12
473.749	2014.12
473.968	2043.12
474.187	2127.12
474.406	2250.12
474.625	2130.12
474.844	2082.12
475.063	2030.12
475.282	2108.12
475.501	2100.12
475.72	2119.12
475.939	2165.12
476.158	2109.12
476.377	2063.12
476.596	2103.12
476.814	2151.12
477.033	2143.12
477.252	2238.12
477.471	2271.12
477.69	2156.12
477.908	2192.12
478.127	2293.12
478.346	2468.12
478.564	2478.12
478.783	2395.12
479.002	2519.12
479.22	2452.12
479.439	2576.12
479.658	2876.12
479.876	2866.12
480.095	2502.12
480.313	2370.12
480.532	2284.12
480.751	2288.12
480.969	2402.12
481.188	2343.12
481.406	2320.12
481.624	2243.12
481.843	2251.12
482.061	2297.12
482.28	2334.12
482.498	2389.12
482.717	2403.12
482.935	2279.12
483.153	2255.12
483.372	2311.12
483.59	2270.12
483.808	2298.12
484.027	2335.12
484.245	2451.12
484.463	2830.12
484.681	3254.12
484.9	2507.12
485.118	2452.12
485.336	2310.12
485.554	2381.12
485.772	2558.12
485.99	2486.12
486.209	2471.12
486.427	2452.12
486.645	2488.12
486.863	2420.12
487.081	2488.12
487.299	2510.12
