Data from WStandard_LampEnergy5.5LIBS07252019.E.O._I.C._HRD10591_16-06-37-920.txt Node
Date: Thu Jul 25 16:06:37 EDT 2019
User: cochatt
Spectrometer: HR+D1059
Trigger mode: 1
Integration Time (sec): 1.000000E-1
Scans to average: 1
Electric dark correction enabled: true
Nonlinearity correction enabled: false
Boxcar width: 0
XAxis mode: Wavelengths
Number of Pixels in Spectrum: 2048
>>>>>Begin Spectral Data<<<<<
223.165	-14.06
223.4	-14.06
223.635	-14.06
223.869	-16.06
224.104	-11.06
224.338	-19.06
224.573	-23.06
224.808	-15.06
225.042	-7.06
225.277	-8.06
225.511	-8.06
225.746	0.94
225.98	9.94
226.215	13.94
226.449	17.94
226.683	17.94
226.918	25.94
227.152	34.94
227.387	32.94
227.621	42.94
227.856	40.94
228.09	55.94
228.324	59.94
228.559	55.94
228.793	160.94
229.027	345.94
229.262	369.94
229.496	397.94
229.73	377.94
229.964	460.94
230.199	440.94
230.433	464.94
230.667	508.94
230.901	530.94
231.136	490.94
231.37	467.94
231.604	468.94
231.838	474.94
232.072	476.94
232.306	423.94
232.541	478.94
232.775	548.94
233.009	593.94
233.243	583.94
233.477	525.94
233.711	546.94
233.945	563.94
234.179	567.94
234.413	600.94
234.647	639.94
234.881	613.94
235.115	549.94
235.349	564.94
235.583	559.94
235.817	583.94
236.051	532.94
236.285	539.94
236.519	595.94
236.753	667.94
236.987	671.94
237.221	670.94
237.455	742.94
237.689	724.94
237.922	683.94
238.156	661.94
238.39	661.94
238.624	694.94
238.858	739.94
239.091	785.94
239.325	806.94
239.559	932.94
239.793	967.94
240.027	1042.94
240.26	1051.94
240.494	769.94
240.728	729.94
240.961	726.94
241.195	754.94
241.429	810.94
241.662	832.94
241.896	758.94
242.13	780.94
242.363	826.94
242.597	914.94
242.83	868.94
243.064	890.94
243.298	947.94
243.531	905.94
243.765	928.94
243.998	922.94
244.232	812.94
244.465	783.94
244.699	810.94
244.932	893.94
245.166	1035.94
245.399	1007.94
245.633	906.94
245.866	887.94
246.099	898.94
246.333	932.94
246.566	979.94
246.8	1047.94
247.033	1157.94
247.266	1096.94
247.5	1091.94
247.733	1059.94
247.966	1100.94
248.2	1226.94
248.433	1153.94
248.666	1202.94
248.899	1326.94
249.133	1519.94
249.366	1723.94
249.599	1397.94
249.832	1246.94
250.066	1272.94
250.299	1308.94
250.532	1201.94
250.765	1067.94
250.998	1148.94
251.231	1199.94
251.465	1219.94
251.698	1172.94
251.931	1150.94
252.164	1202.94
252.397	1272.94
252.63	1251.94
252.863	1085.94
253.096	1119.94
253.329	1137.94
253.562	1189.94
253.795	1284.94
254.028	1254.94
254.261	1192.94
254.494	1170.94
254.727	1107.94
254.96	1148.94
255.193	1229.94
255.426	1431.94
255.659	1589.94
255.892	1652.94
256.124	1386.94
256.357	1284.94
256.59	1419.94
256.823	1436.94
257.056	1406.94
257.289	1707.94
257.521	1911.94
257.754	1712.94
257.987	1568.94
258.22	1763.94
258.452	1767.94
258.685	1427.94
258.918	1363.94
259.151	1452.94
259.383	1354.94
259.616	1172.94
259.849	1270.94
260.081	1383.94
260.314	1548.94
260.547	1711.94
260.779	1691.94
261.012	1609.94
261.244	1459.94
261.477	1361.94
261.71	1382.94
261.942	1428.94
262.175	1307.94
262.407	1467.94
262.64	1371.94
262.872	1289.94
263.105	1232.94
263.337	1260.94
263.57	1256.94
263.802	1270.94
264.035	1248.94
264.267	1151.94
264.499	1120.94
264.732	1224.94
264.964	1289.94
265.197	1362.94
265.429	1394.94
265.661	1521.94
265.894	1703.94
266.126	1745.94
266.358	1567.94
266.591	1651.94
266.823	1793.94
267.055	1632.94
267.287	1543.94
267.52	1538.94
267.752	1552.94
267.984	1533.94
268.216	1613.94
268.448	1675.94
268.681	1630.94
268.913	1489.94
269.145	1423.94
269.377	1357.94
269.609	1496.94
269.841	1743.94
270.073	1983.94
270.306	2219.94
270.538	2404.94
270.77	2037.94
271.002	1711.94
271.234	1647.94
271.466	1608.94
271.698	1791.94
271.93	2181.94
272.162	2180.94
272.394	1978.94
272.626	1875.94
272.858	1646.94
273.09	1447.94
273.322	1450.94
273.553	1396.94
273.785	1425.94
274.017	1411.94
274.249	1585.94
274.481	1546.94
274.713	1447.94
274.945	1417.94
275.176	1432.94
275.408	1395.94
275.64	1372.94
275.872	1391.94
276.104	1437.94
276.335	1607.94
276.567	1877.94
276.799	1917.94
277.031	1717.94
277.262	1631.94
277.494	1642.94
277.726	1875.94
277.957	1834.94
278.189	1698.94
278.421	1534.94
278.652	1452.94
278.884	1458.94
279.115	1476.94
279.347	1495.94
279.579	1443.94
279.81	1437.94
280.042	1617.94
280.273	1768.94
280.505	1748.94
280.736	1820.94
280.968	1709.94
281.199	1504.94
281.431	1440.94
281.662	1459.94
281.894	1417.94
282.125	1422.94
282.356	1536.94
282.588	1573.94
282.819	1513.94
283.051	1618.94
283.282	1825.94
283.513	1750.94
283.745	1507.94
283.976	1409.94
284.207	1412.94
284.439	1452.94
284.67	1485.94
284.901	1490.94
285.132	1567.94
285.364	1535.94
285.595	1539.94
285.826	1505.94
286.057	1452.94
286.288	1523.94
286.52	1532.94
286.751	1676.94
286.982	1730.94
287.213	1601.94
287.444	1464.94
287.675	1429.94
287.906	1506.94
288.138	1636.94
288.369	1623.94
288.6	1535.94
288.831	1452.94
289.062	1494.94
289.293	1505.94
289.524	1524.94
289.755	1569.94
289.986	1570.94
290.217	1449.94
290.448	1479.94
290.679	1548.94
290.91	1517.94
291.141	1559.94
291.371	1608.94
291.602	1610.94
291.833	1558.94
292.064	1637.94
292.295	1597.94
292.526	1635.94
292.757	1693.94
292.987	1664.94
293.218	1550.94
293.449	1657.94
293.68	1891.94
293.91	2048.94
294.141	1876.94
294.372	1749.94
294.603	1796.94
294.833	1904.94
295.064	1791.94
295.295	1646.94
295.525	1601.94
295.756	1478.94
295.987	1411.94
296.217	1428.94
296.448	1482.94
296.679	1506.94
296.909	1486.94
297.14	1486.94
297.37	1498.94
297.601	1569.94
297.831	1689.94
298.062	1733.94
298.292	1594.94
298.523	1521.94
298.753	1507.94
298.984	1514.94
299.214	1538.94
299.445	1549.94
299.675	1627.94
299.905	1610.94
300.136	1574.94
300.366	1534.94
300.597	1488.94
300.827	1517.94
301.057	1530.94
301.288	1625.94
301.518	1603.94
301.748	1659.94
301.979	1722.94
302.209	1702.94
302.439	1820.94
302.669	1923.94
302.9	1815.94
303.13	1604.94
303.36	1615.94
303.59	1687.94
303.82	1619.94
304.051	1633.94
304.281	1697.94
304.511	1618.94
304.741	1711.94
304.971	1931.94
305.201	2079.94
305.431	1934.94
305.661	1620.94
305.891	1441.94
306.121	1437.94
306.352	1489.94
306.582	1580.94
306.812	1671.94
307.042	1831.94
307.272	1832.94
307.502	1851.94
307.731	1999.94
307.961	2154.94
308.191	1983.94
308.421	1729.94
308.651	1595.94
308.881	1586.94
309.111	1651.94
309.341	1560.94
309.571	1546.94
309.8	1590.94
310.03	1557.94
310.26	1549.94
310.49	1571.94
310.72	1617.94
310.949	1672.94
311.179	1687.94
311.409	1643.94
311.639	1647.94
311.868	1581.94
312.098	1576.94
312.328	1599.94
312.557	1579.94
312.787	1641.94
313.017	1675.94
313.246	1649.94
313.476	1661.94
313.706	1703.94
313.935	1719.94
314.165	1696.94
314.394	1740.94
314.624	1835.94
314.853	1912.94
315.083	1975.94
315.312	2034.94
315.542	1945.94
315.771	1683.94
316.001	1701.94
316.23	1814.94
316.46	1777.94
316.689	1804.94
316.919	1678.94
317.148	1562.94
317.377	1602.94
317.607	1756.94
317.836	1972.94
318.065	2041.94
318.295	1943.94
318.524	1858.94
318.753	1816.94
318.983	1801.94
319.212	1787.94
319.441	1691.94
319.67	1725.94
319.9	1716.94
320.129	1803.94
320.358	1895.94
320.587	1977.94
320.816	1932.94
321.046	1915.94
321.275	1805.94
321.504	1826.94
321.733	1957.94
321.962	1889.94
322.191	1718.94
322.42	1732.94
322.649	1733.94
322.878	1707.94
323.108	1736.94
323.337	1809.94
323.566	1789.94
323.795	1780.94
324.024	1786.94
324.253	1735.94
324.482	1773.94
324.71	1729.94
324.939	1604.94
325.168	1655.94
325.397	1695.94
325.626	1769.94
325.855	1859.94
326.084	1720.94
326.313	1725.94
326.542	1740.94
326.77	1834.94
326.999	1824.94
327.228	1759.94
327.457	1683.94
327.686	1651.94
327.914	1675.94
328.143	1739.94
328.372	1763.94
328.6	1722.94
328.829	1698.94
329.058	1672.94
329.287	1672.94
329.515	1741.94
329.744	1741.94
329.972	1799.94
330.201	1925.94
330.43	1897.94
330.658	1808.94
330.887	1841.94
331.115	1861.94
331.344	1851.94
331.572	1825.94
331.801	1818.94
332.03	1827.94
332.258	1848.94
332.486	1844.94
332.715	1867.94
332.943	1877.94
333.172	1850.94
333.4	1845.94
333.629	1890.94
333.857	1995.94
334.085	2191.94
334.314	2467.94
334.542	2736.94
334.771	2559.94
334.999	2223.94
335.227	2081.94
335.455	1965.94
335.684	1953.94
335.912	2016.94
336.14	2101.94
336.369	2010.94
336.597	1906.94
336.825	1866.94
337.053	1928.94
337.281	2023.94
337.51	2112.94
337.738	2200.94
337.966	2132.94
338.194	1930.94
338.422	1857.94
338.65	1785.94
338.878	1831.94
339.106	1770.94
339.334	1800.94
339.562	1728.94
339.79	1763.94
340.018	1843.94
340.246	1906.94
340.474	1943.94
340.702	1860.94
340.93	1888.94
341.158	1861.94
341.386	1826.94
341.614	1825.94
341.842	1821.94
342.07	1834.94
342.298	1848.94
342.526	1830.94
342.754	1776.94
342.981	1772.94
343.209	1807.94
343.437	1808.94
343.665	1819.94
343.893	1885.94
344.12	1968.94
344.348	1970.94
344.576	1907.94
344.804	1833.94
345.031	1824.94
345.259	1820.94
345.487	1784.94
345.714	1732.94
345.942	1619.94
346.17	1697.94
346.397	1709.94
346.625	1753.94
346.853	1654.94
347.08	1604.94
347.308	1633.94
347.535	1690.94
347.763	1725.94
347.99	1708.94
348.218	1591.94
348.445	1615.94
348.673	1665.94
348.9	1731.94
349.128	1775.94
349.355	1828.94
349.583	1804.94
349.81	1681.94
350.037	1574.94
350.265	1549.94
350.492	1602.94
350.72	1635.94
350.947	1695.94
351.174	1737.94
351.402	1640.94
351.629	1604.94
351.856	1574.94
352.083	1549.94
352.311	1568.94
352.538	1605.94
352.765	1679.94
352.992	1769.94
353.22	1713.94
353.447	1614.94
353.674	1638.94
353.901	1686.94
354.128	1633.94
354.355	1603.94
354.583	1671.94
354.81	1713.94
355.037	1749.94
355.264	1745.94
355.491	1725.94
355.718	1699.94
355.945	1663.94
356.172	1650.94
356.399	1590.94
356.626	1653.94
356.853	1696.94
357.08	1774.94
357.307	1956.94
357.534	2023.94
357.761	1761.94
357.988	1631.94
358.215	1556.94
358.441	1564.94
358.668	1613.94
358.895	1599.94
359.122	1705.94
359.349	1864.94
359.576	1911.94
359.802	1663.94
360.029	1606.94
360.256	1569.94
360.483	1625.94
360.709	1667.94
360.936	1689.94
361.163	1788.94
361.39	1931.94
361.616	2091.94
361.843	2022.94
362.07	1951.94
362.296	1638.94
362.523	1611.94
362.749	1657.94
362.976	1711.94
363.203	1701.94
363.429	1657.94
363.656	1627.94
363.882	1647.94
364.109	1835.94
364.335	1994.94
364.562	1829.94
364.788	1767.94
365.015	1667.94
365.241	1611.94
365.468	1613.94
365.694	1725.94
365.92	1810.94
366.147	1772.94
366.373	1622.94
366.599	1558.94
366.826	1565.94
367.052	1585.94
367.278	1619.94
367.505	1643.94
367.731	1667.94
367.957	1701.94
368.184	1720.94
368.41	1828.94
368.636	1868.94
368.862	1856.94
369.089	1875.94
369.315	1795.94
369.541	1761.94
369.767	1729.94
369.993	1654.94
370.219	1638.94
370.445	1673.94
370.672	1805.94
370.898	1908.94
371.124	1891.94
371.35	1724.94
371.576	1803.94
371.802	1878.94
372.028	1782.94
372.254	1698.94
372.48	1673.94
372.706	1659.94
372.932	1690.94
373.158	1690.94
373.384	1672.94
373.61	1747.94
373.835	1845.94
374.061	1799.94
374.287	1709.94
374.513	1716.94
374.739	1759.94
374.965	1765.94
375.191	1735.94
375.416	1776.94
375.642	1766.94
375.868	1859.94
376.094	1958.94
376.319	1863.94
376.545	1746.94
376.771	1747.94
376.997	1891.94
377.222	1841.94
377.448	1755.94
377.674	1831.94
377.899	1801.94
378.125	1911.94
378.35	1919.94
378.576	1787.94
378.802	1702.94
379.027	1682.94
379.253	1716.94
379.478	1754.94
379.704	1734.94
379.929	1700.94
380.155	1726.94
380.38	1711.94
380.606	1744.94
380.831	1722.94
381.057	1865.94
381.282	1855.94
381.507	1801.94
381.733	1925.94
381.958	2007.94
382.184	1895.94
382.409	1767.94
382.634	1805.94
382.86	1801.94
383.085	1801.94
383.31	1812.94
383.535	2017.94
383.761	2138.94
383.986	2069.94
384.211	1917.94
384.436	1948.94
384.662	2006.94
384.887	2065.94
385.112	2007.94
385.337	2023.94
385.562	1975.94
385.787	1960.94
386.013	2059.94
386.238	2031.94
386.463	2011.94
386.688	2163.94
386.913	2246.94
387.138	2260.94
387.363	2062.94
387.588	1984.94
387.813	1987.94
388.038	2097.94
388.263	2088.94
388.488	2074.94
388.713	1917.94
388.938	1887.94
389.163	1898.94
389.387	1945.94
389.612	1945.94
389.837	2004.94
390.062	2005.94
390.287	2017.94
390.512	1972.94
390.736	1951.94
390.961	1929.94
391.186	1901.94
391.411	1923.94
391.636	2014.94
391.86	1985.94
392.085	1969.94
392.31	1913.94
392.534	1963.94
392.759	2011.94
392.984	1970.94
393.208	2055.94
393.433	2148.94
393.658	2179.94
393.882	2189.94
394.107	2017.94
394.331	1970.94
394.556	1939.94
394.78	1970.94
395.005	2111.94
395.229	2141.94
395.454	2269.94
395.678	2315.94
395.903	2209.94
396.127	2128.94
396.352	2131.94
396.576	2181.94
396.801	2225.94
397.025	2186.94
397.249	2219.94
397.474	2164.94
397.698	2147.94
397.922	2219.94
398.147	2264.94
398.371	2360.94
398.595	2375.94
398.82	2263.94
399.044	2322.94
399.268	2408.94
399.492	2568.94
399.717	2711.94
399.941	2715.94
400.165	2644.94
400.389	2592.94
400.613	2499.94
400.837	2754.94
401.062	3155.94
401.286	2739.94
401.51	2485.94
401.734	2546.94
401.958	2520.94
402.182	2306.94
402.406	2295.94
402.63	2242.94
402.854	2250.94
403.078	2299.94
403.302	2323.94
403.526	2342.94
403.75	2371.94
403.974	2399.94
404.198	2385.94
404.422	2464.94
404.645	2533.94
404.869	2516.94
405.093	2335.94
405.317	2307.94
405.541	2381.94
405.765	2396.94
405.988	2344.94
406.212	2445.94
406.436	2519.94
406.66	2528.94
406.883	2533.94
407.107	2795.94
407.331	3113.94
407.555	3265.94
407.778	3057.94
408.002	2605.94
408.226	2522.94
408.449	2543.94
408.673	2389.94
408.896	2455.94
409.12	2433.94
409.344	2418.94
409.567	2374.94
409.791	2364.94
410.014	2409.94
410.238	2489.94
410.461	2649.94
410.685	2422.94
410.908	2297.94
411.132	2357.94
411.355	2337.94
411.578	2309.94
411.802	2318.94
412.025	2363.94
412.249	2316.94
412.472	2188.94
412.695	2217.94
412.919	2272.94
413.142	2229.94
413.365	2247.94
413.589	2348.94
413.812	2400.94
414.035	2503.94
414.258	2279.94
414.482	2215.94
414.705	2303.94
414.928	2251.94
415.151	2223.94
415.374	2256.94
415.597	2285.94
415.821	2303.94
416.044	2421.94
416.267	2375.94
416.49	2189.94
416.713	2162.94
416.936	2214.94
417.159	2267.94
417.382	2313.94
417.605	2208.94
417.828	2298.94
418.051	2308.94
418.274	2309.94
418.497	2175.94
418.72	2175.94
418.943	2160.94
419.166	2323.94
419.389	2458.94
419.611	2287.94
419.834	2239.94
420.057	2302.94
420.28	2211.94
420.503	2155.94
420.726	2223.94
420.948	2210.94
421.171	2176.94
421.394	2219.94
421.617	2259.94
421.839	2206.94
422.062	2220.94
422.285	2155.94
422.507	2132.94
422.73	2132.94
422.953	2064.94
423.175	2089.94
423.398	2118.94
423.621	2136.94
423.843	2199.94
424.066	2201.94
424.288	2267.94
424.511	2273.94
424.733	2271.94
424.956	2078.94
425.178	2043.94
425.401	2097.94
425.623	2105.94
425.846	2121.94
426.068	2209.94
426.291	2267.94
426.513	2217.94
426.735	2200.94
426.958	2332.94
427.18	2497.94
427.402	2291.94
427.625	2317.94
427.847	2372.94
428.069	2174.94
428.292	2131.94
428.514	2074.94
428.736	2084.94
428.958	2107.94
429.181	2110.94
429.403	2362.94
429.625	2931.94
429.847	2610.94
430.069	2168.94
430.292	2338.94
430.514	2507.94
430.736	2262.94
430.958	2378.94
431.18	2314.94
431.402	2096.94
431.624	2122.94
431.846	2100.94
432.068	2026.94
432.29	2081.94
432.512	2103.94
432.734	2132.94
432.956	2190.94
433.178	2264.94
433.4	2228.94
433.622	2268.94
433.844	2136.94
434.066	2057.94
434.287	2093.94
434.509	2159.94
434.731	2289.94
434.953	2420.94
435.175	2392.94
435.397	2233.94
435.618	2231.94
435.84	2204.94
436.062	2202.94
436.284	2237.94
436.505	2216.94
436.727	2277.94
436.949	2163.94
437.17	2094.94
437.392	2125.94
437.614	2125.94
437.835	2064.94
438.057	2169.94
438.278	2313.94
438.5	2153.94
438.721	2147.94
438.943	2138.94
439.165	2101.94
439.386	2032.94
439.608	2102.94
439.829	2105.94
440.05	2122.94
440.272	2058.94
440.493	2039.94
440.715	2079.94
440.936	2235.94
441.158	2479.94
441.379	2401.94
441.6	2301.94
441.822	2291.94
442.043	2241.94
442.264	2169.94
442.486	2088.94
442.707	2088.94
442.928	2087.94
443.149	2189.94
443.371	2341.94
443.592	2376.94
443.813	2317.94
444.034	2239.94
444.255	2328.94
444.476	2322.94
444.698	2387.94
444.919	2380.94
445.14	2459.94
445.361	2408.94
445.582	2537.94
445.803	2415.94
446.024	2292.94
446.245	2431.94
446.466	2305.94
446.687	2197.94
446.908	2197.94
447.129	2146.94
447.35	2173.94
447.571	2147.94
447.792	2074.94
448.013	2095.94
448.234	2085.94
448.455	2162.94
448.675	2203.94
448.896	2017.94
449.117	1951.94
449.338	2059.94
449.559	2149.94
449.779	2260.94
450	2477.94
450.221	2647.94
450.442	2554.94
450.662	2256.94
450.883	1985.94
451.104	1973.94
451.324	2016.94
451.545	2106.94
451.766	2062.94
451.986	1955.94
452.207	1945.94
452.428	1900.94
452.648	1889.94
452.869	1932.94
453.089	2066.94
453.31	2088.94
453.53	2104.94
453.751	2007.94
453.971	1891.94
454.192	1956.94
454.412	2053.94
454.633	1985.94
454.853	1958.94
455.073	1860.94
455.294	1845.94
455.514	1824.94
455.734	1827.94
455.955	1913.94
456.175	1887.94
456.395	1875.94
456.616	1943.94
456.836	1977.94
457.056	1913.94
457.276	1905.94
457.497	1893.94
457.717	1766.94
457.937	1833.94
458.157	1921.94
458.377	1887.94
458.598	1857.94
458.818	1914.94
459.038	2025.94
459.258	2122.94
459.478	2115.94
459.698	2025.94
459.918	2079.94
460.138	2215.94
460.358	2257.94
460.578	2275.94
460.798	2340.94
461.018	2425.94
461.238	2343.94
461.458	2268.94
461.678	2241.94
461.898	2175.94
462.118	2152.94
462.338	2277.94
462.558	2245.94
462.777	2241.94
462.997	2343.94
463.217	2478.94
463.437	2519.94
463.657	2329.94
463.876	2282.94
464.096	2241.94
464.316	2287.94
464.536	2355.94
464.755	2377.94
464.975	2388.94
465.195	2276.94
465.414	2361.94
465.634	2417.94
465.854	2264.94
466.073	2399.94
466.293	2305.94
466.512	2056.94
466.732	2059.94
466.951	2170.94
467.171	2169.94
467.391	2020.94
467.61	2004.94
467.829	2059.94
468.049	2193.94
468.268	2433.94
468.488	2282.94
468.707	2153.94
468.927	2129.94
469.146	2053.94
469.365	1993.94
469.585	2040.94
469.804	1997.94
470.023	2058.94
470.243	2067.94
470.462	2065.94
470.681	2004.94
470.901	2060.94
471.12	2035.94
471.339	2071.94
471.558	1972.94
471.777	1959.94
471.997	2016.94
472.216	2021.94
472.435	1959.94
472.654	1989.94
472.873	2077.94
473.092	2244.94
473.311	2092.94
473.53	1954.94
473.749	1942.94
473.968	2011.94
474.187	2116.94
474.406	2262.94
474.625	2146.94
474.844	2077.94
475.063	2036.94
475.282	2156.94
475.501	2088.94
475.72	2047.94
475.939	2228.94
476.158	2140.94
476.377	2095.94
476.596	2097.94
476.814	2173.94
477.033	2136.94
477.252	2266.94
477.471	2309.94
477.69	2162.94
477.908	2174.94
478.127	2324.94
478.346	2511.94
478.564	2499.94
478.783	2480.94
479.002	2517.94
479.22	2477.94
479.439	2553.94
479.658	2871.94
479.876	2857.94
480.095	2520.94
480.313	2433.94
480.532	2316.94
480.751	2331.94
480.969	2343.94
481.188	2381.94
481.406	2320.94
481.624	2246.94
481.843	2291.94
482.061	2321.94
482.28	2395.94
482.498	2417.94
482.717	2391.94
482.935	2294.94
483.153	2299.94
483.372	2339.94
483.59	2290.94
483.808	2281.94
484.027	2355.94
484.245	2459.94
484.463	2838.94
484.681	3308.94
484.9	2513.94
485.118	2380.94
485.336	2313.94
485.554	2372.94
485.772	2535.94
485.99	2461.94
486.209	2471.94
486.427	2457.94
486.645	2480.94
486.863	2395.94
487.081	2475.94
487.299	2528.94
