Data from WStandard_LampEnergy10_LIBS07252019.E.O._I.C._HRD10591_15-54-22-928.txt Node
Date: Thu Jul 25 15:54:22 EDT 2019
User: cochatt
Spectrometer: HR+D1059
Trigger mode: 1
Integration Time (sec): 1.000000E-1
Scans to average: 1
Electric dark correction enabled: true
Nonlinearity correction enabled: false
Boxcar width: 0
XAxis mode: Wavelengths
Number of Pixels in Spectrum: 2048
>>>>>Begin Spectral Data<<<<<
223.165	-13.56
223.4	-13.56
223.635	-13.56
223.869	-15.56
224.104	-11.56
224.338	-21.56
224.573	-18.56
224.808	-17.56
225.042	0.44
225.277	-5.56
225.511	11.44
225.746	2.44
225.98	2.44
226.215	9.44
226.449	8.44
226.683	33.44
226.918	13.44
227.152	22.44
227.387	31.44
227.621	58.44
227.856	50.44
228.09	40.44
228.324	50.44
228.559	68.44
228.793	79.44
229.027	139.44
229.262	138.44
229.496	155.44
229.73	164.44
229.964	174.44
230.199	167.44
230.433	180.44
230.667	186.44
230.901	186.44
231.136	196.44
231.37	175.44
231.604	191.44
231.838	162.44
232.072	177.44
232.306	163.44
232.541	173.44
232.775	212.44
233.009	223.44
233.243	200.44
233.477	197.44
233.711	201.44
233.945	202.44
234.179	198.44
234.413	212.44
234.647	232.44
234.881	215.44
235.115	187.44
235.349	196.44
235.583	205.44
235.817	202.44
236.051	193.44
236.285	186.44
236.519	213.44
236.753	233.44
236.987	216.44
237.221	227.44
237.455	233.44
237.689	227.44
237.922	202.44
238.156	243.44
238.39	222.44
238.624	238.44
238.858	258.44
239.091	257.44
239.325	273.44
239.559	291.44
239.793	298.44
240.027	314.44
240.26	307.44
240.494	237.44
240.728	245.44
240.961	249.44
241.195	234.44
241.429	248.44
241.662	267.44
241.896	245.44
242.13	261.44
242.363	262.44
242.597	286.44
242.83	287.44
243.064	281.44
243.298	302.44
243.531	290.44
243.765	284.44
243.998	284.44
244.232	271.44
244.465	254.44
244.699	265.44
244.932	290.44
245.166	299.44
245.399	311.44
245.633	291.44
245.866	280.44
246.099	309.44
246.333	305.44
246.566	304.44
246.8	321.44
247.033	361.44
247.266	321.44
247.5	329.44
247.733	339.44
247.966	330.44
248.2	366.44
248.433	372.44
248.666	391.44
248.899	403.44
249.133	451.44
249.366	467.44
249.599	409.44
249.832	387.44
250.066	382.44
250.299	379.44
250.532	356.44
250.765	334.44
250.998	342.44
251.231	335.44
251.465	357.44
251.698	346.44
251.931	350.44
252.164	354.44
252.397	347.44
252.63	376.44
252.863	331.44
253.096	321.44
253.329	348.44
253.562	356.44
253.795	373.44
254.028	361.44
254.261	348.44
254.494	338.44
254.727	341.44
254.96	360.44
255.193	387.44
255.426	433.44
255.659	465.44
255.892	475.44
256.124	393.44
256.357	395.44
256.59	423.44
256.823	412.44
257.056	439.44
257.289	469.44
257.521	514.44
257.754	468.44
257.987	466.44
258.22	481.44
258.452	447.44
258.685	385.44
258.918	375.44
259.151	412.44
259.383	387.44
259.616	357.44
259.849	373.44
260.081	421.44
260.314	442.44
260.547	483.44
260.779	483.44
261.012	474.44
261.244	425.44
261.477	391.44
261.71	395.44
261.942	421.44
262.175	397.44
262.407	425.44
262.64	395.44
262.872	385.44
263.105	361.44
263.337	391.44
263.57	387.44
263.802	378.44
264.035	364.44
264.267	352.44
264.499	357.44
264.732	361.44
264.964	397.44
265.197	403.44
265.429	429.44
265.661	473.44
265.894	494.44
266.126	522.44
266.358	474.44
266.591	497.44
266.823	486.44
267.055	483.44
267.287	456.44
267.52	463.44
267.752	460.44
267.984	454.44
268.216	461.44
268.448	498.44
268.681	455.44
268.913	419.44
269.145	393.44
269.377	413.44
269.609	454.44
269.841	515.44
270.073	605.44
270.306	636.44
270.538	633.44
270.77	544.44
271.002	494.44
271.234	484.44
271.466	495.44
271.698	521.44
271.93	625.44
272.162	599.44
272.394	548.44
272.626	494.44
272.858	460.44
273.09	414.44
273.322	404.44
273.553	399.44
273.785	423.44
274.017	446.44
274.249	474.44
274.481	436.44
274.713	389.44
274.945	428.44
275.176	413.44
275.408	433.44
275.64	431.44
275.872	407.44
276.104	458.44
276.335	478.44
276.567	548.44
276.799	523.44
277.031	498.44
277.262	494.44
277.494	506.44
277.726	545.44
277.957	513.44
278.189	473.44
278.421	479.44
278.652	442.44
278.884	423.44
279.115	448.44
279.347	428.44
279.579	469.44
279.81	455.44
280.042	480.44
280.273	540.44
280.505	523.44
280.736	539.44
280.968	498.44
281.199	443.44
281.431	441.44
281.662	422.44
281.894	445.44
282.125	460.44
282.356	457.44
282.588	460.44
282.819	483.44
283.051	505.44
283.282	524.44
283.513	506.44
283.745	430.44
283.976	425.44
284.207	441.44
284.439	434.44
284.67	465.44
284.901	459.44
285.132	471.44
285.364	458.44
285.595	465.44
285.826	451.44
286.057	473.44
286.288	467.44
286.52	477.44
286.751	522.44
286.982	515.44
287.213	469.44
287.444	481.44
287.675	439.44
287.906	467.44
288.138	490.44
288.369	472.44
288.6	471.44
288.831	465.44
289.062	457.44
289.293	475.44
289.524	469.44
289.755	470.44
289.986	470.44
290.217	442.44
290.448	454.44
290.679	461.44
290.91	486.44
291.141	502.44
291.371	494.44
291.602	500.44
291.833	492.44
292.064	504.44
292.295	486.44
292.526	520.44
292.757	516.44
292.987	477.44
293.218	495.44
293.449	543.44
293.68	579.44
293.91	592.44
294.141	555.44
294.372	567.44
294.603	572.44
294.833	577.44
295.064	547.44
295.295	492.44
295.525	475.44
295.756	459.44
295.987	445.44
296.217	439.44
296.448	492.44
296.679	466.44
296.909	453.44
297.14	460.44
297.37	486.44
297.601	518.44
297.831	536.44
298.062	539.44
298.292	496.44
298.523	471.44
298.753	483.44
298.984	483.44
299.214	511.44
299.445	520.44
299.675	513.44
299.905	503.44
300.136	489.44
300.366	486.44
300.597	465.44
300.827	488.44
301.057	501.44
301.288	543.44
301.518	531.44
301.748	538.44
301.979	567.44
302.209	578.44
302.439	593.44
302.669	604.44
302.9	544.44
303.13	527.44
303.36	532.44
303.59	518.44
303.82	521.44
304.051	530.44
304.281	535.44
304.511	573.44
304.741	602.44
304.971	626.44
305.201	634.44
305.431	569.44
305.661	490.44
305.891	463.44
306.121	449.44
306.352	501.44
306.582	521.44
306.812	546.44
307.042	601.44
307.272	603.44
307.502	591.44
307.731	631.44
307.961	657.44
308.191	585.44
308.421	536.44
308.651	537.44
308.881	509.44
309.111	518.44
309.341	509.44
309.571	513.44
309.8	506.44
310.03	515.44
310.26	525.44
310.49	502.44
310.72	531.44
310.949	533.44
311.179	540.44
311.409	547.44
311.639	535.44
311.868	533.44
312.098	526.44
312.328	514.44
312.557	513.44
312.787	515.44
313.017	524.44
313.246	540.44
313.476	535.44
313.706	546.44
313.935	552.44
314.165	569.44
314.394	583.44
314.624	582.44
314.853	639.44
315.083	641.44
315.312	614.44
315.542	587.44
315.771	562.44
316.001	571.44
316.23	569.44
316.46	556.44
316.689	565.44
316.919	537.44
317.148	542.44
317.377	556.44
317.607	602.44
317.836	695.44
318.065	653.44
318.295	623.44
318.524	606.44
318.753	575.44
318.983	579.44
319.212	549.44
319.441	551.44
319.67	579.44
319.9	585.44
320.129	618.44
320.358	639.44
320.587	638.44
320.816	627.44
321.046	609.44
321.275	596.44
321.504	620.44
321.733	633.44
321.962	615.44
322.191	582.44
322.42	574.44
322.649	542.44
322.878	544.44
323.108	555.44
323.337	590.44
323.566	583.44
323.795	569.44
324.024	577.44
324.253	570.44
324.482	601.44
324.71	561.44
324.939	509.44
325.168	568.44
325.397	582.44
325.626	569.44
325.855	605.44
326.084	574.44
326.313	589.44
326.542	594.44
326.77	616.44
326.999	597.44
327.228	558.44
327.457	546.44
327.686	538.44
327.914	567.44
328.143	569.44
328.372	578.44
328.6	566.44
328.829	544.44
329.058	552.44
329.287	581.44
329.515	573.44
329.744	596.44
329.972	628.44
330.201	659.44
330.43	621.44
330.658	606.44
330.887	592.44
331.115	595.44
331.344	629.44
331.572	605.44
331.801	591.44
332.03	616.44
332.258	606.44
332.486	632.44
332.715	630.44
332.943	619.44
333.172	588.44
333.4	617.44
333.629	646.44
333.857	674.44
334.085	771.44
334.314	834.44
334.542	853.44
334.771	805.44
334.999	706.44
335.227	689.44
335.455	655.44
335.684	667.44
335.912	664.44
336.14	671.44
336.369	613.44
336.597	609.44
336.825	607.44
337.053	629.44
337.281	689.44
337.51	723.44
337.738	727.44
337.966	679.44
338.194	630.44
338.422	607.44
338.65	594.44
338.878	587.44
339.106	577.44
339.334	586.44
339.562	575.44
339.79	576.44
340.018	641.44
340.246	645.44
340.474	632.44
340.702	611.44
340.93	637.44
341.158	609.44
341.386	609.44
341.614	629.44
341.842	613.44
342.07	612.44
342.298	607.44
342.526	597.44
342.754	636.44
342.981	621.44
343.209	587.44
343.437	602.44
343.665	618.44
343.893	623.44
344.12	647.44
344.348	643.44
344.576	619.44
344.804	602.44
345.031	615.44
345.259	615.44
345.487	570.44
345.714	569.44
345.942	551.44
346.17	590.44
346.397	584.44
346.625	596.44
346.853	565.44
347.08	551.44
347.308	573.44
347.535	594.44
347.763	568.44
347.99	596.44
348.218	568.44
348.445	558.44
348.673	579.44
348.9	603.44
349.128	642.44
349.355	629.44
349.583	597.44
349.81	564.44
350.037	543.44
350.265	533.44
350.492	546.44
350.72	568.44
350.947	573.44
351.174	610.44
351.402	561.44
351.629	513.44
351.856	549.44
352.083	527.44
352.311	552.44
352.538	571.44
352.765	600.44
352.992	597.44
353.22	558.44
353.447	563.44
353.674	580.44
353.901	585.44
354.128	551.44
354.355	572.44
354.583	598.44
354.81	609.44
355.037	599.44
355.264	594.44
355.491	582.44
355.718	575.44
355.945	591.44
356.172	559.44
356.399	550.44
356.626	589.44
356.853	613.44
357.08	655.44
357.307	689.44
357.534	646.44
357.761	591.44
357.988	556.44
358.215	547.44
358.441	557.44
358.668	563.44
358.895	571.44
359.122	630.44
359.349	655.44
359.576	636.44
359.802	582.44
360.029	567.44
360.256	550.44
360.483	571.44
360.709	589.44
360.936	590.44
361.163	643.44
361.39	712.44
361.616	724.44
361.843	722.44
362.07	637.44
362.296	569.44
362.523	561.44
362.749	605.44
362.976	592.44
363.203	598.44
363.429	587.44
363.656	577.44
363.882	604.44
364.109	652.44
364.335	667.44
364.562	631.44
364.788	600.44
365.015	588.44
365.241	562.44
365.468	590.44
365.694	626.44
365.92	647.44
366.147	592.44
366.373	573.44
366.599	565.44
366.826	560.44
367.052	581.44
367.278	602.44
367.505	604.44
367.731	625.44
367.957	610.44
368.184	617.44
368.41	699.44
368.636	673.44
368.862	689.44
369.089	669.44
369.315	641.44
369.541	639.44
369.767	590.44
369.993	581.44
370.219	607.44
370.445	627.44
370.672	647.44
370.898	685.44
371.124	682.44
371.35	638.44
371.576	661.44
371.802	690.44
372.028	665.44
372.254	634.44
372.48	616.44
372.706	616.44
372.932	629.44
373.158	635.44
373.384	623.44
373.61	647.44
373.835	638.44
374.061	648.44
374.287	629.44
374.513	637.44
374.739	652.44
374.965	648.44
375.191	652.44
375.416	665.44
375.642	676.44
375.868	711.44
376.094	754.44
376.319	667.44
376.545	650.44
376.771	687.44
376.997	731.44
377.222	678.44
377.448	671.44
377.674	688.44
377.899	689.44
378.125	726.44
378.35	697.44
378.576	647.44
378.802	617.44
379.027	622.44
379.253	636.44
379.478	648.44
379.704	651.44
379.929	647.44
380.155	654.44
380.38	656.44
380.606	669.44
380.831	673.44
381.057	714.44
381.282	715.44
381.507	689.44
381.733	733.44
381.958	754.44
382.184	702.44
382.409	673.44
382.634	708.44
382.86	681.44
383.085	692.44
383.31	719.44
383.535	767.44
383.761	770.44
383.986	763.44
384.211	735.44
384.436	753.44
384.662	774.44
384.887	793.44
385.112	745.44
385.337	755.44
385.562	748.44
385.787	784.44
386.013	773.44
386.238	754.44
386.463	781.44
386.688	856.44
386.913	883.44
387.138	850.44
387.363	799.44
387.588	764.44
387.813	755.44
388.038	782.44
388.263	809.44
388.488	760.44
388.713	753.44
388.938	747.44
389.163	741.44
389.387	778.44
389.612	747.44
389.837	773.44
390.062	777.44
390.287	793.44
390.512	792.44
390.736	766.44
390.961	754.44
391.186	742.44
391.411	759.44
391.636	755.44
391.86	788.44
392.085	766.44
392.31	753.44
392.534	773.44
392.759	774.44
392.984	764.44
393.208	771.44
393.433	810.44
393.658	833.44
393.882	811.44
394.107	798.44
394.331	788.44
394.556	768.44
394.78	818.44
395.005	826.44
395.229	837.44
395.454	890.44
395.678	872.44
395.903	848.44
396.127	829.44
396.352	850.44
396.576	868.44
396.801	876.44
397.025	833.44
397.249	833.44
397.474	819.44
397.698	867.44
397.922	874.44
398.147	888.44
398.371	933.44
398.595	915.44
398.82	865.44
399.044	921.44
399.268	929.44
399.492	973.44
399.717	1018.44
399.941	1000.44
400.165	995.44
400.389	985.44
400.613	981.44
400.837	1131.44
401.062	1204.44
401.286	1006.44
401.51	1009.44
401.734	976.44
401.958	970.44
402.182	914.44
402.406	911.44
402.63	889.44
402.854	891.44
403.078	884.44
403.302	907.44
403.526	908.44
403.75	953.44
403.974	969.44
404.198	932.44
404.422	979.44
404.645	1021.44
404.869	978.44
405.093	938.44
405.317	914.44
405.541	910.44
405.765	950.44
405.988	929.44
406.212	984.44
406.436	988.44
406.66	1034.44
406.883	1044.44
407.107	1166.44
407.331	1282.44
407.555	1295.44
407.778	1155.44
408.002	988.44
408.226	963.44
408.449	983.44
408.673	965.44
408.896	941.44
409.12	977.44
409.344	936.44
409.567	968.44
409.791	970.44
410.014	975.44
410.238	1048.44
410.461	1069.44
410.685	968.44
410.908	936.44
411.132	963.44
411.355	959.44
411.578	949.44
411.802	975.44
412.025	965.44
412.249	936.44
412.472	906.44
412.695	916.44
412.919	953.44
413.142	917.44
413.365	931.44
413.589	960.44
413.812	1028.44
414.035	1044.44
414.258	975.44
414.482	948.44
414.705	931.44
414.928	924.44
415.151	907.44
415.374	917.44
415.597	945.44
415.821	962.44
416.044	941.44
416.267	948.44
416.49	939.44
416.713	936.44
416.936	970.44
417.159	1000.44
417.382	974.44
417.605	931.44
417.828	967.44
418.051	973.44
418.274	961.44
418.497	929.44
418.72	924.44
418.943	975.44
419.166	983.44
419.389	1005.44
419.611	953.44
419.834	942.44
420.057	947.44
420.28	939.44
420.503	955.44
420.726	976.44
420.948	966.44
421.171	931.44
421.394	977.44
421.617	1000.44
421.839	980.44
422.062	947.44
422.285	936.44
422.507	943.44
422.73	893.44
422.953	894.44
423.175	923.44
423.398	950.44
423.621	942.44
423.843	917.44
424.066	974.44
424.288	1047.44
424.511	1107.44
424.733	1017.44
424.956	952.44
425.178	957.44
425.401	924.44
425.623	951.44
425.846	924.44
426.068	992.44
426.291	961.44
426.513	975.44
426.735	975.44
426.958	1056.44
427.18	1058.44
427.402	998.44
427.625	1019.44
427.847	1020.44
428.069	949.44
428.292	956.44
428.514	940.44
428.736	917.44
428.958	909.44
429.181	939.44
429.403	1084.44
429.625	1279.44
429.847	1047.44
430.069	947.44
430.292	1085.44
430.514	1049.44
430.736	963.44
430.958	995.44
431.18	946.44
431.402	905.44
431.624	883.44
431.846	817.44
432.068	742.44
432.29	761.44
432.512	833.44
432.734	890.44
432.956	952.44
433.178	996.44
433.4	960.44
433.622	971.44
433.844	910.44
434.066	863.44
434.287	819.44
434.509	784.44
434.731	873.44
434.953	938.44
435.175	926.44
435.397	928.44
435.618	901.44
435.84	867.44
436.062	870.44
436.284	906.44
436.505	949.44
436.727	979.44
436.949	936.44
437.17	907.44
437.392	905.44
437.614	870.44
437.835	827.44
438.057	825.44
438.278	861.44
438.5	875.44
438.721	923.44
438.943	941.44
439.165	916.44
439.386	929.44
439.608	970.44
439.829	961.44
440.05	994.44
440.272	965.44
440.493	980.44
440.715	969.44
440.936	1015.44
441.158	1080.44
441.379	1032.44
441.6	1061.44
441.822	1045.44
442.043	1011.44
442.264	1011.44
442.486	985.44
442.707	964.44
442.928	975.44
443.149	981.44
443.371	1025.44
443.592	1035.44
443.813	1030.44
444.034	1046.44
444.255	1007.44
444.476	1063.44
444.698	1051.44
444.919	1051.44
445.14	1146.44
445.361	1141.44
445.582	1082.44
445.803	1081.44
446.024	1055.44
446.245	1091.44
446.466	1101.44
446.687	1050.44
446.908	1063.44
447.129	1022.44
447.35	1039.44
447.571	1022.44
447.792	990.44
448.013	974.44
448.234	993.44
448.455	1027.44
448.675	1009.44
448.896	922.44
449.117	909.44
449.338	935.44
449.559	971.44
449.779	959.44
450	1039.44
450.221	1068.44
450.442	1037.44
450.662	957.44
450.883	905.44
451.104	891.44
451.324	901.44
451.545	910.44
451.766	892.44
451.986	861.44
452.207	830.44
452.428	811.44
452.648	820.44
452.869	803.44
453.089	804.44
453.31	811.44
453.53	801.44
453.751	743.44
453.971	733.44
454.192	748.44
454.412	798.44
454.633	789.44
454.853	798.44
455.073	778.44
455.294	799.44
455.514	781.44
455.734	790.44
455.955	764.44
456.175	755.44
456.395	749.44
456.616	753.44
456.836	741.44
457.056	755.44
457.276	747.44
457.497	722.44
457.717	699.44
457.937	718.44
458.157	734.44
458.377	697.44
458.598	686.44
458.818	686.44
459.038	710.44
459.258	707.44
459.478	741.44
459.698	726.44
459.918	753.44
460.138	805.44
460.358	854.44
460.578	850.44
460.798	885.44
461.018	921.44
461.238	891.44
461.458	865.44
461.678	843.44
461.898	830.44
462.118	834.44
462.338	844.44
462.558	869.44
462.777	857.44
462.997	873.44
463.217	892.44
463.437	889.44
463.657	839.44
463.876	829.44
464.096	828.44
464.316	868.44
464.536	893.44
464.755	885.44
464.975	915.44
465.195	900.44
465.414	885.44
465.634	894.44
465.854	892.44
466.073	986.44
466.293	927.44
466.512	850.44
466.732	879.44
466.951	932.44
467.171	906.44
467.391	911.44
467.61	875.44
467.829	936.44
468.049	996.44
468.268	1079.44
468.488	983.44
468.707	949.44
468.927	927.44
469.146	919.44
469.365	957.44
469.585	961.44
469.804	956.44
470.023	941.44
470.243	953.44
470.462	957.44
470.681	923.44
470.901	948.44
471.12	937.44
471.339	931.44
471.558	901.44
471.777	905.44
471.997	911.44
472.216	851.44
472.435	812.44
472.654	792.44
472.873	814.44
473.092	854.44
473.311	859.44
473.53	831.44
473.749	819.44
473.968	847.44
474.187	858.44
474.406	861.44
474.625	867.44
474.844	876.44
475.063	886.44
475.282	900.44
475.501	840.44
475.72	839.44
475.939	929.44
476.158	877.44
476.377	866.44
476.596	874.44
476.814	847.44
477.033	839.44
477.252	859.44
477.471	929.44
477.69	938.44
477.908	979.44
478.127	1003.44
478.346	1049.44
478.564	1004.44
478.783	1021.44
479.002	1065.44
479.22	1057.44
479.439	1057.44
479.658	1087.44
479.876	992.44
480.095	936.44
480.313	874.44
480.532	928.44
480.751	893.44
480.969	843.44
481.188	822.44
481.406	799.44
481.624	781.44
481.843	789.44
482.061	823.44
482.28	912.44
482.498	894.44
482.717	922.44
482.935	919.44
483.153	982.44
483.372	1042.44
483.59	1022.44
483.808	967.44
484.027	957.44
484.245	1033.44
484.463	1242.44
484.681	1313.44
484.9	1037.44
485.118	984.44
485.336	945.44
485.554	968.44
485.772	912.44
485.99	887.44
486.209	900.44
486.427	919.44
486.645	939.44
486.863	1011.44
487.081	1043.44
487.299	1005.44
487.517	1012.44
487.735	1117.44
487.953	1215.44
488.171	1224.44
488.389	1165.44
488.607	1106.44
488.825	1165.44
489.043	1075.44
489.261	1021.44
489.479	1061.44
489.696	1046.44
489.914	1077.44
490.132	1051.44
490.35	1100.44
490.568	1177.44
490.786	1212.44
491.003	1199.44
491.221	1267.44
491.439	1322.44
491.657	1324.44
491.874	1394.44
492.092	1471.44
492.31	1503.44
492.527	1482.44
492.745	1379.44
492.963	1368.44
493.18	1307.44
493.398	1374.44
493.615	1336.44
493.833	1329.44
494.05	1259.44
494.268	1250.44
494.485	1263.44
494.703	1237.44
494.92	1271.44
495.138	1223.44
495.355	1236.44
495.573	1286.44
495.79	1315.44
496.008	1273.44
496.225	1227.44
496.442	1268.44
496.66	1272.44
496.877	1250.44
497.094	1281.44
497.312	1230.44
497.529	1219.44
497.746	1228.44
497.963	1281.44
498.181	1362.44
498.398	1309.44
498.615	1229.44
498.832	1210.44
499.049	1224.44
499.267	1202.44
499.484	1278.44
499.701	1342.44
499.918	1409.44
500.135	1497.44
