Data from WStandard_LampEnergy8_LIBS07252019.E.O._I.C._HRD10591_15-59-01-929.txt Node
Date: Thu Jul 25 15:59:01 EDT 2019
User: cochatt
Spectrometer: HR+D1059
Trigger mode: 1
Integration Time (sec): 1.000000E-1
Scans to average: 1
Electric dark correction enabled: true
Nonlinearity correction enabled: false
Boxcar width: 0
XAxis mode: Wavelengths
Number of Pixels in Spectrum: 2048
>>>>>Begin Spectral Data<<<<<
223.165	-1.19
223.4	-1.19
223.635	-1.19
223.869	-23.19
224.104	-21.19
224.338	-15.19
224.573	-25.19
224.808	-7.19
225.042	-5.19
225.277	-1.19
225.511	-7.19
225.746	-3.19
225.98	2.81
226.215	17.81
226.449	10.81
226.683	18.81
226.918	19.81
227.152	39.81
227.387	39.81
227.621	42.81
227.856	43.81
228.09	49.81
228.324	45.81
228.559	47.81
228.793	103.81
229.027	206.81
229.262	238.81
229.496	212.81
229.73	231.81
229.964	254.81
230.199	260.81
230.433	246.81
230.667	266.81
230.901	300.81
231.136	276.81
231.37	250.81
231.604	264.81
231.838	277.81
232.072	263.81
232.306	244.81
232.541	282.81
232.775	316.81
233.009	326.81
233.243	316.81
233.477	279.81
233.711	323.81
233.945	313.81
234.179	308.81
234.413	324.81
234.647	337.81
234.881	339.81
235.115	316.81
235.349	292.81
235.583	303.81
235.817	311.81
236.051	298.81
236.285	292.81
236.519	316.81
236.753	362.81
236.987	362.81
237.221	355.81
237.455	373.81
237.689	378.81
237.922	375.81
238.156	354.81
238.39	367.81
238.624	393.81
238.858	393.81
239.091	409.81
239.325	418.81
239.559	484.81
239.793	497.81
240.027	546.81
240.26	499.81
240.494	388.81
240.728	379.81
240.961	388.81
241.195	390.81
241.429	423.81
241.662	404.81
241.896	379.81
242.13	409.81
242.363	441.81
242.597	455.81
242.83	441.81
243.064	461.81
243.298	490.81
243.531	454.81
243.765	465.81
243.998	474.81
244.232	410.81
244.465	419.81
244.699	416.81
244.932	456.81
245.166	531.81
245.399	483.81
245.633	467.81
245.866	459.81
246.099	484.81
246.333	479.81
246.566	506.81
246.8	550.81
247.033	584.81
247.266	528.81
247.5	530.81
247.733	525.81
247.966	571.81
248.2	601.81
248.433	620.81
248.666	618.81
248.899	666.81
249.133	743.81
249.366	820.81
249.599	685.81
249.832	607.81
250.066	615.81
250.299	641.81
250.532	609.81
250.765	561.81
250.998	589.81
251.231	598.81
251.465	621.81
251.698	602.81
251.931	586.81
252.164	611.81
252.397	615.81
252.63	608.81
252.863	544.81
253.096	547.81
253.329	599.81
253.562	623.81
253.795	631.81
254.028	614.81
254.261	578.81
254.494	589.81
254.727	542.81
254.96	597.81
255.193	648.81
255.426	711.81
255.659	800.81
255.892	797.81
256.124	684.81
256.357	656.81
256.59	701.81
256.823	712.81
257.056	748.81
257.289	834.81
257.521	904.81
257.754	811.81
257.987	784.81
258.22	837.81
258.452	820.81
258.685	725.81
258.918	682.81
259.151	671.81
259.383	656.81
259.616	583.81
259.849	621.81
260.081	703.81
260.314	780.81
260.547	838.81
260.779	828.81
261.012	763.81
261.244	708.81
261.477	676.81
261.71	711.81
261.942	703.81
262.175	693.81
262.407	711.81
262.64	679.81
262.872	632.81
263.105	634.81
263.337	631.81
263.57	646.81
263.802	654.81
264.035	605.81
264.267	569.81
264.499	571.81
264.732	608.81
264.964	664.81
265.197	667.81
265.429	706.81
265.661	765.81
265.894	863.81
266.126	869.81
266.358	811.81
266.591	807.81
266.823	875.81
267.055	788.81
267.287	776.81
267.52	756.81
267.752	755.81
267.984	763.81
268.216	786.81
268.448	807.81
268.681	796.81
268.913	723.81
269.145	712.81
269.377	720.81
269.609	780.81
269.841	902.81
270.073	1021.81
270.306	1092.81
270.538	1135.81
270.77	953.81
271.002	849.81
271.234	810.81
271.466	815.81
271.698	969.81
271.93	1091.81
272.162	1068.81
272.394	953.81
272.626	901.81
272.858	815.81
273.09	697.81
273.322	708.81
273.553	685.81
273.785	678.81
274.017	721.81
274.249	799.81
274.481	777.81
274.713	711.81
274.945	722.81
275.176	710.81
275.408	705.81
275.64	677.81
275.872	687.81
276.104	760.81
276.335	877.81
276.567	936.81
276.799	921.81
277.031	853.81
277.262	816.81
277.494	855.81
277.726	904.81
277.957	883.81
278.189	826.81
278.421	781.81
278.652	713.81
278.884	715.81
279.115	765.81
279.347	743.81
279.579	732.81
279.81	734.81
280.042	823.81
280.273	869.81
280.505	887.81
280.736	875.81
280.968	812.81
281.199	738.81
281.431	713.81
281.662	718.81
281.894	735.81
282.125	753.81
282.356	780.81
282.588	772.81
282.819	789.81
283.051	851.81
283.282	901.81
283.513	855.81
283.745	755.81
283.976	716.81
284.207	739.81
284.439	721.81
284.67	736.81
284.901	774.81
285.132	801.81
285.364	781.81
285.595	772.81
285.826	780.81
286.057	743.81
286.288	760.81
286.52	804.81
286.751	856.81
286.982	867.81
287.213	806.81
287.444	751.81
287.675	787.81
287.906	792.81
288.138	868.81
288.369	809.81
288.6	769.81
288.831	771.81
289.062	741.81
289.293	748.81
289.524	773.81
289.755	793.81
289.986	795.81
290.217	740.81
290.448	770.81
290.679	796.81
290.91	790.81
291.141	811.81
291.371	833.81
291.602	827.81
291.833	799.81
292.064	870.81
292.295	822.81
292.526	865.81
292.757	886.81
292.987	820.81
293.218	802.81
293.449	890.81
293.68	957.81
293.91	1044.81
294.141	965.81
294.372	907.81
294.603	939.81
294.833	989.81
295.064	943.81
295.295	854.81
295.525	816.81
295.756	759.81
295.987	746.81
296.217	742.81
296.448	770.81
296.679	761.81
296.909	803.81
297.14	774.81
297.37	802.81
297.601	864.81
297.831	921.81
298.062	882.81
298.292	812.81
298.523	791.81
298.753	825.81
298.984	792.81
299.214	785.81
299.445	838.81
299.675	855.81
299.905	864.81
300.136	827.81
300.366	767.81
300.597	773.81
300.827	769.81
301.057	818.81
301.288	854.81
301.518	831.81
301.748	872.81
301.979	913.81
302.209	936.81
302.439	987.81
302.669	1002.81
302.9	934.81
303.13	876.81
303.36	849.81
303.59	883.81
303.82	858.81
304.051	884.81
304.281	875.81
304.511	857.81
304.741	971.81
304.971	1039.81
305.201	1089.81
305.431	945.81
305.661	826.81
305.891	776.81
306.121	795.81
306.352	803.81
306.582	843.81
306.812	908.81
307.042	961.81
307.272	951.81
307.502	997.81
307.731	1102.81
307.961	1095.81
308.191	995.81
308.421	888.81
308.651	866.81
308.881	860.81
309.111	821.81
309.341	802.81
309.571	820.81
309.8	840.81
310.03	834.81
310.26	837.81
310.49	827.81
310.72	853.81
310.949	891.81
311.179	879.81
311.409	857.81
311.639	852.81
311.868	841.81
312.098	867.81
312.328	833.81
312.557	852.81
312.787	877.81
313.017	873.81
313.246	865.81
313.476	895.81
313.706	921.81
313.935	890.81
314.165	923.81
314.394	951.81
314.624	989.81
314.853	1027.81
315.083	1071.81
315.312	1065.81
315.542	984.81
315.771	923.81
316.001	931.81
316.23	966.81
316.46	964.81
316.689	934.81
316.919	876.81
317.148	901.81
317.377	903.81
317.607	979.81
317.836	1065.81
318.065	1073.81
318.295	1037.81
318.524	1013.81
318.753	963.81
318.983	950.81
319.212	928.81
319.441	927.81
319.67	924.81
319.9	929.81
320.129	988.81
320.358	1056.81
320.587	1059.81
320.816	1034.81
321.046	996.81
321.275	971.81
321.504	998.81
321.733	1040.81
321.962	1018.81
322.191	969.81
322.42	955.81
322.649	923.81
322.878	935.81
323.108	943.81
323.337	945.81
323.566	966.81
323.795	960.81
324.024	965.81
324.253	964.81
324.482	957.81
324.71	909.81
324.939	870.81
325.168	901.81
325.397	952.81
325.626	971.81
325.855	974.81
326.084	929.81
326.313	956.81
326.542	951.81
326.77	994.81
326.999	969.81
327.228	909.81
327.457	873.81
327.686	879.81
327.914	937.81
328.143	955.81
328.372	947.81
328.6	939.81
328.829	908.81
329.058	919.81
329.287	906.81
329.515	963.81
329.744	985.81
329.972	1041.81
330.201	1034.81
330.43	1004.81
330.658	972.81
330.887	1003.81
331.115	998.81
331.344	1014.81
331.572	971.81
331.801	960.81
332.03	1011.81
332.258	1023.81
332.486	994.81
332.715	1012.81
332.943	1025.81
333.172	1013.81
333.4	985.81
333.629	1038.81
333.857	1122.81
334.085	1188.81
334.314	1367.81
334.542	1433.81
334.771	1319.81
334.999	1138.81
335.227	1091.81
335.455	1047.81
335.684	1060.81
335.912	1075.81
336.14	1115.81
336.369	1030.81
336.597	1025.81
336.825	998.81
337.053	1067.81
337.281	1119.81
337.51	1159.81
337.738	1186.81
337.966	1077.81
338.194	1014.81
338.422	960.81
338.65	992.81
338.878	964.81
339.106	947.81
339.334	937.81
339.562	950.81
339.79	973.81
340.018	1024.81
340.246	1066.81
340.474	1063.81
340.702	1023.81
340.93	1042.81
341.158	1009.81
341.386	989.81
341.614	1000.81
341.842	1001.81
342.07	1004.81
342.298	1033.81
342.526	991.81
342.754	984.81
342.981	987.81
343.209	972.81
343.437	984.81
343.665	984.81
343.893	1008.81
344.12	1059.81
344.348	1071.81
344.576	988.81
344.804	992.81
345.031	983.81
345.259	1000.81
345.487	967.81
345.714	905.81
345.942	913.81
346.17	942.81
346.397	938.81
346.625	933.81
346.853	883.81
347.08	891.81
347.308	911.81
347.535	923.81
347.763	960.81
347.99	916.81
348.218	888.81
348.445	914.81
348.673	927.81
348.9	955.81
349.128	1004.81
349.355	1017.81
349.583	982.81
349.81	913.81
350.037	896.81
350.265	867.81
350.492	917.81
350.72	928.81
350.947	937.81
351.174	935.81
351.402	899.81
351.629	874.81
351.856	860.81
352.083	844.81
352.311	896.81
352.538	892.81
352.765	944.81
352.992	955.81
353.22	913.81
353.447	903.81
353.674	909.81
353.901	915.81
354.128	891.81
354.355	917.81
354.583	947.81
354.81	975.81
355.037	938.81
355.264	940.81
355.491	918.81
355.718	959.81
355.945	897.81
356.172	917.81
356.399	897.81
356.626	919.81
356.853	961.81
357.08	1031.81
357.307	1137.81
357.534	1082.81
357.761	944.81
357.988	905.81
358.215	895.81
358.441	884.81
358.668	909.81
358.895	900.81
359.122	982.81
359.349	1053.81
359.576	1025.81
359.802	924.81
360.029	895.81
360.256	893.81
360.483	924.81
360.709	972.81
360.936	993.81
361.163	1053.81
361.39	1106.81
361.616	1167.81
361.843	1144.81
362.07	1055.81
362.296	951.81
362.523	904.81
362.749	923.81
362.976	957.81
363.203	964.81
363.429	934.81
363.656	889.81
363.882	972.81
364.109	1060.81
364.335	1098.81
364.562	1025.81
364.788	982.81
365.015	933.81
365.241	914.81
365.468	977.81
365.694	969.81
365.92	1012.81
366.147	961.81
366.373	913.81
366.599	889.81
366.826	884.81
367.052	920.81
367.278	926.81
367.505	955.81
367.731	961.81
367.957	956.81
368.184	1011.81
368.41	1045.81
368.636	1073.81
368.862	1072.81
369.089	1037.81
369.315	994.81
369.541	962.81
369.767	945.81
369.993	932.81
370.219	950.81
370.445	995.81
370.672	1027.81
370.898	1095.81
371.124	1024.81
371.35	1024.81
371.576	1040.81
371.802	1039.81
372.028	1009.81
372.254	971.81
372.48	927.81
372.706	959.81
372.932	944.81
373.158	943.81
373.384	965.81
373.61	1024.81
373.835	1037.81
374.061	986.81
374.287	993.81
374.513	972.81
374.739	994.81
374.965	1003.81
375.191	1055.81
375.416	1009.81
375.642	1054.81
375.868	1076.81
376.094	1105.81
376.319	1016.81
376.545	996.81
376.771	1030.81
376.997	1096.81
377.222	1042.81
377.448	1026.81
377.674	1047.81
377.899	1043.81
378.125	1109.81
378.35	1101.81
378.576	985.81
378.802	936.81
379.027	967.81
379.253	958.81
379.478	988.81
379.704	1012.81
379.929	979.81
380.155	969.81
380.38	1015.81
380.606	1019.81
380.831	1029.81
381.057	1100.81
381.282	1064.81
381.507	1069.81
381.733	1121.81
381.958	1144.81
382.184	1055.81
382.409	1047.81
382.634	1042.81
382.86	1032.81
383.085	1044.81
383.31	1088.81
383.535	1225.81
383.761	1194.81
383.986	1181.81
384.211	1138.81
384.436	1109.81
384.662	1175.81
384.887	1199.81
385.112	1125.81
385.337	1165.81
385.562	1149.81
385.787	1121.81
386.013	1161.81
386.238	1170.81
386.463	1159.81
386.688	1235.81
386.913	1306.81
387.138	1253.81
387.363	1173.81
387.588	1220.81
387.813	1175.81
388.038	1209.81
388.263	1223.81
388.488	1140.81
388.713	1087.81
388.938	1112.81
389.163	1114.81
389.387	1147.81
389.612	1113.81
389.837	1160.81
390.062	1166.81
390.287	1120.81
390.512	1147.81
390.736	1090.81
390.961	1108.81
391.186	1053.81
391.411	1088.81
391.636	1135.81
391.86	1136.81
392.085	1124.81
392.31	1157.81
392.534	1109.81
392.759	1145.81
392.984	1169.81
393.208	1153.81
393.433	1194.81
393.658	1219.81
393.882	1227.81
394.107	1152.81
394.331	1140.81
394.556	1119.81
394.78	1171.81
395.005	1219.81
395.229	1252.81
395.454	1311.81
395.678	1324.81
395.903	1237.81
396.127	1211.81
396.352	1183.81
396.576	1247.81
396.801	1254.81
397.025	1253.81
397.249	1258.81
397.474	1212.81
397.698	1201.81
397.922	1250.81
398.147	1340.81
398.371	1367.81
398.595	1339.81
398.82	1337.81
399.044	1360.81
399.268	1360.81
399.492	1447.81
399.717	1483.81
399.941	1474.81
400.165	1467.81
400.389	1459.81
400.613	1467.81
400.837	1680.81
401.062	1827.81
401.286	1531.81
401.51	1460.81
401.734	1455.81
401.958	1448.81
402.182	1320.81
402.406	1320.81
402.63	1269.81
402.854	1299.81
403.078	1299.81
403.302	1334.81
403.526	1327.81
403.75	1400.81
403.974	1389.81
404.198	1380.81
404.422	1435.81
404.645	1476.81
404.869	1443.81
405.093	1323.81
405.317	1309.81
405.541	1321.81
405.765	1331.81
405.988	1313.81
406.212	1412.81
406.436	1413.81
406.66	1447.81
406.883	1492.81
407.107	1685.81
407.331	1786.81
407.555	1915.81
407.778	1685.81
408.002	1452.81
408.226	1449.81
408.449	1423.81
408.673	1392.81
408.896	1399.81
409.12	1439.81
409.344	1404.81
409.567	1340.81
409.791	1381.81
410.014	1417.81
410.238	1487.81
410.461	1546.81
410.685	1389.81
410.908	1343.81
411.132	1357.81
411.355	1354.81
411.578	1340.81
411.802	1326.81
412.025	1355.81
412.249	1387.81
412.472	1291.81
412.695	1294.81
412.919	1286.81
413.142	1306.81
413.365	1323.81
413.589	1375.81
413.812	1406.81
414.035	1421.81
414.258	1323.81
414.482	1291.81
414.705	1334.81
414.928	1299.81
415.151	1300.81
415.374	1315.81
415.597	1345.81
415.821	1340.81
416.044	1365.81
416.267	1354.81
416.49	1277.81
416.713	1266.81
416.936	1320.81
417.159	1340.81
417.382	1371.81
417.605	1306.81
417.828	1350.81
418.051	1293.81
418.274	1306.81
418.497	1279.81
418.72	1289.81
418.943	1300.81
419.166	1343.81
419.389	1381.81
419.611	1318.81
419.834	1311.81
420.057	1318.81
420.28	1290.81
420.503	1308.81
420.726	1316.81
420.948	1324.81
421.171	1251.81
421.394	1297.81
421.617	1334.81
421.839	1314.81
422.062	1324.81
422.285	1289.81
422.507	1266.81
422.73	1250.81
422.953	1224.81
423.175	1229.81
423.398	1273.81
423.621	1261.81
423.843	1288.81
424.066	1294.81
424.288	1387.81
424.511	1401.81
424.733	1380.81
424.956	1259.81
425.178	1252.81
425.401	1292.81
425.623	1301.81
425.846	1271.81
426.068	1331.81
426.291	1350.81
426.513	1303.81
426.735	1315.81
426.958	1444.81
427.18	1507.81
427.402	1395.81
427.625	1423.81
427.847	1392.81
428.069	1285.81
428.292	1253.81
428.514	1240.81
428.736	1226.81
428.958	1264.81
429.181	1265.81
429.403	1452.81
429.625	1772.81
429.847	1489.81
430.069	1319.81
430.292	1458.81
430.514	1464.81
430.736	1340.81
430.958	1377.81
431.18	1291.81
431.402	1230.81
431.624	1197.81
431.846	1186.81
432.068	1145.81
432.29	1163.81
432.512	1218.81
432.734	1250.81
432.956	1261.81
433.178	1332.81
433.4	1312.81
433.622	1302.81
433.844	1243.81
434.066	1219.81
434.287	1172.81
434.509	1192.81
434.731	1259.81
434.953	1378.81
435.175	1333.81
435.397	1281.81
435.618	1267.81
435.84	1255.81
436.062	1252.81
436.284	1305.81
436.505	1263.81
436.727	1302.81
436.949	1251.81
437.17	1228.81
437.392	1245.81
437.614	1222.81
437.835	1189.81
438.057	1213.81
438.278	1241.81
438.5	1207.81
438.721	1256.81
438.943	1241.81
439.165	1226.81
439.386	1207.81
439.608	1237.81
439.829	1212.81
440.05	1244.81
440.272	1250.81
440.493	1252.81
440.715	1280.81
440.936	1350.81
441.158	1418.81
441.379	1377.81
441.6	1392.81
441.822	1323.81
442.043	1353.81
442.264	1346.81
442.486	1264.81
442.707	1251.81
442.928	1272.81
443.149	1303.81
443.371	1353.81
443.592	1382.81
443.813	1370.81
444.034	1368.81
444.255	1363.81
444.476	1421.81
444.698	1400.81
444.919	1408.81
445.14	1454.81
445.361	1441.81
445.582	1444.81
445.803	1419.81
446.024	1365.81
446.245	1434.81
446.466	1360.81
446.687	1346.81
446.908	1313.81
447.129	1329.81
447.35	1330.81
447.571	1309.81
447.792	1267.81
448.013	1290.81
448.234	1265.81
448.455	1296.81
448.675	1316.81
448.896	1247.81
449.117	1177.81
449.338	1208.81
449.559	1294.81
449.779	1349.81
450	1451.81
450.221	1459.81
450.442	1443.81
450.662	1274.81
450.883	1201.81
451.104	1161.81
451.324	1188.81
451.545	1210.81
451.766	1171.81
451.986	1157.81
452.207	1152.81
452.428	1087.81
452.648	1088.81
452.869	1108.81
453.089	1145.81
453.31	1178.81
453.53	1144.81
453.751	1087.81
453.971	1046.81
454.192	1098.81
454.412	1162.81
454.633	1159.81
454.853	1139.81
455.073	1065.81
455.294	1099.81
455.514	1083.81
455.734	1088.81
455.955	1105.81
456.175	1100.81
456.395	1055.81
456.616	1083.81
456.836	1113.81
457.056	1095.81
457.276	1081.81
457.497	1051.81
457.717	1039.81
457.937	1073.81
458.157	1063.81
458.377	1043.81
458.598	1016.81
458.818	1059.81
459.038	1097.81
459.258	1143.81
459.478	1129.81
459.698	1128.81
459.918	1176.81
460.138	1202.81
460.358	1235.81
460.578	1236.81
460.798	1321.81
461.018	1386.81
461.238	1283.81
461.458	1263.81
461.678	1251.81
461.898	1237.81
462.118	1203.81
462.338	1285.81
462.558	1287.81
462.777	1264.81
462.997	1307.81
463.217	1375.81
463.437	1353.81
463.657	1242.81
463.876	1275.81
464.096	1245.81
464.316	1276.81
464.536	1328.81
464.755	1288.81
464.975	1304.81
465.195	1263.81
465.414	1322.81
465.634	1292.81
465.854	1304.81
466.073	1401.81
466.293	1347.81
466.512	1198.81
466.732	1200.81
466.951	1235.81
467.171	1240.81
467.391	1217.81
467.61	1193.81
467.829	1251.81
468.049	1356.81
468.268	1457.81
468.488	1354.81
468.707	1285.81
468.927	1242.81
469.146	1247.81
469.365	1204.81
469.585	1271.81
469.804	1163.81
470.023	1234.81
470.243	1240.81
470.462	1228.81
470.681	1203.81
470.901	1254.81
471.12	1242.81
471.339	1232.81
471.558	1189.81
471.777	1204.81
471.997	1240.81
472.216	1183.81
472.435	1121.81
472.654	1140.81
472.873	1173.81
473.092	1205.81
473.311	1161.81
473.53	1135.81
473.749	1143.81
473.968	1200.81
474.187	1240.81
474.406	1232.81
474.625	1200.81
474.844	1200.81
475.063	1225.81
475.282	1227.81
475.501	1213.81
475.72	1181.81
475.939	1314.81
476.158	1229.81
476.377	1217.81
476.596	1210.81
476.814	1241.81
477.033	1185.81
477.252	1290.81
477.471	1351.81
477.69	1303.81
477.908	1264.81
478.127	1376.81
478.346	1408.81
478.564	1443.81
478.783	1405.81
479.002	1463.81
479.22	1413.81
479.439	1463.81
479.658	1570.81
479.876	1515.81
480.095	1420.81
480.313	1340.81
480.532	1271.81
480.751	1311.81
480.969	1316.81
481.188	1295.81
481.406	1259.81
481.624	1233.81
481.843	1264.81
482.061	1301.81
482.28	1336.81
482.498	1359.81
482.717	1320.81
482.935	1332.81
483.153	1344.81
483.372	1380.81
483.59	1355.81
483.808	1338.81
484.027	1376.81
484.245	1460.81
484.463	1785.81
484.681	1895.81
484.9	1421.81
485.118	1367.81
485.336	1340.81
485.554	1359.81
485.772	1387.81
485.99	1363.81
486.209	1396.81
486.427	1378.81
486.645	1413.81
486.863	1437.81
487.081	1469.81
487.299	1462.81
487.517	1460.81
487.735	1464.81
487.953	1533.81
488.171	1484.81
488.389	1485.81
488.607	1485.81
488.825	1608.81
489.043	1603.81
489.261	1405.81
489.479	1476.81
489.696	1489.81
489.914	1451.81
490.132	1439.81
490.35	1459.81
490.568	1568.81
490.786	1515.81
491.003	1474.81
491.221	1539.81
491.439	1602.81
491.657	1616.81
491.874	1642.81
492.092	1704.81
492.31	1728.81
492.527	1678.81
492.745	1603.81
492.963	1583.81
493.18	1601.81
493.398	1720.81
493.615	1727.81
