Data from WStandard_LampEnergy10_LIBS07252019.E.O._I.C._HRD10591_15-54-11-928.txt Node
Date: Thu Jul 25 15:54:11 EDT 2019
User: cochatt
Spectrometer: HR+D1059
Trigger mode: 1
Integration Time (sec): 1.000000E-1
Scans to average: 1
Electric dark correction enabled: true
Nonlinearity correction enabled: false
Boxcar width: 0
XAxis mode: Wavelengths
Number of Pixels in Spectrum: 2048
>>>>>Begin Spectral Data<<<<<
223.165	-5.56
223.4	-5.56
223.635	-5.56
223.869	-25.56
224.104	-9.56
224.338	-8.56
224.573	-23.56
224.808	-20.56
225.042	-8.56
225.277	-0.56
225.511	2.44
225.746	2.44
225.98	6.44
226.215	24.44
226.449	-1.56
226.683	7.44
226.918	34.44
227.152	26.44
227.387	47.44
227.621	41.44
227.856	41.44
228.09	55.44
228.324	47.44
228.559	48.44
228.793	69.44
229.027	120.44
229.262	139.44
229.496	143.44
229.73	151.44
229.964	167.44
230.199	176.44
230.433	168.44
230.667	187.44
230.901	185.44
231.136	177.44
231.37	166.44
231.604	181.44
231.838	172.44
232.072	190.44
232.306	176.44
232.541	186.44
232.775	194.44
233.009	196.44
233.243	203.44
233.477	204.44
233.711	201.44
233.945	196.44
234.179	189.44
234.413	218.44
234.647	218.44
234.881	201.44
235.115	191.44
235.349	188.44
235.583	202.44
235.817	180.44
236.051	192.44
236.285	201.44
236.519	190.44
236.753	220.44
236.987	224.44
237.221	231.44
237.455	225.44
237.689	226.44
237.922	210.44
238.156	225.44
238.39	216.44
238.624	220.44
238.858	255.44
239.091	245.44
239.325	246.44
239.559	285.44
239.793	292.44
240.027	300.44
240.26	310.44
240.494	250.44
240.728	217.44
240.961	231.44
241.195	231.44
241.429	255.44
241.662	258.44
241.896	249.44
242.13	251.44
242.363	259.44
242.597	295.44
242.83	264.44
243.064	288.44
243.298	290.44
243.531	261.44
243.765	291.44
243.998	272.44
244.232	245.44
244.465	243.44
244.699	268.44
244.932	299.44
245.166	307.44
245.399	309.44
245.633	268.44
245.866	278.44
246.099	310.44
246.333	314.44
246.566	281.44
246.8	336.44
247.033	337.44
247.266	313.44
247.5	331.44
247.733	314.44
247.966	340.44
248.2	370.44
248.433	357.44
248.666	338.44
248.899	394.44
249.133	446.44
249.366	468.44
249.599	401.44
249.832	373.44
250.066	350.44
250.299	369.44
250.532	366.44
250.765	322.44
250.998	344.44
251.231	327.44
251.465	359.44
251.698	346.44
251.931	340.44
252.164	331.44
252.397	356.44
252.63	374.44
252.863	328.44
253.096	326.44
253.329	332.44
253.562	362.44
253.795	370.44
254.028	372.44
254.261	346.44
254.494	327.44
254.727	334.44
254.96	341.44
255.193	382.44
255.426	396.44
255.659	443.44
255.892	470.44
256.124	391.44
256.357	358.44
256.59	400.44
256.823	416.44
257.056	405.44
257.289	473.44
257.521	514.44
257.754	464.44
257.987	454.44
258.22	482.44
258.452	460.44
258.685	406.44
258.918	396.44
259.151	381.44
259.383	366.44
259.616	342.44
259.849	374.44
260.081	428.44
260.314	449.44
260.547	464.44
260.779	477.44
261.012	443.44
261.244	418.44
261.477	384.44
261.71	404.44
261.942	400.44
262.175	377.44
262.407	426.44
262.64	389.44
262.872	372.44
263.105	372.44
263.337	375.44
263.57	384.44
263.802	360.44
264.035	355.44
264.267	340.44
264.499	339.44
264.732	377.44
264.964	382.44
265.197	391.44
265.429	424.44
265.661	458.44
265.894	499.44
266.126	497.44
266.358	447.44
266.591	466.44
266.823	481.44
267.055	458.44
267.287	443.44
267.52	462.44
267.752	436.44
267.984	465.44
268.216	454.44
268.448	484.44
268.681	484.44
268.913	432.44
269.145	407.44
269.377	416.44
269.609	461.44
269.841	518.44
270.073	583.44
270.306	624.44
270.538	610.44
270.77	554.44
271.002	489.44
271.234	467.44
271.466	460.44
271.698	528.44
271.93	582.44
272.162	587.44
272.394	529.44
272.626	513.44
272.858	454.44
273.09	418.44
273.322	420.44
273.553	409.44
273.785	411.44
274.017	418.44
274.249	456.44
274.481	420.44
274.713	413.44
274.945	411.44
275.176	384.44
275.408	412.44
275.64	391.44
275.872	410.44
276.104	446.44
276.335	491.44
276.567	524.44
276.799	539.44
277.031	491.44
277.262	483.44
277.494	484.44
277.726	533.44
277.957	520.44
278.189	457.44
278.421	436.44
278.652	440.44
278.884	421.44
279.115	425.44
279.347	455.44
279.579	427.44
279.81	444.44
280.042	474.44
280.273	521.44
280.505	514.44
280.736	509.44
280.968	490.44
281.199	427.44
281.431	414.44
281.662	418.44
281.894	407.44
282.125	442.44
282.356	434.44
282.588	457.44
282.819	457.44
283.051	512.44
283.282	505.44
283.513	494.44
283.745	449.44
283.976	430.44
284.207	427.44
284.439	440.44
284.67	460.44
284.901	456.44
285.132	444.44
285.364	457.44
285.595	458.44
285.826	453.44
286.057	435.44
286.288	464.44
286.52	482.44
286.751	483.44
286.982	513.44
287.213	472.44
287.444	442.44
287.675	417.44
287.906	436.44
288.138	498.44
288.369	476.44
288.6	448.44
288.831	454.44
289.062	414.44
289.293	434.44
289.524	459.44
289.755	473.44
289.986	470.44
290.217	442.44
290.448	449.44
290.679	461.44
290.91	476.44
291.141	468.44
291.371	491.44
291.602	474.44
291.833	472.44
292.064	487.44
292.295	488.44
292.526	487.44
292.757	503.44
292.987	489.44
293.218	467.44
293.449	513.44
293.68	555.44
293.91	577.44
294.141	566.44
294.372	540.44
294.603	546.44
294.833	583.44
295.064	545.44
295.295	503.44
295.525	478.44
295.756	459.44
295.987	434.44
296.217	456.44
296.448	468.44
296.679	455.44
296.909	447.44
297.14	459.44
297.37	483.44
297.601	512.44
297.831	546.44
298.062	502.44
298.292	502.44
298.523	452.44
298.753	475.44
298.984	448.44
299.214	463.44
299.445	494.44
299.675	510.44
299.905	487.44
300.136	461.44
300.366	462.44
300.597	464.44
300.827	448.44
301.057	478.44
301.288	505.44
301.518	520.44
301.748	523.44
301.979	564.44
302.209	550.44
302.439	571.44
302.669	594.44
302.9	564.44
303.13	511.44
303.36	518.44
303.59	504.44
303.82	510.44
304.051	530.44
304.281	504.44
304.511	526.44
304.741	565.44
304.971	619.44
305.201	660.44
305.431	562.44
305.661	486.44
305.891	441.44
306.121	471.44
306.352	478.44
306.582	492.44
306.812	536.44
307.042	570.44
307.272	585.44
307.502	587.44
307.731	624.44
307.961	621.44
308.191	569.44
308.421	538.44
308.651	506.44
308.881	481.44
309.111	494.44
309.341	484.44
309.571	500.44
309.8	475.44
310.03	484.44
310.26	505.44
310.49	508.44
310.72	497.44
310.949	534.44
311.179	523.44
311.409	501.44
311.639	489.44
311.868	510.44
312.098	489.44
312.328	492.44
312.557	512.44
312.787	504.44
313.017	534.44
313.246	547.44
313.476	522.44
313.706	532.44
313.935	549.44
314.165	541.44
314.394	555.44
314.624	582.44
314.853	619.44
315.083	607.44
315.312	616.44
315.542	578.44
315.771	539.44
316.001	548.44
316.23	580.44
316.46	564.44
316.689	543.44
316.919	538.44
317.148	505.44
317.377	553.44
317.607	561.44
317.836	636.44
318.065	639.44
318.295	594.44
318.524	566.44
318.753	583.44
318.983	551.44
319.212	523.44
319.441	554.44
319.67	551.44
319.9	563.44
320.129	602.44
320.358	624.44
320.587	620.44
320.816	622.44
321.046	597.44
321.275	556.44
321.504	600.44
321.733	635.44
321.962	576.44
322.191	567.44
322.42	562.44
322.649	547.44
322.878	547.44
323.108	548.44
323.337	593.44
323.566	588.44
323.795	602.44
324.024	563.44
324.253	548.44
324.482	544.44
324.71	531.44
324.939	534.44
325.168	562.44
325.397	571.44
325.626	570.44
325.855	571.44
326.084	561.44
326.313	554.44
326.542	595.44
326.77	581.44
326.999	577.44
327.228	558.44
327.457	531.44
327.686	553.44
327.914	552.44
328.143	531.44
328.372	554.44
328.6	555.44
328.829	567.44
329.058	543.44
329.287	568.44
329.515	570.44
329.744	576.44
329.972	613.44
330.201	615.44
330.43	602.44
330.658	577.44
330.887	580.44
331.115	592.44
331.344	609.44
331.572	604.44
331.801	578.44
332.03	590.44
332.258	591.44
332.486	593.44
332.715	604.44
332.943	612.44
333.172	587.44
333.4	605.44
333.629	632.44
333.857	679.44
334.085	736.44
334.314	825.44
334.542	846.44
334.771	754.44
334.999	686.44
335.227	641.44
335.455	630.44
335.684	628.44
335.912	646.44
336.14	683.44
336.369	635.44
336.597	591.44
336.825	606.44
337.053	620.44
337.281	657.44
337.51	705.44
337.738	688.44
337.966	640.44
338.194	593.44
338.422	601.44
338.65	586.44
338.878	587.44
339.106	583.44
339.334	562.44
339.562	552.44
339.79	574.44
340.018	623.44
340.246	626.44
340.474	626.44
340.702	608.44
340.93	618.44
341.158	607.44
341.386	615.44
341.614	609.44
341.842	597.44
342.07	604.44
342.298	604.44
342.526	585.44
342.754	624.44
342.981	603.44
343.209	574.44
343.437	576.44
343.665	587.44
343.893	606.44
344.12	627.44
344.348	634.44
344.576	608.44
344.804	612.44
345.031	586.44
345.259	568.44
345.487	587.44
345.714	576.44
345.942	534.44
346.17	577.44
346.397	568.44
346.625	577.44
346.853	554.44
347.08	543.44
347.308	569.44
347.535	586.44
347.763	586.44
347.99	574.44
348.218	555.44
348.445	570.44
348.673	573.44
348.9	587.44
349.128	602.44
349.355	613.44
349.583	580.44
349.81	581.44
350.037	547.44
350.265	522.44
350.492	548.44
350.72	551.44
350.947	588.44
351.174	564.44
351.402	527.44
351.629	515.44
351.856	516.44
352.083	523.44
352.311	514.44
352.538	542.44
352.765	577.44
352.992	587.44
353.22	564.44
353.447	533.44
353.674	570.44
353.901	580.44
354.128	552.44
354.355	551.44
354.583	591.44
354.81	587.44
355.037	571.44
355.264	591.44
355.491	564.44
355.718	562.44
355.945	584.44
356.172	548.44
356.399	560.44
356.626	545.44
356.853	593.44
357.08	630.44
357.307	672.44
357.534	627.44
357.761	586.44
357.988	554.44
358.215	555.44
358.441	542.44
358.668	558.44
358.895	563.44
359.122	627.44
359.349	624.44
359.576	588.44
359.802	562.44
360.029	542.44
360.256	526.44
360.483	571.44
360.709	581.44
360.936	593.44
361.163	613.44
361.39	688.44
361.616	697.44
361.843	697.44
362.07	627.44
362.296	561.44
362.523	547.44
362.749	578.44
362.976	566.44
363.203	599.44
363.429	563.44
363.656	548.44
363.882	598.44
364.109	658.44
364.335	669.44
364.562	628.44
364.788	574.44
365.015	553.44
365.241	558.44
365.468	599.44
365.694	609.44
365.92	611.44
366.147	578.44
366.373	565.44
366.599	560.44
366.826	578.44
367.052	576.44
367.278	569.44
367.505	587.44
367.731	595.44
367.957	600.44
368.184	642.44
368.41	672.44
368.636	653.44
368.862	658.44
369.089	645.44
369.315	633.44
369.541	631.44
369.767	625.44
369.993	584.44
370.219	596.44
370.445	626.44
370.672	675.44
370.898	676.44
371.124	645.44
371.35	632.44
371.576	662.44
371.802	660.44
372.028	613.44
372.254	598.44
372.48	602.44
372.706	610.44
372.932	606.44
373.158	594.44
373.384	615.44
373.61	671.44
373.835	648.44
374.061	626.44
374.287	644.44
374.513	636.44
374.739	644.44
374.965	626.44
375.191	645.44
375.416	643.44
375.642	663.44
375.868	709.44
376.094	703.44
376.319	673.44
376.545	627.44
376.771	683.44
376.997	706.44
377.222	675.44
377.448	663.44
377.674	665.44
377.899	678.44
378.125	729.44
378.35	712.44
378.576	638.44
378.802	615.44
379.027	588.44
379.253	617.44
379.478	628.44
379.704	616.44
379.929	654.44
380.155	647.44
380.38	652.44
380.606	663.44
380.831	664.44
381.057	713.44
381.282	684.44
381.507	707.44
381.733	755.44
381.958	753.44
382.184	667.44
382.409	668.44
382.634	695.44
382.86	696.44
383.085	663.44
383.31	716.44
383.535	778.44
383.761	786.44
383.986	746.44
384.211	730.44
384.436	719.44
384.662	743.44
384.887	775.44
385.112	741.44
385.337	748.44
385.562	726.44
385.787	740.44
386.013	768.44
386.238	772.44
386.463	783.44
386.688	819.44
386.913	845.44
387.138	807.44
387.363	773.44
387.588	770.44
387.813	758.44
388.038	795.44
388.263	811.44
388.488	750.44
388.713	740.44
388.938	720.44
389.163	723.44
389.387	747.44
389.612	743.44
389.837	746.44
390.062	762.44
390.287	755.44
390.512	732.44
390.736	742.44
390.961	732.44
391.186	706.44
391.411	734.44
391.636	787.44
391.86	739.44
392.085	739.44
392.31	738.44
392.534	739.44
392.759	776.44
392.984	767.44
393.208	785.44
393.433	777.44
393.658	817.44
393.882	814.44
394.107	781.44
394.331	751.44
394.556	778.44
394.78	794.44
395.005	807.44
395.229	797.44
395.454	895.44
395.678	855.44
395.903	860.44
396.127	800.44
396.352	822.44
396.576	838.44
396.801	842.44
397.025	832.44
397.249	834.44
397.474	836.44
397.698	831.44
397.922	844.44
398.147	902.44
398.371	892.44
398.595	907.44
398.82	854.44
399.044	866.44
399.268	927.44
399.492	980.44
399.717	1014.44
399.941	1010.44
400.165	960.44
400.389	963.44
400.613	968.44
400.837	1105.44
401.062	1173.44
401.286	1008.44
401.51	967.44
401.734	1011.44
401.958	944.44
402.182	903.44
402.406	892.44
402.63	876.44
402.854	875.44
403.078	858.44
403.302	882.44
403.526	926.44
403.75	908.44
403.974	950.44
404.198	921.44
404.422	985.44
404.645	1001.44
404.869	1001.44
405.093	908.44
405.317	890.44
405.541	902.44
405.765	949.44
405.988	935.44
406.212	937.44
406.436	931.44
406.66	1018.44
406.883	1058.44
407.107	1152.44
407.331	1191.44
407.555	1267.44
407.778	1100.44
408.002	990.44
408.226	977.44
408.449	967.44
408.673	947.44
408.896	970.44
409.12	957.44
409.344	945.44
409.567	928.44
409.791	922.44
410.014	964.44
410.238	1018.44
410.461	1060.44
410.685	959.44
410.908	931.44
411.132	951.44
411.355	943.44
411.578	935.44
411.802	960.44
412.025	961.44
412.249	950.44
412.472	899.44
412.695	896.44
412.919	935.44
413.142	905.44
413.365	946.44
413.589	954.44
413.812	996.44
414.035	995.44
414.258	928.44
414.482	904.44
414.705	923.44
414.928	906.44
415.151	910.44
415.374	909.44
415.597	953.44
415.821	925.44
416.044	936.44
416.267	921.44
416.49	879.44
416.713	916.44
416.936	950.44
417.159	983.44
417.382	971.44
417.605	915.44
417.828	944.44
418.051	951.44
418.274	938.44
418.497	930.44
418.72	913.44
418.943	890.44
419.166	973.44
419.389	984.44
419.611	956.44
419.834	916.44
420.057	953.44
420.28	936.44
420.503	927.44
420.726	972.44
420.948	927.44
421.171	897.44
421.394	934.44
421.617	992.44
421.839	1033.44
422.062	974.44
422.285	946.44
422.507	948.44
422.73	875.44
422.953	905.44
423.175	855.44
423.398	946.44
423.621	904.44
423.843	958.44
424.066	970.44
424.288	1033.44
424.511	1040.44
424.733	985.44
424.956	926.44
425.178	926.44
425.401	931.44
425.623	946.44
425.846	962.44
426.068	970.44
426.291	968.44
426.513	966.44
426.735	988.44
426.958	1054.44
427.18	1070.44
427.402	987.44
427.625	1026.44
427.847	1004.44
428.069	914.44
428.292	931.44
428.514	907.44
428.736	909.44
428.958	891.44
429.181	924.44
429.403	1078.44
429.625	1216.44
429.847	1063.44
430.069	964.44
430.292	1046.44
430.514	1010.44
430.736	984.44
430.958	971.44
431.18	950.44
431.402	880.44
431.624	853.44
431.846	800.44
432.068	721.44
432.29	743.44
432.512	798.44
432.734	898.44
432.956	916.44
433.178	968.44
433.4	991.44
433.622	950.44
433.844	908.44
434.066	848.44
434.287	802.44
434.509	809.44
434.731	814.44
434.953	911.44
435.175	930.44
435.397	926.44
435.618	862.44
435.84	839.44
436.062	824.44
436.284	931.44
436.505	920.44
436.727	950.44
436.949	928.44
437.17	905.44
437.392	900.44
437.614	851.44
437.835	786.44
438.057	795.44
438.278	859.44
438.5	867.44
438.721	871.44
438.943	912.44
439.165	922.44
439.386	895.44
439.608	920.44
439.829	950.44
440.05	963.44
440.272	946.44
440.493	952.44
440.715	966.44
440.936	1032.44
441.158	1067.44
441.379	1060.44
441.6	1063.44
441.822	1053.44
442.043	1036.44
442.264	994.44
442.486	960.44
442.707	954.44
442.928	946.44
443.149	988.44
443.371	1004.44
443.592	1031.44
443.813	1040.44
444.034	994.44
444.255	1003.44
444.476	1031.44
444.698	1056.44
444.919	1024.44
445.14	1134.44
445.361	1137.44
445.582	1085.44
445.803	1070.44
446.024	1051.44
446.245	1072.44
446.466	1079.44
446.687	1039.44
446.908	1037.44
447.129	1041.44
447.35	1014.44
447.571	996.44
447.792	972.44
448.013	955.44
448.234	970.44
448.455	991.44
448.675	987.44
448.896	904.44
449.117	907.44
449.338	906.44
449.559	954.44
449.779	966.44
450	1014.44
450.221	1062.44
450.442	1044.44
450.662	926.44
450.883	866.44
451.104	850.44
451.324	896.44
451.545	876.44
451.766	885.44
451.986	808.44
452.207	833.44
452.428	791.44
452.648	775.44
452.869	811.44
453.089	800.44
453.31	776.44
453.53	760.44
453.751	740.44
453.971	708.44
454.192	743.44
454.412	775.44
454.633	798.44
454.853	770.44
455.073	747.44
455.294	761.44
455.514	758.44
455.734	778.44
455.955	783.44
456.175	745.44
456.395	734.44
456.616	738.44
456.836	712.44
457.056	707.44
457.276	742.44
457.497	710.44
457.717	697.44
457.937	707.44
458.157	706.44
458.377	704.44
458.598	672.44
458.818	689.44
459.038	708.44
459.258	721.44
459.478	714.44
459.698	722.44
459.918	747.44
460.138	794.44
460.358	806.44
460.578	846.44
460.798	839.44
461.018	921.44
461.238	869.44
461.458	850.44
461.678	835.44
461.898	839.44
462.118	823.44
462.338	828.44
462.558	844.44
462.777	852.44
462.997	866.44
463.217	895.44
463.437	880.44
463.657	828.44
463.876	811.44
464.096	804.44
464.316	847.44
464.536	872.44
464.755	843.44
464.975	898.44
465.195	850.44
465.414	889.44
465.634	884.44
465.854	883.44
466.073	980.44
466.293	935.44
466.512	882.44
466.732	880.44
466.951	903.44
467.171	920.44
467.391	875.44
467.61	911.44
467.829	896.44
468.049	982.44
468.268	1050.44
468.488	974.44
468.707	916.44
468.927	897.44
469.146	908.44
469.365	908.44
469.585	950.44
469.804	924.44
470.023	915.44
470.243	954.44
470.462	955.44
470.681	917.44
470.901	939.44
471.12	948.44
471.339	924.44
471.558	930.44
471.777	918.44
471.997	872.44
472.216	865.44
472.435	790.44
472.654	759.44
472.873	787.44
473.092	848.44
473.311	830.44
473.53	791.44
473.749	822.44
473.968	859.44
474.187	817.44
474.406	833.44
474.625	841.44
474.844	875.44
475.063	874.44
475.282	888.44
475.501	814.44
475.72	828.44
475.939	902.44
476.158	870.44
476.377	887.44
476.596	856.44
476.814	803.44
477.033	807.44
477.252	862.44
477.471	920.44
477.69	937.44
477.908	946.44
478.127	977.44
478.346	981.44
478.564	975.44
478.783	1004.44
479.002	1036.44
479.22	1022.44
479.439	1026.44
479.658	1056.44
479.876	1000.44
480.095	889.44
480.313	894.44
480.532	897.44
480.751	850.44
480.969	825.44
481.188	809.44
481.406	775.44
481.624	765.44
481.843	787.44
482.061	835.44
482.28	875.44
482.498	883.44
482.717	867.44
482.935	902.44
483.153	976.44
483.372	1021.44
483.59	1010.44
483.808	989.44
484.027	954.44
484.245	974.44
484.463	1254.44
484.681	1301.44
484.9	1022.44
485.118	987.44
485.336	939.44
485.554	901.44
485.772	916.44
485.99	853.44
486.209	910.44
486.427	904.44
486.645	948.44
486.863	1013.44
487.081	1066.44
487.299	1017.44
487.517	1058.44
487.735	1098.44
487.953	1209.44
488.171	1187.44
488.389	1135.44
488.607	1093.44
488.825	1136.44
489.043	1078.44
489.261	989.44
489.479	1062.44
489.696	1022.44
489.914	1049.44
490.132	1037.44
490.35	1118.44
490.568	1176.44
490.786	1174.44
491.003	1174.44
491.221	1304.44
491.439	1295.44
491.657	1307.44
491.874	1367.44
492.092	1449.44
492.31	1498.44
492.527	1476.44
492.745	1387.44
492.963	1323.44
493.18	1318.44
493.398	1380.44
493.615	1345.44
493.833	1288.44
494.05	1268.44
494.268	1246.44
494.485	1227.44
494.703	1221.44
494.92	1213.44
495.138	1250.44
495.355	1250.44
495.573	1227.44
495.79	1291.44
496.008	1256.44
496.225	1226.44
496.442	1220.44
496.66	1236.44
496.877	1187.44
497.094	1233.44
497.312	1233.44
497.529	1194.44
497.746	1204.44
497.963	1263.44
498.181	1289.44
498.398	1255.44
498.615	1204.44
498.832	1150.44
499.049	1142.44
499.267	1153.44
499.484	1232.44
499.701	1328.44
499.918	1343.44
500.135	1475.44
500.352	1586.44
