Data from WStandard_LampEnergy5.5LIBS07252019.E.O._I.C._HRD10591_16-07-12-920.txt Node
Date: Thu Jul 25 16:07:12 EDT 2019
User: cochatt
Spectrometer: HR+D1059
Trigger mode: 1
Integration Time (sec): 1.000000E-1
Scans to average: 1
Electric dark correction enabled: true
Nonlinearity correction enabled: false
Boxcar width: 0
XAxis mode: Wavelengths
Number of Pixels in Spectrum: 2048
>>>>>Begin Spectral Data<<<<<
223.165	-20.88
223.4	-20.88
223.635	-20.88
223.869	-23.88
224.104	-22.88
224.338	-23.88
224.573	-23.88
224.808	-11.88
225.042	2.12
225.277	-12.88
225.511	-1.88
225.746	5.12
225.98	0.12
226.215	13.12
226.449	27.12
226.683	27.12
226.918	34.12
227.152	33.12
227.387	45.12
227.621	46.12
227.856	48.12
228.09	47.12
228.324	56.12
228.559	55.12
228.793	158.12
229.027	349.12
229.262	377.12
229.496	405.12
229.73	409.12
229.964	475.12
230.199	476.12
230.433	494.12
230.667	527.12
230.901	568.12
231.136	501.12
231.37	493.12
231.604	502.12
231.838	490.12
232.072	481.12
232.306	478.12
232.541	502.12
232.775	560.12
233.009	605.12
233.243	589.12
233.477	555.12
233.711	585.12
233.945	605.12
234.179	571.12
234.413	592.12
234.647	678.12
234.881	635.12
235.115	563.12
235.349	565.12
235.583	573.12
235.817	589.12
236.051	564.12
236.285	581.12
236.519	616.12
236.753	703.12
236.987	713.12
237.221	715.12
237.455	789.12
237.689	754.12
237.922	715.12
238.156	701.12
238.39	689.12
238.624	730.12
238.858	783.12
239.091	808.12
239.325	829.12
239.559	983.12
239.793	1016.12
240.027	1091.12
240.26	1105.12
240.494	802.12
240.728	756.12
240.961	755.12
241.195	761.12
241.429	879.12
241.662	867.12
241.896	781.12
242.13	785.12
242.363	885.12
242.597	985.12
242.83	918.12
243.064	923.12
243.298	999.12
243.531	981.12
243.765	971.12
243.998	960.12
244.232	841.12
244.465	825.12
244.699	811.12
244.932	942.12
245.166	1093.12
245.399	1062.12
245.633	940.12
245.866	923.12
246.099	1000.12
246.333	982.12
246.566	1013.12
246.8	1085.12
247.033	1239.12
247.266	1134.12
247.5	1133.12
247.733	1101.12
247.966	1162.12
248.2	1321.12
248.433	1225.12
248.666	1293.12
248.899	1356.12
249.133	1621.12
249.366	1847.12
249.599	1489.12
249.832	1293.12
250.066	1357.12
250.299	1388.12
250.532	1271.12
250.765	1151.12
250.998	1203.12
251.231	1254.12
251.465	1322.12
251.698	1247.12
251.931	1231.12
252.164	1276.12
252.397	1345.12
252.63	1302.12
252.863	1178.12
253.096	1142.12
253.329	1188.12
253.562	1217.12
253.795	1371.12
254.028	1357.12
254.261	1224.12
254.494	1203.12
254.727	1128.12
254.96	1187.12
255.193	1306.12
255.426	1423.12
255.659	1712.12
255.892	1727.12
256.124	1447.12
256.357	1365.12
256.59	1427.12
256.823	1524.12
257.056	1466.12
257.289	1768.12
257.521	1995.12
257.754	1792.12
257.987	1714.12
258.22	1882.12
258.452	1832.12
258.685	1507.12
258.918	1429.12
259.151	1448.12
259.383	1400.12
259.616	1203.12
259.849	1267.12
260.081	1450.12
260.314	1639.12
260.547	1798.12
260.779	1806.12
261.012	1706.12
261.244	1493.12
261.477	1417.12
261.71	1526.12
261.942	1469.12
262.175	1460.12
262.407	1543.12
262.64	1448.12
262.872	1364.12
263.105	1331.12
263.337	1347.12
263.57	1372.12
263.802	1371.12
264.035	1290.12
264.267	1211.12
264.499	1187.12
264.732	1286.12
264.964	1354.12
265.197	1408.12
265.429	1476.12
265.661	1651.12
265.894	1813.12
266.126	1883.12
266.358	1674.12
266.591	1754.12
266.823	1887.12
267.055	1702.12
267.287	1647.12
267.52	1626.12
267.752	1604.12
267.984	1592.12
268.216	1691.12
268.448	1720.12
268.681	1740.12
268.913	1566.12
269.145	1452.12
269.377	1420.12
269.609	1557.12
269.841	1802.12
270.073	2129.12
270.306	2394.12
270.538	2539.12
270.77	2135.12
271.002	1827.12
271.234	1722.12
271.466	1683.12
271.698	1931.12
271.93	2328.12
272.162	2337.12
272.394	2094.12
272.626	2012.12
272.858	1761.12
273.09	1538.12
273.322	1477.12
273.553	1424.12
273.785	1474.12
274.017	1503.12
274.249	1636.12
274.481	1671.12
274.713	1494.12
274.945	1427.12
275.176	1480.12
275.408	1478.12
275.64	1428.12
275.872	1414.12
276.104	1502.12
276.335	1720.12
276.567	1989.12
276.799	2014.12
277.031	1787.12
277.262	1671.12
277.494	1743.12
277.726	1944.12
277.957	1939.12
278.189	1759.12
278.421	1574.12
278.652	1554.12
278.884	1537.12
279.115	1537.12
279.347	1580.12
279.579	1535.12
279.81	1494.12
280.042	1715.12
280.273	1857.12
280.505	1833.12
280.736	1895.12
280.968	1781.12
281.199	1578.12
281.431	1493.12
281.662	1505.12
281.894	1496.12
282.125	1553.12
282.356	1583.12
282.588	1627.12
282.819	1569.12
283.051	1726.12
283.282	1841.12
283.513	1835.12
283.745	1592.12
283.976	1472.12
284.207	1500.12
284.439	1529.12
284.67	1552.12
284.901	1590.12
285.132	1595.12
285.364	1555.12
285.595	1607.12
285.826	1594.12
286.057	1548.12
286.288	1551.12
286.52	1589.12
286.751	1750.12
286.982	1799.12
287.213	1666.12
287.444	1545.12
287.675	1526.12
287.906	1598.12
288.138	1727.12
288.369	1669.12
288.6	1566.12
288.831	1524.12
289.062	1517.12
289.293	1553.12
289.524	1572.12
289.755	1622.12
289.986	1666.12
290.217	1493.12
290.448	1571.12
290.679	1573.12
290.91	1540.12
291.141	1655.12
291.371	1675.12
291.602	1701.12
291.833	1630.12
292.064	1719.12
292.295	1646.12
292.526	1698.12
292.757	1824.12
292.987	1723.12
293.218	1617.12
293.449	1772.12
293.68	1972.12
293.91	2155.12
294.141	1955.12
294.372	1845.12
294.603	1911.12
294.833	2017.12
295.064	1889.12
295.295	1744.12
295.525	1676.12
295.756	1552.12
295.987	1474.12
296.217	1511.12
296.448	1520.12
296.679	1562.12
296.909	1569.12
297.14	1562.12
297.37	1573.12
297.601	1669.12
297.831	1806.12
298.062	1837.12
298.292	1671.12
298.523	1594.12
298.753	1563.12
298.984	1643.12
299.214	1590.12
299.445	1618.12
299.675	1707.12
299.905	1677.12
300.136	1628.12
300.366	1582.12
300.597	1557.12
300.827	1559.12
301.057	1597.12
301.288	1705.12
301.518	1685.12
301.748	1672.12
301.979	1799.12
302.209	1818.12
302.439	1964.12
302.669	2044.12
302.9	1896.12
303.13	1703.12
303.36	1660.12
303.59	1740.12
303.82	1722.12
304.051	1675.12
304.281	1731.12
304.511	1672.12
304.741	1792.12
304.971	1968.12
305.201	2150.12
305.431	2032.12
305.661	1665.12
305.891	1496.12
306.121	1483.12
306.352	1550.12
306.582	1624.12
306.812	1707.12
307.042	1923.12
307.272	1897.12
307.502	1902.12
307.731	2091.12
307.961	2248.12
308.191	2063.12
308.421	1773.12
308.651	1675.12
308.881	1651.12
309.111	1656.12
309.341	1615.12
309.571	1647.12
309.8	1620.12
310.03	1603.12
310.26	1609.12
310.49	1606.12
310.72	1624.12
310.949	1739.12
311.179	1712.12
311.409	1766.12
311.639	1662.12
311.868	1609.12
312.098	1691.12
312.328	1663.12
312.557	1578.12
312.787	1657.12
313.017	1714.12
313.246	1737.12
313.476	1695.12
313.706	1747.12
313.935	1705.12
314.165	1727.12
314.394	1819.12
314.624	1867.12
314.853	1984.12
315.083	2063.12
315.312	2125.12
315.542	2010.12
315.771	1778.12
316.001	1739.12
316.23	1856.12
316.46	1872.12
316.689	1828.12
316.919	1731.12
317.148	1643.12
317.377	1664.12
317.607	1831.12
317.836	2079.12
318.065	2174.12
318.295	2054.12
318.524	1980.12
318.753	1905.12
318.983	1842.12
319.212	1785.12
319.441	1769.12
319.67	1764.12
319.9	1802.12
320.129	1877.12
320.358	1976.12
320.587	2000.12
320.816	2025.12
321.046	1976.12
321.275	1825.12
321.504	1843.12
321.733	2020.12
321.962	1977.12
322.191	1799.12
322.42	1774.12
322.649	1759.12
322.878	1783.12
323.108	1822.12
323.337	1863.12
323.566	1833.12
323.795	1817.12
324.024	1914.12
324.253	1795.12
324.482	1858.12
324.71	1748.12
324.939	1668.12
325.168	1729.12
325.397	1767.12
325.626	1887.12
325.855	1875.12
326.084	1753.12
326.313	1804.12
326.542	1822.12
326.77	1865.12
326.999	1895.12
327.228	1787.12
327.457	1686.12
327.686	1679.12
327.914	1696.12
328.143	1736.12
328.372	1773.12
328.6	1791.12
328.829	1780.12
329.058	1733.12
329.287	1759.12
329.515	1790.12
329.744	1830.12
329.972	1870.12
330.201	1989.12
330.43	1947.12
330.658	1875.12
330.887	1943.12
331.115	1882.12
331.344	1904.12
331.572	1864.12
331.801	1873.12
332.03	1918.12
332.258	1869.12
332.486	1873.12
332.715	1934.12
332.943	1927.12
333.172	1837.12
333.4	1919.12
333.629	1989.12
333.857	2037.12
334.085	2224.12
334.314	2566.12
334.542	2819.12
334.771	2619.12
334.999	2276.12
335.227	2165.12
335.455	2059.12
335.684	1999.12
335.912	2055.12
336.14	2171.12
336.369	2109.12
336.597	1934.12
336.825	1899.12
337.053	1953.12
337.281	2061.12
337.51	2213.12
337.738	2259.12
337.966	2186.12
338.194	1959.12
338.422	1884.12
338.65	1823.12
338.878	1829.12
339.106	1799.12
339.334	1779.12
339.562	1749.12
339.79	1785.12
340.018	1921.12
340.246	1992.12
340.474	2024.12
340.702	1960.12
340.93	1975.12
341.158	1949.12
341.386	1873.12
341.614	1902.12
341.842	1832.12
342.07	1879.12
342.298	1857.12
342.526	1898.12
342.754	1845.12
342.981	1835.12
343.209	1807.12
343.437	1815.12
343.665	1838.12
343.893	1903.12
344.12	1998.12
344.348	2004.12
344.576	1968.12
344.804	1846.12
345.031	1865.12
345.259	1888.12
345.487	1802.12
345.714	1779.12
345.942	1708.12
346.17	1681.12
346.397	1740.12
346.625	1783.12
346.853	1694.12
347.08	1633.12
347.308	1669.12
347.535	1719.12
347.763	1779.12
347.99	1713.12
348.218	1671.12
348.445	1684.12
348.673	1719.12
348.9	1754.12
349.128	1785.12
349.355	1927.12
349.583	1824.12
349.81	1787.12
350.037	1638.12
350.265	1598.12
350.492	1601.12
350.72	1644.12
350.947	1803.12
351.174	1783.12
351.402	1683.12
351.629	1641.12
351.856	1591.12
352.083	1583.12
352.311	1598.12
352.538	1660.12
352.765	1717.12
352.992	1767.12
353.22	1698.12
353.447	1673.12
353.674	1677.12
353.901	1734.12
354.128	1679.12
354.355	1616.12
354.583	1763.12
354.81	1771.12
355.037	1775.12
355.264	1789.12
355.491	1734.12
355.718	1737.12
355.945	1744.12
356.172	1697.12
356.399	1657.12
356.626	1645.12
356.853	1722.12
357.08	1838.12
357.307	2019.12
357.534	2080.12
357.761	1809.12
357.988	1662.12
358.215	1584.12
358.441	1622.12
358.668	1632.12
358.895	1654.12
359.122	1749.12
359.349	1880.12
359.576	1939.12
359.802	1743.12
360.029	1690.12
360.256	1595.12
360.483	1659.12
360.709	1700.12
360.936	1765.12
361.163	1824.12
361.39	1985.12
361.616	2150.12
361.843	2074.12
362.07	2021.12
362.296	1735.12
362.523	1669.12
362.749	1719.12
362.976	1684.12
363.203	1781.12
363.429	1664.12
363.656	1619.12
363.882	1693.12
364.109	1886.12
364.335	2079.12
364.562	1960.12
364.788	1781.12
365.015	1729.12
365.241	1629.12
365.468	1691.12
365.694	1788.12
365.92	1884.12
366.147	1773.12
366.373	1656.12
366.599	1648.12
366.826	1635.12
367.052	1656.12
367.278	1672.12
367.505	1720.12
367.731	1734.12
367.957	1753.12
368.184	1800.12
368.41	1867.12
368.636	1938.12
368.862	1901.12
369.089	1894.12
369.315	1822.12
369.541	1763.12
369.767	1742.12
369.993	1692.12
370.219	1675.12
370.445	1733.12
370.672	1816.12
370.898	1891.12
371.124	1905.12
371.35	1769.12
371.576	1836.12
371.802	1892.12
372.028	1833.12
372.254	1791.12
372.48	1700.12
372.706	1695.12
372.932	1687.12
373.158	1746.12
373.384	1701.12
373.61	1758.12
373.835	1880.12
374.061	1788.12
374.287	1769.12
374.513	1830.12
374.739	1797.12
374.965	1816.12
375.191	1831.12
375.416	1857.12
375.642	1834.12
375.868	1921.12
376.094	2001.12
376.319	1918.12
376.545	1791.12
376.771	1821.12
376.997	1935.12
377.222	1925.12
377.448	1813.12
377.674	1901.12
377.899	1861.12
378.125	1956.12
378.35	1956.12
378.576	1787.12
378.802	1698.12
379.027	1689.12
379.253	1766.12
379.478	1750.12
379.704	1737.12
379.929	1788.12
380.155	1741.12
380.38	1791.12
380.606	1816.12
380.831	1752.12
381.057	1902.12
381.282	1898.12
381.507	1852.12
381.733	1951.12
381.958	2057.12
382.184	1929.12
382.409	1794.12
382.634	1895.12
382.86	1822.12
383.085	1821.12
383.31	1895.12
383.535	2046.12
383.761	2134.12
383.986	2058.12
384.211	2015.12
384.436	1962.12
384.662	2024.12
384.887	2160.12
385.112	2015.12
385.337	2058.12
385.562	2003.12
385.787	2053.12
386.013	2100.12
386.238	2099.12
386.463	2083.12
386.688	2181.12
386.913	2334.12
387.138	2284.12
387.363	2092.12
387.588	2056.12
387.813	2087.12
388.038	2124.12
388.263	2180.12
388.488	2125.12
388.713	1949.12
388.938	1935.12
389.163	1944.12
389.387	1978.12
389.612	2029.12
389.837	2053.12
390.062	2051.12
390.287	2012.12
390.512	1998.12
390.736	1991.12
390.961	1961.12
391.186	1951.12
391.411	1937.12
391.636	1979.12
391.86	2009.12
392.085	2024.12
392.31	1991.12
392.534	2022.12
392.759	2040.12
392.984	2023.12
393.208	2064.12
393.433	2085.12
393.658	2177.12
393.882	2223.12
394.107	2065.12
394.331	2003.12
394.556	1987.12
394.78	2044.12
395.005	2096.12
395.229	2172.12
395.454	2326.12
395.678	2358.12
395.903	2232.12
396.127	2119.12
396.352	2126.12
396.576	2220.12
396.801	2185.12
397.025	2193.12
397.249	2215.12
397.474	2189.12
397.698	2135.12
397.922	2240.12
398.147	2336.12
398.371	2436.12
398.595	2445.12
398.82	2321.12
399.044	2333.12
399.268	2443.12
399.492	2608.12
399.717	2717.12
399.941	2764.12
400.165	2641.12
400.389	2646.12
400.613	2548.12
400.837	2839.12
401.062	3266.12
401.286	2809.12
401.51	2478.12
401.734	2671.12
401.958	2528.12
402.182	2373.12
402.406	2292.12
402.63	2317.12
402.854	2317.12
403.078	2339.12
403.302	2429.12
403.526	2428.12
403.75	2393.12
403.974	2420.12
404.198	2413.12
404.422	2460.12
404.645	2601.12
404.869	2615.12
405.093	2371.12
405.317	2343.12
405.541	2453.12
405.765	2453.12
405.988	2431.12
406.212	2453.12
406.436	2501.12
406.66	2630.12
406.883	2622.12
407.107	2922.12
407.331	3167.12
407.555	3405.12
407.778	3152.12
408.002	2614.12
408.226	2548.12
408.449	2581.12
408.673	2510.12
408.896	2456.12
409.12	2564.12
409.344	2513.12
409.567	2367.12
409.791	2461.12
410.014	2479.12
410.238	2587.12
410.461	2755.12
410.685	2496.12
410.908	2359.12
411.132	2432.12
411.355	2404.12
411.578	2355.12
411.802	2323.12
412.025	2398.12
412.249	2331.12
412.472	2283.12
412.695	2286.12
412.919	2285.12
413.142	2285.12
413.365	2323.12
413.589	2348.12
413.812	2476.12
414.035	2586.12
414.258	2377.12
414.482	2249.12
414.705	2328.12
414.928	2311.12
415.151	2312.12
415.374	2320.12
415.597	2317.12
415.821	2339.12
416.044	2445.12
416.267	2460.12
416.49	2236.12
416.713	2163.12
416.936	2233.12
417.159	2374.12
417.382	2398.12
417.605	2221.12
417.828	2295.12
418.051	2388.12
418.274	2325.12
418.497	2181.12
418.72	2196.12
418.943	2199.12
419.166	2332.12
419.389	2468.12
419.611	2301.12
419.834	2253.12
420.057	2328.12
420.28	2255.12
420.503	2231.12
420.726	2282.12
420.948	2259.12
421.171	2248.12
421.394	2246.12
421.617	2318.12
421.839	2304.12
422.062	2260.12
422.285	2228.12
422.507	2212.12
422.73	2138.12
422.953	2137.12
423.175	2132.12
423.398	2198.12
423.621	2216.12
423.843	2260.12
424.066	2297.12
424.288	2331.12
424.511	2383.12
424.733	2299.12
424.956	2108.12
425.178	2111.12
425.401	2139.12
425.623	2165.12
425.846	2136.12
426.068	2264.12
426.291	2328.12
426.513	2327.12
426.735	2287.12
426.958	2406.12
427.18	2544.12
427.402	2378.12
427.625	2427.12
427.847	2443.12
428.069	2273.12
428.292	2193.12
428.514	2118.12
428.736	2147.12
428.958	2160.12
429.181	2130.12
429.403	2433.12
429.625	3055.12
429.847	2664.12
430.069	2214.12
430.292	2413.12
430.514	2551.12
430.736	2317.12
430.958	2438.12
431.18	2349.12
431.402	2170.12
431.624	2135.12
431.846	2127.12
432.068	2093.12
432.29	2142.12
432.512	2187.12
432.734	2235.12
432.956	2273.12
433.178	2319.12
433.4	2319.12
433.622	2303.12
433.844	2163.12
434.066	2146.12
434.287	2108.12
434.509	2191.12
434.731	2333.12
434.953	2443.12
435.175	2443.12
435.397	2313.12
435.618	2264.12
435.84	2339.12
436.062	2261.12
436.284	2284.12
436.505	2296.12
436.727	2295.12
436.949	2205.12
437.17	2147.12
437.392	2185.12
437.614	2192.12
437.835	2107.12
438.057	2239.12
438.278	2351.12
438.5	2176.12
438.721	2142.12
438.943	2101.12
439.165	2143.12
439.386	2099.12
439.608	2132.12
439.829	2103.12
440.05	2136.12
440.272	2104.12
440.493	2062.12
440.715	2107.12
440.936	2288.12
441.158	2536.12
441.379	2459.12
441.6	2384.12
441.822	2317.12
442.043	2278.12
442.264	2222.12
442.486	2143.12
442.707	2117.12
442.928	2115.12
443.149	2194.12
443.371	2360.12
443.592	2394.12
443.813	2426.12
444.034	2320.12
444.255	2353.12
444.476	2407.12
444.698	2453.12
444.919	2436.12
445.14	2498.12
445.361	2489.12
445.582	2607.12
445.803	2444.12
446.024	2379.12
446.245	2434.12
446.466	2374.12
446.687	2253.12
446.908	2249.12
447.129	2165.12
447.35	2208.12
447.571	2206.12
447.792	2149.12
448.013	2061.12
448.234	2138.12
448.455	2263.12
448.675	2231.12
448.896	2046.12
449.117	2040.12
449.338	2088.12
449.559	2215.12
449.779	2339.12
450	2537.12
450.221	2803.12
450.442	2633.12
450.662	2340.12
450.883	2069.12
451.104	2007.12
451.324	2066.12
451.545	2123.12
451.766	2131.12
451.986	1994.12
452.207	2015.12
452.428	1941.12
452.648	1904.12
452.869	1968.12
453.089	2108.12
453.31	2104.12
453.53	2187.12
453.751	2128.12
453.971	1991.12
454.192	2020.12
454.412	2182.12
454.633	2088.12
454.853	2022.12
455.073	1877.12
455.294	1833.12
455.514	1852.12
455.734	1881.12
455.955	1955.12
456.175	1915.12
456.395	1937.12
456.616	1973.12
456.836	2053.12
457.056	1984.12
457.276	1974.12
457.497	1929.12
457.717	1841.12
457.937	1882.12
458.157	1971.12
458.377	1915.12
458.598	1902.12
458.818	1939.12
459.038	2017.12
459.258	2192.12
459.478	2176.12
459.698	2118.12
459.918	2152.12
460.138	2258.12
460.358	2298.12
460.578	2338.12
460.798	2387.12
461.018	2555.12
461.238	2388.12
461.458	2268.12
461.678	2349.12
461.898	2278.12
462.118	2200.12
462.338	2333.12
462.558	2305.12
462.777	2294.12
462.997	2379.12
463.217	2543.12
463.437	2526.12
463.657	2358.12
463.876	2299.12
464.096	2338.12
464.316	2265.12
464.536	2388.12
464.755	2412.12
464.975	2429.12
465.195	2381.12
465.414	2435.12
465.634	2460.12
465.854	2282.12
466.073	2419.12
466.293	2405.12
466.512	2099.12
466.732	2089.12
466.951	2147.12
467.171	2156.12
467.391	2060.12
467.61	2047.12
467.829	2084.12
468.049	2265.12
468.268	2529.12
468.488	2353.12
468.707	2254.12
468.927	2138.12
469.146	2153.12
469.365	2051.12
469.585	2134.12
469.804	2138.12
470.023	2055.12
470.243	2104.12
470.462	2123.12
470.681	2081.12
470.901	2131.12
471.12	2101.12
471.339	2116.12
471.558	2019.12
471.777	1982.12
471.997	2032.12
472.216	2082.12
472.435	1950.12
472.654	2010.12
472.873	2121.12
473.092	2257.12
473.311	2148.12
473.53	1987.12
473.749	2017.12
473.968	2099.12
474.187	2179.12
474.406	2300.12
474.625	2150.12
474.844	2136.12
475.063	2093.12
475.282	2175.12
475.501	2145.12
475.72	2117.12
475.939	2238.12
476.158	2176.12
476.377	2113.12
476.596	2163.12
476.814	2218.12
477.033	2190.12
477.252	2307.12
477.471	2338.12
477.69	2286.12
477.908	2232.12
478.127	2357.12
478.346	2562.12
478.564	2554.12
478.783	2501.12
479.002	2585.12
479.22	2554.12
479.439	2615.12
479.658	2949.12
479.876	2899.12
480.095	2568.12
480.313	2419.12
480.532	2328.12
480.751	2386.12
480.969	2431.12
481.188	2368.12
481.406	2372.12
481.624	2283.12
481.843	2343.12
482.061	2397.12
482.28	2404.12
482.498	2473.12
482.717	2441.12
482.935	2337.12
483.153	2315.12
483.372	2361.12
483.59	2328.12
483.808	2327.12
484.027	2402.12
484.245	2537.12
484.463	2937.12
484.681	3455.12
484.9	2615.12
485.118	2421.12
485.336	2379.12
485.554	2469.12
485.772	2574.12
485.99	2533.12
486.209	2581.12
486.427	2477.12
486.645	2551.12
486.863	2451.12
487.081	2563.12
487.299	2557.12
