Data from WStandard_LampEnergy5.5LIBS07252019.E.O._I.C._HRD10591_16-06-25-919.txt Node
Date: Thu Jul 25 16:06:25 EDT 2019
User: cochatt
Spectrometer: HR+D1059
Trigger mode: 1
Integration Time (sec): 1.000000E-1
Scans to average: 1
Electric dark correction enabled: true
Nonlinearity correction enabled: false
Boxcar width: 0
XAxis mode: Wavelengths
Number of Pixels in Spectrum: 2048
>>>>>Begin Spectral Data<<<<<
223.165	-6.31
223.4	-6.31
223.635	-6.31
223.869	-14.31
224.104	-19.31
224.338	0.69
224.573	-11.31
224.808	-20.31
225.042	-15.31
225.277	3.69
225.511	-4.31
225.746	-9.31
225.98	-0.31
226.215	0.69
226.449	24.69
226.683	25.69
226.918	15.69
227.152	29.69
227.387	31.69
227.621	30.69
227.856	49.69
228.09	58.69
228.324	51.69
228.559	70.69
228.793	119.69
229.027	336.69
229.262	342.69
229.496	344.69
229.73	372.69
229.964	413.69
230.199	411.69
230.433	449.69
230.667	447.69
230.901	488.69
231.136	444.69
231.37	421.69
231.604	445.69
231.838	420.69
232.072	443.69
232.306	400.69
232.541	444.69
232.775	519.69
233.009	562.69
233.243	544.69
233.477	480.69
233.711	509.69
233.945	503.69
234.179	500.69
234.413	569.69
234.647	595.69
234.881	556.69
235.115	489.69
235.349	485.69
235.583	517.69
235.817	522.69
236.051	516.69
236.285	513.69
236.519	555.69
236.753	627.69
236.987	631.69
237.221	616.69
237.455	665.69
237.689	674.69
237.922	647.69
238.156	583.69
238.39	639.69
238.624	655.69
238.858	698.69
239.091	705.69
239.325	734.69
239.559	819.69
239.793	866.69
240.027	970.69
240.26	941.69
240.494	712.69
240.728	642.69
240.961	648.69
241.195	678.69
241.429	747.69
241.662	738.69
241.896	703.69
242.13	691.69
242.363	784.69
242.597	829.69
242.83	795.69
243.064	815.69
243.298	861.69
243.531	833.69
243.765	829.69
243.998	868.69
244.232	718.69
244.465	710.69
244.699	743.69
244.932	827.69
245.166	931.69
245.399	905.69
245.633	818.69
245.866	785.69
246.099	829.69
246.333	857.69
246.566	848.69
246.8	951.69
247.033	1092.69
247.266	970.69
247.5	967.69
247.733	978.69
247.966	1011.69
248.2	1127.69
248.433	1044.69
248.666	1103.69
248.899	1199.69
249.133	1406.69
249.366	1618.69
249.599	1292.69
249.832	1139.69
250.066	1139.69
250.299	1180.69
250.532	1093.69
250.765	943.69
250.998	1061.69
251.231	1100.69
251.465	1135.69
251.698	1073.69
251.931	1075.69
252.164	1122.69
252.397	1128.69
252.63	1125.69
252.863	970.69
253.096	996.69
253.329	1033.69
253.562	1089.69
253.795	1205.69
254.028	1108.69
254.261	1063.69
254.494	1038.69
254.727	987.69
254.96	1011.69
255.193	1130.69
255.426	1271.69
255.659	1475.69
255.892	1548.69
256.124	1278.69
256.357	1190.69
256.59	1297.69
256.823	1286.69
257.056	1306.69
257.289	1533.69
257.521	1715.69
257.754	1554.69
257.987	1455.69
258.22	1624.69
258.452	1589.69
258.685	1271.69
258.918	1235.69
259.151	1235.69
259.383	1181.69
259.616	1068.69
259.849	1132.69
260.081	1266.69
260.314	1400.69
260.547	1532.69
260.779	1555.69
261.012	1453.69
261.244	1279.69
261.477	1203.69
261.71	1274.69
261.942	1289.69
262.175	1212.69
262.407	1316.69
262.64	1220.69
262.872	1143.69
263.105	1122.69
263.337	1169.69
263.57	1172.69
263.802	1180.69
264.035	1092.69
264.267	1036.69
264.499	1015.69
264.732	1079.69
264.964	1155.69
265.197	1200.69
265.429	1246.69
265.661	1405.69
265.894	1551.69
266.126	1632.69
266.358	1432.69
266.591	1495.69
266.823	1655.69
267.055	1463.69
267.287	1402.69
267.52	1417.69
267.752	1378.69
267.984	1403.69
268.216	1441.69
268.448	1489.69
268.681	1506.69
268.913	1376.69
269.145	1271.69
269.377	1227.69
269.609	1374.69
269.841	1560.69
270.073	1803.69
270.306	2027.69
270.538	2151.69
270.77	1794.69
271.002	1530.69
271.234	1499.69
271.466	1481.69
271.698	1633.69
271.93	1960.69
272.162	1993.69
272.394	1737.69
272.626	1709.69
272.858	1511.69
273.09	1301.69
273.322	1272.69
273.553	1245.69
273.785	1264.69
274.017	1313.69
274.249	1425.69
274.481	1401.69
274.713	1290.69
274.945	1268.69
275.176	1258.69
275.408	1268.69
275.64	1232.69
275.872	1221.69
276.104	1312.69
276.335	1488.69
276.567	1708.69
276.799	1719.69
277.031	1521.69
277.262	1439.69
277.494	1481.69
277.726	1675.69
277.957	1627.69
278.189	1507.69
278.421	1373.69
278.652	1355.69
278.884	1349.69
279.115	1352.69
279.347	1349.69
279.579	1306.69
279.81	1346.69
280.042	1458.69
280.273	1579.69
280.505	1561.69
280.736	1636.69
280.968	1514.69
281.199	1355.69
281.431	1296.69
281.662	1331.69
281.894	1281.69
282.125	1353.69
282.356	1370.69
282.588	1380.69
282.819	1379.69
283.051	1436.69
283.282	1578.69
283.513	1509.69
283.745	1374.69
283.976	1253.69
284.207	1300.69
284.439	1322.69
284.67	1361.69
284.901	1335.69
285.132	1411.69
285.364	1388.69
285.595	1374.69
285.826	1334.69
286.057	1362.69
286.288	1352.69
286.52	1413.69
286.751	1525.69
286.982	1557.69
287.213	1418.69
287.444	1313.69
287.675	1304.69
287.906	1368.69
288.138	1430.69
288.369	1442.69
288.6	1354.69
288.831	1323.69
289.062	1355.69
289.293	1373.69
289.524	1380.69
289.755	1420.69
289.986	1373.69
290.217	1301.69
290.448	1352.69
290.679	1411.69
290.91	1376.69
291.141	1440.69
291.371	1531.69
291.602	1477.69
291.833	1453.69
292.064	1475.69
292.295	1471.69
292.526	1471.69
292.757	1592.69
292.987	1516.69
293.218	1425.69
293.449	1508.69
293.68	1661.69
293.91	1797.69
294.141	1672.69
294.372	1569.69
294.603	1593.69
294.833	1658.69
295.064	1589.69
295.295	1475.69
295.525	1440.69
295.756	1354.69
295.987	1299.69
296.217	1332.69
296.448	1347.69
296.679	1357.69
296.909	1351.69
297.14	1368.69
297.37	1360.69
297.601	1436.69
297.831	1513.69
298.062	1572.69
298.292	1397.69
298.523	1366.69
298.753	1396.69
298.984	1425.69
299.214	1390.69
299.445	1395.69
299.675	1475.69
299.905	1440.69
300.136	1421.69
300.366	1399.69
300.597	1339.69
300.827	1351.69
301.057	1403.69
301.288	1441.69
301.518	1425.69
301.748	1445.69
301.979	1553.69
302.209	1587.69
302.439	1681.69
302.669	1751.69
302.9	1680.69
303.13	1489.69
303.36	1480.69
303.59	1522.69
303.82	1510.69
304.051	1492.69
304.281	1506.69
304.511	1450.69
304.741	1558.69
304.971	1745.69
305.201	1850.69
305.431	1739.69
305.661	1455.69
305.891	1355.69
306.121	1305.69
306.352	1374.69
306.582	1422.69
306.812	1521.69
307.042	1641.69
307.272	1609.69
307.502	1667.69
307.731	1801.69
307.961	1943.69
308.191	1761.69
308.421	1561.69
308.651	1481.69
308.881	1435.69
309.111	1450.69
309.341	1419.69
309.571	1432.69
309.8	1455.69
310.03	1436.69
310.26	1427.69
310.49	1439.69
310.72	1450.69
310.949	1501.69
311.179	1545.69
311.409	1496.69
311.639	1466.69
311.868	1437.69
312.098	1439.69
312.328	1441.69
312.557	1427.69
312.787	1526.69
313.017	1517.69
313.246	1520.69
313.476	1487.69
313.706	1552.69
313.935	1565.69
314.165	1543.69
314.394	1571.69
314.624	1636.69
314.853	1791.69
315.083	1817.69
315.312	1878.69
315.542	1750.69
315.771	1564.69
316.001	1523.69
316.23	1656.69
316.46	1614.69
316.689	1610.69
316.919	1508.69
317.148	1490.69
317.377	1494.69
317.607	1574.69
317.836	1793.69
318.065	1837.69
318.295	1749.69
318.524	1696.69
318.753	1609.69
318.983	1629.69
319.212	1589.69
319.441	1557.69
319.67	1578.69
319.9	1556.69
320.129	1658.69
320.358	1748.69
320.587	1756.69
320.816	1711.69
321.046	1673.69
321.275	1603.69
321.504	1643.69
321.733	1740.69
321.962	1719.69
322.191	1564.69
322.42	1583.69
322.649	1559.69
322.878	1543.69
323.108	1552.69
323.337	1609.69
323.566	1625.69
323.795	1595.69
324.024	1627.69
324.253	1588.69
324.482	1604.69
324.71	1604.69
324.939	1475.69
325.168	1523.69
325.397	1569.69
325.626	1631.69
325.855	1669.69
326.084	1587.69
326.313	1604.69
326.542	1576.69
326.77	1636.69
326.999	1625.69
327.228	1571.69
327.457	1546.69
327.686	1475.69
327.914	1522.69
328.143	1571.69
328.372	1603.69
328.6	1612.69
328.829	1558.69
329.058	1545.69
329.287	1559.69
329.515	1602.69
329.744	1615.69
329.972	1683.69
330.201	1731.69
330.43	1690.69
330.658	1629.69
330.887	1719.69
331.115	1642.69
331.344	1703.69
331.572	1634.69
331.801	1645.69
332.03	1644.69
332.258	1637.69
332.486	1680.69
332.715	1692.69
332.943	1699.69
333.172	1648.69
333.4	1708.69
333.629	1720.69
333.857	1850.69
334.085	1993.69
334.314	2249.69
334.542	2472.69
334.771	2276.69
334.999	2036.69
335.227	1925.69
335.455	1815.69
335.684	1797.69
335.912	1812.69
336.14	1899.69
336.369	1825.69
336.597	1702.69
336.825	1698.69
337.053	1749.69
337.281	1830.69
337.51	1922.69
337.738	1997.69
337.966	1922.69
338.194	1734.69
338.422	1644.69
338.65	1668.69
338.878	1632.69
339.106	1615.69
339.334	1595.69
339.562	1587.69
339.79	1604.69
340.018	1696.69
340.246	1752.69
340.474	1765.69
340.702	1697.69
340.93	1706.69
341.158	1747.69
341.386	1654.69
341.614	1663.69
341.842	1671.69
342.07	1652.69
342.298	1661.69
342.526	1667.69
342.754	1627.69
342.981	1585.69
343.209	1671.69
343.437	1646.69
343.665	1674.69
343.893	1702.69
344.12	1785.69
344.348	1839.69
344.576	1767.69
344.804	1670.69
345.031	1657.69
345.259	1681.69
345.487	1650.69
345.714	1561.69
345.942	1529.69
346.17	1517.69
346.397	1564.69
346.625	1620.69
346.853	1515.69
347.08	1460.69
347.308	1519.69
347.535	1550.69
347.763	1597.69
347.99	1573.69
348.218	1521.69
348.445	1494.69
348.673	1521.69
348.9	1576.69
349.128	1606.69
349.355	1647.69
349.583	1629.69
349.81	1569.69
350.037	1464.69
350.265	1445.69
350.492	1495.69
350.72	1523.69
350.947	1495.69
351.174	1611.69
351.402	1503.69
351.629	1475.69
351.856	1432.69
352.083	1413.69
352.311	1446.69
352.538	1502.69
352.765	1561.69
352.992	1583.69
353.22	1492.69
353.447	1489.69
353.674	1511.69
353.901	1540.69
354.128	1461.69
354.355	1451.69
354.583	1511.69
354.81	1574.69
355.037	1576.69
355.264	1592.69
355.491	1549.69
355.718	1554.69
355.945	1536.69
356.172	1546.69
356.399	1491.69
356.626	1496.69
356.853	1516.69
357.08	1601.69
357.307	1758.69
357.534	1813.69
357.761	1587.69
357.988	1475.69
358.215	1439.69
358.441	1455.69
358.668	1481.69
358.895	1512.69
359.122	1553.69
359.349	1701.69
359.576	1704.69
359.802	1554.69
360.029	1498.69
360.256	1454.69
360.483	1494.69
360.709	1528.69
360.936	1558.69
361.163	1610.69
361.39	1756.69
361.616	1852.69
361.843	1827.69
362.07	1735.69
362.296	1562.69
362.523	1484.69
362.749	1517.69
362.976	1552.69
363.203	1549.69
363.429	1508.69
363.656	1452.69
363.882	1515.69
364.109	1653.69
364.335	1822.69
364.562	1676.69
364.788	1635.69
365.015	1573.69
365.241	1489.69
365.468	1527.69
365.694	1593.69
365.92	1699.69
366.147	1591.69
366.373	1467.69
366.599	1475.69
366.826	1461.69
367.052	1504.69
367.278	1507.69
367.505	1529.69
367.731	1602.69
367.957	1555.69
368.184	1569.69
368.41	1672.69
368.636	1667.69
368.862	1685.69
369.089	1697.69
369.315	1657.69
369.541	1594.69
369.767	1537.69
369.993	1529.69
370.219	1527.69
370.445	1550.69
370.672	1610.69
370.898	1698.69
371.124	1707.69
371.35	1647.69
371.576	1649.69
371.802	1740.69
372.028	1609.69
372.254	1579.69
372.48	1530.69
372.706	1539.69
372.932	1542.69
373.158	1563.69
373.384	1594.69
373.61	1617.69
373.835	1707.69
374.061	1652.69
374.287	1611.69
374.513	1596.69
374.739	1603.69
374.965	1678.69
375.191	1647.69
375.416	1641.69
375.642	1644.69
375.868	1744.69
376.094	1767.69
376.319	1707.69
376.545	1555.69
376.771	1623.69
376.997	1695.69
377.222	1689.69
377.448	1645.69
377.674	1665.69
377.899	1665.69
378.125	1696.69
378.35	1747.69
378.576	1614.69
378.802	1592.69
379.027	1583.69
379.253	1595.69
379.478	1634.69
379.704	1631.69
379.929	1591.69
380.155	1594.69
380.38	1590.69
380.606	1635.69
380.831	1601.69
381.057	1677.69
381.282	1690.69
381.507	1629.69
381.733	1735.69
381.958	1818.69
382.184	1679.69
382.409	1652.69
382.634	1677.69
382.86	1644.69
383.085	1687.69
383.31	1695.69
383.535	1810.69
383.761	1921.69
383.986	1835.69
384.211	1836.69
384.436	1761.69
384.662	1875.69
384.887	1907.69
385.112	1859.69
385.337	1885.69
385.562	1864.69
385.787	1851.69
386.013	1871.69
386.238	1894.69
386.463	1891.69
386.688	1962.69
386.913	2083.69
387.138	2025.69
387.363	1873.69
387.588	1931.69
387.813	1887.69
388.038	1933.69
388.263	1937.69
388.488	1935.69
388.713	1808.69
388.938	1844.69
389.163	1817.69
389.387	1801.69
389.612	1808.69
389.837	1870.69
390.062	1903.69
390.287	1875.69
390.512	1867.69
390.736	1813.69
390.961	1783.69
391.186	1817.69
391.411	1807.69
391.636	1847.69
391.86	1891.69
392.085	1888.69
392.31	1821.69
392.534	1859.69
392.759	1897.69
392.984	1927.69
393.208	1919.69
393.433	1982.69
393.658	2091.69
393.882	2053.69
394.107	1926.69
394.331	1863.69
394.556	1817.69
394.78	1883.69
395.005	1939.69
395.229	1961.69
395.454	2072.69
395.678	2085.69
395.903	2019.69
396.127	1953.69
396.352	1983.69
396.576	2039.69
396.801	2031.69
397.025	2024.69
397.249	2056.69
397.474	1995.69
397.698	1947.69
397.922	2072.69
398.147	2109.69
398.371	2146.69
398.595	2211.69
398.82	2135.69
399.044	2209.69
399.268	2321.69
399.492	2413.69
399.717	2556.69
399.941	2551.69
400.165	2486.69
400.389	2382.69
400.613	2327.69
400.837	2573.69
401.062	2835.69
401.286	2479.69
401.51	2278.69
401.734	2330.69
401.958	2324.69
402.182	2206.69
402.406	2113.69
402.63	2138.69
402.854	2100.69
403.078	2155.69
403.302	2207.69
403.526	2255.69
403.75	2245.69
403.974	2224.69
404.198	2147.69
404.422	2227.69
404.645	2396.69
404.869	2346.69
405.093	2175.69
405.317	2160.69
405.541	2253.69
405.765	2283.69
405.988	2238.69
406.212	2301.69
406.436	2307.69
406.66	2324.69
406.883	2337.69
407.107	2586.69
407.331	2772.69
407.555	3032.69
407.778	2844.69
408.002	2429.69
408.226	2365.69
408.449	2381.69
408.673	2264.69
408.896	2273.69
409.12	2335.69
409.344	2228.69
409.567	2215.69
409.791	2244.69
410.014	2223.69
410.238	2412.69
410.461	2417.69
410.685	2263.69
410.908	2155.69
411.132	2218.69
411.355	2206.69
411.578	2198.69
411.802	2160.69
412.025	2227.69
412.249	2179.69
412.472	2112.69
412.695	2092.69
412.919	2105.69
413.142	2119.69
413.365	2165.69
413.589	2182.69
413.812	2253.69
414.035	2318.69
414.258	2152.69
414.482	2115.69
414.705	2183.69
414.928	2116.69
415.151	2137.69
415.374	2177.69
415.597	2180.69
415.821	2175.69
416.044	2243.69
416.267	2241.69
416.49	2060.69
416.713	2036.69
416.936	2084.69
417.159	2188.69
417.382	2177.69
417.605	2101.69
417.828	2112.69
418.051	2203.69
418.274	2142.69
418.497	2029.69
418.72	2026.69
418.943	2040.69
419.166	2185.69
419.389	2283.69
419.611	2171.69
419.834	2134.69
420.057	2103.69
420.28	2077.69
420.503	2052.69
420.726	2083.69
420.948	2077.69
421.171	2039.69
421.394	2115.69
421.617	2160.69
421.839	2037.69
422.062	2052.69
422.285	2009.69
422.507	2025.69
422.73	2001.69
422.953	1980.69
423.175	1971.69
423.398	2035.69
423.621	2073.69
423.843	2050.69
424.066	2107.69
424.288	2144.69
424.511	2197.69
424.733	2091.69
424.956	1971.69
425.178	1952.69
425.401	1987.69
425.623	1953.69
425.846	1977.69
426.068	2066.69
426.291	2072.69
426.513	2096.69
426.735	2047.69
426.958	2140.69
427.18	2271.69
427.402	2082.69
427.625	2160.69
427.847	2169.69
428.069	2033.69
428.292	1994.69
428.514	1923.69
428.736	1891.69
428.958	1949.69
429.181	1943.69
429.403	2208.69
429.625	2664.69
429.847	2342.69
430.069	2056.69
430.292	2142.69
430.514	2263.69
430.736	2050.69
430.958	2234.69
431.18	2099.69
431.402	1975.69
431.624	1956.69
431.846	1996.69
432.068	1945.69
432.29	1988.69
432.512	1992.69
432.734	2079.69
432.956	2049.69
433.178	2146.69
433.4	2122.69
433.622	2172.69
433.844	2057.69
434.066	1969.69
434.287	1930.69
434.509	1990.69
434.731	2129.69
434.953	2258.69
435.175	2228.69
435.397	2096.69
435.618	2075.69
435.84	2117.69
436.062	2077.69
436.284	2040.69
436.505	2062.69
436.727	2065.69
436.949	2027.69
437.17	2053.69
437.392	1987.69
437.614	2044.69
437.835	1951.69
438.057	2067.69
438.278	2147.69
438.5	2020.69
438.721	1958.69
438.943	1967.69
439.165	1980.69
439.386	1916.69
439.608	1940.69
439.829	1967.69
440.05	1970.69
440.272	1925.69
440.493	1894.69
440.715	1953.69
440.936	2112.69
441.158	2302.69
441.379	2283.69
441.6	2191.69
441.822	2130.69
442.043	2148.69
442.264	2088.69
442.486	1993.69
442.707	1967.69
442.928	1957.69
443.149	2018.69
443.371	2128.69
443.592	2229.69
443.813	2209.69
444.034	2175.69
444.255	2169.69
444.476	2239.69
444.698	2230.69
444.919	2230.69
445.14	2302.69
445.361	2290.69
445.582	2365.69
445.803	2261.69
446.024	2199.69
446.245	2213.69
446.466	2181.69
446.687	2052.69
446.908	2040.69
447.129	1995.69
447.35	2063.69
447.571	2069.69
447.792	1938.69
448.013	1937.69
448.234	1980.69
448.455	2060.69
448.675	2040.69
448.896	1912.69
449.117	1857.69
449.338	1948.69
449.559	1969.69
449.779	2082.69
450	2281.69
450.221	2533.69
450.442	2413.69
450.662	2146.69
450.883	1887.69
451.104	1849.69
451.324	1907.69
451.545	1915.69
451.766	1932.69
451.986	1845.69
452.207	1830.69
452.428	1779.69
452.648	1754.69
452.869	1803.69
453.089	1906.69
453.31	1905.69
453.53	2001.69
453.751	1911.69
453.971	1812.69
454.192	1807.69
454.412	1947.69
454.633	1889.69
454.853	1843.69
455.073	1703.69
455.294	1679.69
455.514	1733.69
455.734	1767.69
455.955	1740.69
456.175	1759.69
456.395	1762.69
456.616	1793.69
456.836	1837.69
457.056	1823.69
457.276	1821.69
457.497	1744.69
457.717	1671.69
457.937	1741.69
458.157	1824.69
458.377	1748.69
458.598	1791.69
458.818	1769.69
459.038	1893.69
459.258	2025.69
459.478	1975.69
459.698	1974.69
459.918	2038.69
460.138	2073.69
460.358	2091.69
460.578	2115.69
460.798	2188.69
461.018	2356.69
461.238	2233.69
461.458	2106.69
461.678	2135.69
461.898	2105.69
462.118	2052.69
462.338	2131.69
462.558	2121.69
462.777	2161.69
462.997	2252.69
463.217	2326.69
463.437	2381.69
463.657	2189.69
463.876	2188.69
464.096	2153.69
464.316	2142.69
464.536	2215.69
464.755	2207.69
464.975	2268.69
465.195	2155.69
465.414	2227.69
465.634	2266.69
465.854	2094.69
466.073	2172.69
466.293	2145.69
466.512	1932.69
466.732	1951.69
466.951	2015.69
467.171	2028.69
467.391	1893.69
467.61	1885.69
467.829	1876.69
468.049	2030.69
468.268	2223.69
468.488	2136.69
468.707	2047.69
468.927	1941.69
469.146	1929.69
469.365	1896.69
469.585	1919.69
469.804	1919.69
470.023	1879.69
470.243	1975.69
470.462	1937.69
470.681	1882.69
470.901	1948.69
471.12	1984.69
471.339	1904.69
471.558	1848.69
471.777	1847.69
471.997	1864.69
472.216	1890.69
472.435	1836.69
472.654	1870.69
472.873	1924.69
473.092	2074.69
473.311	1947.69
473.53	1856.69
473.749	1799.69
473.968	1923.69
474.187	2013.69
474.406	2104.69
474.625	1979.69
474.844	1941.69
475.063	1923.69
475.282	2011.69
475.501	1923.69
475.72	1939.69
475.939	2016.69
476.158	2013.69
476.377	1934.69
476.596	1981.69
476.814	2021.69
477.033	1985.69
477.252	2112.69
477.471	2169.69
477.69	2047.69
477.908	2124.69
478.127	2149.69
478.346	2317.69
478.564	2366.69
478.783	2271.69
479.002	2383.69
479.22	2317.69
479.439	2365.69
479.658	2749.69
479.876	2697.69
480.095	2313.69
480.313	2255.69
480.532	2161.69
480.751	2144.69
480.969	2228.69
481.188	2177.69
481.406	2173.69
481.624	2136.69
481.843	2144.69
482.061	2150.69
482.28	2225.69
482.498	2264.69
482.717	2237.69
482.935	2113.69
483.153	2174.69
483.372	2196.69
483.59	2121.69
483.808	2127.69
484.027	2168.69
484.245	2309.69
484.463	2579.69
484.681	2940.69
484.9	2336.69
485.118	2215.69
485.336	2168.69
485.554	2243.69
485.772	2371.69
485.99	2313.69
486.209	2325.69
486.427	2342.69
486.645	2287.69
486.863	2250.69
487.081	2299.69
487.299	2411.69
487.517	2360.69
