Data from WStandard_LampEnergy10_LIBS07252019.E.O._I.C._HRD10591_15-54-56-928.txt Node
Date: Thu Jul 25 15:54:56 EDT 2019
User: cochatt
Spectrometer: HR+D1059
Trigger mode: 1
Integration Time (sec): 1.000000E-1
Scans to average: 1
Electric dark correction enabled: true
Nonlinearity correction enabled: false
Boxcar width: 0
XAxis mode: Wavelengths
Number of Pixels in Spectrum: 2048
>>>>>Begin Spectral Data<<<<<
223.165	-35.62
223.4	-35.62
223.635	-35.62
223.869	-7.62
224.104	-36.62
224.338	-10.62
224.573	-13.62
224.808	-5.62
225.042	-4.62
225.277	1.38
225.511	1.38
225.746	9.38
225.98	10.38
226.215	15.38
226.449	19.38
226.683	14.38
226.918	29.38
227.152	13.38
227.387	32.38
227.621	42.38
227.856	28.38
228.09	40.38
228.324	27.38
228.559	66.38
228.793	86.38
229.027	143.38
229.262	134.38
229.496	139.38
229.73	144.38
229.964	161.38
230.199	165.38
230.433	169.38
230.667	190.38
230.901	193.38
231.136	183.38
231.37	189.38
231.604	168.38
231.838	176.38
232.072	175.38
232.306	175.38
232.541	185.38
232.775	197.38
233.009	209.38
233.243	187.38
233.477	200.38
233.711	196.38
233.945	203.38
234.179	198.38
234.413	192.38
234.647	214.38
234.881	207.38
235.115	199.38
235.349	199.38
235.583	202.38
235.817	187.38
236.051	195.38
236.285	184.38
236.519	191.38
236.753	214.38
236.987	223.38
237.221	222.38
237.455	249.38
237.689	226.38
237.922	207.38
238.156	213.38
238.39	225.38
238.624	231.38
238.858	235.38
239.091	246.38
239.325	265.38
239.559	288.38
239.793	297.38
240.027	301.38
240.26	294.38
240.494	232.38
240.728	231.38
240.961	232.38
241.195	235.38
241.429	258.38
241.662	238.38
241.896	234.38
242.13	245.38
242.363	280.38
242.597	270.38
242.83	267.38
243.064	267.38
243.298	289.38
243.531	283.38
243.765	290.38
243.998	270.38
244.232	262.38
244.465	255.38
244.699	259.38
244.932	278.38
245.166	285.38
245.399	309.38
245.633	286.38
245.866	271.38
246.099	290.38
246.333	301.38
246.566	309.38
246.8	306.38
247.033	330.38
247.266	320.38
247.5	330.38
247.733	329.38
247.966	347.38
248.2	354.38
248.433	325.38
248.666	387.38
248.899	403.38
249.133	438.38
249.366	461.38
249.599	386.38
249.832	363.38
250.066	379.38
250.299	377.38
250.532	345.38
250.765	312.38
250.998	340.38
251.231	355.38
251.465	355.38
251.698	344.38
251.931	330.38
252.164	351.38
252.397	343.38
252.63	353.38
252.863	343.38
253.096	334.38
253.329	367.38
253.562	360.38
253.795	355.38
254.028	357.38
254.261	347.38
254.494	326.38
254.727	321.38
254.96	350.38
255.193	366.38
255.426	423.38
255.659	443.38
255.892	458.38
256.124	400.38
256.357	392.38
256.59	405.38
256.823	425.38
257.056	435.38
257.289	488.38
257.521	527.38
257.754	480.38
257.987	441.38
258.22	481.38
258.452	443.38
258.685	396.38
258.918	391.38
259.151	369.38
259.383	371.38
259.616	378.38
259.849	360.38
260.081	395.38
260.314	445.38
260.547	459.38
260.779	473.38
261.012	453.38
261.244	407.38
261.477	411.38
261.71	397.38
261.942	389.38
262.175	360.38
262.407	419.38
262.64	386.38
262.872	356.38
263.105	369.38
263.337	358.38
263.57	377.38
263.802	373.38
264.035	347.38
264.267	332.38
264.499	328.38
264.732	381.38
264.964	389.38
265.197	403.38
265.429	414.38
265.661	456.38
265.894	504.38
266.126	505.38
266.358	440.38
266.591	463.38
266.823	480.38
267.055	446.38
267.287	458.38
267.52	459.38
267.752	454.38
267.984	448.38
268.216	462.38
268.448	466.38
268.681	457.38
268.913	415.38
269.145	407.38
269.377	393.38
269.609	442.38
269.841	514.38
270.073	574.38
270.306	630.38
270.538	617.38
270.77	543.38
271.002	488.38
271.234	477.38
271.466	485.38
271.698	524.38
271.93	616.38
272.162	592.38
272.394	554.38
272.626	519.38
272.858	457.38
273.09	411.38
273.322	427.38
273.553	387.38
273.785	409.38
274.017	401.38
274.249	441.38
274.481	439.38
274.713	394.38
274.945	418.38
275.176	405.38
275.408	397.38
275.64	398.38
275.872	410.38
276.104	449.38
276.335	487.38
276.567	550.38
276.799	531.38
277.031	489.38
277.262	476.38
277.494	476.38
277.726	512.38
277.957	500.38
278.189	466.38
278.421	430.38
278.652	424.38
278.884	419.38
279.115	437.38
279.347	437.38
279.579	443.38
279.81	461.38
280.042	477.38
280.273	536.38
280.505	523.38
280.736	517.38
280.968	477.38
281.199	421.38
281.431	416.38
281.662	438.38
281.894	435.38
282.125	423.38
282.356	451.38
282.588	467.38
282.819	449.38
283.051	496.38
283.282	521.38
283.513	480.38
283.745	443.38
283.976	425.38
284.207	429.38
284.439	423.38
284.67	444.38
284.901	459.38
285.132	456.38
285.364	474.38
285.595	443.38
285.826	464.38
286.057	457.38
286.288	452.38
286.52	485.38
286.751	503.38
286.982	489.38
287.213	445.38
287.444	451.38
287.675	446.38
287.906	457.38
288.138	494.38
288.369	468.38
288.6	444.38
288.831	432.38
289.062	448.38
289.293	442.38
289.524	463.38
289.755	475.38
289.986	477.38
290.217	452.38
290.448	445.38
290.679	469.38
290.91	489.38
291.141	467.38
291.371	469.38
291.602	499.38
291.833	503.38
292.064	486.38
292.295	480.38
292.526	508.38
292.757	513.38
292.987	471.38
293.218	465.38
293.449	545.38
293.68	571.38
293.91	579.38
294.141	551.38
294.372	535.38
294.603	575.38
294.833	580.38
295.064	549.38
295.295	482.38
295.525	478.38
295.756	443.38
295.987	440.38
296.217	432.38
296.448	464.38
296.679	466.38
296.909	466.38
297.14	474.38
297.37	457.38
297.601	517.38
297.831	530.38
298.062	518.38
298.292	472.38
298.523	456.38
298.753	461.38
298.984	467.38
299.214	469.38
299.445	504.38
299.675	508.38
299.905	486.38
300.136	480.38
300.366	468.38
300.597	466.38
300.827	471.38
301.057	479.38
301.288	516.38
301.518	517.38
301.748	543.38
301.979	543.38
302.209	586.38
302.439	599.38
302.669	593.38
302.9	567.38
303.13	496.38
303.36	519.38
303.59	503.38
303.82	519.38
304.051	497.38
304.281	515.38
304.511	527.38
304.741	580.38
304.971	600.38
305.201	626.38
305.431	566.38
305.661	493.38
305.891	453.38
306.121	466.38
306.352	487.38
306.582	510.38
306.812	560.38
307.042	561.38
307.272	592.38
307.502	599.38
307.731	624.38
307.961	629.38
308.191	583.38
308.421	530.38
308.651	515.38
308.881	491.38
309.111	489.38
309.341	503.38
309.571	519.38
309.8	493.38
310.03	508.38
310.26	503.38
310.49	478.38
310.72	519.38
310.949	525.38
311.179	521.38
311.409	501.38
311.639	521.38
311.868	505.38
312.098	493.38
312.328	497.38
312.557	510.38
312.787	531.38
313.017	539.38
313.246	531.38
313.476	512.38
313.706	515.38
313.935	527.38
314.165	549.38
314.394	556.38
314.624	592.38
314.853	623.38
315.083	629.38
315.312	615.38
315.542	577.38
315.771	531.38
316.001	561.38
316.23	594.38
316.46	574.38
316.689	559.38
316.919	507.38
317.148	515.38
317.377	542.38
317.607	585.38
317.836	637.38
318.065	635.38
318.295	607.38
318.524	599.38
318.753	578.38
318.983	550.38
319.212	563.38
319.441	548.38
319.67	535.38
319.9	551.38
320.129	608.38
320.358	607.38
320.587	605.38
320.816	623.38
321.046	606.38
321.275	587.38
321.504	591.38
321.733	617.38
321.962	586.38
322.191	538.38
322.42	553.38
322.649	549.38
322.878	564.38
323.108	548.38
323.337	568.38
323.566	573.38
323.795	569.38
324.024	593.38
324.253	544.38
324.482	569.38
324.71	546.38
324.939	541.38
325.168	563.38
325.397	576.38
325.626	592.38
325.855	579.38
326.084	562.38
326.313	569.38
326.542	587.38
326.77	594.38
326.999	603.38
327.228	544.38
327.457	544.38
327.686	532.38
327.914	563.38
328.143	527.38
328.372	571.38
328.6	567.38
328.829	547.38
329.058	548.38
329.287	554.38
329.515	597.38
329.744	608.38
329.972	618.38
330.201	618.38
330.43	610.38
330.658	585.38
330.887	574.38
331.115	618.38
331.344	622.38
331.572	623.38
331.801	593.38
332.03	588.38
332.258	597.38
332.486	618.38
332.715	620.38
332.943	603.38
333.172	619.38
333.4	627.38
333.629	628.38
333.857	661.38
334.085	739.38
334.314	828.38
334.542	826.38
334.771	773.38
334.999	677.38
335.227	640.38
335.455	643.38
335.684	647.38
335.912	662.38
336.14	650.38
336.369	644.38
336.597	615.38
336.825	581.38
337.053	645.38
337.281	659.38
337.51	731.38
337.738	725.38
337.966	649.38
338.194	601.38
338.422	603.38
338.65	602.38
338.878	586.38
339.106	593.38
339.334	564.38
339.562	562.38
339.79	568.38
340.018	642.38
340.246	631.38
340.474	644.38
340.702	623.38
340.93	625.38
341.158	611.38
341.386	598.38
341.614	606.38
341.842	583.38
342.07	619.38
342.298	595.38
342.526	600.38
342.754	610.38
342.981	602.38
343.209	589.38
343.437	584.38
343.665	622.38
343.893	633.38
344.12	644.38
344.348	653.38
344.576	599.38
344.804	570.38
345.031	602.38
345.259	580.38
345.487	562.38
345.714	552.38
345.942	566.38
346.17	555.38
346.397	572.38
346.625	571.38
346.853	577.38
347.08	537.38
347.308	553.38
347.535	568.38
347.763	592.38
347.99	561.38
348.218	563.38
348.445	577.38
348.673	594.38
348.9	586.38
349.128	586.38
349.355	616.38
349.583	597.38
349.81	580.38
350.037	531.38
350.265	527.38
350.492	553.38
350.72	561.38
350.947	583.38
351.174	561.38
351.402	565.38
351.629	516.38
351.856	525.38
352.083	544.38
352.311	544.38
352.538	538.38
352.765	587.38
352.992	610.38
353.22	561.38
353.447	556.38
353.674	561.38
353.901	572.38
354.128	535.38
354.355	571.38
354.583	596.38
354.81	601.38
355.037	576.38
355.264	582.38
355.491	554.38
355.718	559.38
355.945	561.38
356.172	567.38
356.399	561.38
356.626	551.38
356.853	586.38
357.08	655.38
357.307	687.38
357.534	655.38
357.761	578.38
357.988	539.38
358.215	560.38
358.441	541.38
358.668	559.38
358.895	547.38
359.122	608.38
359.349	646.38
359.576	598.38
359.802	565.38
360.029	554.38
360.256	550.38
360.483	577.38
360.709	573.38
360.936	611.38
361.163	645.38
361.39	688.38
361.616	723.38
361.843	713.38
362.07	651.38
362.296	593.38
362.523	569.38
362.749	588.38
362.976	566.38
363.203	570.38
363.429	573.38
363.656	567.38
363.882	578.38
364.109	669.38
364.335	655.38
364.562	644.38
364.788	601.38
365.015	557.38
365.241	559.38
365.468	561.38
365.694	586.38
365.92	606.38
366.147	588.38
366.373	577.38
366.599	562.38
366.826	576.38
367.052	547.38
367.278	596.38
367.505	625.38
367.731	596.38
367.957	614.38
368.184	639.38
368.41	659.38
368.636	676.38
368.862	667.38
369.089	672.38
369.315	659.38
369.541	611.38
369.767	615.38
369.993	605.38
370.219	603.38
370.445	611.38
370.672	656.38
370.898	703.38
371.124	655.38
371.35	660.38
371.576	660.38
371.802	665.38
372.028	627.38
372.254	607.38
372.48	618.38
372.706	605.38
372.932	603.38
373.158	607.38
373.384	630.38
373.61	629.38
373.835	647.38
374.061	612.38
374.287	621.38
374.513	621.38
374.739	635.38
374.965	637.38
375.191	650.38
375.416	647.38
375.642	647.38
375.868	715.38
376.094	722.38
376.319	678.38
376.545	631.38
376.771	664.38
376.997	705.38
377.222	669.38
377.448	666.38
377.674	677.38
377.899	676.38
378.125	701.38
378.35	711.38
378.576	645.38
378.802	596.38
379.027	619.38
379.253	648.38
379.478	641.38
379.704	643.38
379.929	643.38
380.155	664.38
380.38	657.38
380.606	651.38
380.831	712.38
381.057	701.38
381.282	685.38
381.507	702.38
381.733	734.38
381.958	749.38
382.184	689.38
382.409	685.38
382.634	676.38
382.86	722.38
383.085	681.38
383.31	747.38
383.535	782.38
383.761	794.38
383.986	757.38
384.211	742.38
384.436	718.38
384.662	787.38
384.887	797.38
385.112	749.38
385.337	772.38
385.562	721.38
385.787	733.38
386.013	770.38
386.238	758.38
386.463	765.38
386.688	831.38
386.913	835.38
387.138	815.38
387.363	807.38
387.588	753.38
387.813	742.38
388.038	779.38
388.263	832.38
388.488	773.38
388.713	732.38
388.938	737.38
389.163	740.38
389.387	737.38
389.612	767.38
389.837	757.38
390.062	776.38
390.287	762.38
390.512	765.38
390.736	743.38
390.961	726.38
391.186	710.38
391.411	752.38
391.636	769.38
391.86	738.38
392.085	731.38
392.31	777.38
392.534	769.38
392.759	790.38
392.984	771.38
393.208	767.38
393.433	787.38
393.658	816.38
393.882	806.38
394.107	802.38
394.331	776.38
394.556	756.38
394.78	789.38
395.005	805.38
395.229	844.38
395.454	890.38
395.678	863.38
395.903	821.38
396.127	807.38
396.352	828.38
396.576	817.38
396.801	847.38
397.025	850.38
397.249	865.38
397.474	828.38
397.698	833.38
397.922	870.38
398.147	891.38
398.371	925.38
398.595	907.38
398.82	898.38
399.044	880.38
399.268	911.38
399.492	962.38
399.717	1004.38
399.941	1005.38
400.165	989.38
400.389	951.38
400.613	957.38
400.837	1138.38
401.062	1210.38
401.286	1026.38
401.51	972.38
401.734	962.38
401.958	940.38
402.182	891.38
402.406	890.38
402.63	889.38
402.854	912.38
403.078	889.38
403.302	910.38
403.526	926.38
403.75	939.38
403.974	934.38
404.198	919.38
404.422	977.38
404.645	1011.38
404.869	987.38
405.093	948.38
405.317	886.38
405.541	909.38
405.765	925.38
405.988	925.38
406.212	966.38
406.436	972.38
406.66	1017.38
406.883	1053.38
407.107	1160.38
407.331	1237.38
407.555	1279.38
407.778	1122.38
408.002	1022.38
408.226	967.38
408.449	966.38
408.673	969.38
408.896	946.38
409.12	961.38
409.344	966.38
409.567	943.38
409.791	947.38
410.014	993.38
410.238	1034.38
410.461	1069.38
410.685	990.38
410.908	931.38
411.132	961.38
411.355	953.38
411.578	950.38
411.802	931.38
412.025	946.38
412.249	933.38
412.472	906.38
412.695	916.38
412.919	931.38
413.142	930.38
413.365	940.38
413.589	944.38
413.812	1029.38
414.035	1008.38
414.258	947.38
414.482	948.38
414.705	939.38
414.928	918.38
415.151	902.38
415.374	928.38
415.597	934.38
415.821	915.38
416.044	942.38
416.267	931.38
416.49	903.38
416.713	915.38
416.936	986.38
417.159	1000.38
417.382	983.38
417.605	932.38
417.828	953.38
418.051	954.38
418.274	952.38
418.497	926.38
418.72	945.38
418.943	965.38
419.166	998.38
419.389	987.38
419.611	966.38
419.834	952.38
420.057	969.38
420.28	947.38
420.503	940.38
420.726	957.38
420.948	946.38
421.171	943.38
421.394	915.38
421.617	989.38
421.839	1002.38
422.062	977.38
422.285	967.38
422.507	956.38
422.73	927.38
422.953	883.38
423.175	895.38
423.398	921.38
423.621	952.38
423.843	978.38
424.066	950.38
424.288	1027.38
424.511	1053.38
424.733	1039.38
424.956	927.38
425.178	929.38
425.401	906.38
425.623	947.38
425.846	936.38
426.068	984.38
426.291	979.38
426.513	995.38
426.735	977.38
426.958	1060.38
427.18	1069.38
427.402	998.38
427.625	1014.38
427.847	989.38
428.069	916.38
428.292	921.38
428.514	907.38
428.736	915.38
428.958	914.38
429.181	927.38
429.403	1081.38
429.625	1266.38
429.847	1069.38
430.069	949.38
430.292	1079.38
430.514	1031.38
430.736	1014.38
430.958	995.38
431.18	945.38
431.402	901.38
431.624	849.38
431.846	807.38
432.068	743.38
432.29	743.38
432.512	820.38
432.734	879.38
432.956	931.38
433.178	984.38
433.4	967.38
433.622	945.38
433.844	914.38
434.066	842.38
434.287	804.38
434.509	756.38
434.731	818.38
434.953	918.38
435.175	954.38
435.397	916.38
435.618	885.38
435.84	869.38
436.062	859.38
436.284	907.38
436.505	902.38
436.727	974.38
436.949	925.38
437.17	941.38
437.392	896.38
437.614	882.38
437.835	810.38
438.057	833.38
438.278	880.38
438.5	869.38
438.721	888.38
438.943	927.38
439.165	927.38
439.386	915.38
439.608	959.38
439.829	979.38
440.05	979.38
440.272	947.38
440.493	951.38
440.715	991.38
440.936	1043.38
441.158	1061.38
441.379	1071.38
441.6	1018.38
441.822	1012.38
442.043	1038.38
442.264	989.38
442.486	970.38
442.707	974.38
442.928	954.38
443.149	989.38
443.371	1000.38
443.592	1042.38
443.813	1041.38
444.034	1016.38
444.255	1026.38
444.476	1038.38
444.698	1039.38
444.919	1047.38
445.14	1154.38
445.361	1134.38
445.582	1087.38
445.803	1059.38
446.024	1046.38
446.245	1076.38
446.466	1069.38
446.687	1039.38
446.908	1039.38
447.129	1019.38
447.35	978.38
447.571	1015.38
447.792	984.38
448.013	955.38
448.234	974.38
448.455	985.38
448.675	996.38
448.896	904.38
449.117	921.38
449.338	955.38
449.559	986.38
449.779	975.38
450	1026.38
450.221	1059.38
450.442	1032.38
450.662	969.38
450.883	873.38
451.104	894.38
451.324	871.38
451.545	896.38
451.766	895.38
451.986	845.38
452.207	835.38
452.428	789.38
452.648	793.38
452.869	792.38
453.089	808.38
453.31	777.38
453.53	769.38
453.751	739.38
453.971	713.38
454.192	744.38
454.412	778.38
454.633	789.38
454.853	789.38
455.073	780.38
455.294	801.38
455.514	760.38
455.734	767.38
455.955	756.38
456.175	742.38
456.395	746.38
456.616	743.38
456.836	718.38
457.056	742.38
457.276	725.38
457.497	717.38
457.717	694.38
457.937	732.38
458.157	735.38
458.377	692.38
458.598	690.38
458.818	680.38
459.038	709.38
459.258	703.38
459.478	723.38
459.698	744.38
459.918	758.38
460.138	793.38
460.358	845.38
460.578	848.38
460.798	864.38
461.018	907.38
461.238	913.38
461.458	849.38
461.678	844.38
461.898	820.38
462.118	818.38
462.338	827.38
462.558	854.38
462.777	867.38
462.997	885.38
463.217	889.38
463.437	900.38
463.657	853.38
463.876	862.38
464.096	805.38
464.316	879.38
464.536	893.38
464.755	873.38
464.975	886.38
465.195	895.38
465.414	901.38
465.634	893.38
465.854	882.38
466.073	955.38
466.293	951.38
466.512	896.38
466.732	909.38
466.951	931.38
467.171	921.38
467.391	907.38
467.61	896.38
467.829	903.38
468.049	992.38
468.268	1049.38
468.488	968.38
468.707	923.38
468.927	927.38
469.146	911.38
469.365	902.38
469.585	945.38
469.804	923.38
470.023	925.38
470.243	941.38
470.462	956.38
470.681	947.38
470.901	927.38
471.12	933.38
471.339	943.38
471.558	914.38
471.777	917.38
471.997	903.38
472.216	852.38
472.435	799.38
472.654	778.38
472.873	777.38
473.092	836.38
473.311	840.38
473.53	825.38
473.749	819.38
473.968	864.38
474.187	857.38
474.406	847.38
474.625	846.38
474.844	873.38
475.063	904.38
475.282	847.38
475.501	857.38
475.72	835.38
475.939	919.38
476.158	917.38
476.377	885.38
476.596	852.38
476.814	822.38
477.033	833.38
477.252	851.38
477.471	884.38
477.69	895.38
477.908	962.38
478.127	980.38
478.346	1016.38
478.564	1011.38
478.783	989.38
479.002	1042.38
479.22	1011.38
479.439	1018.38
479.658	1044.38
479.876	1030.38
480.095	909.38
480.313	890.38
480.532	872.38
480.751	856.38
480.969	843.38
481.188	789.38
481.406	797.38
481.624	779.38
481.843	790.38
482.061	833.38
482.28	882.38
482.498	891.38
482.717	859.38
482.935	918.38
483.153	1001.38
483.372	1025.38
483.59	1035.38
483.808	961.38
484.027	946.38
484.245	991.38
484.463	1254.38
484.681	1327.38
484.9	1050.38
485.118	979.38
485.336	930.38
485.554	920.38
485.772	868.38
485.99	890.38
486.209	920.38
486.427	922.38
486.645	930.38
486.863	1003.38
487.081	1035.38
487.299	1022.38
487.517	1034.38
487.735	1138.38
487.953	1198.38
488.171	1159.38
488.389	1143.38
488.607	1103.38
488.825	1142.38
489.043	1045.38
489.261	988.38
489.479	1047.38
489.696	1045.38
489.914	1055.38
490.132	1054.38
490.35	1097.38
490.568	1188.38
490.786	1176.38
491.003	1203.38
491.221	1262.38
491.439	1307.38
491.657	1320.38
491.874	1374.38
492.092	1434.38
492.31	1526.38
492.527	1485.38
492.745	1370.38
492.963	1314.38
493.18	1332.38
493.398	1395.38
493.615	1352.38
493.833	1249.38
494.05	1254.38
494.268	1281.38
494.485	1281.38
494.703	1269.38
494.92	1223.38
495.138	1232.38
495.355	1228.38
495.573	1220.38
495.79	1313.38
496.008	1333.38
496.225	1243.38
496.442	1240.38
496.66	1242.38
496.877	1226.38
497.094	1234.38
497.312	1222.38
497.529	1219.38
497.746	1217.38
497.963	1273.38
498.181	1318.38
498.398	1295.38
498.615	1214.38
498.832	1142.38
499.049	1155.38
499.267	1197.38
499.484	1286.38
499.701	1346.38
499.918	1415.38
500.135	1533.38
