Data from WStandard_LampEnergy10_LIBS07252019.E.O._I.C._HRD10591_15-54-58-928.txt Node
Date: Thu Jul 25 15:54:58 EDT 2019
User: cochatt
Spectrometer: HR+D1059
Trigger mode: 1
Integration Time (sec): 1.000000E-1
Scans to average: 1
Electric dark correction enabled: true
Nonlinearity correction enabled: false
Boxcar width: 0
XAxis mode: Wavelengths
Number of Pixels in Spectrum: 2048
>>>>>Begin Spectral Data<<<<<
223.165	-15.75
223.4	-15.75
223.635	-15.75
223.869	-18.75
224.104	-23.75
224.338	-3.75
224.573	-17.75
224.808	-12.75
225.042	-1.75
225.277	-2.75
225.511	1.25
225.746	3.25
225.98	2.25
226.215	2.25
226.449	20.25
226.683	20.25
226.918	26.25
227.152	21.25
227.387	35.25
227.621	37.25
227.856	43.25
228.09	43.25
228.324	54.25
228.559	60.25
228.793	66.25
229.027	134.25
229.262	144.25
229.496	143.25
229.73	135.25
229.964	153.25
230.199	158.25
230.433	164.25
230.667	177.25
230.901	180.25
231.136	183.25
231.37	166.25
231.604	181.25
231.838	175.25
232.072	187.25
232.306	167.25
232.541	165.25
232.775	195.25
233.009	212.25
233.243	201.25
233.477	199.25
233.711	204.25
233.945	207.25
234.179	197.25
234.413	193.25
234.647	209.25
234.881	209.25
235.115	182.25
235.349	187.25
235.583	195.25
235.817	181.25
236.051	183.25
236.285	205.25
236.519	196.25
236.753	231.25
236.987	228.25
237.221	231.25
237.455	229.25
237.689	237.25
237.922	206.25
238.156	218.25
238.39	227.25
238.624	234.25
238.858	230.25
239.091	257.25
239.325	265.25
239.559	262.25
239.793	283.25
240.027	308.25
240.26	287.25
240.494	231.25
240.728	221.25
240.961	253.25
241.195	237.25
241.429	251.25
241.662	245.25
241.896	238.25
242.13	231.25
242.363	264.25
242.597	277.25
242.83	272.25
243.064	280.25
243.298	291.25
243.531	284.25
243.765	267.25
243.998	282.25
244.232	248.25
244.465	244.25
244.699	263.25
244.932	301.25
245.166	328.25
245.399	310.25
245.633	254.25
245.866	270.25
246.099	292.25
246.333	305.25
246.566	300.25
246.8	313.25
247.033	336.25
247.266	335.25
247.5	318.25
247.733	335.25
247.966	333.25
248.2	372.25
248.433	343.25
248.666	356.25
248.899	399.25
249.133	431.25
249.366	470.25
249.599	387.25
249.832	364.25
250.066	355.25
250.299	354.25
250.532	344.25
250.765	317.25
250.998	328.25
251.231	331.25
251.465	342.25
251.698	341.25
251.931	352.25
252.164	335.25
252.397	347.25
252.63	358.25
252.863	332.25
253.096	327.25
253.329	335.25
253.562	351.25
253.795	361.25
254.028	359.25
254.261	333.25
254.494	352.25
254.727	324.25
254.96	346.25
255.193	395.25
255.426	416.25
255.659	443.25
255.892	452.25
256.124	377.25
256.357	365.25
256.59	402.25
256.823	405.25
257.056	419.25
257.289	487.25
257.521	505.25
257.754	450.25
257.987	445.25
258.22	482.25
258.452	453.25
258.685	375.25
258.918	387.25
259.151	388.25
259.383	367.25
259.616	357.25
259.849	379.25
260.081	427.25
260.314	441.25
260.547	479.25
260.779	464.25
261.012	433.25
261.244	396.25
261.477	388.25
261.71	428.25
261.942	403.25
262.175	391.25
262.407	407.25
262.64	380.25
262.872	369.25
263.105	344.25
263.337	371.25
263.57	369.25
263.802	375.25
264.035	355.25
264.267	316.25
264.499	348.25
264.732	369.25
264.964	381.25
265.197	405.25
265.429	414.25
265.661	448.25
265.894	492.25
266.126	488.25
266.358	420.25
266.591	456.25
266.823	486.25
267.055	447.25
267.287	442.25
267.52	433.25
267.752	448.25
267.984	446.25
268.216	474.25
268.448	461.25
268.681	469.25
268.913	423.25
269.145	396.25
269.377	401.25
269.609	461.25
269.841	509.25
270.073	577.25
270.306	600.25
270.538	601.25
270.77	516.25
271.002	470.25
271.234	470.25
271.466	489.25
271.698	547.25
271.93	601.25
272.162	568.25
272.394	530.25
272.626	511.25
272.858	454.25
273.09	415.25
273.322	401.25
273.553	392.25
273.785	415.25
274.017	401.25
274.249	453.25
274.481	444.25
274.713	424.25
274.945	412.25
275.176	397.25
275.408	397.25
275.64	388.25
275.872	406.25
276.104	426.25
276.335	472.25
276.567	534.25
276.799	515.25
277.031	458.25
277.262	477.25
277.494	485.25
277.726	523.25
277.957	518.25
278.189	467.25
278.421	423.25
278.652	437.25
278.884	421.25
279.115	418.25
279.347	457.25
279.579	435.25
279.81	423.25
280.042	448.25
280.273	521.25
280.505	509.25
280.736	499.25
280.968	476.25
281.199	414.25
281.431	420.25
281.662	414.25
281.894	437.25
282.125	447.25
282.356	459.25
282.588	429.25
282.819	452.25
283.051	487.25
283.282	507.25
283.513	494.25
283.745	424.25
283.976	395.25
284.207	411.25
284.439	453.25
284.67	443.25
284.901	453.25
285.132	436.25
285.364	448.25
285.595	452.25
285.826	429.25
286.057	429.25
286.288	456.25
286.52	469.25
286.751	495.25
286.982	484.25
287.213	452.25
287.444	436.25
287.675	436.25
287.906	470.25
288.138	470.25
288.369	478.25
288.6	434.25
288.831	405.25
289.062	452.25
289.293	463.25
289.524	454.25
289.755	458.25
289.986	449.25
290.217	440.25
290.448	439.25
290.679	461.25
290.91	466.25
291.141	471.25
291.371	496.25
291.602	463.25
291.833	467.25
292.064	506.25
292.295	497.25
292.526	493.25
292.757	491.25
292.987	478.25
293.218	488.25
293.449	527.25
293.68	566.25
293.91	572.25
294.141	550.25
294.372	532.25
294.603	561.25
294.833	568.25
295.064	520.25
295.295	480.25
295.525	457.25
295.756	470.25
295.987	441.25
296.217	433.25
296.448	462.25
296.679	446.25
296.909	458.25
297.14	447.25
297.37	472.25
297.601	484.25
297.831	546.25
298.062	504.25
298.292	470.25
298.523	457.25
298.753	464.25
298.984	481.25
299.214	491.25
299.445	488.25
299.675	497.25
299.905	487.25
300.136	483.25
300.366	461.25
300.597	453.25
300.827	476.25
301.057	494.25
301.288	506.25
301.518	526.25
301.748	539.25
301.979	569.25
302.209	559.25
302.439	604.25
302.669	590.25
302.9	542.25
303.13	527.25
303.36	516.25
303.59	525.25
303.82	481.25
304.051	517.25
304.281	538.25
304.511	525.25
304.741	558.25
304.971	591.25
305.201	629.25
305.431	572.25
305.661	463.25
305.891	447.25
306.121	460.25
306.352	499.25
306.582	523.25
306.812	535.25
307.042	569.25
307.272	567.25
307.502	604.25
307.731	621.25
307.961	632.25
308.191	566.25
308.421	513.25
308.651	467.25
308.881	465.25
309.111	508.25
309.341	482.25
309.571	518.25
309.8	496.25
310.03	480.25
310.26	479.25
310.49	481.25
310.72	514.25
310.949	536.25
311.179	521.25
311.409	498.25
311.639	529.25
311.868	515.25
312.098	521.25
312.328	518.25
312.557	491.25
312.787	509.25
313.017	513.25
313.246	527.25
313.476	524.25
313.706	535.25
313.935	545.25
314.165	551.25
314.394	576.25
314.624	585.25
314.853	616.25
315.083	638.25
315.312	632.25
315.542	578.25
315.771	534.25
316.001	552.25
316.23	559.25
316.46	546.25
316.689	555.25
316.919	524.25
317.148	501.25
317.377	543.25
317.607	584.25
317.836	630.25
318.065	640.25
318.295	583.25
318.524	622.25
318.753	578.25
318.983	555.25
319.212	571.25
319.441	556.25
319.67	544.25
319.9	553.25
320.129	583.25
320.358	594.25
320.587	606.25
320.816	606.25
321.046	583.25
321.275	610.25
321.504	596.25
321.733	625.25
321.962	591.25
322.191	552.25
322.42	558.25
322.649	549.25
322.878	545.25
323.108	567.25
323.337	596.25
323.566	573.25
323.795	583.25
324.024	568.25
324.253	570.25
324.482	569.25
324.71	552.25
324.939	520.25
325.168	542.25
325.397	560.25
325.626	571.25
325.855	551.25
326.084	548.25
326.313	555.25
326.542	550.25
326.77	593.25
326.999	567.25
327.228	542.25
327.457	518.25
327.686	553.25
327.914	556.25
328.143	540.25
328.372	547.25
328.6	541.25
328.829	552.25
329.058	541.25
329.287	539.25
329.515	563.25
329.744	582.25
329.972	622.25
330.201	629.25
330.43	609.25
330.658	599.25
330.887	590.25
331.115	581.25
331.344	600.25
331.572	584.25
331.801	558.25
332.03	577.25
332.258	599.25
332.486	608.25
332.715	610.25
332.943	610.25
333.172	587.25
333.4	587.25
333.629	628.25
333.857	655.25
334.085	719.25
334.314	814.25
334.542	824.25
334.771	783.25
334.999	696.25
335.227	663.25
335.455	647.25
335.684	616.25
335.912	630.25
336.14	679.25
336.369	621.25
336.597	605.25
336.825	607.25
337.053	619.25
337.281	633.25
337.51	694.25
337.738	716.25
337.966	686.25
338.194	594.25
338.422	577.25
338.65	584.25
338.878	571.25
339.106	577.25
339.334	549.25
339.562	539.25
339.79	573.25
340.018	627.25
340.246	611.25
340.474	614.25
340.702	609.25
340.93	614.25
341.158	628.25
341.386	605.25
341.614	603.25
341.842	611.25
342.07	596.25
342.298	595.25
342.526	603.25
342.754	611.25
342.981	606.25
343.209	581.25
343.437	580.25
343.665	605.25
343.893	605.25
344.12	625.25
344.348	636.25
344.576	595.25
344.804	583.25
345.031	610.25
345.259	604.25
345.487	574.25
345.714	553.25
345.942	551.25
346.17	569.25
346.397	595.25
346.625	546.25
346.853	549.25
347.08	546.25
347.308	530.25
347.535	583.25
347.763	585.25
347.99	560.25
348.218	570.25
348.445	547.25
348.673	586.25
348.9	593.25
349.128	605.25
349.355	612.25
349.583	577.25
349.81	555.25
350.037	511.25
350.265	547.25
350.492	524.25
350.72	543.25
350.947	559.25
351.174	582.25
351.402	538.25
351.629	542.25
351.856	524.25
352.083	512.25
352.311	513.25
352.538	550.25
352.765	567.25
352.992	575.25
353.22	558.25
353.447	557.25
353.674	565.25
353.901	557.25
354.128	548.25
354.355	567.25
354.583	584.25
354.81	583.25
355.037	604.25
355.264	555.25
355.491	575.25
355.718	573.25
355.945	575.25
356.172	541.25
356.399	552.25
356.626	542.25
356.853	596.25
357.08	657.25
357.307	679.25
357.534	639.25
357.761	543.25
357.988	550.25
358.215	519.25
358.441	548.25
358.668	552.25
358.895	561.25
359.122	625.25
359.349	661.25
359.576	602.25
359.802	570.25
360.029	529.25
360.256	541.25
360.483	569.25
360.709	556.25
360.936	617.25
361.163	635.25
361.39	685.25
361.616	740.25
361.843	669.25
362.07	635.25
362.296	575.25
362.523	571.25
362.749	577.25
362.976	594.25
363.203	588.25
363.429	555.25
363.656	563.25
363.882	581.25
364.109	648.25
364.335	626.25
364.562	607.25
364.788	583.25
365.015	565.25
365.241	556.25
365.468	596.25
365.694	599.25
365.92	606.25
366.147	591.25
366.373	543.25
366.599	547.25
366.826	567.25
367.052	559.25
367.278	568.25
367.505	595.25
367.731	594.25
367.957	596.25
368.184	635.25
368.41	665.25
368.636	672.25
368.862	675.25
369.089	647.25
369.315	647.25
369.541	570.25
369.767	596.25
369.993	592.25
370.219	598.25
370.445	614.25
370.672	657.25
370.898	663.25
371.124	655.25
371.35	600.25
371.576	630.25
371.802	666.25
372.028	639.25
372.254	600.25
372.48	597.25
372.706	575.25
372.932	609.25
373.158	585.25
373.384	614.25
373.61	636.25
373.835	649.25
374.061	624.25
374.287	638.25
374.513	641.25
374.739	612.25
374.965	646.25
375.191	653.25
375.416	644.25
375.642	661.25
375.868	726.25
376.094	708.25
376.319	670.25
376.545	645.25
376.771	657.25
376.997	710.25
377.222	683.25
377.448	647.25
377.674	654.25
377.899	670.25
378.125	728.25
378.35	701.25
378.576	643.25
378.802	620.25
379.027	611.25
379.253	631.25
379.478	650.25
379.704	631.25
379.929	627.25
380.155	643.25
380.38	646.25
380.606	670.25
380.831	678.25
381.057	728.25
381.282	701.25
381.507	671.25
381.733	752.25
381.958	740.25
382.184	669.25
382.409	676.25
382.634	691.25
382.86	668.25
383.085	640.25
383.31	705.25
383.535	801.25
383.761	812.25
383.986	754.25
384.211	729.25
384.436	743.25
384.662	761.25
384.887	767.25
385.112	727.25
385.337	747.25
385.562	741.25
385.787	729.25
386.013	747.25
386.238	757.25
386.463	763.25
386.688	815.25
386.913	877.25
387.138	809.25
387.363	779.25
387.588	747.25
387.813	729.25
388.038	808.25
388.263	795.25
388.488	741.25
388.713	718.25
388.938	730.25
389.163	736.25
389.387	722.25
389.612	755.25
389.837	717.25
390.062	744.25
390.287	754.25
390.512	726.25
390.736	737.25
390.961	768.25
391.186	694.25
391.411	701.25
391.636	724.25
391.86	722.25
392.085	754.25
392.31	749.25
392.534	738.25
392.759	743.25
392.984	736.25
393.208	769.25
393.433	777.25
393.658	823.25
393.882	804.25
394.107	753.25
394.331	775.25
394.556	782.25
394.78	781.25
395.005	837.25
395.229	863.25
395.454	877.25
395.678	857.25
395.903	816.25
396.127	791.25
396.352	811.25
396.576	841.25
396.801	842.25
397.025	845.25
397.249	826.25
397.474	831.25
397.698	814.25
397.922	820.25
398.147	896.25
398.371	896.25
398.595	919.25
398.82	861.25
399.044	893.25
399.268	933.25
399.492	914.25
399.717	984.25
399.941	980.25
400.165	978.25
400.389	954.25
400.613	985.25
400.837	1149.25
401.062	1188.25
401.286	1029.25
401.51	973.25
401.734	975.25
401.958	922.25
402.182	892.25
402.406	852.25
402.63	872.25
402.854	879.25
403.078	875.25
403.302	870.25
403.526	903.25
403.75	905.25
403.974	929.25
404.198	912.25
404.422	963.25
404.645	975.25
404.869	980.25
405.093	899.25
405.317	895.25
405.541	937.25
405.765	918.25
405.988	914.25
406.212	953.25
406.436	965.25
406.66	993.25
406.883	1013.25
407.107	1131.25
407.331	1186.25
407.555	1272.25
407.778	1125.25
408.002	991.25
408.226	972.25
408.449	959.25
408.673	932.25
408.896	924.25
409.12	935.25
409.344	950.25
409.567	928.25
409.791	954.25
410.014	959.25
410.238	1036.25
410.461	1057.25
410.685	960.25
410.908	950.25
411.132	925.25
411.355	907.25
411.578	920.25
411.802	911.25
412.025	931.25
412.249	949.25
412.472	915.25
412.695	894.25
412.919	897.25
413.142	911.25
413.365	910.25
413.589	962.25
413.812	996.25
414.035	987.25
414.258	922.25
414.482	887.25
414.705	915.25
414.928	904.25
415.151	885.25
415.374	901.25
415.597	966.25
415.821	941.25
416.044	942.25
416.267	932.25
416.49	894.25
416.713	918.25
416.936	987.25
417.159	989.25
417.382	917.25
417.605	905.25
417.828	952.25
418.051	947.25
418.274	918.25
418.497	953.25
418.72	923.25
418.943	947.25
419.166	979.25
419.389	978.25
419.611	931.25
419.834	929.25
420.057	956.25
420.28	946.25
420.503	942.25
420.726	967.25
420.948	933.25
421.171	900.25
421.394	932.25
421.617	987.25
421.839	979.25
422.062	941.25
422.285	946.25
422.507	903.25
422.73	900.25
422.953	885.25
423.175	895.25
423.398	932.25
423.621	931.25
423.843	955.25
424.066	948.25
424.288	1000.25
424.511	1050.25
424.733	1006.25
424.956	929.25
425.178	937.25
425.401	940.25
425.623	949.25
425.846	966.25
426.068	984.25
426.291	965.25
426.513	932.25
426.735	964.25
426.958	1032.25
427.18	1057.25
427.402	1024.25
427.625	999.25
427.847	985.25
428.069	923.25
428.292	919.25
428.514	905.25
428.736	883.25
428.958	895.25
429.181	946.25
429.403	1045.25
429.625	1218.25
429.847	1041.25
430.069	951.25
430.292	1054.25
430.514	1065.25
430.736	977.25
430.958	972.25
431.18	907.25
431.402	879.25
431.624	849.25
431.846	789.25
432.068	722.25
432.29	718.25
432.512	791.25
432.734	870.25
432.956	935.25
433.178	976.25
433.4	951.25
433.622	926.25
433.844	894.25
434.066	851.25
434.287	798.25
434.509	803.25
434.731	834.25
434.953	925.25
435.175	941.25
435.397	906.25
435.618	852.25
435.84	851.25
436.062	850.25
436.284	887.25
436.505	958.25
436.727	941.25
436.949	918.25
437.17	909.25
437.392	889.25
437.614	834.25
437.835	784.25
438.057	815.25
438.278	841.25
438.5	848.25
438.721	905.25
438.943	926.25
439.165	915.25
439.386	904.25
439.608	965.25
439.829	949.25
440.05	942.25
440.272	950.25
440.493	912.25
440.715	1013.25
440.936	1041.25
441.158	1062.25
441.379	1063.25
441.6	1055.25
441.822	1019.25
442.043	983.25
442.264	965.25
442.486	985.25
442.707	925.25
442.928	953.25
443.149	976.25
443.371	1007.25
443.592	1011.25
443.813	993.25
444.034	984.25
444.255	1021.25
444.476	1047.25
444.698	1075.25
444.919	1055.25
445.14	1161.25
445.361	1099.25
445.582	1064.25
445.803	1079.25
446.024	1052.25
446.245	1090.25
446.466	1057.25
446.687	1017.25
446.908	1045.25
447.129	995.25
447.35	992.25
447.571	982.25
447.792	943.25
448.013	919.25
448.234	973.25
448.455	996.25
448.675	992.25
448.896	900.25
449.117	933.25
449.338	899.25
449.559	944.25
449.779	979.25
450	1043.25
450.221	1073.25
450.442	1011.25
450.662	952.25
450.883	871.25
451.104	887.25
451.324	891.25
451.545	888.25
451.766	861.25
451.986	831.25
452.207	800.25
452.428	804.25
452.648	788.25
452.869	820.25
453.089	800.25
453.31	769.25
453.53	786.25
453.751	719.25
453.971	701.25
454.192	737.25
454.412	780.25
454.633	789.25
454.853	773.25
455.073	755.25
455.294	755.25
455.514	790.25
455.734	764.25
455.955	759.25
456.175	737.25
456.395	718.25
456.616	704.25
456.836	735.25
457.056	740.25
457.276	706.25
457.497	692.25
457.717	709.25
457.937	704.25
458.157	699.25
458.377	691.25
458.598	684.25
458.818	669.25
459.038	712.25
459.258	713.25
459.478	738.25
459.698	701.25
459.918	757.25
460.138	795.25
460.358	838.25
460.578	828.25
460.798	864.25
461.018	870.25
461.238	861.25
461.458	848.25
461.678	844.25
461.898	823.25
462.118	789.25
462.338	813.25
462.558	856.25
462.777	831.25
462.997	869.25
463.217	882.25
463.437	891.25
463.657	851.25
463.876	838.25
464.096	814.25
464.316	846.25
464.536	884.25
464.755	890.25
464.975	887.25
465.195	850.25
465.414	871.25
465.634	868.25
465.854	895.25
466.073	940.25
466.293	939.25
466.512	863.25
466.732	861.25
466.951	909.25
467.171	891.25
467.391	855.25
467.61	891.25
467.829	895.25
468.049	955.25
468.268	1011.25
468.488	960.25
468.707	891.25
468.927	885.25
469.146	909.25
469.365	885.25
469.585	915.25
469.804	914.25
470.023	912.25
470.243	916.25
470.462	935.25
470.681	928.25
470.901	899.25
471.12	939.25
471.339	923.25
471.558	911.25
471.777	896.25
471.997	916.25
472.216	853.25
472.435	769.25
472.654	764.25
472.873	791.25
473.092	824.25
473.311	821.25
473.53	837.25
473.749	844.25
473.968	817.25
474.187	860.25
474.406	847.25
474.625	832.25
474.844	872.25
475.063	882.25
475.282	903.25
475.501	835.25
475.72	824.25
475.939	857.25
476.158	886.25
476.377	844.25
476.596	833.25
476.814	821.25
477.033	820.25
477.252	852.25
477.471	905.25
477.69	937.25
477.908	894.25
478.127	981.25
478.346	1017.25
478.564	1008.25
478.783	998.25
479.002	1049.25
479.22	1020.25
479.439	1032.25
479.658	1064.25
479.876	956.25
480.095	916.25
480.313	881.25
480.532	880.25
480.751	850.25
480.969	849.25
481.188	817.25
481.406	808.25
481.624	774.25
481.843	795.25
482.061	853.25
482.28	876.25
482.498	868.25
482.717	849.25
482.935	900.25
483.153	987.25
483.372	1037.25
483.59	1052.25
483.808	998.25
484.027	945.25
484.245	983.25
484.463	1208.25
484.681	1289.25
484.9	1007.25
485.118	943.25
485.336	935.25
485.554	924.25
485.772	894.25
485.99	875.25
486.209	913.25
486.427	901.25
486.645	955.25
486.863	1022.25
487.081	1058.25
487.299	1028.25
487.517	1027.25
487.735	1129.25
487.953	1193.25
488.171	1191.25
488.389	1130.25
488.607	1079.25
488.825	1117.25
489.043	1072.25
489.261	1007.25
489.479	1047.25
489.696	1041.25
489.914	1043.25
490.132	1049.25
490.35	1102.25
490.568	1131.25
490.786	1165.25
491.003	1189.25
491.221	1253.25
491.439	1327.25
491.657	1290.25
491.874	1353.25
492.092	1409.25
492.31	1495.25
492.527	1421.25
492.745	1363.25
492.963	1339.25
493.18	1319.25
493.398	1346.25
493.615	1329.25
493.833	1273.25
494.05	1223.25
494.268	1268.25
494.485	1235.25
494.703	1214.25
494.92	1233.25
495.138	1232.25
495.355	1226.25
495.573	1232.25
495.79	1288.25
496.008	1249.25
496.225	1229.25
496.442	1271.25
496.66	1227.25
496.877	1199.25
497.094	1232.25
497.312	1231.25
497.529	1223.25
497.746	1217.25
497.963	1300.25
498.181	1281.25
498.398	1229.25
498.615	1174.25
498.832	1161.25
499.049	1173.25
499.267	1166.25
499.484	1247.25
499.701	1349.25
499.918	1357.25
500.135	1471.25
500.352	1568.25
