Data from WStandard_LampEnergy10_LIBS07252019.E.O._I.C._HRD10591_15-55-47-928.txt Node
Date: Thu Jul 25 15:55:47 EDT 2019
User: cochatt
Spectrometer: HR+D1059
Trigger mode: 1
Integration Time (sec): 1.000000E-1
Scans to average: 1
Electric dark correction enabled: true
Nonlinearity correction enabled: false
Boxcar width: 0
XAxis mode: Wavelengths
Number of Pixels in Spectrum: 2048
>>>>>Begin Spectral Data<<<<<
223.165	4.25
223.4	4.25
223.635	4.25
223.869	-26.75
224.104	-17.75
224.338	-17.75
224.573	-16.75
224.808	0.25
225.042	10.25
225.277	-10.75
225.511	0.25
225.746	1.25
225.98	-4.75
226.215	8.25
226.449	7.25
226.683	10.25
226.918	18.25
227.152	34.25
227.387	28.25
227.621	33.25
227.856	48.25
228.09	41.25
228.324	30.25
228.559	52.25
228.793	88.25
229.027	141.25
229.262	147.25
229.496	146.25
229.73	137.25
229.964	153.25
230.199	170.25
230.433	178.25
230.667	163.25
230.901	193.25
231.136	161.25
231.37	179.25
231.604	167.25
231.838	186.25
232.072	170.25
232.306	162.25
232.541	169.25
232.775	192.25
233.009	212.25
233.243	180.25
233.477	199.25
233.711	206.25
233.945	193.25
234.179	180.25
234.413	194.25
234.647	210.25
234.881	183.25
235.115	171.25
235.349	187.25
235.583	202.25
235.817	169.25
236.051	184.25
236.285	186.25
236.519	197.25
236.753	229.25
236.987	224.25
237.221	215.25
237.455	236.25
237.689	219.25
237.922	218.25
238.156	206.25
238.39	218.25
238.624	209.25
238.858	242.25
239.091	242.25
239.325	248.25
239.559	264.25
239.793	302.25
240.027	287.25
240.26	283.25
240.494	225.25
240.728	215.25
240.961	235.25
241.195	235.25
241.429	241.25
241.662	260.25
241.896	242.25
242.13	252.25
242.363	259.25
242.597	275.25
242.83	265.25
243.064	282.25
243.298	270.25
243.531	283.25
243.765	270.25
243.998	290.25
244.232	240.25
244.465	263.25
244.699	258.25
244.932	265.25
245.166	294.25
245.399	294.25
245.633	277.25
245.866	272.25
246.099	286.25
246.333	299.25
246.566	291.25
246.8	311.25
247.033	331.25
247.266	309.25
247.5	303.25
247.733	318.25
247.966	330.25
248.2	342.25
248.433	345.25
248.666	378.25
248.899	393.25
249.133	416.25
249.366	466.25
249.599	397.25
249.832	346.25
250.066	349.25
250.299	363.25
250.532	319.25
250.765	338.25
250.998	324.25
251.231	330.25
251.465	344.25
251.698	338.25
251.931	353.25
252.164	363.25
252.397	351.25
252.63	355.25
252.863	293.25
253.096	314.25
253.329	314.25
253.562	336.25
253.795	374.25
254.028	352.25
254.261	326.25
254.494	324.25
254.727	339.25
254.96	335.25
255.193	374.25
255.426	414.25
255.659	434.25
255.892	459.25
256.124	386.25
256.357	366.25
256.59	381.25
256.823	415.25
257.056	429.25
257.289	487.25
257.521	483.25
257.754	452.25
257.987	452.25
258.22	480.25
258.452	464.25
258.685	392.25
258.918	391.25
259.151	387.25
259.383	356.25
259.616	347.25
259.849	370.25
260.081	406.25
260.314	406.25
260.547	443.25
260.779	466.25
261.012	437.25
261.244	409.25
261.477	365.25
261.71	385.25
261.942	399.25
262.175	386.25
262.407	396.25
262.64	368.25
262.872	358.25
263.105	346.25
263.337	359.25
263.57	396.25
263.802	360.25
264.035	351.25
264.267	357.25
264.499	351.25
264.732	360.25
264.964	374.25
265.197	400.25
265.429	415.25
265.661	448.25
265.894	480.25
266.126	498.25
266.358	462.25
266.591	468.25
266.823	487.25
267.055	442.25
267.287	429.25
267.52	444.25
267.752	439.25
267.984	439.25
268.216	460.25
268.448	457.25
268.681	446.25
268.913	418.25
269.145	404.25
269.377	409.25
269.609	452.25
269.841	506.25
270.073	552.25
270.306	618.25
270.538	610.25
270.77	519.25
271.002	484.25
271.234	466.25
271.466	469.25
271.698	494.25
271.93	590.25
272.162	577.25
272.394	542.25
272.626	490.25
272.858	448.25
273.09	400.25
273.322	402.25
273.553	387.25
273.785	414.25
274.017	405.25
274.249	422.25
274.481	445.25
274.713	408.25
274.945	406.25
275.176	416.25
275.408	400.25
275.64	403.25
275.872	387.25
276.104	434.25
276.335	471.25
276.567	541.25
276.799	483.25
277.031	456.25
277.262	467.25
277.494	513.25
277.726	538.25
277.957	483.25
278.189	456.25
278.421	422.25
278.652	421.25
278.884	415.25
279.115	431.25
279.347	424.25
279.579	427.25
279.81	435.25
280.042	461.25
280.273	501.25
280.505	489.25
280.736	500.25
280.968	474.25
281.199	402.25
281.431	401.25
281.662	412.25
281.894	406.25
282.125	438.25
282.356	431.25
282.588	452.25
282.819	457.25
283.051	472.25
283.282	486.25
283.513	484.25
283.745	437.25
283.976	406.25
284.207	421.25
284.439	438.25
284.67	464.25
284.901	447.25
285.132	438.25
285.364	448.25
285.595	451.25
285.826	447.25
286.057	428.25
286.288	453.25
286.52	474.25
286.751	466.25
286.982	482.25
287.213	440.25
287.444	432.25
287.675	426.25
287.906	463.25
288.138	480.25
288.369	462.25
288.6	447.25
288.831	429.25
289.062	425.25
289.293	446.25
289.524	460.25
289.755	488.25
289.986	467.25
290.217	431.25
290.448	423.25
290.679	441.25
290.91	440.25
291.141	457.25
291.371	479.25
291.602	473.25
291.833	490.25
292.064	488.25
292.295	495.25
292.526	456.25
292.757	490.25
292.987	469.25
293.218	464.25
293.449	506.25
293.68	576.25
293.91	568.25
294.141	530.25
294.372	514.25
294.603	572.25
294.833	581.25
295.064	522.25
295.295	507.25
295.525	447.25
295.756	447.25
295.987	425.25
296.217	436.25
296.448	452.25
296.679	458.25
296.909	447.25
297.14	434.25
297.37	465.25
297.601	507.25
297.831	539.25
298.062	498.25
298.292	474.25
298.523	455.25
298.753	446.25
298.984	475.25
299.214	472.25
299.445	480.25
299.675	498.25
299.905	482.25
300.136	475.25
300.366	454.25
300.597	436.25
300.827	471.25
301.057	498.25
301.288	496.25
301.518	506.25
301.748	503.25
301.979	526.25
302.209	572.25
302.439	566.25
302.669	574.25
302.9	547.25
303.13	487.25
303.36	498.25
303.59	508.25
303.82	491.25
304.051	496.25
304.281	510.25
304.511	536.25
304.741	560.25
304.971	589.25
305.201	625.25
305.431	544.25
305.661	479.25
305.891	450.25
306.121	448.25
306.352	510.25
306.582	508.25
306.812	523.25
307.042	542.25
307.272	546.25
307.502	575.25
307.731	629.25
307.961	606.25
308.191	569.25
308.421	523.25
308.651	478.25
308.881	485.25
309.111	481.25
309.341	466.25
309.571	484.25
309.8	485.25
310.03	480.25
310.26	499.25
310.49	490.25
310.72	512.25
310.949	513.25
311.179	532.25
311.409	501.25
311.639	496.25
311.868	494.25
312.098	532.25
312.328	499.25
312.557	477.25
312.787	503.25
313.017	533.25
313.246	503.25
313.476	474.25
313.706	514.25
313.935	514.25
314.165	536.25
314.394	564.25
314.624	554.25
314.853	616.25
315.083	613.25
315.312	599.25
315.542	568.25
315.771	550.25
316.001	545.25
316.23	555.25
316.46	553.25
316.689	562.25
316.919	495.25
317.148	508.25
317.377	539.25
317.607	568.25
317.836	615.25
318.065	635.25
318.295	601.25
318.524	563.25
318.753	553.25
318.983	563.25
319.212	542.25
319.441	542.25
319.67	525.25
319.9	562.25
320.129	571.25
320.358	606.25
320.587	611.25
320.816	606.25
321.046	598.25
321.275	561.25
321.504	587.25
321.733	622.25
321.962	579.25
322.191	532.25
322.42	546.25
322.649	543.25
322.878	558.25
323.108	556.25
323.337	539.25
323.566	565.25
323.795	555.25
324.024	568.25
324.253	554.25
324.482	538.25
324.71	523.25
324.939	522.25
325.168	538.25
325.397	544.25
325.626	570.25
325.855	560.25
326.084	566.25
326.313	542.25
326.542	577.25
326.77	571.25
326.999	567.25
327.228	531.25
327.457	525.25
327.686	536.25
327.914	566.25
328.143	570.25
328.372	576.25
328.6	564.25
328.829	530.25
329.058	547.25
329.287	531.25
329.515	562.25
329.744	560.25
329.972	587.25
330.201	625.25
330.43	591.25
330.658	564.25
330.887	561.25
331.115	588.25
331.344	594.25
331.572	598.25
331.801	567.25
332.03	582.25
332.258	599.25
332.486	604.25
332.715	606.25
332.943	600.25
333.172	596.25
333.4	580.25
333.629	615.25
333.857	668.25
334.085	743.25
334.314	801.25
334.542	835.25
334.771	735.25
334.999	668.25
335.227	624.25
335.455	624.25
335.684	613.25
335.912	634.25
336.14	660.25
336.369	625.25
336.597	586.25
336.825	577.25
337.053	617.25
337.281	662.25
337.51	686.25
337.738	674.25
337.966	642.25
338.194	608.25
338.422	548.25
338.65	588.25
338.878	571.25
339.106	564.25
339.334	546.25
339.562	568.25
339.79	567.25
340.018	626.25
340.246	638.25
340.474	610.25
340.702	638.25
340.93	622.25
341.158	594.25
341.386	598.25
341.614	600.25
341.842	587.25
342.07	583.25
342.298	597.25
342.526	595.25
342.754	563.25
342.981	580.25
343.209	567.25
343.437	573.25
343.665	591.25
343.893	601.25
344.12	626.25
344.348	630.25
344.576	610.25
344.804	586.25
345.031	581.25
345.259	558.25
345.487	574.25
345.714	552.25
345.942	540.25
346.17	554.25
346.397	558.25
346.625	564.25
346.853	542.25
347.08	536.25
347.308	569.25
347.535	574.25
347.763	584.25
347.99	555.25
348.218	538.25
348.445	536.25
348.673	568.25
348.9	580.25
349.128	596.25
349.355	581.25
349.583	577.25
349.81	568.25
350.037	531.25
350.265	525.25
350.492	530.25
350.72	541.25
350.947	560.25
351.174	567.25
351.402	546.25
351.629	529.25
351.856	501.25
352.083	508.25
352.311	525.25
352.538	573.25
352.765	544.25
352.992	555.25
353.22	538.25
353.447	525.25
353.674	558.25
353.901	567.25
354.128	544.25
354.355	548.25
354.583	560.25
354.81	591.25
355.037	572.25
355.264	542.25
355.491	562.25
355.718	563.25
355.945	558.25
356.172	548.25
356.399	521.25
356.626	527.25
356.853	576.25
357.08	634.25
357.307	675.25
357.534	640.25
357.761	572.25
357.988	532.25
358.215	520.25
358.441	519.25
358.668	536.25
358.895	554.25
359.122	590.25
359.349	631.25
359.576	619.25
359.802	559.25
360.029	534.25
360.256	540.25
360.483	541.25
360.709	584.25
360.936	596.25
361.163	617.25
361.39	668.25
361.616	710.25
361.843	685.25
362.07	631.25
362.296	558.25
362.523	546.25
362.749	554.25
362.976	576.25
363.203	562.25
363.429	580.25
363.656	555.25
363.882	578.25
364.109	644.25
364.335	634.25
364.562	619.25
364.788	581.25
365.015	558.25
365.241	568.25
365.468	584.25
365.694	598.25
365.92	597.25
366.147	584.25
366.373	530.25
366.599	547.25
366.826	571.25
367.052	574.25
367.278	572.25
367.505	602.25
367.731	587.25
367.957	567.25
368.184	614.25
368.41	632.25
368.636	650.25
368.862	658.25
369.089	617.25
369.315	626.25
369.541	594.25
369.767	579.25
369.993	585.25
370.219	595.25
370.445	592.25
370.672	642.25
370.898	648.25
371.124	641.25
371.35	585.25
371.576	651.25
371.802	666.25
372.028	633.25
372.254	604.25
372.48	612.25
372.706	583.25
372.932	607.25
373.158	604.25
373.384	611.25
373.61	640.25
373.835	652.25
374.061	632.25
374.287	618.25
374.513	632.25
374.739	624.25
374.965	622.25
375.191	631.25
375.416	607.25
375.642	648.25
375.868	705.25
376.094	729.25
376.319	658.25
376.545	637.25
376.771	662.25
376.997	688.25
377.222	670.25
377.448	675.25
377.674	638.25
377.899	662.25
378.125	712.25
378.35	685.25
378.576	626.25
378.802	609.25
379.027	612.25
379.253	632.25
379.478	627.25
379.704	658.25
379.929	638.25
380.155	636.25
380.38	642.25
380.606	638.25
380.831	643.25
381.057	686.25
381.282	703.25
381.507	681.25
381.733	714.25
381.958	732.25
382.184	699.25
382.409	667.25
382.634	668.25
382.86	674.25
383.085	680.25
383.31	714.25
383.535	780.25
383.761	785.25
383.986	744.25
384.211	716.25
384.436	714.25
384.662	745.25
384.887	736.25
385.112	705.25
385.337	729.25
385.562	717.25
385.787	744.25
386.013	750.25
386.238	730.25
386.463	760.25
386.688	800.25
386.913	844.25
387.138	824.25
387.363	778.25
387.588	776.25
387.813	746.25
388.038	758.25
388.263	773.25
388.488	754.25
388.713	703.25
388.938	704.25
389.163	706.25
389.387	741.25
389.612	735.25
389.837	725.25
390.062	745.25
390.287	727.25
390.512	737.25
390.736	721.25
390.961	707.25
391.186	723.25
391.411	726.25
391.636	731.25
391.86	751.25
392.085	745.25
392.31	737.25
392.534	730.25
392.759	741.25
392.984	752.25
393.208	764.25
393.433	778.25
393.658	817.25
393.882	790.25
394.107	744.25
394.331	779.25
394.556	743.25
394.78	770.25
395.005	794.25
395.229	858.25
395.454	855.25
395.678	832.25
395.903	831.25
396.127	775.25
396.352	828.25
396.576	817.25
396.801	826.25
397.025	823.25
397.249	816.25
397.474	821.25
397.698	821.25
397.922	832.25
398.147	862.25
398.371	934.25
398.595	890.25
398.82	873.25
399.044	882.25
399.268	908.25
399.492	914.25
399.717	964.25
399.941	1006.25
400.165	920.25
400.389	945.25
400.613	948.25
400.837	1091.25
401.062	1161.25
401.286	982.25
401.51	916.25
401.734	948.25
401.958	912.25
402.182	884.25
402.406	883.25
402.63	857.25
402.854	873.25
403.078	892.25
403.302	873.25
403.526	884.25
403.75	912.25
403.974	932.25
404.198	911.25
404.422	965.25
404.645	998.25
404.869	960.25
405.093	867.25
405.317	872.25
405.541	907.25
405.765	913.25
405.988	918.25
406.212	936.25
406.436	945.25
406.66	968.25
406.883	1016.25
407.107	1136.25
407.331	1194.25
407.555	1226.25
407.778	1111.25
408.002	952.25
408.226	953.25
408.449	948.25
408.673	942.25
408.896	955.25
409.12	953.25
409.344	921.25
409.567	899.25
409.791	930.25
410.014	943.25
410.238	1008.25
410.461	1017.25
410.685	927.25
410.908	916.25
411.132	927.25
411.355	913.25
411.578	908.25
411.802	900.25
412.025	945.25
412.249	930.25
412.472	911.25
412.695	892.25
412.919	886.25
413.142	903.25
413.365	914.25
413.589	895.25
413.812	953.25
414.035	988.25
414.258	951.25
414.482	896.25
414.705	923.25
414.928	891.25
415.151	893.25
415.374	894.25
415.597	903.25
415.821	906.25
416.044	907.25
416.267	942.25
416.49	901.25
416.713	907.25
416.936	918.25
417.159	967.25
417.382	953.25
417.605	930.25
417.828	917.25
418.051	959.25
418.274	926.25
418.497	920.25
418.72	912.25
418.943	894.25
419.166	961.25
419.389	975.25
419.611	945.25
419.834	918.25
420.057	952.25
420.28	921.25
420.503	916.25
420.726	905.25
420.948	927.25
421.171	908.25
421.394	929.25
421.617	961.25
421.839	979.25
422.062	967.25
422.285	924.25
422.507	899.25
422.73	881.25
422.953	867.25
423.175	861.25
423.398	916.25
423.621	924.25
423.843	911.25
424.066	938.25
424.288	1009.25
424.511	1061.25
424.733	982.25
424.956	920.25
425.178	919.25
425.401	918.25
425.623	942.25
425.846	927.25
426.068	972.25
426.291	961.25
426.513	948.25
426.735	973.25
426.958	1016.25
427.18	1024.25
427.402	974.25
427.625	1019.25
427.847	988.25
428.069	890.25
428.292	902.25
428.514	886.25
428.736	880.25
428.958	897.25
429.181	914.25
429.403	1072.25
429.625	1235.25
429.847	1034.25
430.069	957.25
430.292	1041.25
430.514	1008.25
430.736	937.25
430.958	933.25
431.18	915.25
431.402	865.25
431.624	825.25
431.846	778.25
432.068	706.25
432.29	712.25
432.512	766.25
432.734	844.25
432.956	915.25
433.178	938.25
433.4	955.25
433.622	952.25
433.844	900.25
434.066	816.25
434.287	754.25
434.509	750.25
434.731	784.25
434.953	917.25
435.175	904.25
435.397	912.25
435.618	870.25
435.84	853.25
436.062	822.25
436.284	921.25
436.505	918.25
436.727	935.25
436.949	874.25
437.17	876.25
437.392	846.25
437.614	830.25
437.835	788.25
438.057	791.25
438.278	843.25
438.5	863.25
438.721	901.25
438.943	896.25
439.165	905.25
439.386	894.25
439.608	909.25
439.829	936.25
440.05	965.25
440.272	924.25
440.493	944.25
440.715	964.25
440.936	989.25
441.158	1072.25
441.379	1028.25
441.6	998.25
441.822	990.25
442.043	1008.25
442.264	982.25
442.486	925.25
442.707	919.25
442.928	945.25
443.149	982.25
443.371	998.25
443.592	991.25
443.813	1018.25
444.034	985.25
444.255	970.25
444.476	990.25
444.698	1009.25
444.919	1024.25
445.14	1094.25
445.361	1094.25
445.582	1059.25
445.803	1024.25
446.024	996.25
446.245	1064.25
446.466	1044.25
446.687	1028.25
446.908	1025.25
447.129	995.25
447.35	995.25
447.571	995.25
447.792	946.25
448.013	945.25
448.234	941.25
448.455	952.25
448.675	953.25
448.896	908.25
449.117	907.25
449.338	914.25
449.559	944.25
449.779	962.25
450	1025.25
450.221	1027.25
450.442	1010.25
450.662	918.25
450.883	846.25
451.104	865.25
451.324	881.25
451.545	862.25
451.766	849.25
451.986	826.25
452.207	811.25
452.428	808.25
452.648	761.25
452.869	812.25
453.089	763.25
453.31	776.25
453.53	752.25
453.751	736.25
453.971	705.25
454.192	715.25
454.412	753.25
454.633	760.25
454.853	760.25
455.073	712.25
455.294	744.25
455.514	785.25
455.734	738.25
455.955	750.25
456.175	758.25
456.395	712.25
456.616	769.25
456.836	741.25
457.056	715.25
457.276	708.25
457.497	709.25
457.717	690.25
457.937	691.25
458.157	704.25
458.377	666.25
458.598	660.25
458.818	688.25
459.038	687.25
459.258	696.25
459.478	705.25
459.698	683.25
459.918	695.25
460.138	779.25
460.358	803.25
460.578	805.25
460.798	848.25
461.018	907.25
461.238	849.25
461.458	828.25
461.678	836.25
461.898	818.25
462.118	812.25
462.338	820.25
462.558	839.25
462.777	834.25
462.997	857.25
463.217	872.25
463.437	842.25
463.657	818.25
463.876	816.25
464.096	806.25
464.316	803.25
464.536	834.25
464.755	872.25
464.975	875.25
465.195	864.25
465.414	866.25
465.634	868.25
465.854	860.25
466.073	943.25
466.293	918.25
466.512	842.25
466.732	871.25
466.951	861.25
467.171	882.25
467.391	835.25
467.61	857.25
467.829	888.25
468.049	952.25
468.268	1032.25
468.488	955.25
468.707	885.25
468.927	888.25
469.146	878.25
469.365	894.25
469.585	895.25
469.804	908.25
470.023	946.25
470.243	924.25
470.462	934.25
470.681	919.25
470.901	922.25
471.12	934.25
471.339	896.25
471.558	916.25
471.777	890.25
471.997	863.25
472.216	832.25
472.435	789.25
472.654	748.25
472.873	764.25
473.092	835.25
473.311	802.25
473.53	807.25
473.749	834.25
473.968	844.25
474.187	818.25
474.406	819.25
474.625	833.25
474.844	841.25
475.063	876.25
475.282	849.25
475.501	792.25
475.72	828.25
475.939	924.25
476.158	894.25
476.377	850.25
476.596	832.25
476.814	816.25
477.033	791.25
477.252	843.25
477.471	890.25
477.69	905.25
477.908	942.25
478.127	994.25
478.346	997.25
478.564	941.25
478.783	951.25
479.002	1020.25
479.22	1011.25
479.439	1022.25
479.658	1036.25
479.876	967.25
480.095	896.25
480.313	871.25
480.532	872.25
480.751	854.25
480.969	800.25
481.188	805.25
481.406	785.25
481.624	773.25
481.843	773.25
482.061	818.25
482.28	852.25
482.498	883.25
482.717	838.25
482.935	890.25
483.153	944.25
483.372	998.25
483.59	992.25
483.808	996.25
484.027	932.25
484.245	970.25
484.463	1193.25
484.681	1286.25
484.9	1009.25
485.118	944.25
485.336	912.25
485.554	886.25
485.772	866.25
485.99	858.25
486.209	891.25
486.427	871.25
486.645	935.25
486.863	1010.25
487.081	1023.25
487.299	1002.25
487.517	994.25
487.735	1090.25
487.953	1169.25
488.171	1146.25
488.389	1109.25
488.607	1072.25
488.825	1100.25
489.043	1044.25
489.261	955.25
489.479	1012.25
489.696	1049.25
489.914	988.25
490.132	1030.25
490.35	1089.25
490.568	1172.25
490.786	1184.25
491.003	1184.25
491.221	1249.25
491.439	1254.25
491.657	1284.25
491.874	1319.25
492.092	1419.25
492.31	1484.25
492.527	1432.25
492.745	1340.25
492.963	1265.25
493.18	1303.25
493.398	1354.25
493.615	1345.25
493.833	1233.25
494.05	1242.25
494.268	1229.25
494.485	1203.25
494.703	1233.25
494.92	1190.25
495.138	1233.25
495.355	1240.25
495.573	1271.25
495.79	1226.25
496.008	1304.25
496.225	1213.25
496.442	1228.25
496.66	1210.25
496.877	1202.25
497.094	1219.25
497.312	1222.25
497.529	1189.25
497.746	1215.25
497.963	1272.25
498.181	1302.25
498.398	1228.25
498.615	1198.25
498.832	1145.25
499.049	1158.25
499.267	1150.25
499.484	1209.25
499.701	1323.25
499.918	1340.25
500.135	1447.25
500.352	1523.25
500.569	1576.25
500.786	1666.25
