Data from WStandard_LampEnergy5.5LIBS07252019.E.O._I.C._HRD10591_16-06-22-920.txt Node
Date: Thu Jul 25 16:06:22 EDT 2019
User: cochatt
Spectrometer: HR+D1059
Trigger mode: 1
Integration Time (sec): 1.000000E-1
Scans to average: 1
Electric dark correction enabled: true
Nonlinearity correction enabled: false
Boxcar width: 0
XAxis mode: Wavelengths
Number of Pixels in Spectrum: 2048
>>>>>Begin Spectral Data<<<<<
223.165	-20.88
223.4	-20.88
223.635	-20.88
223.869	-25.88
224.104	-7.88
224.338	-4.88
224.573	-21.88
224.808	-7.88
225.042	-7.88
225.277	-4.88
225.511	5.12
225.746	2.12
225.98	-6.88
226.215	13.12
226.449	13.12
226.683	26.12
226.918	11.12
227.152	38.12
227.387	34.12
227.621	39.12
227.856	37.12
228.09	52.12
228.324	63.12
228.559	48.12
228.793	128.12
229.027	324.12
229.262	325.12
229.496	364.12
229.73	379.12
229.964	382.12
230.199	391.12
230.433	405.12
230.667	458.12
230.901	468.12
231.136	442.12
231.37	404.12
231.604	408.12
231.838	430.12
232.072	418.12
232.306	404.12
232.541	418.12
232.775	489.12
233.009	543.12
233.243	498.12
233.477	462.12
233.711	483.12
233.945	496.12
234.179	482.12
234.413	520.12
234.647	568.12
234.881	527.12
235.115	480.12
235.349	484.12
235.583	501.12
235.817	492.12
236.051	479.12
236.285	460.12
236.519	517.12
236.753	580.12
236.987	601.12
237.221	589.12
237.455	661.12
237.689	642.12
237.922	598.12
238.156	566.12
238.39	561.12
238.624	613.12
238.858	640.12
239.091	656.12
239.325	677.12
239.559	790.12
239.793	818.12
240.027	902.12
240.26	897.12
240.494	666.12
240.728	614.12
240.961	635.12
241.195	632.12
241.429	706.12
241.662	705.12
241.896	662.12
242.13	672.12
242.363	725.12
242.597	789.12
242.83	744.12
243.064	763.12
243.298	816.12
243.531	806.12
243.765	795.12
243.998	808.12
244.232	692.12
244.465	664.12
244.699	687.12
244.932	770.12
245.166	873.12
245.399	838.12
245.633	762.12
245.866	746.12
246.099	764.12
246.333	838.12
246.566	812.12
246.8	872.12
247.033	1001.12
247.266	907.12
247.5	924.12
247.733	886.12
247.966	926.12
248.2	1029.12
248.433	980.12
248.666	1022.12
248.899	1123.12
249.133	1281.12
249.366	1461.12
249.599	1202.12
249.832	1043.12
250.066	1097.12
250.299	1090.12
250.532	1024.12
250.765	895.12
250.998	987.12
251.231	1032.12
251.465	1061.12
251.698	1005.12
251.931	1001.12
252.164	1012.12
252.397	1031.12
252.63	1074.12
252.863	923.12
253.096	923.12
253.329	983.12
253.562	1014.12
253.795	1090.12
254.028	1102.12
254.261	1010.12
254.494	1000.12
254.727	939.12
254.96	968.12
255.193	1057.12
255.426	1190.12
255.659	1383.12
255.892	1394.12
256.124	1156.12
256.357	1117.12
256.59	1206.12
256.823	1226.12
257.056	1202.12
257.289	1440.12
257.521	1590.12
257.754	1456.12
257.987	1352.12
258.22	1486.12
258.452	1462.12
258.685	1161.12
258.918	1156.12
259.151	1170.12
259.383	1120.12
259.616	1000.12
259.849	1051.12
260.081	1157.12
260.314	1264.12
260.547	1429.12
260.779	1444.12
261.012	1354.12
261.244	1203.12
261.477	1134.12
261.71	1196.12
261.942	1210.12
262.175	1174.12
262.407	1189.12
262.64	1141.12
262.872	1062.12
263.105	1028.12
263.337	1086.12
263.57	1099.12
263.802	1097.12
264.035	1038.12
264.267	968.12
264.499	972.12
264.732	1020.12
264.964	1069.12
265.197	1150.12
265.429	1151.12
265.661	1316.12
265.894	1460.12
266.126	1464.12
266.358	1320.12
266.591	1402.12
266.823	1528.12
267.055	1374.12
267.287	1317.12
267.52	1309.12
267.752	1302.12
267.984	1291.12
268.216	1359.12
268.448	1396.12
268.681	1421.12
268.913	1292.12
269.145	1198.12
269.377	1165.12
269.609	1258.12
269.841	1470.12
270.073	1657.12
270.306	1881.12
270.538	2018.12
270.77	1690.12
271.002	1425.12
271.234	1353.12
271.466	1344.12
271.698	1513.12
271.93	1844.12
272.162	1851.12
272.394	1642.12
272.626	1571.12
272.858	1371.12
273.09	1237.12
273.322	1230.12
273.553	1136.12
273.785	1204.12
274.017	1252.12
274.249	1310.12
274.481	1316.12
274.713	1191.12
274.945	1190.12
275.176	1206.12
275.408	1181.12
275.64	1195.12
275.872	1162.12
276.104	1214.12
276.335	1358.12
276.567	1549.12
276.799	1623.12
277.031	1428.12
277.262	1326.12
277.494	1356.12
277.726	1534.12
277.957	1516.12
278.189	1420.12
278.421	1300.12
278.652	1269.12
278.884	1230.12
279.115	1221.12
279.347	1260.12
279.579	1232.12
279.81	1229.12
280.042	1360.12
280.273	1474.12
280.505	1463.12
280.736	1531.12
280.968	1434.12
281.199	1302.12
281.431	1255.12
281.662	1220.12
281.894	1225.12
282.125	1258.12
282.356	1332.12
282.588	1356.12
282.819	1310.12
283.051	1383.12
283.282	1505.12
283.513	1458.12
283.745	1279.12
283.976	1180.12
284.207	1200.12
284.439	1251.12
284.67	1235.12
284.901	1259.12
285.132	1314.12
285.364	1300.12
285.595	1294.12
285.826	1285.12
286.057	1259.12
286.288	1220.12
286.52	1334.12
286.751	1424.12
286.982	1450.12
287.213	1357.12
287.444	1250.12
287.675	1250.12
287.906	1287.12
288.138	1344.12
288.369	1346.12
288.6	1301.12
288.831	1239.12
289.062	1292.12
289.293	1334.12
289.524	1307.12
289.755	1302.12
289.986	1290.12
290.217	1209.12
290.448	1274.12
290.679	1321.12
290.91	1340.12
291.141	1328.12
291.371	1399.12
291.602	1366.12
291.833	1344.12
292.064	1396.12
292.295	1401.12
292.526	1410.12
292.757	1475.12
292.987	1416.12
293.218	1309.12
293.449	1374.12
293.68	1574.12
293.91	1704.12
294.141	1537.12
294.372	1440.12
294.603	1492.12
294.833	1547.12
295.064	1516.12
295.295	1392.12
295.525	1387.12
295.756	1249.12
295.987	1225.12
296.217	1252.12
296.448	1314.12
296.679	1332.12
296.909	1268.12
297.14	1258.12
297.37	1264.12
297.601	1355.12
297.831	1474.12
298.062	1456.12
298.292	1356.12
298.523	1301.12
298.753	1308.12
298.984	1336.12
299.214	1289.12
299.445	1313.12
299.675	1370.12
299.905	1360.12
300.136	1324.12
300.366	1371.12
300.597	1290.12
300.827	1300.12
301.057	1324.12
301.288	1406.12
301.518	1395.12
301.748	1372.12
301.979	1475.12
302.209	1502.12
302.439	1575.12
302.669	1663.12
302.9	1541.12
303.13	1414.12
303.36	1394.12
303.59	1444.12
303.82	1416.12
304.051	1392.12
304.281	1397.12
304.511	1370.12
304.741	1458.12
304.971	1622.12
305.201	1707.12
305.431	1653.12
305.661	1402.12
305.891	1303.12
306.121	1252.12
306.352	1305.12
306.582	1340.12
306.812	1396.12
307.042	1550.12
307.272	1532.12
307.502	1564.12
307.731	1685.12
307.961	1840.12
308.191	1700.12
308.421	1492.12
308.651	1424.12
308.881	1402.12
309.111	1355.12
309.341	1340.12
309.571	1374.12
309.8	1353.12
310.03	1347.12
310.26	1369.12
310.49	1360.12
310.72	1365.12
310.949	1440.12
311.179	1443.12
311.409	1438.12
311.639	1440.12
311.868	1384.12
312.098	1368.12
312.328	1394.12
312.557	1368.12
312.787	1408.12
313.017	1475.12
313.246	1412.12
313.476	1432.12
313.706	1490.12
313.935	1438.12
314.165	1460.12
314.394	1490.12
314.624	1572.12
314.853	1660.12
315.083	1685.12
315.312	1781.12
315.542	1653.12
315.771	1468.12
316.001	1426.12
316.23	1565.12
316.46	1529.12
316.689	1497.12
316.919	1448.12
317.148	1412.12
317.377	1415.12
317.607	1527.12
317.836	1669.12
318.065	1737.12
318.295	1649.12
318.524	1608.12
318.753	1546.12
318.983	1522.12
319.212	1491.12
319.441	1460.12
319.67	1476.12
319.9	1488.12
320.129	1574.12
320.358	1634.12
320.587	1691.12
320.816	1652.12
321.046	1601.12
321.275	1495.12
321.504	1528.12
321.733	1652.12
321.962	1639.12
322.191	1490.12
322.42	1467.12
322.649	1514.12
322.878	1484.12
323.108	1495.12
323.337	1528.12
323.566	1555.12
323.795	1521.12
324.024	1554.12
324.253	1500.12
324.482	1546.12
324.71	1507.12
324.939	1452.12
325.168	1467.12
325.397	1466.12
325.626	1518.12
325.855	1540.12
326.084	1459.12
326.313	1484.12
326.542	1473.12
326.77	1558.12
326.999	1576.12
327.228	1535.12
327.457	1455.12
327.686	1447.12
327.914	1432.12
328.143	1501.12
328.372	1508.12
328.6	1549.12
328.829	1508.12
329.058	1496.12
329.287	1482.12
329.515	1502.12
329.744	1578.12
329.972	1625.12
330.201	1652.12
330.43	1656.12
330.658	1617.12
330.887	1603.12
331.115	1592.12
331.344	1603.12
331.572	1604.12
331.801	1600.12
332.03	1595.12
332.258	1606.12
332.486	1638.12
332.715	1620.12
332.943	1605.12
333.172	1598.12
333.4	1653.12
333.629	1659.12
333.857	1760.12
334.085	1911.12
334.314	2114.12
334.542	2292.12
334.771	2150.12
334.999	1893.12
335.227	1820.12
335.455	1767.12
335.684	1712.12
335.912	1748.12
336.14	1779.12
336.369	1743.12
336.597	1642.12
336.825	1576.12
337.053	1657.12
337.281	1765.12
337.51	1833.12
337.738	1878.12
337.966	1826.12
338.194	1654.12
338.422	1578.12
338.65	1625.12
338.878	1577.12
339.106	1601.12
339.334	1541.12
339.562	1523.12
339.79	1513.12
340.018	1615.12
340.246	1657.12
340.474	1696.12
340.702	1616.12
340.93	1659.12
341.158	1637.12
341.386	1568.12
341.614	1596.12
341.842	1565.12
342.07	1578.12
342.298	1618.12
342.526	1609.12
342.754	1556.12
342.981	1553.12
343.209	1539.12
343.437	1560.12
343.665	1591.12
343.893	1626.12
344.12	1693.12
344.348	1716.12
344.576	1622.12
344.804	1629.12
345.031	1608.12
345.259	1603.12
345.487	1569.12
345.714	1515.12
345.942	1466.12
346.17	1449.12
346.397	1514.12
346.625	1541.12
346.853	1480.12
347.08	1422.12
347.308	1452.12
347.535	1475.12
347.763	1516.12
347.99	1482.12
348.218	1414.12
348.445	1446.12
348.673	1450.12
348.9	1520.12
349.128	1579.12
349.355	1565.12
349.583	1578.12
349.81	1475.12
350.037	1435.12
350.265	1395.12
350.492	1396.12
350.72	1418.12
350.947	1471.12
351.174	1508.12
351.402	1478.12
351.629	1404.12
351.856	1400.12
352.083	1406.12
352.311	1384.12
352.538	1442.12
352.765	1476.12
352.992	1497.12
353.22	1466.12
353.447	1432.12
353.674	1444.12
353.901	1503.12
354.128	1428.12
354.355	1421.12
354.583	1480.12
354.81	1557.12
355.037	1549.12
355.264	1530.12
355.491	1445.12
355.718	1508.12
355.945	1479.12
356.172	1435.12
356.399	1420.12
356.626	1409.12
356.853	1446.12
357.08	1517.12
357.307	1705.12
357.534	1715.12
357.761	1550.12
357.988	1438.12
358.215	1394.12
358.441	1412.12
358.668	1423.12
358.895	1421.12
359.122	1485.12
359.349	1609.12
359.576	1621.12
359.802	1464.12
360.029	1420.12
360.256	1404.12
360.483	1447.12
360.709	1458.12
360.936	1495.12
361.163	1568.12
361.39	1688.12
361.616	1766.12
361.843	1721.12
362.07	1650.12
362.296	1479.12
362.523	1448.12
362.749	1468.12
362.976	1474.12
363.203	1538.12
363.429	1464.12
363.656	1414.12
363.882	1453.12
364.109	1606.12
364.335	1705.12
364.562	1632.12
364.788	1556.12
365.015	1477.12
365.241	1438.12
365.468	1418.12
365.694	1524.12
365.92	1604.12
366.147	1548.12
366.373	1450.12
366.599	1430.12
366.826	1405.12
367.052	1432.12
367.278	1446.12
367.505	1424.12
367.731	1464.12
367.957	1484.12
368.184	1496.12
368.41	1541.12
368.636	1577.12
368.862	1641.12
369.089	1635.12
369.315	1619.12
369.541	1532.12
369.767	1488.12
369.993	1465.12
370.219	1428.12
370.445	1464.12
370.672	1598.12
370.898	1630.12
371.124	1617.12
371.35	1532.12
371.576	1565.12
371.802	1636.12
372.028	1564.12
372.254	1492.12
372.48	1485.12
372.706	1493.12
372.932	1479.12
373.158	1528.12
373.384	1521.12
373.61	1563.12
373.835	1654.12
374.061	1577.12
374.287	1571.12
374.513	1558.12
374.739	1586.12
374.965	1595.12
375.191	1586.12
375.416	1608.12
375.642	1589.12
375.868	1627.12
376.094	1727.12
376.319	1630.12
376.545	1532.12
376.771	1577.12
376.997	1615.12
377.222	1602.12
377.448	1561.12
377.674	1588.12
377.899	1542.12
378.125	1641.12
378.35	1690.12
378.576	1567.12
378.802	1506.12
379.027	1527.12
379.253	1547.12
379.478	1538.12
379.704	1506.12
379.929	1536.12
380.155	1530.12
380.38	1548.12
380.606	1578.12
380.831	1543.12
381.057	1606.12
381.282	1661.12
381.507	1626.12
381.733	1696.12
381.958	1748.12
382.184	1637.12
382.409	1571.12
382.634	1627.12
382.86	1627.12
383.085	1639.12
383.31	1658.12
383.535	1742.12
383.761	1857.12
383.986	1761.12
384.211	1734.12
384.436	1710.12
384.662	1793.12
384.887	1881.12
385.112	1810.12
385.337	1833.12
385.562	1771.12
385.787	1783.12
386.013	1844.12
386.238	1817.12
386.463	1792.12
386.688	1895.12
386.913	1994.12
387.138	1955.12
387.363	1802.12
387.588	1798.12
387.813	1814.12
388.038	1860.12
388.263	1868.12
388.488	1844.12
388.713	1717.12
388.938	1748.12
389.163	1729.12
389.387	1769.12
389.612	1724.12
389.837	1785.12
390.062	1788.12
390.287	1780.12
390.512	1796.12
390.736	1777.12
390.961	1737.12
391.186	1702.12
391.411	1751.12
391.636	1825.12
391.86	1826.12
392.085	1767.12
392.31	1773.12
392.534	1818.12
392.759	1865.12
392.984	1819.12
393.208	1865.12
393.433	2014.12
393.658	2078.12
393.882	1974.12
394.107	1829.12
394.331	1803.12
394.556	1799.12
394.78	1801.12
395.005	1823.12
395.229	1864.12
395.454	2009.12
395.678	2010.12
395.903	1980.12
396.127	1886.12
396.352	1922.12
396.576	1986.12
396.801	2018.12
397.025	2066.12
397.249	1953.12
397.474	1964.12
397.698	1924.12
397.922	1977.12
398.147	2058.12
398.371	2127.12
398.595	2112.12
398.82	2063.12
399.044	2115.12
399.268	2175.12
399.492	2366.12
399.717	2424.12
399.941	2441.12
400.165	2413.12
400.389	2320.12
400.613	2238.12
400.837	2421.12
401.062	2715.12
401.286	2392.12
401.51	2211.12
401.734	2288.12
401.958	2201.12
402.182	2093.12
402.406	2025.12
402.63	2061.12
402.854	2032.12
403.078	2090.12
403.302	2116.12
403.526	2172.12
403.75	2147.12
403.974	2186.12
404.198	2157.12
404.422	2212.12
404.645	2279.12
404.869	2226.12
405.093	2097.12
405.317	2100.12
405.541	2202.12
405.765	2204.12
405.988	2151.12
406.212	2192.12
406.436	2263.12
406.66	2245.12
406.883	2270.12
407.107	2466.12
407.331	2682.12
407.555	2860.12
407.778	2740.12
408.002	2340.12
408.226	2225.12
408.449	2270.12
408.673	2181.12
408.896	2235.12
409.12	2232.12
409.344	2198.12
409.567	2110.12
409.791	2240.12
410.014	2217.12
410.238	2296.12
410.461	2376.12
410.685	2176.12
410.908	2094.12
411.132	2151.12
411.355	2166.12
411.578	2122.12
411.802	2084.12
412.025	2128.12
412.249	2093.12
412.472	2041.12
412.695	1976.12
412.919	2050.12
413.142	2009.12
413.365	2063.12
413.589	2138.12
413.812	2145.12
414.035	2194.12
414.258	2054.12
414.482	2047.12
414.705	2065.12
414.928	2051.12
415.151	2062.12
415.374	2093.12
415.597	2099.12
415.821	2096.12
416.044	2170.12
416.267	2165.12
416.49	1988.12
416.713	1942.12
416.936	2017.12
417.159	2070.12
417.382	2096.12
417.605	2018.12
417.828	2092.12
418.051	2107.12
418.274	2026.12
418.497	1979.12
418.72	1996.12
418.943	1970.12
419.166	2130.12
419.389	2225.12
419.611	2130.12
419.834	2032.12
420.057	2050.12
420.28	2002.12
420.503	1986.12
420.726	1991.12
420.948	2022.12
421.171	1961.12
421.394	2042.12
421.617	2063.12
421.839	2042.12
422.062	2010.12
422.285	1934.12
422.507	1973.12
422.73	1950.12
422.953	1912.12
423.175	1944.12
423.398	1953.12
423.621	1970.12
423.843	1970.12
424.066	2013.12
424.288	2028.12
424.511	2082.12
424.733	2038.12
424.956	1882.12
425.178	1874.12
425.401	1881.12
425.623	1930.12
425.846	1923.12
426.068	1955.12
426.291	2027.12
426.513	1984.12
426.735	1972.12
426.958	2014.12
427.18	2148.12
427.402	1974.12
427.625	2037.12
427.847	2059.12
428.069	2022.12
428.292	1902.12
428.514	1865.12
428.736	1861.12
428.958	1885.12
429.181	1929.12
429.403	2080.12
429.625	2492.12
429.847	2258.12
430.069	1915.12
430.292	2063.12
430.514	2153.12
430.736	2020.12
430.958	2093.12
431.18	2048.12
431.402	1913.12
431.624	1880.12
431.846	1886.12
432.068	1860.12
432.29	1895.12
432.512	1940.12
432.734	1968.12
432.956	2013.12
433.178	2059.12
433.4	2008.12
433.622	2016.12
433.844	1979.12
434.066	1852.12
434.287	1876.12
434.509	1928.12
434.731	2002.12
434.953	2164.12
435.175	2133.12
435.397	2048.12
435.618	2024.12
435.84	2022.12
436.062	1986.12
436.284	1991.12
436.505	2034.12
436.727	2006.12
436.949	1963.12
437.17	1924.12
437.392	1934.12
437.614	1944.12
437.835	1871.12
438.057	1944.12
438.278	2068.12
438.5	1939.12
438.721	1894.12
438.943	1925.12
439.165	1920.12
439.386	1886.12
439.608	1866.12
439.829	1909.12
440.05	1869.12
440.272	1858.12
440.493	1848.12
440.715	1858.12
440.936	1998.12
441.158	2224.12
441.379	2174.12
441.6	2099.12
441.822	2013.12
442.043	2052.12
442.264	1971.12
442.486	1913.12
442.707	1887.12
442.928	1862.12
443.149	1970.12
443.371	2069.12
443.592	2139.12
443.813	2057.12
444.034	2074.12
444.255	2115.12
444.476	2165.12
444.698	2181.12
444.919	2176.12
445.14	2242.12
445.361	2213.12
445.582	2300.12
445.803	2146.12
446.024	2105.12
446.245	2157.12
446.466	2115.12
446.687	2019.12
446.908	1957.12
447.129	1900.12
447.35	1998.12
447.571	1940.12
447.792	1851.12
448.013	1864.12
448.234	1904.12
448.455	1989.12
448.675	1972.12
448.896	1831.12
449.117	1826.12
449.338	1886.12
449.559	1909.12
449.779	2010.12
450	2208.12
450.221	2368.12
450.442	2339.12
450.662	2039.12
450.883	1758.12
451.104	1791.12
451.324	1840.12
451.545	1856.12
451.766	1858.12
451.986	1787.12
452.207	1788.12
452.428	1718.12
452.648	1662.12
452.869	1790.12
453.089	1859.12
453.31	1821.12
453.53	1914.12
453.751	1860.12
453.971	1716.12
454.192	1795.12
454.412	1861.12
454.633	1784.12
454.853	1756.12
455.073	1666.12
455.294	1684.12
455.514	1643.12
455.734	1672.12
455.955	1687.12
456.175	1697.12
456.395	1706.12
456.616	1745.12
456.836	1789.12
457.056	1714.12
457.276	1692.12
457.497	1652.12
457.717	1625.12
457.937	1625.12
458.157	1745.12
458.377	1702.12
458.598	1702.12
458.818	1690.12
459.038	1797.12
459.258	1906.12
459.478	1895.12
459.698	1844.12
459.918	1885.12
460.138	2014.12
460.358	2021.12
460.578	2094.12
460.798	2115.12
461.018	2253.12
461.238	2115.12
461.458	2046.12
461.678	2029.12
461.898	2041.12
462.118	1926.12
462.338	2084.12
462.558	2048.12
462.777	2075.12
462.997	2133.12
463.217	2317.12
463.437	2302.12
463.657	2145.12
463.876	2061.12
464.096	2059.12
464.316	2048.12
464.536	2158.12
464.755	2144.12
464.975	2220.12
465.195	2053.12
465.414	2128.12
465.634	2174.12
465.854	2000.12
466.073	2065.12
466.293	2101.12
466.512	1890.12
466.732	1852.12
466.951	1889.12
467.171	1902.12
467.391	1852.12
467.61	1810.12
467.829	1782.12
468.049	1956.12
468.268	2110.12
468.488	2001.12
468.707	1948.12
468.927	1870.12
469.146	1900.12
469.365	1802.12
469.585	1832.12
469.804	1836.12
470.023	1841.12
470.243	1833.12
470.462	1871.12
470.681	1810.12
470.901	1860.12
471.12	1847.12
471.339	1822.12
471.558	1786.12
471.777	1765.12
471.997	1799.12
472.216	1802.12
472.435	1771.12
472.654	1777.12
472.873	1844.12
473.092	1950.12
473.311	1849.12
473.53	1768.12
473.749	1802.12
473.968	1864.12
474.187	1913.12
474.406	1988.12
474.625	1905.12
474.844	1824.12
475.063	1854.12
475.282	1908.12
475.501	1875.12
475.72	1882.12
475.939	1937.12
476.158	1939.12
476.377	1888.12
476.596	1914.12
476.814	1922.12
477.033	1943.12
477.252	2054.12
477.471	2057.12
477.69	1973.12
477.908	1952.12
478.127	2049.12
478.346	2204.12
478.564	2232.12
478.783	2216.12
479.002	2296.12
479.22	2222.12
479.439	2308.12
479.658	2583.12
479.876	2520.12
480.095	2248.12
480.313	2140.12
480.532	2071.12
480.751	2088.12
480.969	2125.12
481.188	2068.12
481.406	2076.12
481.624	2017.12
481.843	2060.12
482.061	2125.12
482.28	2110.12
482.498	2136.12
482.717	2112.12
482.935	2052.12
483.153	2052.12
483.372	2053.12
483.59	2010.12
483.808	2044.12
484.027	2123.12
484.245	2175.12
484.463	2433.12
484.681	2719.12
484.9	2299.12
485.118	2101.12
485.336	2085.12
485.554	2149.12
485.772	2278.12
485.99	2228.12
486.209	2211.12
486.427	2259.12
486.645	2225.12
486.863	2148.12
487.081	2218.12
487.299	2250.12
487.517	2219.12
487.735	2150.12
