Data from WStandard_LampEnergy5.5LIBS07252019.E.O._I.C._HRD10591_16-09-05-921.txt Node
Date: Thu Jul 25 16:09:05 EDT 2019
User: cochatt
Spectrometer: HR+D1059
Trigger mode: 1
Integration Time (sec): 1.000000E-1
Scans to average: 1
Electric dark correction enabled: true
Nonlinearity correction enabled: false
Boxcar width: 0
XAxis mode: Wavelengths
Number of Pixels in Spectrum: 2048
>>>>>Begin Spectral Data<<<<<
223.165	-15.88
223.4	-15.88
223.635	-15.88
223.869	-29.88
224.104	-18.88
224.338	-9.88
224.573	-2.88
224.808	5.12
225.042	-8.88
225.277	-15.88
225.511	-1.88
225.746	15.12
225.98	11.12
226.215	12.12
226.449	0.12
226.683	24.12
226.918	14.12
227.152	22.12
227.387	34.12
227.621	41.12
227.856	49.12
228.09	47.12
228.324	48.12
228.559	63.12
228.793	139.12
229.027	343.12
229.262	357.12
229.496	367.12
229.73	382.12
229.964	409.12
230.199	455.12
230.433	461.12
230.667	482.12
230.901	497.12
231.136	456.12
231.37	447.12
231.604	447.12
231.838	456.12
232.072	444.12
232.306	431.12
232.541	461.12
232.775	544.12
233.009	576.12
233.243	554.12
233.477	512.12
233.711	491.12
233.945	537.12
234.179	511.12
234.413	553.12
234.647	630.12
234.881	585.12
235.115	511.12
235.349	515.12
235.583	517.12
235.817	522.12
236.051	519.12
236.285	533.12
236.519	555.12
236.753	620.12
236.987	645.12
237.221	632.12
237.455	702.12
237.689	671.12
237.922	648.12
238.156	595.12
238.39	651.12
238.624	661.12
238.858	714.12
239.091	731.12
239.325	771.12
239.559	861.12
239.793	908.12
240.027	982.12
240.26	990.12
240.494	731.12
240.728	681.12
240.961	690.12
241.195	713.12
241.429	768.12
241.662	781.12
241.896	723.12
242.13	730.12
242.363	820.12
242.597	890.12
242.83	837.12
243.064	872.12
243.298	925.12
243.531	915.12
243.765	881.12
243.998	868.12
244.232	782.12
244.465	725.12
244.699	747.12
244.932	877.12
245.166	1004.12
245.399	932.12
245.633	861.12
245.866	858.12
246.099	893.12
246.333	905.12
246.566	934.12
246.8	968.12
247.033	1129.12
247.266	1025.12
247.5	982.12
247.733	1002.12
247.966	1065.12
248.2	1167.12
248.433	1132.12
248.666	1168.12
248.899	1259.12
249.133	1459.12
249.366	1694.12
249.599	1329.12
249.832	1201.12
250.066	1192.12
250.299	1221.12
250.532	1149.12
250.765	1030.12
250.998	1067.12
251.231	1121.12
251.465	1176.12
251.698	1106.12
251.931	1147.12
252.164	1155.12
252.397	1203.12
252.63	1206.12
252.863	1047.12
253.096	1033.12
253.329	1122.12
253.562	1110.12
253.795	1187.12
254.028	1187.12
254.261	1101.12
254.494	1125.12
254.727	1065.12
254.96	1103.12
255.193	1198.12
255.426	1350.12
255.659	1570.12
255.892	1609.12
256.124	1286.12
256.357	1259.12
256.59	1397.12
256.823	1373.12
257.056	1355.12
257.289	1615.12
257.521	1812.12
257.754	1637.12
257.987	1527.12
258.22	1693.12
258.452	1645.12
258.685	1351.12
258.918	1312.12
259.151	1331.12
259.383	1284.12
259.616	1119.12
259.849	1166.12
260.081	1319.12
260.314	1491.12
260.547	1626.12
260.779	1615.12
261.012	1524.12
261.244	1353.12
261.477	1323.12
261.71	1366.12
261.942	1366.12
262.175	1291.12
262.407	1390.12
262.64	1310.12
262.872	1251.12
263.105	1203.12
263.337	1232.12
263.57	1230.12
263.802	1264.12
264.035	1179.12
264.267	1104.12
264.499	1072.12
264.732	1175.12
264.964	1229.12
265.197	1337.12
265.429	1322.12
265.661	1488.12
265.894	1658.12
266.126	1721.12
266.358	1512.12
266.591	1590.12
266.823	1747.12
267.055	1555.12
267.287	1522.12
267.52	1495.12
267.752	1483.12
267.984	1467.12
268.216	1543.12
268.448	1624.12
268.681	1573.12
268.913	1439.12
269.145	1381.12
269.377	1342.12
269.609	1442.12
269.841	1669.12
270.073	1945.12
270.306	2165.12
270.538	2318.12
270.77	1954.12
271.002	1683.12
271.234	1614.12
271.466	1537.12
271.698	1750.12
271.93	2137.12
272.162	2091.12
272.394	1862.12
272.626	1829.12
272.858	1607.12
273.09	1387.12
273.322	1381.12
273.553	1341.12
273.785	1359.12
274.017	1389.12
274.249	1495.12
274.481	1494.12
274.713	1401.12
274.945	1317.12
275.176	1350.12
275.408	1324.12
275.64	1321.12
275.872	1301.12
276.104	1393.12
276.335	1553.12
276.567	1782.12
276.799	1809.12
277.031	1607.12
277.262	1521.12
277.494	1618.12
277.726	1766.12
277.957	1738.12
278.189	1624.12
278.421	1475.12
278.652	1438.12
278.884	1405.12
279.115	1424.12
279.347	1459.12
279.579	1418.12
279.81	1409.12
280.042	1547.12
280.273	1717.12
280.505	1714.12
280.736	1732.12
280.968	1641.12
281.199	1445.12
281.431	1354.12
281.662	1403.12
281.894	1390.12
282.125	1465.12
282.356	1467.12
282.588	1486.12
282.819	1496.12
283.051	1614.12
283.282	1717.12
283.513	1725.12
283.745	1484.12
283.976	1366.12
284.207	1397.12
284.439	1451.12
284.67	1475.12
284.901	1498.12
285.132	1530.12
285.364	1477.12
285.595	1473.12
285.826	1499.12
286.057	1445.12
286.288	1422.12
286.52	1485.12
286.751	1569.12
286.982	1683.12
287.213	1535.12
287.444	1390.12
287.675	1374.12
287.906	1499.12
288.138	1593.12
288.369	1540.12
288.6	1429.12
288.831	1424.12
289.062	1441.12
289.293	1448.12
289.524	1486.12
289.755	1516.12
289.986	1518.12
290.217	1421.12
290.448	1430.12
290.679	1509.12
290.91	1466.12
291.141	1517.12
291.371	1594.12
291.602	1543.12
291.833	1547.12
292.064	1586.12
292.295	1556.12
292.526	1559.12
292.757	1656.12
292.987	1595.12
293.218	1501.12
293.449	1602.12
293.68	1849.12
293.91	1983.12
294.141	1794.12
294.372	1687.12
294.603	1758.12
294.833	1869.12
295.064	1765.12
295.295	1583.12
295.525	1541.12
295.756	1445.12
295.987	1351.12
296.217	1394.12
296.448	1461.12
296.679	1451.12
296.909	1470.12
297.14	1457.12
297.37	1470.12
297.601	1542.12
297.831	1670.12
298.062	1637.12
298.292	1567.12
298.523	1470.12
298.753	1475.12
298.984	1489.12
299.214	1446.12
299.445	1551.12
299.675	1597.12
299.905	1572.12
300.136	1514.12
300.366	1483.12
300.597	1435.12
300.827	1430.12
301.057	1488.12
301.288	1577.12
301.518	1543.12
301.748	1612.12
301.979	1724.12
302.209	1699.12
302.439	1787.12
302.669	1899.12
302.9	1755.12
303.13	1619.12
303.36	1595.12
303.59	1626.12
303.82	1618.12
304.051	1553.12
304.281	1600.12
304.511	1593.12
304.741	1698.12
304.971	1852.12
305.201	1975.12
305.431	1843.12
305.661	1536.12
305.891	1399.12
306.121	1365.12
306.352	1435.12
306.582	1531.12
306.812	1622.12
307.042	1761.12
307.272	1731.12
307.502	1759.12
307.731	1896.12
307.961	2070.12
308.191	1941.12
308.421	1649.12
308.651	1542.12
308.881	1531.12
309.111	1533.12
309.341	1479.12
309.571	1534.12
309.8	1551.12
310.03	1535.12
310.26	1493.12
310.49	1493.12
310.72	1552.12
310.949	1599.12
311.179	1635.12
311.409	1618.12
311.639	1562.12
311.868	1522.12
312.098	1558.12
312.328	1559.12
312.557	1545.12
312.787	1595.12
313.017	1623.12
313.246	1650.12
313.476	1610.12
313.706	1656.12
313.935	1601.12
314.165	1628.12
314.394	1666.12
314.624	1753.12
314.853	1850.12
315.083	1894.12
315.312	1993.12
315.542	1873.12
315.771	1651.12
316.001	1646.12
316.23	1709.12
316.46	1733.12
316.689	1696.12
316.919	1659.12
317.148	1607.12
317.377	1592.12
317.607	1726.12
317.836	1886.12
318.065	1943.12
318.295	1864.12
318.524	1784.12
318.753	1743.12
318.983	1725.12
319.212	1706.12
319.441	1632.12
319.67	1649.12
319.9	1686.12
320.129	1776.12
320.358	1839.12
320.587	1859.12
320.816	1887.12
321.046	1825.12
321.275	1749.12
321.504	1726.12
321.733	1941.12
321.962	1859.12
322.191	1727.12
322.42	1695.12
322.649	1659.12
322.878	1630.12
323.108	1673.12
323.337	1752.12
323.566	1748.12
323.795	1754.12
324.024	1740.12
324.253	1678.12
324.482	1720.12
324.71	1701.12
324.939	1610.12
325.168	1618.12
325.397	1664.12
325.626	1729.12
325.855	1743.12
326.084	1668.12
326.313	1701.12
326.542	1687.12
326.77	1720.12
326.999	1793.12
327.228	1743.12
327.457	1635.12
327.686	1603.12
327.914	1620.12
328.143	1661.12
328.372	1645.12
328.6	1682.12
328.829	1675.12
329.058	1623.12
329.287	1615.12
329.515	1687.12
329.744	1725.12
329.972	1794.12
330.201	1882.12
330.43	1869.12
330.658	1759.12
330.887	1773.12
331.115	1833.12
331.344	1793.12
331.572	1738.12
331.801	1759.12
332.03	1756.12
332.258	1791.12
332.486	1825.12
332.715	1835.12
332.943	1819.12
333.172	1795.12
333.4	1786.12
333.629	1803.12
333.857	1915.12
334.085	2132.12
334.314	2393.12
334.542	2608.12
334.771	2389.12
334.999	2164.12
335.227	1993.12
335.455	1905.12
335.684	1928.12
335.912	1954.12
336.14	2020.12
336.369	1956.12
336.597	1869.12
336.825	1795.12
337.053	1860.12
337.281	1975.12
337.51	2033.12
337.738	2142.12
337.966	2062.12
338.194	1851.12
338.422	1783.12
338.65	1755.12
338.878	1756.12
339.106	1738.12
339.334	1687.12
339.562	1671.12
339.79	1676.12
340.018	1813.12
340.246	1871.12
340.474	1906.12
340.702	1833.12
340.93	1821.12
341.158	1845.12
341.386	1770.12
341.614	1769.12
341.842	1769.12
342.07	1698.12
342.298	1775.12
342.526	1766.12
342.754	1677.12
342.981	1738.12
343.209	1754.12
343.437	1750.12
343.665	1721.12
343.893	1798.12
344.12	1861.12
344.348	1932.12
344.576	1808.12
344.804	1772.12
345.031	1744.12
345.259	1803.12
345.487	1705.12
345.714	1642.12
345.942	1635.12
346.17	1610.12
346.397	1677.12
346.625	1683.12
346.853	1582.12
347.08	1576.12
347.308	1586.12
347.535	1638.12
347.763	1670.12
347.99	1678.12
348.218	1594.12
348.445	1577.12
348.673	1643.12
348.9	1658.12
349.128	1707.12
349.355	1828.12
349.583	1731.12
349.81	1655.12
350.037	1566.12
350.265	1528.12
350.492	1550.12
350.72	1581.12
350.947	1639.12
351.174	1655.12
351.402	1613.12
351.629	1543.12
351.856	1561.12
352.083	1512.12
352.311	1524.12
352.538	1624.12
352.765	1647.12
352.992	1705.12
353.22	1638.12
353.447	1551.12
353.674	1565.12
353.901	1633.12
354.128	1582.12
354.355	1560.12
354.583	1612.12
354.81	1687.12
355.037	1657.12
355.264	1661.12
355.491	1651.12
355.718	1616.12
355.945	1618.12
356.172	1602.12
356.399	1568.12
356.626	1576.12
356.853	1612.12
357.08	1758.12
357.307	1919.12
357.534	1909.12
357.761	1708.12
357.988	1581.12
358.215	1547.12
358.441	1556.12
358.668	1547.12
358.895	1542.12
359.122	1608.12
359.349	1781.12
359.576	1799.12
359.802	1619.12
360.029	1566.12
360.256	1575.12
360.483	1578.12
360.709	1604.12
360.936	1675.12
361.163	1719.12
361.39	1866.12
361.616	2015.12
361.843	1970.12
362.07	1899.12
362.296	1669.12
362.523	1609.12
362.749	1581.12
362.976	1625.12
363.203	1666.12
363.429	1621.12
363.656	1549.12
363.882	1591.12
364.109	1747.12
364.335	1891.12
364.562	1824.12
364.788	1695.12
365.015	1628.12
365.241	1630.12
365.468	1647.12
365.694	1700.12
365.92	1772.12
366.147	1686.12
366.373	1617.12
366.599	1613.12
366.826	1581.12
367.052	1590.12
367.278	1563.12
367.505	1580.12
367.731	1675.12
367.957	1677.12
368.184	1683.12
368.41	1806.12
368.636	1791.12
368.862	1784.12
369.089	1860.12
369.315	1730.12
369.541	1678.12
369.767	1641.12
369.993	1598.12
370.219	1608.12
370.445	1666.12
370.672	1721.12
370.898	1778.12
371.124	1833.12
371.35	1712.12
371.576	1753.12
371.802	1795.12
372.028	1747.12
372.254	1671.12
372.48	1640.12
372.706	1624.12
372.932	1648.12
373.158	1634.12
373.384	1685.12
373.61	1716.12
373.835	1827.12
374.061	1713.12
374.287	1683.12
374.513	1677.12
374.739	1683.12
374.965	1691.12
375.191	1748.12
375.416	1773.12
375.642	1766.12
375.868	1834.12
376.094	1892.12
376.319	1854.12
376.545	1730.12
376.771	1705.12
376.997	1797.12
377.222	1853.12
377.448	1774.12
377.674	1779.12
377.899	1772.12
378.125	1875.12
378.35	1865.12
378.576	1714.12
378.802	1648.12
379.027	1665.12
379.253	1681.12
379.478	1678.12
379.704	1678.12
379.929	1657.12
380.155	1688.12
380.38	1703.12
380.606	1736.12
380.831	1671.12
381.057	1791.12
381.282	1858.12
381.507	1775.12
381.733	1868.12
381.958	1931.12
382.184	1806.12
382.409	1726.12
382.634	1815.12
382.86	1774.12
383.085	1791.12
383.31	1794.12
383.535	1931.12
383.761	2060.12
383.986	1981.12
384.211	1870.12
384.436	1888.12
384.662	1939.12
384.887	2065.12
385.112	1922.12
385.337	1959.12
385.562	1923.12
385.787	1921.12
386.013	2012.12
386.238	2044.12
386.463	1958.12
386.688	2073.12
386.913	2237.12
387.138	2163.12
387.363	2027.12
387.588	1973.12
387.813	2016.12
388.038	1990.12
388.263	2065.12
388.488	2017.12
388.713	1825.12
388.938	1883.12
389.163	1903.12
389.387	1936.12
389.612	1941.12
389.837	1931.12
390.062	1944.12
390.287	1949.12
390.512	1923.12
390.736	1917.12
390.961	1917.12
391.186	1852.12
391.411	1872.12
391.636	1922.12
391.86	1957.12
392.085	1923.12
392.31	1921.12
392.534	1993.12
392.759	2007.12
392.984	1921.12
393.208	1998.12
393.433	1983.12
393.658	2060.12
393.882	2110.12
394.107	1988.12
394.331	1898.12
394.556	1936.12
394.78	1942.12
395.005	2000.12
395.229	2097.12
395.454	2211.12
395.678	2294.12
395.903	2124.12
396.127	2039.12
396.352	2043.12
396.576	2091.12
396.801	2119.12
397.025	2097.12
397.249	2123.12
397.474	2110.12
397.698	2067.12
397.922	2184.12
398.147	2259.12
398.371	2280.12
398.595	2310.12
398.82	2223.12
399.044	2278.12
399.268	2325.12
399.492	2530.12
399.717	2621.12
399.941	2630.12
400.165	2615.12
400.389	2493.12
400.613	2415.12
400.837	2709.12
401.062	3163.12
401.286	2725.12
401.51	2431.12
401.734	2553.12
401.958	2461.12
402.182	2329.12
402.406	2221.12
402.63	2208.12
402.854	2165.12
403.078	2242.12
403.302	2320.12
403.526	2368.12
403.75	2313.12
403.974	2342.12
404.198	2301.12
404.422	2389.12
404.645	2529.12
404.869	2451.12
405.093	2284.12
405.317	2280.12
405.541	2368.12
405.765	2333.12
405.988	2363.12
406.212	2378.12
406.436	2411.12
406.66	2452.12
406.883	2534.12
407.107	2778.12
407.331	2997.12
407.555	3244.12
407.778	3021.12
408.002	2503.12
408.226	2428.12
408.449	2446.12
408.673	2345.12
408.896	2345.12
409.12	2391.12
409.344	2380.12
409.567	2282.12
409.791	2284.12
410.014	2383.12
410.238	2441.12
410.461	2615.12
410.685	2363.12
410.908	2303.12
411.132	2322.12
411.355	2316.12
411.578	2269.12
411.802	2270.12
412.025	2295.12
412.249	2241.12
412.472	2185.12
412.695	2210.12
412.919	2241.12
413.142	2237.12
413.365	2229.12
413.589	2275.12
413.812	2343.12
414.035	2474.12
414.258	2278.12
414.482	2180.12
414.705	2228.12
414.928	2210.12
415.151	2177.12
415.374	2218.12
415.597	2209.12
415.821	2251.12
416.044	2319.12
416.267	2331.12
416.49	2081.12
416.713	2102.12
416.936	2181.12
417.159	2269.12
417.382	2273.12
417.605	2111.12
417.828	2209.12
418.051	2234.12
418.274	2158.12
418.497	2135.12
418.72	2105.12
418.943	2071.12
419.166	2269.12
419.389	2389.12
419.611	2278.12
419.834	2178.12
420.057	2211.12
420.28	2120.12
420.503	2098.12
420.726	2167.12
420.948	2176.12
421.171	2107.12
421.394	2149.12
421.617	2235.12
421.839	2227.12
422.062	2130.12
422.285	2109.12
422.507	2116.12
422.73	2058.12
422.953	2093.12
423.175	2055.12
423.398	2089.12
423.621	2151.12
423.843	2113.12
424.066	2146.12
424.288	2214.12
424.511	2278.12
424.733	2214.12
424.956	2063.12
425.178	2022.12
425.401	2070.12
425.623	2076.12
425.846	2063.12
426.068	2140.12
426.291	2141.12
426.513	2158.12
426.735	2163.12
426.958	2267.12
427.18	2445.12
427.402	2254.12
427.625	2251.12
427.847	2308.12
428.069	2158.12
428.292	2101.12
428.514	2033.12
428.736	2055.12
428.958	2062.12
429.181	2048.12
429.403	2296.12
429.625	2904.12
429.847	2563.12
430.069	2138.12
430.292	2311.12
430.514	2439.12
430.736	2257.12
430.958	2314.12
431.18	2195.12
431.402	2049.12
431.624	2021.12
431.846	2061.12
432.068	2014.12
432.29	2045.12
432.512	2064.12
432.734	2137.12
432.956	2090.12
433.178	2249.12
433.4	2168.12
433.622	2232.12
433.844	2093.12
434.066	2035.12
434.287	2027.12
434.509	2103.12
434.731	2214.12
434.953	2352.12
435.175	2321.12
435.397	2152.12
435.618	2183.12
435.84	2133.12
436.062	2123.12
436.284	2147.12
436.505	2140.12
436.727	2178.12
436.949	2126.12
437.17	2049.12
437.392	2058.12
437.614	2078.12
437.835	1979.12
438.057	2131.12
438.278	2237.12
438.5	2116.12
438.721	2039.12
438.943	2068.12
439.165	2042.12
439.386	1977.12
439.608	2034.12
439.829	2033.12
440.05	2073.12
440.272	2015.12
440.493	1996.12
440.715	2056.12
440.936	2170.12
441.158	2375.12
441.379	2331.12
441.6	2247.12
441.822	2192.12
442.043	2234.12
442.264	2133.12
442.486	2023.12
442.707	2055.12
442.928	2021.12
443.149	2100.12
443.371	2239.12
443.592	2297.12
443.813	2261.12
444.034	2261.12
444.255	2238.12
444.476	2271.12
444.698	2294.12
444.919	2344.12
445.14	2373.12
445.361	2373.12
445.582	2443.12
445.803	2315.12
446.024	2261.12
446.245	2325.12
446.466	2245.12
446.687	2161.12
446.908	2139.12
447.129	2071.12
447.35	2101.12
447.571	2081.12
447.792	2055.12
448.013	2021.12
448.234	2014.12
448.455	2097.12
448.675	2149.12
448.896	2010.12
449.117	1905.12
449.338	1991.12
449.559	2033.12
449.779	2161.12
450	2362.12
450.221	2581.12
450.442	2483.12
450.662	2185.12
450.883	1973.12
451.104	1891.12
451.324	1991.12
451.545	2019.12
451.766	1969.12
451.986	1909.12
452.207	1899.12
452.428	1855.12
452.648	1822.12
452.869	1852.12
453.089	1996.12
453.31	1989.12
453.53	2058.12
453.751	1990.12
453.971	1863.12
454.192	1875.12
454.412	2051.12
454.633	1964.12
454.853	1914.12
455.073	1785.12
455.294	1749.12
455.514	1819.12
455.734	1803.12
455.955	1842.12
456.175	1811.12
456.395	1795.12
456.616	1859.12
456.836	1966.12
457.056	1870.12
457.276	1879.12
457.497	1813.12
457.717	1782.12
457.937	1821.12
458.157	1887.12
458.377	1846.12
458.598	1828.12
458.818	1849.12
459.038	1961.12
459.258	2053.12
459.478	2092.12
459.698	1995.12
459.918	2017.12
460.138	2163.12
460.358	2204.12
460.578	2181.12
460.798	2273.12
461.018	2378.12
461.238	2273.12
461.458	2201.12
461.678	2193.12
461.898	2161.12
462.118	2121.12
462.338	2203.12
462.558	2245.12
462.777	2170.12
462.997	2274.12
463.217	2420.12
463.437	2409.12
463.657	2209.12
463.876	2209.12
464.096	2218.12
464.316	2225.12
464.536	2309.12
464.755	2323.12
464.975	2367.12
465.195	2214.12
465.414	2331.12
465.634	2241.12
465.854	2205.12
466.073	2293.12
466.293	2213.12
466.512	2017.12
466.732	1986.12
466.951	2117.12
467.171	2074.12
467.391	1968.12
467.61	1958.12
467.829	1985.12
468.049	2072.12
468.268	2352.12
468.488	2236.12
468.707	2140.12
468.927	2081.12
469.146	1954.12
469.365	1975.12
469.585	2007.12
469.804	2013.12
470.023	1986.12
470.243	2009.12
470.462	2005.12
470.681	1947.12
470.901	1994.12
471.12	1995.12
471.339	1989.12
471.558	1923.12
471.777	1894.12
471.997	1937.12
472.216	1946.12
472.435	1897.12
472.654	1958.12
472.873	2053.12
473.092	2156.12
473.311	2008.12
473.53	1906.12
473.749	1885.12
473.968	1980.12
474.187	2075.12
474.406	2146.12
474.625	2066.12
474.844	2027.12
475.063	2004.12
475.282	2081.12
475.501	1993.12
475.72	2055.12
475.939	2195.12
476.158	2099.12
476.377	2000.12
476.596	2071.12
476.814	2137.12
477.033	2090.12
477.252	2163.12
477.471	2228.12
477.69	2099.12
477.908	2112.12
478.127	2245.12
478.346	2379.12
478.564	2419.12
478.783	2405.12
479.002	2495.12
479.22	2363.12
479.439	2486.12
479.658	2809.12
479.876	2795.12
480.095	2414.12
480.313	2343.12
480.532	2233.12
480.751	2245.12
480.969	2361.12
481.188	2291.12
481.406	2284.12
481.624	2192.12
481.843	2237.12
482.061	2239.12
482.28	2294.12
482.498	2348.12
482.717	2375.12
482.935	2231.12
483.153	2229.12
483.372	2220.12
483.59	2217.12
483.808	2214.12
484.027	2296.12
484.245	2421.12
484.463	2715.12
484.681	3211.12
484.9	2528.12
485.118	2311.12
485.336	2233.12
485.554	2385.12
485.772	2453.12
485.99	2418.12
486.209	2401.12
486.427	2424.12
486.645	2396.12
486.863	2349.12
487.081	2446.12
487.299	2493.12
487.517	2419.12
