Data from WStandard_LampEnergy5.5LIBS07252019.E.O._I.C._HRD10591_16-08-58-921.txt Node
Date: Thu Jul 25 16:08:58 EDT 2019
User: cochatt
Spectrometer: HR+D1059
Trigger mode: 1
Integration Time (sec): 1.000000E-1
Scans to average: 1
Electric dark correction enabled: true
Nonlinearity correction enabled: false
Boxcar width: 0
XAxis mode: Wavelengths
Number of Pixels in Spectrum: 2048
>>>>>Begin Spectral Data<<<<<
223.165	-21.56
223.4	-21.56
223.635	-21.56
223.869	-35.56
224.104	-19.56
224.338	-28.56
224.573	-9.56
224.808	7.44
225.042	14.44
225.277	-10.56
225.511	-5.56
225.746	2.44
225.98	19.44
226.215	-0.56
226.449	10.44
226.683	11.44
226.918	26.44
227.152	39.44
227.387	36.44
227.621	28.44
227.856	42.44
228.09	43.44
228.324	43.44
228.559	51.44
228.793	147.44
229.027	326.44
229.262	339.44
229.496	348.44
229.73	376.44
229.964	417.44
230.199	425.44
230.433	441.44
230.667	461.44
230.901	502.44
231.136	458.44
231.37	450.44
231.604	416.44
231.838	432.44
232.072	446.44
232.306	435.44
232.541	452.44
232.775	522.44
233.009	597.44
233.243	525.44
233.477	497.44
233.711	514.44
233.945	539.44
234.179	517.44
234.413	555.44
234.647	614.44
234.881	575.44
235.115	507.44
235.349	548.44
235.583	531.44
235.817	525.44
236.051	503.44
236.285	502.44
236.519	525.44
236.753	626.44
236.987	617.44
237.221	598.44
237.455	680.44
237.689	647.44
237.922	665.44
238.156	631.44
238.39	629.44
238.624	677.44
238.858	696.44
239.091	739.44
239.325	775.44
239.559	863.44
239.793	913.44
240.027	983.44
240.26	965.44
240.494	706.44
240.728	661.44
240.961	684.44
241.195	700.44
241.429	756.44
241.662	778.44
241.896	701.44
242.13	721.44
242.363	804.44
242.597	855.44
242.83	829.44
243.064	839.44
243.298	889.44
243.531	883.44
243.765	866.44
243.998	874.44
244.232	753.44
244.465	748.44
244.699	713.44
244.932	840.44
245.166	940.44
245.399	935.44
245.633	831.44
245.866	865.44
246.099	895.44
246.333	891.44
246.566	886.44
246.8	987.44
247.033	1105.44
247.266	1027.44
247.5	1001.44
247.733	977.44
247.966	1061.44
248.2	1137.44
248.433	1100.44
248.666	1119.44
248.899	1240.44
249.133	1429.44
249.366	1649.44
249.599	1327.44
249.832	1151.44
250.066	1218.44
250.299	1207.44
250.532	1108.44
250.765	1013.44
250.998	1086.44
251.231	1097.44
251.465	1148.44
251.698	1092.44
251.931	1098.44
252.164	1111.44
252.397	1179.44
252.63	1174.44
252.863	1039.44
253.096	1021.44
253.329	1077.44
253.562	1113.44
253.795	1183.44
254.028	1210.44
254.261	1082.44
254.494	1088.44
254.727	1041.44
254.96	1082.44
255.193	1165.44
255.426	1345.44
255.659	1519.44
255.892	1585.44
256.124	1299.44
256.357	1236.44
256.59	1331.44
256.823	1336.44
257.056	1303.44
257.289	1569.44
257.521	1782.44
257.754	1604.44
257.987	1493.44
258.22	1648.44
258.452	1608.44
258.685	1314.44
258.918	1249.44
259.151	1298.44
259.383	1243.44
259.616	1112.44
259.849	1143.44
260.081	1281.44
260.314	1459.44
260.547	1579.44
260.779	1602.44
261.012	1506.44
261.244	1347.44
261.477	1240.44
261.71	1301.44
261.942	1301.44
262.175	1291.44
262.407	1339.44
262.64	1270.44
262.872	1224.44
263.105	1169.44
263.337	1191.44
263.57	1200.44
263.802	1229.44
264.035	1159.44
264.267	1107.44
264.499	1103.44
264.732	1122.44
264.964	1217.44
265.197	1240.44
265.429	1288.44
265.661	1465.44
265.894	1615.44
266.126	1667.44
266.358	1491.44
266.591	1539.44
266.823	1675.44
267.055	1503.44
267.287	1496.44
267.52	1457.44
267.752	1447.44
267.984	1397.44
268.216	1516.44
268.448	1568.44
268.681	1549.44
268.913	1436.44
269.145	1322.44
269.377	1285.44
269.609	1383.44
269.841	1606.44
270.073	1888.44
270.306	2114.44
270.538	2274.44
270.77	1937.44
271.002	1640.44
271.234	1563.44
271.466	1510.44
271.698	1721.44
271.93	2052.44
272.162	2001.44
272.394	1810.44
272.626	1764.44
272.858	1550.44
273.09	1345.44
273.322	1376.44
273.553	1324.44
273.785	1298.44
274.017	1369.44
274.249	1459.44
274.481	1459.44
274.713	1364.44
274.945	1331.44
275.176	1293.44
275.408	1314.44
275.64	1340.44
275.872	1299.44
276.104	1369.44
276.335	1580.44
276.567	1765.44
276.799	1801.44
277.031	1620.44
277.262	1521.44
277.494	1545.44
277.726	1745.44
277.957	1746.44
278.189	1622.44
278.421	1441.44
278.652	1390.44
278.884	1388.44
279.115	1381.44
279.347	1435.44
279.579	1378.44
279.81	1375.44
280.042	1489.44
280.273	1660.44
280.505	1631.44
280.736	1685.44
280.968	1657.44
281.199	1415.44
281.431	1367.44
281.662	1394.44
281.894	1375.44
282.125	1429.44
282.356	1441.44
282.588	1455.44
282.819	1437.44
283.051	1559.44
283.282	1685.44
283.513	1659.44
283.745	1455.44
283.976	1371.44
284.207	1363.44
284.439	1403.44
284.67	1371.44
284.901	1441.44
285.132	1463.44
285.364	1451.44
285.595	1431.44
285.826	1415.44
286.057	1407.44
286.288	1381.44
286.52	1450.44
286.751	1555.44
286.982	1635.44
287.213	1499.44
287.444	1363.44
287.675	1392.44
287.906	1435.44
288.138	1563.44
288.369	1488.44
288.6	1393.44
288.831	1408.44
289.062	1403.44
289.293	1434.44
289.524	1461.44
289.755	1463.44
289.986	1485.44
290.217	1384.44
290.448	1389.44
290.679	1455.44
290.91	1448.44
291.141	1467.44
291.371	1536.44
291.602	1511.44
291.833	1529.44
292.064	1579.44
292.295	1539.44
292.526	1550.44
292.757	1625.44
292.987	1568.44
293.218	1467.44
293.449	1537.44
293.68	1773.44
293.91	1954.44
294.141	1747.44
294.372	1665.44
294.603	1734.44
294.833	1844.44
295.064	1782.44
295.295	1561.44
295.525	1506.44
295.756	1425.44
295.987	1341.44
296.217	1339.44
296.448	1415.44
296.679	1411.44
296.909	1401.44
297.14	1412.44
297.37	1437.44
297.601	1499.44
297.831	1631.44
298.062	1663.44
298.292	1524.44
298.523	1416.44
298.753	1452.44
298.984	1443.44
299.214	1448.44
299.445	1507.44
299.675	1501.44
299.905	1555.44
300.136	1468.44
300.366	1462.44
300.597	1379.44
300.827	1415.44
301.057	1477.44
301.288	1539.44
301.518	1513.44
301.748	1567.44
301.979	1653.44
302.209	1636.44
302.439	1750.44
302.669	1887.44
302.9	1707.44
303.13	1543.44
303.36	1521.44
303.59	1564.44
303.82	1557.44
304.051	1570.44
304.281	1551.44
304.511	1565.44
304.741	1652.44
304.971	1779.44
305.201	1937.44
305.431	1837.44
305.661	1533.44
305.891	1381.44
306.121	1393.44
306.352	1463.44
306.582	1475.44
306.812	1558.44
307.042	1687.44
307.272	1683.44
307.502	1755.44
307.731	1864.44
307.961	2075.44
308.191	1916.44
308.421	1647.44
308.651	1530.44
308.881	1520.44
309.111	1471.44
309.341	1459.44
309.571	1483.44
309.8	1510.44
310.03	1453.44
310.26	1479.44
310.49	1462.44
310.72	1480.44
310.949	1584.44
311.179	1593.44
311.409	1602.44
311.639	1523.44
311.868	1513.44
312.098	1572.44
312.328	1515.44
312.557	1497.44
312.787	1557.44
313.017	1548.44
313.246	1587.44
313.476	1544.44
313.706	1584.44
313.935	1581.44
314.165	1583.44
314.394	1630.44
314.624	1717.44
314.853	1763.44
315.083	1861.44
315.312	1917.44
315.542	1803.44
315.771	1613.44
316.001	1622.44
316.23	1686.44
316.46	1688.44
316.689	1664.44
316.919	1619.44
317.148	1557.44
317.377	1524.44
317.607	1667.44
317.836	1849.44
318.065	1905.44
318.295	1859.44
318.524	1762.44
318.753	1711.44
318.983	1676.44
319.212	1662.44
319.441	1619.44
319.67	1596.44
319.9	1603.44
320.129	1723.44
320.358	1784.44
320.587	1836.44
320.816	1837.44
321.046	1821.44
321.275	1690.44
321.504	1675.44
321.733	1856.44
321.962	1788.44
322.191	1589.44
322.42	1670.44
322.649	1634.44
322.878	1607.44
323.108	1625.44
323.337	1699.44
323.566	1689.44
323.795	1628.44
324.024	1665.44
324.253	1657.44
324.482	1650.44
324.71	1630.44
324.939	1559.44
325.168	1571.44
325.397	1597.44
325.626	1675.44
325.855	1713.44
326.084	1610.44
326.313	1659.44
326.542	1660.44
326.77	1725.44
326.999	1687.44
327.228	1630.44
327.457	1581.44
327.686	1531.44
327.914	1576.44
328.143	1619.44
328.372	1681.44
328.6	1663.44
328.829	1657.44
329.058	1601.44
329.287	1610.44
329.515	1633.44
329.744	1671.44
329.972	1754.44
330.201	1807.44
330.43	1772.44
330.658	1714.44
330.887	1745.44
331.115	1729.44
331.344	1750.44
331.572	1706.44
331.801	1702.44
332.03	1748.44
332.258	1766.44
332.486	1788.44
332.715	1785.44
332.943	1801.44
333.172	1727.44
333.4	1780.44
333.629	1849.44
333.857	1896.44
334.085	2072.44
334.314	2309.44
334.542	2533.44
334.771	2362.44
334.999	2060.44
335.227	1959.44
335.455	1859.44
335.684	1889.44
335.912	1909.44
336.14	1979.44
336.369	1900.44
336.597	1828.44
336.825	1779.44
337.053	1804.44
337.281	1897.44
337.51	1959.44
337.738	2051.44
337.966	2011.44
338.194	1806.44
338.422	1748.44
338.65	1689.44
338.878	1712.44
339.106	1671.44
339.334	1663.44
339.562	1625.44
339.79	1681.44
340.018	1734.44
340.246	1824.44
340.474	1859.44
340.702	1778.44
340.93	1792.44
341.158	1787.44
341.386	1741.44
341.614	1675.44
341.842	1733.44
342.07	1696.44
342.298	1753.44
342.526	1727.44
342.754	1666.44
342.981	1653.44
343.209	1671.44
343.437	1698.44
343.665	1713.44
343.893	1761.44
344.12	1819.44
344.348	1841.44
344.576	1800.44
344.804	1713.44
345.031	1697.44
345.259	1716.44
345.487	1658.44
345.714	1580.44
345.942	1586.44
346.17	1567.44
346.397	1617.44
346.625	1638.44
346.853	1580.44
347.08	1533.44
347.308	1548.44
347.535	1587.44
347.763	1630.44
347.99	1611.44
348.218	1544.44
348.445	1558.44
348.673	1578.44
348.9	1637.44
349.128	1704.44
349.355	1716.44
349.583	1699.44
349.81	1624.44
350.037	1482.44
350.265	1508.44
350.492	1505.44
350.72	1585.44
350.947	1618.44
351.174	1644.44
351.402	1564.44
351.629	1515.44
351.856	1476.44
352.083	1470.44
352.311	1523.44
352.538	1512.44
352.765	1603.44
352.992	1637.44
353.22	1597.44
353.447	1495.44
353.674	1603.44
353.901	1589.44
354.128	1568.44
354.355	1565.44
354.583	1589.44
354.81	1670.44
355.037	1604.44
355.264	1611.44
355.491	1591.44
355.718	1640.44
355.945	1595.44
356.172	1574.44
356.399	1532.44
356.626	1521.44
356.853	1586.44
357.08	1690.44
357.307	1838.44
357.534	1883.44
357.761	1657.44
357.988	1559.44
358.215	1515.44
358.441	1574.44
358.668	1535.44
358.895	1549.44
359.122	1599.44
359.349	1760.44
359.576	1744.44
359.802	1626.44
360.029	1545.44
360.256	1500.44
360.483	1541.44
360.709	1551.44
360.936	1648.44
361.163	1675.44
361.39	1799.44
361.616	1971.44
361.843	1917.44
362.07	1846.44
362.296	1575.44
362.523	1545.44
362.749	1600.44
362.976	1608.44
363.203	1648.44
363.429	1594.44
363.656	1529.44
363.882	1608.44
364.109	1694.44
364.335	1868.44
364.562	1743.44
364.788	1659.44
365.015	1602.44
365.241	1548.44
365.468	1585.44
365.694	1665.44
365.92	1743.44
366.147	1619.44
366.373	1545.44
366.599	1524.44
366.826	1540.44
367.052	1516.44
367.278	1545.44
367.505	1561.44
367.731	1619.44
367.957	1632.44
368.184	1663.44
368.41	1732.44
368.636	1763.44
368.862	1778.44
369.089	1810.44
369.315	1763.44
369.541	1689.44
369.767	1623.44
369.993	1570.44
370.219	1565.44
370.445	1568.44
370.672	1685.44
370.898	1820.44
371.124	1765.44
371.35	1650.44
371.576	1695.44
371.802	1758.44
372.028	1686.44
372.254	1647.44
372.48	1628.44
372.706	1567.44
372.932	1618.44
373.158	1570.44
373.384	1659.44
373.61	1684.44
373.835	1723.44
374.061	1701.44
374.287	1643.44
374.513	1659.44
374.739	1702.44
374.965	1679.44
375.191	1701.44
375.416	1684.44
375.642	1738.44
375.868	1779.44
376.094	1829.44
376.319	1801.44
376.545	1678.44
376.771	1677.44
376.997	1783.44
377.222	1768.44
377.448	1688.44
377.674	1755.44
377.899	1690.44
378.125	1844.44
378.35	1843.44
378.576	1667.44
378.802	1635.44
379.027	1620.44
379.253	1649.44
379.478	1662.44
379.704	1647.44
379.929	1673.44
380.155	1668.44
380.38	1639.44
380.606	1683.44
380.831	1663.44
381.057	1746.44
381.282	1793.44
381.507	1679.44
381.733	1827.44
381.958	1943.44
382.184	1780.44
382.409	1715.44
382.634	1775.44
382.86	1713.44
383.085	1738.44
383.31	1795.44
383.535	1933.44
383.761	1980.44
383.986	1934.44
384.211	1893.44
384.436	1836.44
384.662	1934.44
384.887	2010.44
385.112	1897.44
385.337	1938.44
385.562	1895.44
385.787	1881.44
386.013	1943.44
386.238	1933.44
386.463	1937.44
386.688	2037.44
386.913	2195.44
387.138	2105.44
387.363	1961.44
387.588	1943.44
387.813	1976.44
388.038	1950.44
388.263	2026.44
388.488	1960.44
388.713	1841.44
388.938	1784.44
389.163	1848.44
389.387	1900.44
389.612	1861.44
389.837	1899.44
390.062	1921.44
390.287	1919.44
390.512	1897.44
390.736	1896.44
390.961	1825.44
391.186	1768.44
391.411	1825.44
391.636	1892.44
391.86	1916.44
392.085	1853.44
392.31	1869.44
392.534	1906.44
392.759	1921.44
392.984	1913.44
393.208	1890.44
393.433	1931.44
393.658	1979.44
393.882	2066.44
394.107	1935.44
394.331	1907.44
394.556	1865.44
394.78	1919.44
395.005	1949.44
395.229	2034.44
395.454	2171.44
395.678	2140.44
395.903	2092.44
396.127	2002.44
396.352	2012.44
396.576	2042.44
396.801	2110.44
397.025	2053.44
397.249	2062.44
397.474	2040.44
397.698	2046.44
397.922	2093.44
398.147	2160.44
398.371	2279.44
398.595	2273.44
398.82	2136.44
399.044	2215.44
399.268	2310.44
399.492	2452.44
399.717	2593.44
399.941	2555.44
400.165	2487.44
400.389	2426.44
400.613	2396.44
400.837	2635.44
401.062	3043.44
401.286	2591.44
401.51	2335.44
401.734	2460.44
401.958	2379.44
402.182	2233.44
402.406	2162.44
402.63	2124.44
402.854	2123.44
403.078	2206.44
403.302	2231.44
403.526	2307.44
403.75	2248.44
403.974	2325.44
404.198	2270.44
404.422	2343.44
404.645	2423.44
404.869	2376.44
405.093	2235.44
405.317	2195.44
405.541	2232.44
405.765	2337.44
405.988	2264.44
406.212	2278.44
406.436	2376.44
406.66	2405.44
406.883	2386.44
407.107	2679.44
407.331	2929.44
407.555	3108.44
407.778	2935.44
408.002	2467.44
408.226	2344.44
408.449	2384.44
408.673	2271.44
408.896	2323.44
409.12	2299.44
409.344	2252.44
409.567	2238.44
409.791	2295.44
410.014	2366.44
410.238	2415.44
410.461	2532.44
410.685	2363.44
410.908	2191.44
411.132	2231.44
411.355	2221.44
411.578	2164.44
411.802	2194.44
412.025	2264.44
412.249	2179.44
412.472	2187.44
412.695	2118.44
412.919	2134.44
413.142	2140.44
413.365	2191.44
413.589	2218.44
413.812	2306.44
414.035	2387.44
414.258	2151.44
414.482	2124.44
414.705	2166.44
414.928	2147.44
415.151	2152.44
415.374	2195.44
415.597	2185.44
415.821	2164.44
416.044	2258.44
416.267	2250.44
416.49	2096.44
416.713	2056.44
416.936	2083.44
417.159	2234.44
417.382	2233.44
417.605	2123.44
417.828	2173.44
418.051	2207.44
418.274	2120.44
418.497	2087.44
418.72	2119.44
418.943	2086.44
419.166	2214.44
419.389	2282.44
419.611	2177.44
419.834	2183.44
420.057	2162.44
420.28	2136.44
420.503	2024.44
420.726	2119.44
420.948	2124.44
421.171	2025.44
421.394	2084.44
421.617	2128.44
421.839	2122.44
422.062	2087.44
422.285	2033.44
422.507	2115.44
422.73	2026.44
422.953	2026.44
423.175	1975.44
423.398	2088.44
423.621	2059.44
423.843	2091.44
424.066	2103.44
424.288	2153.44
424.511	2186.44
424.733	2124.44
424.956	1963.44
425.178	1950.44
425.401	2018.44
425.623	2048.44
425.846	2013.44
426.068	2109.44
426.291	2133.44
426.513	2134.44
426.735	2104.44
426.958	2208.44
427.18	2341.44
427.402	2175.44
427.625	2243.44
427.847	2183.44
428.069	2105.44
428.292	2053.44
428.514	1953.44
428.736	1961.44
428.958	2006.44
429.181	1983.44
429.403	2258.44
429.625	2820.44
429.847	2471.44
430.069	2064.44
430.292	2288.44
430.514	2339.44
430.736	2131.44
430.958	2292.44
431.18	2189.44
431.402	2025.44
431.624	1978.44
431.846	2016.44
432.068	1971.44
432.29	2011.44
432.512	2043.44
432.734	2081.44
432.956	2096.44
433.178	2173.44
433.4	2112.44
433.622	2171.44
433.844	2056.44
434.066	1992.44
434.287	1967.44
434.509	2059.44
434.731	2151.44
434.953	2284.44
435.175	2303.44
435.397	2145.44
435.618	2151.44
435.84	2118.44
436.062	2038.44
436.284	2100.44
436.505	2123.44
436.727	2152.44
436.949	2051.44
437.17	1994.44
437.392	2052.44
437.614	2021.44
437.835	1929.44
438.057	2079.44
438.278	2149.44
438.5	2098.44
438.721	2009.44
438.943	2013.44
439.165	1960.44
439.386	1938.44
439.608	1985.44
439.829	1960.44
440.05	1972.44
440.272	1990.44
440.493	1929.44
440.715	1990.44
440.936	2123.44
441.158	2398.44
441.379	2295.44
441.6	2175.44
441.822	2154.44
442.043	2154.44
442.264	2121.44
442.486	1970.44
442.707	1996.44
442.928	1990.44
443.149	2049.44
443.371	2157.44
443.592	2206.44
443.813	2143.44
444.034	2163.44
444.255	2189.44
444.476	2224.44
444.698	2283.44
444.919	2256.44
445.14	2358.44
445.361	2352.44
445.582	2407.44
445.803	2276.44
446.024	2218.44
446.245	2212.44
446.466	2248.44
446.687	2087.44
446.908	2060.44
447.129	2034.44
447.35	2071.44
447.571	2056.44
447.792	1951.44
448.013	1959.44
448.234	2006.44
448.455	2057.44
448.675	2120.44
448.896	1929.44
449.117	1916.44
449.338	1985.44
449.559	2037.44
449.779	2146.44
450	2321.44
450.221	2515.44
450.442	2425.44
450.662	2164.44
450.883	1924.44
451.104	1872.44
451.324	1901.44
451.545	1970.44
451.766	1971.44
451.986	1831.44
452.207	1813.44
452.428	1811.44
452.648	1787.44
452.869	1864.44
453.089	1940.44
453.31	1945.44
453.53	2009.44
453.751	1911.44
453.971	1827.44
454.192	1847.44
454.412	2007.44
454.633	1888.44
454.853	1872.44
455.073	1730.44
455.294	1726.44
455.514	1732.44
455.734	1765.44
455.955	1770.44
456.175	1763.44
456.395	1764.44
456.616	1851.44
456.836	1894.44
457.056	1815.44
457.276	1804.44
457.497	1778.44
457.717	1729.44
457.937	1750.44
458.157	1835.44
458.377	1820.44
458.598	1803.44
458.818	1823.44
459.038	1898.44
459.258	2019.44
459.478	2021.44
459.698	1970.44
459.918	1996.44
460.138	2137.44
460.358	2137.44
460.578	2147.44
460.798	2262.44
461.018	2362.44
461.238	2230.44
461.458	2122.44
461.678	2131.44
461.898	2163.44
462.118	2062.44
462.338	2185.44
462.558	2173.44
462.777	2165.44
462.997	2267.44
463.217	2382.44
463.437	2348.44
463.657	2211.44
463.876	2178.44
464.096	2124.44
464.316	2134.44
464.536	2231.44
464.755	2216.44
464.975	2291.44
465.195	2165.44
465.414	2301.44
465.634	2276.44
465.854	2138.44
466.073	2299.44
466.293	2229.44
466.512	2009.44
466.732	1915.44
466.951	2028.44
467.171	2038.44
467.391	1909.44
467.61	1883.44
467.829	1907.44
468.049	2045.44
468.268	2311.44
468.488	2151.44
468.707	2090.44
468.927	1981.44
469.146	1973.44
469.365	1950.44
469.585	1977.44
469.804	1956.44
470.023	1931.44
470.243	2010.44
470.462	1961.44
470.681	1944.44
470.901	1960.44
471.12	1969.44
471.339	1961.44
471.558	1860.44
471.777	1875.44
471.997	1907.44
472.216	1939.44
472.435	1836.44
472.654	1895.44
472.873	1963.44
473.092	2083.44
473.311	1991.44
473.53	1892.44
473.749	1855.44
473.968	1924.44
474.187	2043.44
474.406	2119.44
474.625	2050.44
474.844	1977.44
475.063	1957.44
475.282	2004.44
475.501	2009.44
475.72	2003.44
475.939	2083.44
476.158	2010.44
476.377	1987.44
476.596	2008.44
476.814	2014.44
477.033	2084.44
477.252	2143.44
477.471	2207.44
477.69	2089.44
477.908	2069.44
478.127	2163.44
478.346	2337.44
478.564	2374.44
478.783	2331.44
479.002	2411.44
479.22	2323.44
479.439	2415.44
479.658	2772.44
479.876	2689.44
480.095	2378.44
480.313	2306.44
480.532	2197.44
480.751	2202.44
480.969	2270.44
481.188	2223.44
481.406	2171.44
481.624	2137.44
481.843	2149.44
482.061	2263.44
482.28	2291.44
482.498	2297.44
482.717	2251.44
482.935	2177.44
483.153	2185.44
483.372	2210.44
483.59	2141.44
483.808	2208.44
484.027	2226.44
484.245	2381.44
484.463	2674.44
484.681	3101.44
484.9	2442.44
485.118	2248.44
485.336	2249.44
485.554	2323.44
485.772	2400.44
485.99	2359.44
486.209	2374.44
486.427	2360.44
486.645	2353.44
486.863	2335.44
487.081	2335.44
487.299	2417.44
487.517	2376.44
