Data from WStandard_LampEnergy10_LIBS07252019.E.O._I.C._HRD10591_15-55-58-929.txt Node
Date: Thu Jul 25 15:55:58 EDT 2019
User: cochatt
Spectrometer: HR+D1059
Trigger mode: 1
Integration Time (sec): 1.000000E-1
Scans to average: 1
Electric dark correction enabled: true
Nonlinearity correction enabled: false
Boxcar width: 0
XAxis mode: Wavelengths
Number of Pixels in Spectrum: 2048
>>>>>Begin Spectral Data<<<<<
223.165	-16.25
223.4	-16.25
223.635	-16.25
223.869	-7.25
224.104	-20.25
224.338	-25.25
224.573	-14.25
224.808	-18.25
225.042	-11.25
225.277	-21.25
225.511	12.75
225.746	0.75
225.98	12.75
226.215	-5.25
226.449	17.75
226.683	22.75
226.918	24.75
227.152	47.75
227.387	28.75
227.621	38.75
227.856	42.75
228.09	44.75
228.324	51.75
228.559	49.75
228.793	83.75
229.027	137.75
229.262	152.75
229.496	149.75
229.73	165.75
229.964	165.75
230.199	167.75
230.433	175.75
230.667	181.75
230.901	200.75
231.136	169.75
231.37	176.75
231.604	167.75
231.838	185.75
232.072	183.75
232.306	181.75
232.541	183.75
232.775	206.75
233.009	205.75
233.243	211.75
233.477	183.75
233.711	180.75
233.945	172.75
234.179	176.75
234.413	218.75
234.647	208.75
234.881	202.75
235.115	192.75
235.349	187.75
235.583	198.75
235.817	198.75
236.051	175.75
236.285	192.75
236.519	212.75
236.753	212.75
236.987	244.75
237.221	226.75
237.455	235.75
237.689	226.75
237.922	210.75
238.156	211.75
238.39	210.75
238.624	240.75
238.858	223.75
239.091	236.75
239.325	262.75
239.559	265.75
239.793	289.75
240.027	312.75
240.26	298.75
240.494	242.75
240.728	228.75
240.961	232.75
241.195	231.75
241.429	242.75
241.662	259.75
241.896	261.75
242.13	238.75
242.363	287.75
242.597	268.75
242.83	266.75
243.064	278.75
243.298	268.75
243.531	289.75
243.765	284.75
243.998	280.75
244.232	271.75
244.465	258.75
244.699	246.75
244.932	291.75
245.166	302.75
245.399	287.75
245.633	292.75
245.866	281.75
246.099	275.75
246.333	288.75
246.566	288.75
246.8	307.75
247.033	327.75
247.266	321.75
247.5	327.75
247.733	309.75
247.966	355.75
248.2	373.75
248.433	368.75
248.666	373.75
248.899	392.75
249.133	411.75
249.366	463.75
249.599	391.75
249.832	358.75
250.066	363.75
250.299	364.75
250.532	343.75
250.765	323.75
250.998	324.75
251.231	341.75
251.465	371.75
251.698	320.75
251.931	326.75
252.164	346.75
252.397	372.75
252.63	349.75
252.863	317.75
253.096	339.75
253.329	338.75
253.562	354.75
253.795	364.75
254.028	353.75
254.261	339.75
254.494	323.75
254.727	311.75
254.96	343.75
255.193	363.75
255.426	398.75
255.659	434.75
255.892	436.75
256.124	376.75
256.357	380.75
256.59	385.75
256.823	426.75
257.056	416.75
257.289	471.75
257.521	502.75
257.754	443.75
257.987	422.75
258.22	484.75
258.452	453.75
258.685	402.75
258.918	386.75
259.151	382.75
259.383	378.75
259.616	334.75
259.849	379.75
260.081	415.75
260.314	437.75
260.547	456.75
260.779	449.75
261.012	427.75
261.244	398.75
261.477	400.75
261.71	414.75
261.942	397.75
262.175	382.75
262.407	371.75
262.64	379.75
262.872	385.75
263.105	370.75
263.337	365.75
263.57	366.75
263.802	356.75
264.035	336.75
264.267	334.75
264.499	356.75
264.732	348.75
264.964	376.75
265.197	388.75
265.429	411.75
265.661	460.75
265.894	477.75
266.126	473.75
266.358	455.75
266.591	463.75
266.823	474.75
267.055	438.75
267.287	439.75
267.52	451.75
267.752	452.75
267.984	428.75
268.216	457.75
268.448	472.75
268.681	457.75
268.913	420.75
269.145	436.75
269.377	436.75
269.609	442.75
269.841	503.75
270.073	569.75
270.306	606.75
270.538	612.75
270.77	542.75
271.002	492.75
271.234	458.75
271.466	456.75
271.698	533.75
271.93	619.75
272.162	591.75
272.394	552.75
272.626	514.75
272.858	454.75
273.09	428.75
273.322	399.75
273.553	393.75
273.785	409.75
274.017	417.75
274.249	435.75
274.481	424.75
274.713	386.75
274.945	403.75
275.176	406.75
275.408	406.75
275.64	419.75
275.872	392.75
276.104	440.75
276.335	482.75
276.567	551.75
276.799	522.75
277.031	464.75
277.262	459.75
277.494	513.75
277.726	502.75
277.957	502.75
278.189	450.75
278.421	440.75
278.652	428.75
278.884	426.75
279.115	439.75
279.347	436.75
279.579	439.75
279.81	440.75
280.042	476.75
280.273	518.75
280.505	487.75
280.736	504.75
280.968	457.75
281.199	409.75
281.431	414.75
281.662	400.75
281.894	423.75
282.125	428.75
282.356	447.75
282.588	464.75
282.819	469.75
283.051	483.75
283.282	492.75
283.513	496.75
283.745	432.75
283.976	438.75
284.207	440.75
284.439	435.75
284.67	436.75
284.901	441.75
285.132	463.75
285.364	455.75
285.595	442.75
285.826	449.75
286.057	440.75
286.288	446.75
286.52	463.75
286.751	469.75
286.982	501.75
287.213	489.75
287.444	420.75
287.675	431.75
287.906	459.75
288.138	483.75
288.369	456.75
288.6	443.75
288.831	414.75
289.062	442.75
289.293	451.75
289.524	427.75
289.755	480.75
289.986	465.75
290.217	450.75
290.448	441.75
290.679	436.75
290.91	479.75
291.141	435.75
291.371	494.75
291.602	475.75
291.833	486.75
292.064	476.75
292.295	484.75
292.526	502.75
292.757	517.75
292.987	481.75
293.218	491.75
293.449	513.75
293.68	555.75
293.91	594.75
294.141	564.75
294.372	543.75
294.603	548.75
294.833	584.75
295.064	538.75
295.295	501.75
295.525	479.75
295.756	436.75
295.987	419.75
296.217	452.75
296.448	448.75
296.679	454.75
296.909	442.75
297.14	467.75
297.37	477.75
297.601	484.75
297.831	496.75
298.062	519.75
298.292	492.75
298.523	474.75
298.753	448.75
298.984	458.75
299.214	496.75
299.445	472.75
299.675	504.75
299.905	482.75
300.136	485.75
300.366	476.75
300.597	438.75
300.827	472.75
301.057	480.75
301.288	508.75
301.518	510.75
301.748	534.75
301.979	532.75
302.209	534.75
302.439	591.75
302.669	600.75
302.9	536.75
303.13	507.75
303.36	508.75
303.59	506.75
303.82	511.75
304.051	502.75
304.281	508.75
304.511	557.75
304.741	568.75
304.971	617.75
305.201	630.75
305.431	550.75
305.661	459.75
305.891	454.75
306.121	436.75
306.352	473.75
306.582	507.75
306.812	535.75
307.042	560.75
307.272	552.75
307.502	589.75
307.731	626.75
307.961	627.75
308.191	560.75
308.421	522.75
308.651	504.75
308.881	492.75
309.111	506.75
309.341	483.75
309.571	481.75
309.8	489.75
310.03	489.75
310.26	503.75
310.49	488.75
310.72	526.75
310.949	532.75
311.179	523.75
311.409	492.75
311.639	516.75
311.868	494.75
312.098	516.75
312.328	511.75
312.557	517.75
312.787	537.75
313.017	506.75
313.246	534.75
313.476	515.75
313.706	508.75
313.935	534.75
314.165	524.75
314.394	570.75
314.624	608.75
314.853	595.75
315.083	640.75
315.312	630.75
315.542	570.75
315.771	526.75
316.001	554.75
316.23	578.75
316.46	584.75
316.689	548.75
316.919	504.75
317.148	518.75
317.377	545.75
317.607	592.75
317.836	636.75
318.065	620.75
318.295	581.75
318.524	600.75
318.753	581.75
318.983	571.75
319.212	542.75
319.441	528.75
319.67	558.75
319.9	566.75
320.129	595.75
320.358	587.75
320.587	603.75
320.816	616.75
321.046	601.75
321.275	560.75
321.504	601.75
321.733	625.75
321.962	594.75
322.191	587.75
322.42	544.75
322.649	528.75
322.878	535.75
323.108	567.75
323.337	586.75
323.566	603.75
323.795	573.75
324.024	574.75
324.253	553.75
324.482	543.75
324.71	530.75
324.939	523.75
325.168	549.75
325.397	580.75
325.626	589.75
325.855	566.75
326.084	550.75
326.313	564.75
326.542	578.75
326.77	562.75
326.999	585.75
327.228	563.75
327.457	518.75
327.686	548.75
327.914	552.75
328.143	578.75
328.372	558.75
328.6	568.75
328.829	560.75
329.058	522.75
329.287	555.75
329.515	560.75
329.744	580.75
329.972	599.75
330.201	618.75
330.43	645.75
330.658	596.75
330.887	613.75
331.115	566.75
331.344	600.75
331.572	598.75
331.801	600.75
332.03	592.75
332.258	591.75
332.486	602.75
332.715	611.75
332.943	584.75
333.172	608.75
333.4	599.75
333.629	627.75
333.857	651.75
334.085	732.75
334.314	811.75
334.542	837.75
334.771	758.75
334.999	686.75
335.227	662.75
335.455	626.75
335.684	606.75
335.912	644.75
336.14	644.75
336.369	634.75
336.597	594.75
336.825	606.75
337.053	631.75
337.281	658.75
337.51	673.75
337.738	714.75
337.966	656.75
338.194	610.75
338.422	619.75
338.65	612.75
338.878	592.75
339.106	578.75
339.334	556.75
339.562	554.75
339.79	599.75
340.018	612.75
340.246	610.75
340.474	629.75
340.702	624.75
340.93	622.75
341.158	606.75
341.386	602.75
341.614	602.75
341.842	575.75
342.07	601.75
342.298	585.75
342.526	609.75
342.754	608.75
342.981	584.75
343.209	594.75
343.437	575.75
343.665	600.75
343.893	631.75
344.12	638.75
344.348	631.75
344.576	603.75
344.804	600.75
345.031	582.75
345.259	592.75
345.487	582.75
345.714	563.75
345.942	534.75
346.17	564.75
346.397	568.75
346.625	589.75
346.853	551.75
347.08	549.75
347.308	538.75
347.535	572.75
347.763	546.75
347.99	574.75
348.218	558.75
348.445	579.75
348.673	594.75
348.9	560.75
349.128	615.75
349.355	618.75
349.583	608.75
349.81	550.75
350.037	531.75
350.265	538.75
350.492	543.75
350.72	559.75
350.947	558.75
351.174	581.75
351.402	535.75
351.629	541.75
351.856	519.75
352.083	536.75
352.311	563.75
352.538	558.75
352.765	576.75
352.992	578.75
353.22	564.75
353.447	561.75
353.674	562.75
353.901	555.75
354.128	558.75
354.355	554.75
354.583	580.75
354.81	591.75
355.037	586.75
355.264	591.75
355.491	590.75
355.718	570.75
355.945	586.75
356.172	550.75
356.399	542.75
356.626	538.75
356.853	594.75
357.08	638.75
357.307	676.75
357.534	662.75
357.761	571.75
357.988	535.75
358.215	550.75
358.441	540.75
358.668	519.75
358.895	551.75
359.122	604.75
359.349	636.75
359.576	627.75
359.802	569.75
360.029	549.75
360.256	544.75
360.483	582.75
360.709	581.75
360.936	587.75
361.163	629.75
361.39	694.75
361.616	712.75
361.843	723.75
362.07	640.75
362.296	581.75
362.523	548.75
362.749	566.75
362.976	580.75
363.203	570.75
363.429	571.75
363.656	545.75
363.882	578.75
364.109	656.75
364.335	679.75
364.562	625.75
364.788	587.75
365.015	569.75
365.241	546.75
365.468	595.75
365.694	599.75
365.92	610.75
366.147	587.75
366.373	579.75
366.599	565.75
366.826	586.75
367.052	584.75
367.278	560.75
367.505	587.75
367.731	605.75
367.957	608.75
368.184	635.75
368.41	641.75
368.636	659.75
368.862	686.75
369.089	651.75
369.315	650.75
369.541	610.75
369.767	594.75
369.993	569.75
370.219	569.75
370.445	619.75
370.672	641.75
370.898	672.75
371.124	647.75
371.35	628.75
371.576	643.75
371.802	630.75
372.028	630.75
372.254	622.75
372.48	592.75
372.706	606.75
372.932	606.75
373.158	586.75
373.384	615.75
373.61	629.75
373.835	682.75
374.061	602.75
374.287	627.75
374.513	639.75
374.739	632.75
374.965	645.75
375.191	625.75
375.416	662.75
375.642	661.75
375.868	704.75
376.094	724.75
376.319	670.75
376.545	648.75
376.771	652.75
376.997	672.75
377.222	679.75
377.448	667.75
377.674	657.75
377.899	680.75
378.125	736.75
378.35	666.75
378.576	672.75
378.802	608.75
379.027	619.75
379.253	646.75
379.478	602.75
379.704	635.75
379.929	636.75
380.155	639.75
380.38	638.75
380.606	626.75
380.831	672.75
381.057	679.75
381.282	706.75
381.507	701.75
381.733	734.75
381.958	753.75
382.184	704.75
382.409	667.75
382.634	672.75
382.86	670.75
383.085	677.75
383.31	733.75
383.535	791.75
383.761	806.75
383.986	759.75
384.211	715.75
384.436	730.75
384.662	765.75
384.887	778.75
385.112	713.75
385.337	739.75
385.562	726.75
385.787	739.75
386.013	750.75
386.238	740.75
386.463	791.75
386.688	832.75
386.913	855.75
387.138	823.75
387.363	785.75
387.588	758.75
387.813	748.75
388.038	807.75
388.263	816.75
388.488	751.75
388.713	701.75
388.938	716.75
389.163	736.75
389.387	719.75
389.612	737.75
389.837	752.75
390.062	746.75
390.287	770.75
390.512	746.75
390.736	732.75
390.961	724.75
391.186	722.75
391.411	733.75
391.636	724.75
391.86	732.75
392.085	730.75
392.31	757.75
392.534	744.75
392.759	764.75
392.984	758.75
393.208	772.75
393.433	776.75
393.658	790.75
393.882	826.75
394.107	780.75
394.331	777.75
394.556	759.75
394.78	786.75
395.005	803.75
395.229	818.75
395.454	872.75
395.678	849.75
395.903	827.75
396.127	808.75
396.352	805.75
396.576	837.75
396.801	835.75
397.025	825.75
397.249	841.75
397.474	825.75
397.698	812.75
397.922	853.75
398.147	867.75
398.371	927.75
398.595	912.75
398.82	865.75
399.044	869.75
399.268	908.75
399.492	951.75
399.717	986.75
399.941	965.75
400.165	971.75
400.389	955.75
400.613	990.75
400.837	1104.75
401.062	1177.75
401.286	986.75
401.51	1007.75
401.734	975.75
401.958	963.75
402.182	904.75
402.406	867.75
402.63	882.75
402.854	886.75
403.078	880.75
403.302	929.75
403.526	916.75
403.75	922.75
403.974	934.75
404.198	905.75
404.422	974.75
404.645	1031.75
404.869	965.75
405.093	923.75
405.317	884.75
405.541	908.75
405.765	924.75
405.988	918.75
406.212	950.75
406.436	978.75
406.66	991.75
406.883	1043.75
407.107	1122.75
407.331	1198.75
407.555	1284.75
407.778	1106.75
408.002	999.75
408.226	968.75
408.449	966.75
408.673	942.75
408.896	952.75
409.12	929.75
409.344	940.75
409.567	920.75
409.791	933.75
410.014	966.75
410.238	1027.75
410.461	1028.75
410.685	950.75
410.908	904.75
411.132	952.75
411.355	915.75
411.578	930.75
411.802	919.75
412.025	933.75
412.249	923.75
412.472	909.75
412.695	906.75
412.919	890.75
413.142	895.75
413.365	896.75
413.589	939.75
413.812	977.75
414.035	1001.75
414.258	953.75
414.482	931.75
414.705	906.75
414.928	902.75
415.151	907.75
415.374	906.75
415.597	930.75
415.821	939.75
416.044	939.75
416.267	962.75
416.49	889.75
416.713	926.75
416.936	974.75
417.159	992.75
417.382	971.75
417.605	924.75
417.828	947.75
418.051	958.75
418.274	961.75
418.497	927.75
418.72	934.75
418.943	911.75
419.166	926.75
419.389	983.75
419.611	958.75
419.834	932.75
420.057	938.75
420.28	936.75
420.503	911.75
420.726	932.75
420.948	923.75
421.171	922.75
421.394	937.75
421.617	949.75
421.839	970.75
422.062	954.75
422.285	942.75
422.507	938.75
422.73	891.75
422.953	899.75
423.175	875.75
423.398	902.75
423.621	892.75
423.843	952.75
424.066	952.75
424.288	1013.75
424.511	1047.75
424.733	996.75
424.956	908.75
425.178	923.75
425.401	922.75
425.623	946.75
425.846	909.75
426.068	956.75
426.291	967.75
426.513	939.75
426.735	975.75
426.958	1058.75
427.18	1078.75
427.402	982.75
427.625	1006.75
427.847	959.75
428.069	936.75
428.292	909.75
428.514	914.75
428.736	880.75
428.958	892.75
429.181	923.75
429.403	1067.75
429.625	1235.75
429.847	1058.75
430.069	966.75
430.292	1027.75
430.514	1025.75
430.736	995.75
430.958	960.75
431.18	943.75
431.402	890.75
431.624	848.75
431.846	786.75
432.068	726.75
432.29	741.75
432.512	814.75
432.734	878.75
432.956	927.75
433.178	960.75
433.4	955.75
433.622	926.75
433.844	886.75
434.066	811.75
434.287	790.75
434.509	782.75
434.731	814.75
434.953	895.75
435.175	926.75
435.397	900.75
435.618	859.75
435.84	860.75
436.062	843.75
436.284	924.75
436.505	920.75
436.727	922.75
436.949	900.75
437.17	894.75
437.392	897.75
437.614	837.75
437.835	809.75
438.057	816.75
438.278	859.75
438.5	844.75
438.721	890.75
438.943	920.75
439.165	928.75
439.386	940.75
439.608	932.75
439.829	930.75
440.05	968.75
440.272	917.75
440.493	948.75
440.715	947.75
440.936	1027.75
441.158	1042.75
441.379	1030.75
441.6	1042.75
441.822	990.75
442.043	999.75
442.264	973.75
442.486	948.75
442.707	952.75
442.928	955.75
443.149	969.75
443.371	977.75
443.592	1017.75
443.813	1018.75
444.034	998.75
444.255	1011.75
444.476	1047.75
444.698	1036.75
444.919	1023.75
445.14	1134.75
445.361	1066.75
445.582	1094.75
445.803	1068.75
446.024	1034.75
446.245	1082.75
446.466	1044.75
446.687	1062.75
446.908	1036.75
447.129	996.75
447.35	987.75
447.571	1020.75
447.792	953.75
448.013	977.75
448.234	980.75
448.455	1007.75
448.675	980.75
448.896	918.75
449.117	896.75
449.338	926.75
449.559	937.75
449.779	970.75
450	1012.75
450.221	1049.75
450.442	1017.75
450.662	929.75
450.883	885.75
451.104	879.75
451.324	871.75
451.545	880.75
451.766	866.75
451.986	843.75
452.207	843.75
452.428	787.75
452.648	796.75
452.869	772.75
453.089	801.75
453.31	764.75
453.53	750.75
453.751	715.75
453.971	695.75
454.192	749.75
454.412	782.75
454.633	775.75
454.853	762.75
455.073	739.75
455.294	783.75
455.514	775.75
455.734	776.75
455.955	759.75
456.175	745.75
456.395	742.75
456.616	728.75
456.836	742.75
457.056	738.75
457.276	736.75
457.497	683.75
457.717	687.75
457.937	727.75
458.157	708.75
458.377	685.75
458.598	724.75
458.818	662.75
459.038	698.75
459.258	711.75
459.478	714.75
459.698	687.75
459.918	745.75
460.138	797.75
460.358	828.75
460.578	853.75
460.798	855.75
461.018	881.75
461.238	884.75
461.458	833.75
461.678	823.75
461.898	827.75
462.118	830.75
462.338	838.75
462.558	832.75
462.777	843.75
462.997	882.75
463.217	866.75
463.437	842.75
463.657	829.75
463.876	831.75
464.096	834.75
464.316	858.75
464.536	875.75
464.755	876.75
464.975	873.75
465.195	858.75
465.414	897.75
465.634	884.75
465.854	873.75
466.073	974.75
466.293	904.75
466.512	856.75
466.732	886.75
466.951	890.75
467.171	899.75
467.391	874.75
467.61	902.75
467.829	889.75
468.049	991.75
468.268	1047.75
468.488	937.75
468.707	910.75
468.927	922.75
469.146	883.75
469.365	912.75
469.585	922.75
469.804	922.75
470.023	930.75
470.243	932.75
470.462	932.75
470.681	895.75
470.901	915.75
471.12	925.75
471.339	943.75
471.558	910.75
471.777	880.75
471.997	890.75
472.216	839.75
472.435	784.75
472.654	758.75
472.873	779.75
473.092	815.75
473.311	825.75
473.53	797.75
473.749	815.75
473.968	830.75
474.187	845.75
474.406	816.75
474.625	852.75
474.844	851.75
475.063	898.75
475.282	863.75
475.501	826.75
475.72	852.75
475.939	891.75
476.158	862.75
476.377	864.75
476.596	839.75
476.814	818.75
477.033	782.75
477.252	853.75
477.471	928.75
477.69	916.75
477.908	928.75
478.127	958.75
478.346	1008.75
478.564	989.75
478.783	997.75
479.002	1022.75
479.22	998.75
479.439	1024.75
479.658	1056.75
479.876	1010.75
480.095	901.75
480.313	890.75
480.532	882.75
480.751	863.75
480.969	840.75
481.188	791.75
481.406	789.75
481.624	763.75
481.843	805.75
482.061	807.75
482.28	862.75
482.498	902.75
482.717	850.75
482.935	866.75
483.153	988.75
483.372	1020.75
483.59	972.75
483.808	965.75
484.027	946.75
484.245	986.75
484.463	1206.75
484.681	1272.75
484.9	1039.75
485.118	974.75
485.336	954.75
485.554	905.75
485.772	895.75
485.99	874.75
486.209	920.75
486.427	930.75
486.645	957.75
486.863	1004.75
487.081	1034.75
487.299	1030.75
487.517	1011.75
487.735	1134.75
487.953	1206.75
488.171	1179.75
488.389	1148.75
488.607	1071.75
488.825	1114.75
489.043	1051.75
489.261	973.75
489.479	1052.75
489.696	1046.75
489.914	1041.75
490.132	1033.75
490.35	1091.75
490.568	1172.75
490.786	1193.75
491.003	1165.75
491.221	1258.75
491.439	1269.75
491.657	1288.75
491.874	1379.75
492.092	1447.75
492.31	1492.75
492.527	1446.75
492.745	1344.75
492.963	1292.75
493.18	1311.75
493.398	1317.75
493.615	1290.75
493.833	1254.75
494.05	1202.75
494.268	1250.75
494.485	1245.75
494.703	1231.75
494.92	1248.75
495.138	1192.75
495.355	1226.75
495.573	1230.75
495.79	1264.75
496.008	1262.75
496.225	1222.75
496.442	1230.75
496.66	1255.75
496.877	1245.75
497.094	1234.75
497.312	1216.75
497.529	1182.75
497.746	1202.75
497.963	1295.75
498.181	1302.75
498.398	1264.75
498.615	1195.75
498.832	1146.75
499.049	1147.75
499.267	1186.75
499.484	1254.75
499.701	1323.75
499.918	1362.75
500.135	1472.75
500.352	1570.75
