Data from WStandard_LampEnergy8_LIBS07252019.E.O._I.C._HRD10591_15-59-51-930.txt Node
Date: Thu Jul 25 15:59:51 EDT 2019
User: cochatt
Spectrometer: HR+D1059
Trigger mode: 1
Integration Time (sec): 1.000000E-1
Scans to average: 1
Electric dark correction enabled: true
Nonlinearity correction enabled: false
Boxcar width: 0
XAxis mode: Wavelengths
Number of Pixels in Spectrum: 2048
>>>>>Begin Spectral Data<<<<<
223.165	-11.19
223.4	-11.19
223.635	-11.19
223.869	-29.19
224.104	-7.19
224.338	-26.19
224.573	-26.19
224.808	-14.19
225.042	-4.19
225.277	-1.19
225.511	-4.19
225.746	3.81
225.98	-1.19
226.215	19.81
226.449	21.81
226.683	25.81
226.918	23.81
227.152	29.81
227.387	32.81
227.621	38.81
227.856	46.81
228.09	47.81
228.324	58.81
228.559	46.81
228.793	109.81
229.027	188.81
229.262	219.81
229.496	217.81
229.73	210.81
229.964	249.81
230.199	243.81
230.433	247.81
230.667	274.81
230.901	278.81
231.136	280.81
231.37	261.81
231.604	245.81
231.838	262.81
232.072	258.81
232.306	250.81
232.541	289.81
232.775	317.81
233.009	325.81
233.243	311.81
233.477	293.81
233.711	288.81
233.945	311.81
234.179	285.81
234.413	324.81
234.647	328.81
234.881	305.81
235.115	301.81
235.349	299.81
235.583	304.81
235.817	296.81
236.051	295.81
236.285	285.81
236.519	316.81
236.753	353.81
236.987	356.81
237.221	354.81
237.455	389.81
237.689	377.81
237.922	337.81
238.156	351.81
238.39	373.81
238.624	383.81
238.858	385.81
239.091	397.81
239.325	426.81
239.559	462.81
239.793	488.81
240.027	509.81
240.26	487.81
240.494	397.81
240.728	346.81
240.961	380.81
241.195	386.81
241.429	416.81
241.662	404.81
241.896	397.81
242.13	377.81
242.363	434.81
242.597	449.81
242.83	458.81
243.064	450.81
243.298	469.81
243.531	482.81
243.765	482.81
243.998	471.81
244.232	411.81
244.465	392.81
244.699	398.81
244.932	456.81
245.166	511.81
245.399	469.81
245.633	456.81
245.866	445.81
246.099	477.81
246.333	479.81
246.566	485.81
246.8	539.81
247.033	565.81
247.266	547.81
247.5	528.81
247.733	546.81
247.966	564.81
248.2	610.81
248.433	576.81
248.666	610.81
248.899	659.81
249.133	706.81
249.366	789.81
249.599	665.81
249.832	606.81
250.066	632.81
250.299	616.81
250.532	591.81
250.765	553.81
250.998	552.81
251.231	592.81
251.465	597.81
251.698	594.81
251.931	592.81
252.164	587.81
252.397	604.81
252.63	573.81
252.863	538.81
253.096	519.81
253.329	565.81
253.562	584.81
253.795	621.81
254.028	577.81
254.261	569.81
254.494	564.81
254.727	553.81
254.96	590.81
255.193	610.81
255.426	693.81
255.659	810.81
255.892	777.81
256.124	698.81
256.357	643.81
256.59	651.81
256.823	685.81
257.056	704.81
257.289	820.81
257.521	884.81
257.754	779.81
257.987	781.81
258.22	823.81
258.452	781.81
258.685	691.81
258.918	641.81
259.151	665.81
259.383	640.81
259.616	586.81
259.849	642.81
260.081	689.81
260.314	734.81
260.547	798.81
260.779	829.81
261.012	771.81
261.244	705.81
261.477	663.81
261.71	691.81
261.942	672.81
262.175	659.81
262.407	701.81
262.64	657.81
262.872	648.81
263.105	612.81
263.337	616.81
263.57	634.81
263.802	627.81
264.035	602.81
264.267	573.81
264.499	567.81
264.732	610.81
264.964	639.81
265.197	685.81
265.429	701.81
265.661	753.81
265.894	846.81
266.126	844.81
266.358	774.81
266.591	795.81
266.823	843.81
267.055	773.81
267.287	774.81
267.52	740.81
267.752	735.81
267.984	762.81
268.216	778.81
268.448	807.81
268.681	779.81
268.913	726.81
269.145	693.81
269.377	685.81
269.609	766.81
269.841	859.81
270.073	976.81
270.306	1089.81
270.538	1091.81
270.77	961.81
271.002	840.81
271.234	798.81
271.466	797.81
271.698	931.81
271.93	1033.81
272.162	1047.81
272.394	932.81
272.626	874.81
272.858	819.81
273.09	699.81
273.322	706.81
273.553	688.81
273.785	665.81
274.017	698.81
274.249	756.81
274.481	767.81
274.713	695.81
274.945	708.81
275.176	695.81
275.408	686.81
275.64	685.81
275.872	697.81
276.104	744.81
276.335	843.81
276.567	890.81
276.799	881.81
277.031	852.81
277.262	813.81
277.494	817.81
277.726	881.81
277.957	869.81
278.189	811.81
278.421	755.81
278.652	748.81
278.884	732.81
279.115	715.81
279.347	748.81
279.579	729.81
279.81	738.81
280.042	791.81
280.273	852.81
280.505	892.81
280.736	903.81
280.968	815.81
281.199	742.81
281.431	723.81
281.662	713.81
281.894	719.81
282.125	742.81
282.356	781.81
282.588	771.81
282.819	766.81
283.051	800.81
283.282	878.81
283.513	837.81
283.745	748.81
283.976	733.81
284.207	705.81
284.439	722.81
284.67	743.81
284.901	780.81
285.132	787.81
285.364	769.81
285.595	780.81
285.826	765.81
286.057	753.81
286.288	748.81
286.52	801.81
286.751	849.81
286.982	863.81
287.213	779.81
287.444	711.81
287.675	746.81
287.906	808.81
288.138	821.81
288.369	778.81
288.6	763.81
288.831	762.81
289.062	757.81
289.293	728.81
289.524	797.81
289.755	821.81
289.986	798.81
290.217	766.81
290.448	758.81
290.679	801.81
290.91	767.81
291.141	817.81
291.371	844.81
291.602	819.81
291.833	805.81
292.064	840.81
292.295	820.81
292.526	821.81
292.757	836.81
292.987	840.81
293.218	787.81
293.449	858.81
293.68	949.81
293.91	1004.81
294.141	939.81
294.372	892.81
294.603	963.81
294.833	970.81
295.064	923.81
295.295	821.81
295.525	799.81
295.756	745.81
295.987	742.81
296.217	744.81
296.448	758.81
296.679	764.81
296.909	774.81
297.14	786.81
297.37	787.81
297.601	833.81
297.831	899.81
298.062	861.81
298.292	828.81
298.523	794.81
298.753	794.81
298.984	793.81
299.214	778.81
299.445	804.81
299.675	844.81
299.905	831.81
300.136	807.81
300.366	756.81
300.597	751.81
300.827	778.81
301.057	825.81
301.288	858.81
301.518	855.81
301.748	893.81
301.979	929.81
302.209	955.81
302.439	961.81
302.669	1005.81
302.9	957.81
303.13	845.81
303.36	840.81
303.59	874.81
303.82	848.81
304.051	855.81
304.281	862.81
304.511	887.81
304.741	933.81
304.971	1023.81
305.201	1059.81
305.431	970.81
305.661	817.81
305.891	737.81
306.121	766.81
306.352	776.81
306.582	849.81
306.812	899.81
307.042	954.81
307.272	950.81
307.502	990.81
307.731	1032.81
307.961	1103.81
308.191	972.81
308.421	899.81
308.651	864.81
308.881	826.81
309.111	815.81
309.341	797.81
309.571	860.81
309.8	833.81
310.03	830.81
310.26	821.81
310.49	821.81
310.72	830.81
310.949	869.81
311.179	851.81
311.409	846.81
311.639	859.81
311.868	845.81
312.098	845.81
312.328	825.81
312.557	830.81
312.787	858.81
313.017	874.81
313.246	884.81
313.476	859.81
313.706	881.81
313.935	881.81
314.165	910.81
314.394	918.81
314.624	996.81
314.853	992.81
315.083	1032.81
315.312	1051.81
315.542	982.81
315.771	917.81
316.001	909.81
316.23	947.81
316.46	951.81
316.689	906.81
316.919	880.81
317.148	861.81
317.377	870.81
317.607	950.81
317.836	1051.81
318.065	1042.81
318.295	1045.81
318.524	980.81
318.753	948.81
318.983	931.81
319.212	910.81
319.441	899.81
319.67	923.81
319.9	935.81
320.129	1023.81
320.358	1011.81
320.587	1013.81
320.816	1010.81
321.046	1002.81
321.275	933.81
321.504	970.81
321.733	1059.81
321.962	1022.81
322.191	931.81
322.42	926.81
322.649	915.81
322.878	923.81
323.108	908.81
323.337	998.81
323.566	955.81
323.795	924.81
324.024	949.81
324.253	908.81
324.482	934.81
324.71	923.81
324.939	851.81
325.168	892.81
325.397	923.81
325.626	947.81
325.855	937.81
326.084	917.81
326.313	907.81
326.542	941.81
326.77	951.81
326.999	976.81
327.228	916.81
327.457	897.81
327.686	901.81
327.914	904.81
328.143	933.81
328.372	923.81
328.6	941.81
328.829	922.81
329.058	875.81
329.287	879.81
329.515	930.81
329.744	953.81
329.972	995.81
330.201	1016.81
330.43	987.81
330.658	995.81
330.887	983.81
331.115	1001.81
331.344	995.81
331.572	970.81
331.801	987.81
332.03	982.81
332.258	974.81
332.486	980.81
332.715	1031.81
332.943	1009.81
333.172	1004.81
333.4	981.81
333.629	1021.81
333.857	1124.81
334.085	1225.81
334.314	1356.81
334.542	1458.81
334.771	1311.81
334.999	1147.81
335.227	1102.81
335.455	1038.81
335.684	1058.81
335.912	1099.81
336.14	1091.81
336.369	1057.81
336.597	1034.81
336.825	1019.81
337.053	1050.81
337.281	1090.81
337.51	1111.81
337.738	1150.81
337.966	1097.81
338.194	991.81
338.422	972.81
338.65	975.81
338.878	966.81
339.106	945.81
339.334	935.81
339.562	922.81
339.79	969.81
340.018	1038.81
340.246	1044.81
340.474	1038.81
340.702	1006.81
340.93	1062.81
341.158	1006.81
341.386	968.81
341.614	1001.81
341.842	984.81
342.07	989.81
342.298	983.81
342.526	1000.81
342.754	978.81
342.981	977.81
343.209	984.81
343.437	966.81
343.665	977.81
343.893	1037.81
344.12	1077.81
344.348	1037.81
344.576	1006.81
344.804	932.81
345.031	954.81
345.259	978.81
345.487	956.81
345.714	909.81
345.942	919.81
346.17	917.81
346.397	954.81
346.625	933.81
346.853	882.81
347.08	872.81
347.308	903.81
347.535	917.81
347.763	962.81
347.99	895.81
348.218	896.81
348.445	901.81
348.673	908.81
348.9	950.81
349.128	990.81
349.355	989.81
349.583	969.81
349.81	940.81
350.037	860.81
350.265	868.81
350.492	886.81
350.72	901.81
350.947	924.81
351.174	940.81
351.402	920.81
351.629	850.81
351.856	845.81
352.083	882.81
352.311	873.81
352.538	927.81
352.765	929.81
352.992	929.81
353.22	916.81
353.447	895.81
353.674	885.81
353.901	931.81
354.128	895.81
354.355	906.81
354.583	950.81
354.81	947.81
355.037	968.81
355.264	950.81
355.491	921.81
355.718	918.81
355.945	897.81
356.172	921.81
356.399	889.81
356.626	886.81
356.853	927.81
357.08	1027.81
357.307	1071.81
357.534	1077.81
357.761	938.81
357.988	866.81
358.215	852.81
358.441	885.81
358.668	886.81
358.895	882.81
359.122	1010.81
359.349	1040.81
359.576	1003.81
359.802	927.81
360.029	895.81
360.256	891.81
360.483	894.81
360.709	971.81
360.936	968.81
361.163	991.81
361.39	1091.81
361.616	1159.81
361.843	1119.81
362.07	1045.81
362.296	931.81
362.523	910.81
362.749	904.81
362.976	937.81
363.203	971.81
363.429	918.81
363.656	890.81
363.882	945.81
364.109	1023.81
364.335	1095.81
364.562	1042.81
364.788	949.81
365.015	893.81
365.241	909.81
365.468	946.81
365.694	992.81
365.92	981.81
366.147	953.81
366.373	922.81
366.599	901.81
366.826	897.81
367.052	881.81
367.278	916.81
367.505	940.81
367.731	962.81
367.957	959.81
368.184	982.81
368.41	1060.81
368.636	1039.81
368.862	1064.81
369.089	1058.81
369.315	1000.81
369.541	1000.81
369.767	949.81
369.993	922.81
370.219	938.81
370.445	957.81
370.672	1021.81
370.898	1059.81
371.124	1019.81
371.35	986.81
371.576	1043.81
371.802	1052.81
372.028	986.81
372.254	965.81
372.48	950.81
372.706	945.81
372.932	937.81
373.158	949.81
373.384	957.81
373.61	1013.81
373.835	1064.81
374.061	998.81
374.287	979.81
374.513	1000.81
374.739	991.81
374.965	1024.81
375.191	981.81
375.416	1013.81
375.642	1034.81
375.868	1101.81
376.094	1129.81
376.319	1052.81
376.545	1003.81
376.771	1034.81
376.997	1070.81
377.222	1038.81
377.448	1027.81
377.674	1039.81
377.899	1054.81
378.125	1099.81
378.35	1070.81
378.576	1006.81
378.802	959.81
379.027	970.81
379.253	1000.81
379.478	983.81
379.704	978.81
379.929	979.81
380.155	1004.81
380.38	1016.81
380.606	1013.81
380.831	988.81
381.057	1047.81
381.282	1063.81
381.507	1013.81
381.733	1114.81
381.958	1126.81
382.184	1031.81
382.409	1055.81
382.634	1036.81
382.86	1019.81
383.085	1036.81
383.31	1103.81
383.535	1207.81
383.761	1229.81
383.986	1145.81
384.211	1087.81
384.436	1122.81
384.662	1155.81
384.887	1177.81
385.112	1144.81
385.337	1129.81
385.562	1132.81
385.787	1144.81
386.013	1145.81
386.238	1134.81
386.463	1174.81
386.688	1234.81
386.913	1310.81
387.138	1247.81
387.363	1184.81
387.588	1163.81
387.813	1149.81
388.038	1149.81
388.263	1202.81
388.488	1152.81
388.713	1084.81
388.938	1097.81
389.163	1101.81
389.387	1139.81
389.612	1108.81
389.837	1157.81
390.062	1154.81
390.287	1115.81
390.512	1102.81
390.736	1126.81
390.961	1101.81
391.186	1086.81
391.411	1099.81
391.636	1116.81
391.86	1126.81
392.085	1165.81
392.31	1114.81
392.534	1129.81
392.759	1124.81
392.984	1123.81
393.208	1158.81
393.433	1167.81
393.658	1217.81
393.882	1221.81
394.107	1163.81
394.331	1146.81
394.556	1121.81
394.78	1168.81
395.005	1231.81
395.229	1257.81
395.454	1315.81
395.678	1292.81
395.903	1238.81
396.127	1201.81
396.352	1233.81
396.576	1243.81
396.801	1249.81
397.025	1234.81
397.249	1252.81
397.474	1206.81
397.698	1178.81
397.922	1277.81
398.147	1311.81
398.371	1342.81
398.595	1361.81
398.82	1306.81
399.044	1308.81
399.268	1356.81
399.492	1423.81
399.717	1506.81
399.941	1514.81
400.165	1474.81
400.389	1439.81
400.613	1466.81
400.837	1683.81
401.062	1836.81
401.286	1537.81
401.51	1410.81
401.734	1464.81
401.958	1409.81
402.182	1255.81
402.406	1287.81
402.63	1267.81
402.854	1303.81
403.078	1304.81
403.302	1338.81
403.526	1320.81
403.75	1354.81
403.974	1341.81
404.198	1323.81
404.422	1401.81
404.645	1459.81
404.869	1422.81
405.093	1322.81
405.317	1296.81
405.541	1365.81
405.765	1372.81
405.988	1333.81
406.212	1393.81
406.436	1404.81
406.66	1475.81
406.883	1466.81
407.107	1687.81
407.331	1789.81
407.555	1873.81
407.778	1655.81
408.002	1428.81
408.226	1419.81
408.449	1405.81
408.673	1349.81
408.896	1367.81
409.12	1399.81
409.344	1387.81
409.567	1366.81
409.791	1394.81
410.014	1388.81
410.238	1442.81
410.461	1519.81
410.685	1384.81
410.908	1355.81
411.132	1369.81
411.355	1341.81
411.578	1319.81
411.802	1338.81
412.025	1342.81
412.249	1342.81
412.472	1313.81
412.695	1301.81
412.919	1325.81
413.142	1300.81
413.365	1284.81
413.589	1357.81
413.812	1412.81
414.035	1439.81
414.258	1306.81
414.482	1292.81
414.705	1312.81
414.928	1297.81
415.151	1261.81
415.374	1288.81
415.597	1328.81
415.821	1352.81
416.044	1338.81
416.267	1324.81
416.49	1322.81
416.713	1257.81
416.936	1343.81
417.159	1361.81
417.382	1351.81
417.605	1255.81
417.828	1327.81
418.051	1340.81
418.274	1276.81
418.497	1259.81
418.72	1274.81
418.943	1276.81
419.166	1322.81
419.389	1339.81
419.611	1320.81
419.834	1281.81
420.057	1301.81
420.28	1290.81
420.503	1277.81
420.726	1315.81
420.948	1316.81
421.171	1245.81
421.394	1268.81
421.617	1338.81
421.839	1342.81
422.062	1304.81
422.285	1249.81
422.507	1259.81
422.73	1274.81
422.953	1192.81
423.175	1225.81
423.398	1270.81
423.621	1293.81
423.843	1265.81
424.066	1292.81
424.288	1377.81
424.511	1420.81
424.733	1359.81
424.956	1261.81
425.178	1219.81
425.401	1270.81
425.623	1249.81
425.846	1259.81
426.068	1307.81
426.291	1350.81
426.513	1329.81
426.735	1306.81
426.958	1441.81
427.18	1465.81
427.402	1393.81
427.625	1426.81
427.847	1366.81
428.069	1286.81
428.292	1287.81
428.514	1210.81
428.736	1220.81
428.958	1225.81
429.181	1262.81
429.403	1478.81
429.625	1728.81
429.847	1440.81
430.069	1319.81
430.292	1454.81
430.514	1444.81
430.736	1362.81
430.958	1339.81
431.18	1286.81
431.402	1233.81
431.624	1173.81
431.846	1170.81
432.068	1122.81
432.29	1152.81
432.512	1173.81
432.734	1265.81
432.956	1286.81
433.178	1345.81
433.4	1305.81
433.622	1309.81
433.844	1234.81
434.066	1197.81
434.287	1190.81
434.509	1198.81
434.731	1271.81
434.953	1383.81
435.175	1333.81
435.397	1262.81
435.618	1271.81
435.84	1258.81
436.062	1260.81
436.284	1284.81
436.505	1313.81
436.727	1296.81
436.949	1227.81
437.17	1233.81
437.392	1242.81
437.614	1218.81
437.835	1170.81
438.057	1237.81
438.278	1241.81
438.5	1210.81
438.721	1189.81
438.943	1243.81
439.165	1224.81
439.386	1230.81
439.608	1250.81
439.829	1270.81
440.05	1251.81
440.272	1278.81
440.493	1223.81
440.715	1262.81
440.936	1360.81
441.158	1436.81
441.379	1374.81
441.6	1356.81
441.822	1352.81
442.043	1323.81
442.264	1341.81
442.486	1251.81
442.707	1297.81
442.928	1255.81
443.149	1286.81
443.371	1365.81
443.592	1399.81
443.813	1399.81
444.034	1379.81
444.255	1333.81
444.476	1372.81
444.698	1390.81
444.919	1397.81
445.14	1518.81
445.361	1465.81
445.582	1462.81
445.803	1405.81
446.024	1343.81
446.245	1406.81
446.466	1354.81
446.687	1305.81
446.908	1309.81
447.129	1320.81
447.35	1307.81
447.571	1303.81
447.792	1226.81
448.013	1245.81
448.234	1299.81
448.455	1286.81
448.675	1311.81
448.896	1194.81
449.117	1214.81
449.338	1205.81
449.559	1241.81
449.779	1323.81
450	1418.81
450.221	1478.81
450.442	1396.81
450.662	1309.81
450.883	1181.81
451.104	1164.81
451.324	1192.81
451.545	1175.81
451.766	1169.81
451.986	1121.81
452.207	1146.81
452.428	1109.81
452.648	1102.81
452.869	1121.81
453.089	1143.81
453.31	1131.81
453.53	1178.81
453.751	1113.81
453.971	1070.81
454.192	1081.81
454.412	1137.81
454.633	1145.81
454.853	1088.81
455.073	1053.81
455.294	1077.81
455.514	1046.81
455.734	1064.81
455.955	1071.81
456.175	1060.81
456.395	1062.81
456.616	1102.81
456.836	1108.81
457.056	1091.81
457.276	1098.81
457.497	1026.81
457.717	1010.81
457.937	1062.81
458.157	1077.81
458.377	1065.81
458.598	1053.81
458.818	1085.81
459.038	1122.81
459.258	1136.81
459.478	1089.81
459.698	1109.81
459.918	1129.81
460.138	1222.81
460.358	1229.81
460.578	1229.81
460.798	1268.81
461.018	1280.81
461.238	1317.81
461.458	1253.81
461.678	1226.81
461.898	1214.81
462.118	1183.81
462.338	1239.81
462.558	1265.81
462.777	1287.81
462.997	1321.81
463.217	1351.81
463.437	1376.81
463.657	1261.81
463.876	1262.81
464.096	1216.81
464.316	1267.81
464.536	1310.81
464.755	1303.81
464.975	1337.81
465.195	1273.81
465.414	1277.81
465.634	1315.81
465.854	1286.81
466.073	1380.81
466.293	1332.81
466.512	1197.81
466.732	1224.81
466.951	1259.81
467.171	1223.81
467.391	1225.81
467.61	1171.81
467.829	1195.81
468.049	1317.81
468.268	1436.81
468.488	1301.81
468.707	1255.81
468.927	1229.81
469.146	1183.81
469.365	1185.81
469.585	1243.81
469.804	1206.81
470.023	1219.81
470.243	1232.81
470.462	1186.81
470.681	1208.81
470.901	1249.81
471.12	1231.81
471.339	1211.81
471.558	1171.81
471.777	1196.81
471.997	1226.81
472.216	1186.81
472.435	1145.81
472.654	1124.81
472.873	1155.81
473.092	1215.81
473.311	1201.81
473.53	1131.81
473.749	1141.81
473.968	1169.81
474.187	1203.81
474.406	1212.81
474.625	1190.81
474.844	1212.81
475.063	1200.81
475.282	1226.81
475.501	1185.81
475.72	1195.81
475.939	1278.81
476.158	1214.81
476.377	1230.81
476.596	1203.81
476.814	1239.81
477.033	1179.81
477.252	1253.81
477.471	1291.81
477.69	1262.81
477.908	1275.81
478.127	1345.81
478.346	1429.81
478.564	1409.81
478.783	1406.81
479.002	1429.81
479.22	1407.81
479.439	1453.81
479.658	1578.81
479.876	1514.81
480.095	1372.81
480.313	1344.81
480.532	1253.81
480.751	1308.81
480.969	1263.81
481.188	1282.81
481.406	1255.81
481.624	1227.81
481.843	1231.81
482.061	1279.81
482.28	1345.81
482.498	1316.81
482.717	1325.81
482.935	1313.81
483.153	1345.81
483.372	1315.81
483.59	1354.81
483.808	1357.81
484.027	1370.81
484.245	1442.81
484.463	1731.81
484.681	1849.81
484.9	1441.81
485.118	1377.81
485.336	1331.81
485.554	1356.81
485.772	1396.81
485.99	1365.81
486.209	1375.81
486.427	1373.81
486.645	1401.81
486.863	1415.81
487.081	1415.81
487.299	1487.81
487.517	1427.81
487.735	1470.81
487.953	1498.81
488.171	1485.81
488.389	1454.81
488.607	1459.81
488.825	1620.81
489.043	1527.81
489.261	1403.81
489.479	1460.81
489.696	1455.81
489.914	1462.81
490.132	1445.81
490.35	1442.81
490.568	1529.81
490.786	1480.81
491.003	1497.81
491.221	1518.81
491.439	1601.81
491.657	1577.81
491.874	1585.81
492.092	1662.81
492.31	1697.81
492.527	1702.81
492.745	1591.81
492.963	1590.81
493.18	1643.81
493.398	1703.81
493.615	1703.81
