Data from WStandard_LampEnergy5.5LIBS07252019.E.O._I.C._HRD10591_16-06-59-920.txt Node
Date: Thu Jul 25 16:06:59 EDT 2019
User: cochatt
Spectrometer: HR+D1059
Trigger mode: 1
Integration Time (sec): 1.000000E-1
Scans to average: 1
Electric dark correction enabled: true
Nonlinearity correction enabled: false
Boxcar width: 0
XAxis mode: Wavelengths
Number of Pixels in Spectrum: 2048
>>>>>Begin Spectral Data<<<<<
223.165	-12.81
223.4	-12.81
223.635	-12.81
223.869	-15.81
224.104	-19.81
224.338	-30.81
224.573	-23.81
224.808	-7.81
225.042	1.19
225.277	4.19
225.511	-6.81
225.746	19.19
225.98	9.19
226.215	9.19
226.449	11.19
226.683	19.19
226.918	13.19
227.152	31.19
227.387	38.19
227.621	24.19
227.856	45.19
228.09	47.19
228.324	50.19
228.559	55.19
228.793	160.19
229.027	385.19
229.262	403.19
229.496	410.19
229.73	416.19
229.964	453.19
230.199	487.19
230.433	496.19
230.667	512.19
230.901	560.19
231.136	504.19
231.37	483.19
231.604	482.19
231.838	491.19
232.072	486.19
232.306	451.19
232.541	490.19
232.775	590.19
233.009	640.19
233.243	628.19
233.477	543.19
233.711	585.19
233.945	579.19
234.179	582.19
234.413	635.19
234.647	661.19
234.881	620.19
235.115	580.19
235.349	577.19
235.583	594.19
235.817	572.19
236.051	559.19
236.285	575.19
236.519	616.19
236.753	696.19
236.987	703.19
237.221	718.19
237.455	794.19
237.689	731.19
237.922	705.19
238.156	681.19
238.39	720.19
238.624	742.19
238.858	771.19
239.091	843.19
239.325	821.19
239.559	963.19
239.793	1017.19
240.027	1117.19
240.26	1104.19
240.494	815.19
240.728	771.19
240.961	761.19
241.195	783.19
241.429	854.19
241.662	853.19
241.896	812.19
242.13	834.19
242.363	892.19
242.597	941.19
242.83	912.19
243.064	959.19
243.298	1000.19
243.531	957.19
243.765	969.19
243.998	973.19
244.232	853.19
244.465	818.19
244.699	840.19
244.932	932.19
245.166	1103.19
245.399	1031.19
245.633	967.19
245.866	921.19
246.099	972.19
246.333	997.19
246.566	1030.19
246.8	1083.19
247.033	1225.19
247.266	1158.19
247.5	1106.19
247.733	1124.19
247.966	1153.19
248.2	1274.19
248.433	1278.19
248.666	1293.19
248.899	1413.19
249.133	1649.19
249.366	1856.19
249.599	1515.19
249.832	1290.19
250.066	1356.19
250.299	1371.19
250.532	1292.19
250.765	1130.19
250.998	1221.19
251.231	1260.19
251.465	1327.19
251.698	1232.19
251.931	1237.19
252.164	1288.19
252.397	1327.19
252.63	1311.19
252.863	1176.19
253.096	1146.19
253.329	1185.19
253.562	1233.19
253.795	1380.19
254.028	1301.19
254.261	1220.19
254.494	1223.19
254.727	1166.19
254.96	1211.19
255.193	1316.19
255.426	1468.19
255.659	1720.19
255.892	1760.19
256.124	1469.19
256.357	1418.19
256.59	1499.19
256.823	1535.19
257.056	1484.19
257.289	1791.19
257.521	2041.19
257.754	1803.19
257.987	1667.19
258.22	1877.19
258.452	1850.19
258.685	1521.19
258.918	1489.19
259.151	1461.19
259.383	1391.19
259.616	1237.19
259.849	1298.19
260.081	1451.19
260.314	1621.19
260.547	1786.19
260.779	1819.19
261.012	1709.19
261.244	1538.19
261.477	1427.19
261.71	1529.19
261.942	1489.19
262.175	1427.19
262.407	1549.19
262.64	1451.19
262.872	1356.19
263.105	1289.19
263.337	1339.19
263.57	1383.19
263.802	1366.19
264.035	1276.19
264.267	1228.19
264.499	1179.19
264.732	1270.19
264.964	1365.19
265.197	1411.19
265.429	1457.19
265.661	1648.19
265.894	1780.19
266.126	1909.19
266.358	1672.19
266.591	1749.19
266.823	1957.19
267.055	1668.19
267.287	1691.19
267.52	1653.19
267.752	1672.19
267.984	1636.19
268.216	1700.19
268.448	1734.19
268.681	1732.19
268.913	1602.19
269.145	1491.19
269.377	1442.19
269.609	1545.19
269.841	1829.19
270.073	2179.19
270.306	2385.19
270.538	2578.19
270.77	2161.19
271.002	1817.19
271.234	1749.19
271.466	1704.19
271.698	1951.19
271.93	2363.19
272.162	2367.19
272.394	2115.19
272.626	2007.19
272.858	1765.19
273.09	1501.19
273.322	1510.19
273.553	1448.19
273.785	1464.19
274.017	1503.19
274.249	1627.19
274.481	1661.19
274.713	1486.19
274.945	1498.19
275.176	1468.19
275.408	1479.19
275.64	1439.19
275.872	1420.19
276.104	1531.19
276.335	1722.19
276.567	2007.19
276.799	2043.19
277.031	1789.19
277.262	1717.19
277.494	1759.19
277.726	1956.19
277.957	1955.19
278.189	1788.19
278.421	1615.19
278.652	1565.19
278.884	1541.19
279.115	1526.19
279.347	1611.19
279.579	1563.19
279.81	1509.19
280.042	1685.19
280.273	1843.19
280.505	1801.19
280.736	1896.19
280.968	1813.19
281.199	1600.19
281.431	1503.19
281.662	1546.19
281.894	1526.19
282.125	1556.19
282.356	1620.19
282.588	1623.19
282.819	1605.19
283.051	1724.19
283.282	1919.19
283.513	1833.19
283.745	1571.19
283.976	1496.19
284.207	1521.19
284.439	1485.19
284.67	1549.19
284.901	1584.19
285.132	1631.19
285.364	1592.19
285.595	1629.19
285.826	1573.19
286.057	1586.19
286.288	1544.19
286.52	1635.19
286.751	1749.19
286.982	1849.19
287.213	1670.19
287.444	1519.19
287.675	1493.19
287.906	1617.19
288.138	1736.19
288.369	1675.19
288.6	1579.19
288.831	1521.19
289.062	1527.19
289.293	1583.19
289.524	1561.19
289.755	1606.19
289.986	1609.19
290.217	1505.19
290.448	1562.19
290.679	1587.19
290.91	1578.19
291.141	1674.19
291.371	1663.19
291.602	1700.19
291.833	1642.19
292.064	1739.19
292.295	1753.19
292.526	1736.19
292.757	1799.19
292.987	1723.19
293.218	1600.19
293.449	1737.19
293.68	1980.19
293.91	2149.19
294.141	2000.19
294.372	1858.19
294.603	1889.19
294.833	2023.19
295.064	1887.19
295.295	1729.19
295.525	1706.19
295.756	1547.19
295.987	1462.19
296.217	1519.19
296.448	1544.19
296.679	1574.19
296.909	1558.19
297.14	1576.19
297.37	1586.19
297.601	1659.19
297.831	1811.19
298.062	1837.19
298.292	1644.19
298.523	1576.19
298.753	1584.19
298.984	1618.19
299.214	1604.19
299.445	1628.19
299.675	1713.19
299.905	1680.19
300.136	1641.19
300.366	1599.19
300.597	1567.19
300.827	1532.19
301.057	1603.19
301.288	1694.19
301.518	1687.19
301.748	1721.19
301.979	1826.19
302.209	1855.19
302.439	1977.19
302.669	2084.19
302.9	1933.19
303.13	1734.19
303.36	1720.19
303.59	1776.19
303.82	1752.19
304.051	1748.19
304.281	1683.19
304.511	1721.19
304.741	1771.19
304.971	1979.19
305.201	2229.19
305.431	2033.19
305.661	1691.19
305.891	1522.19
306.121	1477.19
306.352	1553.19
306.582	1649.19
306.812	1768.19
307.042	1933.19
307.272	1912.19
307.502	1930.19
307.731	2117.19
307.961	2269.19
308.191	2128.19
308.421	1796.19
308.651	1669.19
308.881	1625.19
309.111	1639.19
309.341	1658.19
309.571	1663.19
309.8	1675.19
310.03	1633.19
310.26	1625.19
310.49	1615.19
310.72	1640.19
310.949	1739.19
311.179	1747.19
311.409	1724.19
311.639	1671.19
311.868	1663.19
312.098	1706.19
312.328	1670.19
312.557	1661.19
312.787	1645.19
313.017	1723.19
313.246	1707.19
313.476	1698.19
313.706	1763.19
313.935	1727.19
314.165	1751.19
314.394	1789.19
314.624	1888.19
314.853	2086.19
315.083	2101.19
315.312	2197.19
315.542	2011.19
315.771	1784.19
316.001	1800.19
316.23	1897.19
316.46	1868.19
316.689	1821.19
316.919	1728.19
317.148	1665.19
317.377	1649.19
317.607	1793.19
317.836	2067.19
318.065	2137.19
318.295	2043.19
318.524	1999.19
318.753	1863.19
318.983	1876.19
319.212	1830.19
319.441	1827.19
319.67	1770.19
319.9	1803.19
320.129	1866.19
320.358	1985.19
320.587	2037.19
320.816	2013.19
321.046	2008.19
321.275	1841.19
321.504	1866.19
321.733	2051.19
321.962	1980.19
322.191	1828.19
322.42	1845.19
322.649	1801.19
322.878	1823.19
323.108	1830.19
323.337	1916.19
323.566	1886.19
323.795	1820.19
324.024	1893.19
324.253	1823.19
324.482	1858.19
324.71	1813.19
324.939	1699.19
325.168	1702.19
325.397	1787.19
325.626	1861.19
325.855	1895.19
326.084	1813.19
326.313	1807.19
326.542	1796.19
326.77	1882.19
326.999	1923.19
327.228	1817.19
327.457	1732.19
327.686	1713.19
327.914	1764.19
328.143	1805.19
328.372	1800.19
328.6	1824.19
328.829	1815.19
329.058	1778.19
329.287	1717.19
329.515	1839.19
329.744	1845.19
329.972	1904.19
330.201	2011.19
330.43	1935.19
330.658	1867.19
330.887	1903.19
331.115	1886.19
331.344	1913.19
331.572	1911.19
331.801	1872.19
332.03	1911.19
332.258	1943.19
332.486	1924.19
332.715	1921.19
332.943	1921.19
333.172	1883.19
333.4	1901.19
333.629	1932.19
333.857	2063.19
334.085	2287.19
334.314	2549.19
334.542	2819.19
334.771	2656.19
334.999	2299.19
335.227	2179.19
335.455	2041.19
335.684	2022.19
335.912	2089.19
336.14	2178.19
336.369	2093.19
336.597	1989.19
336.825	1873.19
337.053	1955.19
337.281	2110.19
337.51	2181.19
337.738	2313.19
337.966	2226.19
338.194	2000.19
338.422	1926.19
338.65	1919.19
338.878	1893.19
339.106	1847.19
339.334	1770.19
339.562	1768.19
339.79	1839.19
340.018	1970.19
340.246	2005.19
340.474	2032.19
340.702	1937.19
340.93	2024.19
341.158	1995.19
341.386	1924.19
341.614	1891.19
341.842	1848.19
342.07	1876.19
342.298	1893.19
342.526	1927.19
342.754	1845.19
342.981	1828.19
343.209	1839.19
343.437	1839.19
343.665	1871.19
343.893	1943.19
344.12	2040.19
344.348	2055.19
344.576	1942.19
344.804	1858.19
345.031	1889.19
345.259	1860.19
345.487	1844.19
345.714	1760.19
345.942	1731.19
346.17	1698.19
346.397	1781.19
346.625	1803.19
346.853	1718.19
347.08	1659.19
347.308	1676.19
347.535	1719.19
347.763	1799.19
347.99	1775.19
348.218	1654.19
348.445	1692.19
348.673	1724.19
348.9	1793.19
349.128	1823.19
349.355	1928.19
349.583	1874.19
349.81	1781.19
350.037	1635.19
350.265	1609.19
350.492	1630.19
350.72	1697.19
350.947	1776.19
351.174	1830.19
351.402	1706.19
351.629	1639.19
351.856	1617.19
352.083	1632.19
352.311	1626.19
352.538	1661.19
352.765	1751.19
352.992	1790.19
353.22	1719.19
353.447	1679.19
353.674	1728.19
353.901	1736.19
354.128	1691.19
354.355	1683.19
354.583	1751.19
354.81	1755.19
355.037	1780.19
355.264	1815.19
355.491	1750.19
355.718	1764.19
355.945	1773.19
356.172	1686.19
356.399	1640.19
356.626	1672.19
356.853	1722.19
357.08	1874.19
357.307	2047.19
357.534	2105.19
357.761	1809.19
357.988	1691.19
358.215	1606.19
358.441	1639.19
358.668	1634.19
358.895	1634.19
359.122	1744.19
359.349	1933.19
359.576	1944.19
359.802	1725.19
360.029	1636.19
360.256	1638.19
360.483	1637.19
360.709	1740.19
360.936	1801.19
361.163	1835.19
361.39	2019.19
361.616	2172.19
361.843	2093.19
362.07	2015.19
362.296	1765.19
362.523	1675.19
362.749	1706.19
362.976	1769.19
363.203	1747.19
363.429	1717.19
363.656	1671.19
363.882	1728.19
364.109	1892.19
364.335	2065.19
364.562	1952.19
364.788	1847.19
365.015	1751.19
365.241	1661.19
365.468	1740.19
365.694	1761.19
365.92	1859.19
366.147	1824.19
366.373	1679.19
366.599	1635.19
366.826	1643.19
367.052	1679.19
367.278	1676.19
367.505	1711.19
367.731	1768.19
367.957	1752.19
368.184	1849.19
368.41	1943.19
368.636	1963.19
368.862	1945.19
369.089	1984.19
369.315	1833.19
369.541	1780.19
369.767	1760.19
369.993	1663.19
370.219	1721.19
370.445	1690.19
370.672	1857.19
370.898	1917.19
371.124	1907.19
371.35	1800.19
371.576	1841.19
371.802	1927.19
372.028	1862.19
372.254	1795.19
372.48	1692.19
372.706	1671.19
372.932	1738.19
373.158	1737.19
373.384	1792.19
373.61	1817.19
373.835	1911.19
374.061	1819.19
374.287	1816.19
374.513	1795.19
374.739	1803.19
374.965	1803.19
375.191	1857.19
375.416	1816.19
375.642	1831.19
375.868	1927.19
376.094	2009.19
376.319	1933.19
376.545	1786.19
376.771	1775.19
376.997	1940.19
377.222	1890.19
377.448	1855.19
377.674	1913.19
377.899	1867.19
378.125	1971.19
378.35	1979.19
378.576	1813.19
378.802	1735.19
379.027	1756.19
379.253	1746.19
379.478	1749.19
379.704	1772.19
379.929	1775.19
380.155	1811.19
380.38	1820.19
380.606	1852.19
380.831	1785.19
381.057	1896.19
381.282	1961.19
381.507	1861.19
381.733	1992.19
381.958	2070.19
382.184	1894.19
382.409	1852.19
382.634	1887.19
382.86	1878.19
383.085	1871.19
383.31	1895.19
383.535	2034.19
383.761	2191.19
383.986	2130.19
384.211	2043.19
384.436	2007.19
384.662	2083.19
384.887	2181.19
385.112	2062.19
385.337	2060.19
385.562	2033.19
385.787	2076.19
386.013	2135.19
386.238	2124.19
386.463	2070.19
386.688	2213.19
386.913	2373.19
387.138	2290.19
387.363	2140.19
387.588	2152.19
387.813	2151.19
388.038	2158.19
388.263	2196.19
388.488	2134.19
388.713	1933.19
388.938	1954.19
389.163	1945.19
389.387	1983.19
389.612	1983.19
389.837	2026.19
390.062	2055.19
390.287	2060.19
390.512	2060.19
390.736	2024.19
390.961	1988.19
391.186	1922.19
391.411	1951.19
391.636	2034.19
391.86	2020.19
392.085	2021.19
392.31	2015.19
392.534	2004.19
392.759	2088.19
392.984	2079.19
393.208	2114.19
393.433	2159.19
393.658	2243.19
393.882	2268.19
394.107	2075.19
394.331	2049.19
394.556	2069.19
394.78	2086.19
395.005	2169.19
395.229	2247.19
395.454	2375.19
395.678	2346.19
395.903	2265.19
396.127	2143.19
396.352	2235.19
396.576	2249.19
396.801	2284.19
397.025	2273.19
397.249	2259.19
397.474	2193.19
397.698	2213.19
397.922	2257.19
398.147	2386.19
398.371	2438.19
398.595	2477.19
398.82	2307.19
399.044	2405.19
399.268	2497.19
399.492	2671.19
399.717	2717.19
399.941	2778.19
400.165	2724.19
400.389	2656.19
400.613	2587.19
400.837	2832.19
401.062	3287.19
401.286	2858.19
401.51	2549.19
401.734	2705.19
401.958	2641.19
402.182	2401.19
402.406	2329.19
402.63	2324.19
402.854	2291.19
403.078	2313.19
403.302	2428.19
403.526	2437.19
403.75	2465.19
403.974	2419.19
404.198	2433.19
404.422	2519.19
404.645	2657.19
404.869	2634.19
405.093	2401.19
405.317	2351.19
405.541	2427.19
405.765	2473.19
405.988	2447.19
406.212	2481.19
406.436	2543.19
406.66	2608.19
406.883	2642.19
407.107	2956.19
407.331	3242.19
407.555	3412.19
407.778	3207.19
408.002	2657.19
408.226	2572.19
408.449	2579.19
408.673	2461.19
408.896	2498.19
409.12	2593.19
409.344	2476.19
409.567	2373.19
409.791	2467.19
410.014	2489.19
410.238	2657.19
410.461	2769.19
410.685	2479.19
410.908	2365.19
411.132	2404.19
411.355	2432.19
411.578	2415.19
411.802	2396.19
412.025	2441.19
412.249	2379.19
412.472	2305.19
412.695	2318.19
412.919	2340.19
413.142	2308.19
413.365	2377.19
413.589	2426.19
413.812	2501.19
414.035	2615.19
414.258	2349.19
414.482	2303.19
414.705	2341.19
414.928	2310.19
415.151	2309.19
415.374	2340.19
415.597	2367.19
415.821	2345.19
416.044	2451.19
416.267	2430.19
416.49	2253.19
416.713	2187.19
416.936	2309.19
417.159	2387.19
417.382	2440.19
417.605	2305.19
417.828	2338.19
418.051	2351.19
418.274	2303.19
418.497	2229.19
418.72	2263.19
418.943	2231.19
419.166	2429.19
419.389	2460.19
419.611	2375.19
419.834	2318.19
420.057	2368.19
420.28	2262.19
420.503	2214.19
420.726	2280.19
420.948	2351.19
421.171	2187.19
421.394	2281.19
421.617	2333.19
421.839	2261.19
422.062	2257.19
422.285	2235.19
422.507	2205.19
422.73	2196.19
422.953	2138.19
423.175	2142.19
423.398	2234.19
423.621	2237.19
423.843	2219.19
424.066	2284.19
424.288	2367.19
424.511	2434.19
424.733	2371.19
424.956	2135.19
425.178	2161.19
425.401	2156.19
425.623	2197.19
425.846	2138.19
426.068	2287.19
426.291	2304.19
426.513	2280.19
426.735	2295.19
426.958	2428.19
427.18	2596.19
427.402	2409.19
427.625	2465.19
427.847	2469.19
428.069	2335.19
428.292	2178.19
428.514	2137.19
428.736	2153.19
428.958	2156.19
429.181	2172.19
429.403	2479.19
429.625	3092.19
429.847	2673.19
430.069	2249.19
430.292	2457.19
430.514	2615.19
430.736	2348.19
430.958	2497.19
431.18	2355.19
431.402	2155.19
431.624	2137.19
431.846	2147.19
432.068	2116.19
432.29	2167.19
432.512	2139.19
432.734	2239.19
432.956	2242.19
433.178	2341.19
433.4	2318.19
433.622	2317.19
433.844	2234.19
434.066	2115.19
434.287	2114.19
434.509	2250.19
434.731	2320.19
434.953	2492.19
435.175	2436.19
435.397	2292.19
435.618	2332.19
435.84	2379.19
436.062	2280.19
436.284	2281.19
436.505	2269.19
436.727	2340.19
436.949	2245.19
437.17	2173.19
437.392	2186.19
437.614	2194.19
437.835	2115.19
438.057	2306.19
438.278	2408.19
438.5	2185.19
438.721	2143.19
438.943	2187.19
439.165	2175.19
439.386	2131.19
439.608	2108.19
439.829	2117.19
440.05	2185.19
440.272	2118.19
440.493	2143.19
440.715	2191.19
440.936	2292.19
441.158	2542.19
441.379	2475.19
441.6	2402.19
441.822	2331.19
442.043	2360.19
442.264	2307.19
442.486	2167.19
442.707	2161.19
442.928	2141.19
443.149	2267.19
443.371	2388.19
443.592	2433.19
443.813	2364.19
444.034	2353.19
444.255	2372.19
444.476	2431.19
444.698	2509.19
444.919	2445.19
445.14	2485.19
445.361	2496.19
445.582	2539.19
445.803	2482.19
446.024	2394.19
446.245	2485.19
446.466	2397.19
446.687	2253.19
446.908	2270.19
447.129	2213.19
447.35	2252.19
447.571	2250.19
447.792	2162.19
448.013	2121.19
448.234	2140.19
448.455	2249.19
448.675	2266.19
448.896	2058.19
449.117	2040.19
449.338	2113.19
449.559	2193.19
449.779	2357.19
450	2572.19
450.221	2787.19
450.442	2668.19
450.662	2367.19
450.883	2097.19
451.104	2018.19
451.324	2052.19
451.545	2147.19
451.766	2123.19
451.986	2021.19
452.207	2039.19
452.428	1945.19
452.648	1949.19
452.869	1970.19
453.089	2098.19
453.31	2141.19
453.53	2171.19
453.751	2103.19
453.971	1975.19
454.192	2035.19
454.412	2151.19
454.633	2133.19
454.853	2031.19
455.073	1856.19
455.294	1881.19
455.514	1912.19
455.734	1903.19
455.955	1938.19
456.175	1899.19
456.395	1934.19
456.616	2008.19
456.836	2037.19
457.056	1995.19
457.276	2024.19
457.497	1931.19
457.717	1857.19
457.937	1923.19
458.157	1964.19
458.377	1935.19
458.598	1931.19
458.818	1948.19
459.038	2107.19
459.258	2218.19
459.478	2227.19
459.698	2130.19
459.918	2136.19
460.138	2255.19
460.358	2336.19
460.578	2335.19
460.798	2399.19
461.018	2579.19
461.238	2431.19
461.458	2309.19
461.678	2359.19
461.898	2299.19
462.118	2209.19
462.338	2276.19
462.558	2279.19
462.777	2300.19
462.997	2422.19
463.217	2600.19
463.437	2543.19
463.657	2361.19
463.876	2322.19
464.096	2343.19
464.316	2350.19
464.536	2396.19
464.755	2401.19
464.975	2435.19
465.195	2356.19
465.414	2457.19
465.634	2457.19
465.854	2331.19
466.073	2495.19
466.293	2435.19
466.512	2167.19
466.732	2122.19
466.951	2193.19
467.171	2187.19
467.391	2145.19
467.61	2052.19
467.829	2079.19
468.049	2266.19
468.268	2557.19
468.488	2366.19
468.707	2285.19
468.927	2166.19
469.146	2125.19
469.365	2046.19
469.585	2161.19
469.804	2130.19
470.023	2083.19
470.243	2166.19
470.462	2095.19
470.681	2013.19
470.901	2114.19
471.12	2099.19
471.339	2073.19
471.558	2006.19
471.777	2039.19
471.997	2062.19
472.216	2118.19
472.435	1963.19
472.654	2040.19
472.873	2188.19
473.092	2257.19
473.311	2140.19
473.53	2025.19
473.749	2014.19
473.968	2080.19
474.187	2211.19
474.406	2324.19
474.625	2211.19
474.844	2152.19
475.063	2119.19
475.282	2213.19
475.501	2148.19
475.72	2133.19
475.939	2321.19
476.158	2199.19
476.377	2148.19
476.596	2175.19
476.814	2206.19
477.033	2257.19
477.252	2327.19
477.471	2401.19
477.69	2263.19
477.908	2214.19
478.127	2366.19
478.346	2563.19
478.564	2596.19
478.783	2577.19
479.002	2591.19
479.22	2546.19
479.439	2625.19
479.658	2988.19
479.876	3009.19
480.095	2593.19
480.313	2460.19
480.532	2386.19
480.751	2405.19
480.969	2451.19
481.188	2397.19
481.406	2425.19
481.624	2329.19
481.843	2316.19
482.061	2377.19
482.28	2450.19
482.498	2527.19
482.717	2474.19
482.935	2348.19
483.153	2380.19
483.372	2376.19
483.59	2340.19
483.808	2379.19
484.027	2439.19
484.245	2559.19
484.463	2982.19
484.681	3416.19
484.9	2608.19
485.118	2428.19
485.336	2373.19
485.554	2439.19
485.772	2613.19
485.99	2541.19
486.209	2571.19
486.427	2502.19
486.645	2530.19
486.863	2450.19
487.081	2564.19
487.299	2612.19
