Data from WStandard_LampEnergy5.5LIBS07252019.E.O._I.C._HRD10591_16-07-00-920.txt Node
Date: Thu Jul 25 16:07:00 EDT 2019
User: cochatt
Spectrometer: HR+D1059
Trigger mode: 1
Integration Time (sec): 1.000000E-1
Scans to average: 1
Electric dark correction enabled: true
Nonlinearity correction enabled: false
Boxcar width: 0
XAxis mode: Wavelengths
Number of Pixels in Spectrum: 2048
>>>>>Begin Spectral Data<<<<<
223.165	-20
223.4	-20
223.635	-20
223.869	-29
224.104	-23
224.338	2
224.573	-24
224.808	-16
225.042	-21
225.277	15
225.511	-6
225.746	12
225.98	1
226.215	15
226.449	20
226.683	14
226.918	26
227.152	34
227.387	31
227.621	37
227.856	42
228.09	43
228.324	48
228.559	65
228.793	147
229.027	354
229.262	388
229.496	410
229.73	411
229.964	452
230.199	476
230.433	479
230.667	514
230.901	563
231.136	485
231.37	469
231.604	465
231.838	446
232.072	485
232.306	473
232.541	461
232.775	594
233.009	643
233.243	629
233.477	553
233.711	567
233.945	591
234.179	576
234.413	623
234.647	638
234.881	626
235.115	549
235.349	547
235.583	569
235.817	552
236.051	543
236.285	550
236.519	606
236.753	667
236.987	727
237.221	690
237.455	772
237.689	752
237.922	710
238.156	675
238.39	690
238.624	730
238.858	775
239.091	792
239.325	848
239.559	941
239.793	960
240.027	1078
240.26	1088
240.494	789
240.728	743
240.961	773
241.195	762
241.429	827
241.662	862
241.896	791
242.13	785
242.363	877
242.597	931
242.83	924
243.064	908
243.298	994
243.531	965
243.765	937
243.998	971
244.232	839
244.465	808
244.699	798
244.932	908
245.166	1063
245.399	1028
245.633	917
245.866	912
246.099	958
246.333	972
246.566	964
246.8	1076
247.033	1216
247.266	1094
247.5	1083
247.733	1088
247.966	1156
248.2	1292
248.433	1226
248.666	1234
248.899	1335
249.133	1564
249.366	1796
249.599	1493
249.832	1280
250.066	1321
250.299	1342
250.532	1268
250.765	1114
250.998	1191
251.231	1258
251.465	1290
251.698	1218
251.931	1205
252.164	1256
252.397	1313
252.63	1321
252.863	1154
253.096	1131
253.329	1184
253.562	1241
253.795	1346
254.028	1291
254.261	1212
254.494	1192
254.727	1118
254.96	1166
255.193	1301
255.426	1457
255.659	1685
255.892	1743
256.124	1414
256.357	1363
256.59	1450
256.823	1478
257.056	1454
257.289	1764
257.521	1988
257.754	1776
257.987	1658
258.22	1846
258.452	1805
258.685	1453
258.918	1396
259.151	1424
259.383	1368
259.616	1209
259.849	1245
260.081	1442
260.314	1594
260.547	1716
260.779	1798
261.012	1669
261.244	1472
261.477	1361
261.71	1469
261.942	1467
262.175	1414
262.407	1495
262.64	1435
262.872	1333
263.105	1254
263.337	1316
263.57	1356
263.802	1345
264.035	1259
264.267	1174
264.499	1147
264.732	1245
264.964	1312
265.197	1373
265.429	1461
265.661	1608
265.894	1801
266.126	1833
266.358	1678
266.591	1728
266.823	1892
267.055	1662
267.287	1636
267.52	1603
267.752	1601
267.984	1589
268.216	1675
268.448	1734
268.681	1682
268.913	1564
269.145	1447
269.377	1416
269.609	1568
269.841	1789
270.073	2073
270.306	2331
270.538	2587
270.77	2116
271.002	1761
271.234	1696
271.466	1651
271.698	1881
271.93	2332
272.162	2322
272.394	2073
272.626	1998
272.858	1764
273.09	1482
273.322	1471
273.553	1417
273.785	1442
274.017	1458
274.249	1594
274.481	1582
274.713	1469
274.945	1439
275.176	1468
275.408	1468
275.64	1412
275.872	1380
276.104	1490
276.335	1666
276.567	1960
276.799	1976
277.031	1793
277.262	1640
277.494	1704
277.726	1880
277.957	1924
278.189	1732
278.421	1602
278.652	1515
278.884	1512
279.115	1530
279.347	1568
279.579	1517
279.81	1467
280.042	1619
280.273	1844
280.505	1834
280.736	1832
280.968	1755
281.199	1568
281.431	1484
281.662	1485
281.894	1490
282.125	1502
282.356	1592
282.588	1573
282.819	1570
283.051	1682
283.282	1885
283.513	1778
283.745	1536
283.976	1413
284.207	1413
284.439	1462
284.67	1530
284.901	1555
285.132	1594
285.364	1562
285.595	1586
285.826	1522
286.057	1569
286.288	1493
286.52	1552
286.751	1708
286.982	1829
287.213	1684
287.444	1490
287.675	1462
287.906	1589
288.138	1660
288.369	1610
288.6	1542
288.831	1491
289.062	1524
289.293	1525
289.524	1549
289.755	1629
289.986	1646
290.217	1449
290.448	1462
290.679	1537
290.91	1542
291.141	1581
291.371	1651
291.602	1646
291.833	1652
292.064	1723
292.295	1629
292.526	1666
292.757	1802
292.987	1679
293.218	1555
293.449	1668
293.68	1926
293.91	2120
294.141	1934
294.372	1830
294.603	1845
294.833	1960
295.064	1872
295.295	1669
295.525	1633
295.756	1516
295.987	1430
296.217	1440
296.448	1499
296.679	1556
296.909	1506
297.14	1507
297.37	1518
297.601	1616
297.831	1755
298.062	1809
298.292	1636
298.523	1513
298.753	1540
298.984	1558
299.214	1566
299.445	1565
299.675	1654
299.905	1626
300.136	1578
300.366	1543
300.597	1510
300.827	1527
301.057	1548
301.288	1640
301.518	1633
301.748	1660
301.979	1724
302.209	1780
302.439	1894
302.669	1991
302.9	1859
303.13	1656
303.36	1660
303.59	1723
303.82	1664
304.051	1659
304.281	1659
304.511	1641
304.741	1736
304.971	1916
305.201	2111
305.431	2017
305.661	1638
305.891	1464
306.121	1463
306.352	1516
306.582	1600
306.812	1762
307.042	1851
307.272	1864
307.502	1894
307.731	2037
307.961	2170
308.191	2025
308.421	1778
308.651	1626
308.881	1566
309.111	1616
309.341	1595
309.571	1609
309.8	1590
310.03	1613
310.26	1587
310.49	1586
310.72	1596
310.949	1602
311.179	1724
311.409	1703
311.639	1625
311.868	1624
312.098	1615
312.328	1620
312.557	1596
312.787	1635
313.017	1694
313.246	1655
313.476	1692
313.706	1742
313.935	1669
314.165	1670
314.394	1762
314.624	1810
314.853	1966
315.083	2048
315.312	2101
315.542	1951
315.771	1725
316.001	1748
316.23	1848
316.46	1833
316.689	1811
316.919	1693
317.148	1649
317.377	1651
317.607	1780
317.836	2014
318.065	2072
318.295	1979
318.524	1899
318.753	1820
318.983	1806
319.212	1768
319.441	1750
319.67	1727
319.9	1724
320.129	1873
320.358	1942
320.587	1950
320.816	1930
321.046	1935
321.275	1781
321.504	1840
321.733	2033
321.962	1935
322.191	1753
322.42	1771
322.649	1729
322.878	1714
323.108	1753
323.337	1826
323.566	1809
323.795	1803
324.024	1802
324.253	1795
324.482	1804
324.71	1768
324.939	1621
325.168	1678
325.397	1761
325.626	1813
325.855	1813
326.084	1771
326.313	1727
326.542	1772
326.77	1837
326.999	1814
327.228	1824
327.457	1692
327.686	1662
327.914	1681
328.143	1756
328.372	1735
328.6	1741
328.829	1733
329.058	1682
329.287	1724
329.515	1749
329.744	1774
329.972	1866
330.201	1948
330.43	1935
330.658	1849
330.887	1856
331.115	1865
331.344	1831
331.572	1810
331.801	1825
332.03	1791
332.258	1878
332.486	1868
332.715	1844
332.943	1857
333.172	1802
333.4	1868
333.629	1900
333.857	1997
334.085	2198
334.314	2484
334.542	2816
334.771	2565
334.999	2260
335.227	2102
335.455	2006
335.684	1973
335.912	2005
336.14	2088
336.369	2058
336.597	1869
336.825	1863
337.053	1908
337.281	2018
337.51	2118
337.738	2231
337.966	2138
338.194	1907
338.422	1817
338.65	1808
338.878	1751
339.106	1752
339.334	1707
339.562	1690
339.79	1740
340.018	1878
340.246	1948
340.474	1994
340.702	1906
340.93	1932
341.158	1917
341.386	1831
341.614	1832
341.842	1831
342.07	1831
342.298	1851
342.526	1875
342.754	1838
342.981	1786
343.209	1792
343.437	1812
343.665	1786
343.893	1819
344.12	1946
344.348	1958
344.576	1924
344.804	1802
345.031	1820
345.259	1894
345.487	1749
345.714	1701
345.942	1691
346.17	1679
346.397	1719
346.625	1754
346.853	1670
347.08	1625
347.308	1589
347.535	1658
347.763	1765
347.99	1703
348.218	1633
348.445	1658
348.673	1677
348.9	1753
349.128	1780
349.355	1873
349.583	1788
349.81	1702
350.037	1603
350.265	1568
350.492	1549
350.72	1670
350.947	1709
351.174	1759
351.402	1671
351.629	1586
351.856	1568
352.083	1592
352.311	1564
352.538	1593
352.765	1688
352.992	1750
353.22	1678
353.447	1613
353.674	1659
353.901	1656
354.128	1654
354.355	1615
354.583	1685
354.81	1715
355.037	1734
355.264	1728
355.491	1685
355.718	1720
355.945	1662
356.172	1633
356.399	1590
356.626	1609
356.853	1620
357.08	1767
357.307	1961
357.534	2032
357.761	1788
357.988	1646
358.215	1520
358.441	1555
358.668	1570
358.895	1589
359.122	1698
359.349	1866
359.576	1885
359.802	1692
360.029	1611
360.256	1570
360.483	1611
360.709	1649
360.936	1738
361.163	1737
361.39	1972
361.616	2136
361.843	2054
362.07	1985
362.296	1670
362.523	1614
362.749	1640
362.976	1684
363.203	1728
363.429	1686
363.656	1588
363.882	1664
364.109	1790
364.335	1981
364.562	1863
364.788	1772
365.015	1713
365.241	1633
365.468	1661
365.694	1742
365.92	1815
366.147	1738
366.373	1610
366.599	1561
366.826	1558
367.052	1593
367.278	1629
367.505	1662
367.731	1716
367.957	1721
368.184	1715
368.41	1803
368.636	1905
368.862	1898
369.089	1860
369.315	1769
369.541	1721
369.767	1719
369.993	1642
370.219	1656
370.445	1654
370.672	1770
370.898	1893
371.124	1860
371.35	1712
371.576	1786
371.802	1853
372.028	1798
372.254	1723
372.48	1675
372.706	1636
372.932	1667
373.158	1707
373.384	1689
373.61	1738
373.835	1845
374.061	1720
374.287	1744
374.513	1703
374.739	1741
374.965	1782
375.191	1784
375.416	1789
375.642	1757
375.868	1879
376.094	1944
376.319	1886
376.545	1721
376.771	1802
376.997	1882
377.222	1876
377.448	1782
377.674	1849
377.899	1834
378.125	1916
378.35	1923
378.576	1749
378.802	1681
379.027	1635
379.253	1702
379.478	1727
379.704	1704
379.929	1734
380.155	1727
380.38	1746
380.606	1762
380.831	1732
381.057	1837
381.282	1849
381.507	1825
381.733	1878
381.958	2011
382.184	1854
382.409	1782
382.634	1771
382.86	1832
383.085	1787
383.31	1794
383.535	1993
383.761	2118
383.986	2097
384.211	1977
384.436	1937
384.662	2038
384.887	2063
385.112	1969
385.337	1991
385.562	1996
385.787	1969
386.013	2043
386.238	2034
386.463	1997
386.688	2145
386.913	2266
387.138	2277
387.363	2034
387.588	2021
387.813	2043
388.038	2048
388.263	2131
388.488	2052
388.713	1896
388.938	1895
389.163	1881
389.387	1969
389.612	1948
389.837	1972
390.062	2000
390.287	2012
390.512	1976
390.736	1935
390.961	1897
391.186	1866
391.411	1914
391.636	1976
391.86	1970
392.085	2007
392.31	1934
392.534	1972
392.759	1992
392.984	1950
393.208	2000
393.433	2036
393.658	2126
393.882	2219
394.107	2063
394.331	1978
394.556	1993
394.78	1990
395.005	2069
395.229	2121
395.454	2295
395.678	2308
395.903	2168
396.127	2081
396.352	2109
396.576	2197
396.801	2198
397.025	2170
397.249	2164
397.474	2164
397.698	2130
397.922	2149
398.147	2286
398.371	2384
398.595	2376
398.82	2283
399.044	2285
399.268	2407
399.492	2555
399.717	2632
399.941	2683
400.165	2623
400.389	2568
400.613	2497
400.837	2746
401.062	3157
401.286	2768
401.51	2473
401.734	2631
401.958	2553
402.182	2332
402.406	2262
402.63	2207
402.854	2213
403.078	2254
403.302	2328
403.526	2362
403.75	2398
403.974	2381
404.198	2334
404.422	2418
404.645	2514
404.869	2525
405.093	2283
405.317	2286
405.541	2332
405.765	2326
405.988	2380
406.212	2428
406.436	2428
406.66	2506
406.883	2556
407.107	2825
407.331	3058
407.555	3302
407.778	3114
408.002	2566
408.226	2465
408.449	2422
408.673	2386
408.896	2433
409.12	2484
409.344	2418
409.567	2278
409.791	2376
410.014	2416
410.238	2510
410.461	2634
410.685	2450
410.908	2293
411.132	2342
411.355	2357
411.578	2310
411.802	2327
412.025	2352
412.249	2321
412.472	2218
412.695	2202
412.919	2193
413.142	2220
413.365	2246
413.589	2301
413.812	2397
414.035	2475
414.258	2301
414.482	2225
414.705	2269
414.928	2195
415.151	2206
415.374	2224
415.597	2312
415.821	2297
416.044	2354
416.267	2359
416.49	2198
416.713	2133
416.936	2183
417.159	2360
417.382	2404
417.605	2184
417.828	2265
418.051	2339
418.274	2260
418.497	2156
418.72	2171
418.943	2086
419.166	2332
419.389	2386
419.611	2268
419.834	2230
420.057	2233
420.28	2155
420.503	2171
420.726	2212
420.948	2232
421.171	2154
421.394	2160
421.617	2194
421.839	2232
422.062	2150
422.285	2146
422.507	2165
422.73	2101
422.953	2061
423.175	2072
423.398	2138
423.621	2186
423.843	2145
424.066	2184
424.288	2275
424.511	2323
424.733	2253
424.956	2052
425.178	2068
425.401	2081
425.623	2126
425.846	2103
426.068	2194
426.291	2260
426.513	2230
426.735	2193
426.958	2388
427.18	2513
427.402	2285
427.625	2377
427.847	2402
428.069	2189
428.292	2145
428.514	2047
428.736	2041
428.958	2070
429.181	2094
429.403	2380
429.625	3002
429.847	2545
430.069	2155
430.292	2349
430.514	2473
430.736	2260
430.958	2409
431.18	2294
431.402	2084
431.624	2073
431.846	2123
432.068	2070
432.29	2072
432.512	2117
432.734	2170
432.956	2188
433.178	2281
433.4	2235
433.622	2290
433.844	2140
434.066	2078
434.287	2077
434.509	2155
434.731	2283
434.953	2430
435.175	2385
435.397	2179
435.618	2254
435.84	2222
436.062	2196
436.284	2186
436.505	2244
436.727	2287
436.949	2189
437.17	2117
437.392	2107
437.614	2152
437.835	2050
438.057	2203
438.278	2379
438.5	2145
438.721	2056
438.943	2107
439.165	2090
439.386	2012
439.608	2069
439.829	2135
440.05	2068
440.272	2028
440.493	2057
440.715	2068
440.936	2202
441.158	2484
441.379	2399
441.6	2315
441.822	2271
442.043	2240
442.264	2196
442.486	2117
442.707	2115
442.928	2121
443.149	2157
443.371	2270
443.592	2382
443.813	2278
444.034	2279
444.255	2269
444.476	2333
444.698	2398
444.919	2316
445.14	2465
445.361	2432
445.582	2511
445.803	2408
446.024	2335
446.245	2389
446.466	2316
446.687	2200
446.908	2184
447.129	2120
447.35	2161
447.571	2166
447.792	2089
448.013	2043
448.234	2107
448.455	2215
448.675	2242
448.896	2003
449.117	2022
449.338	2099
449.559	2160
449.779	2248
450	2518
450.221	2712
450.442	2622
450.662	2264
450.883	2035
451.104	1938
451.324	1996
451.545	2078
451.766	2039
451.986	1909
452.207	1932
452.428	1826
452.648	1836
452.869	1921
453.089	2068
453.31	2052
453.53	2130
453.751	2062
453.971	1927
454.192	1960
454.412	2087
454.633	2037
454.853	1950
455.073	1827
455.294	1810
455.514	1856
455.734	1885
455.955	1865
456.175	1859
456.395	1890
456.616	1922
456.836	1923
457.056	1926
457.276	1929
457.497	1866
457.717	1821
457.937	1853
458.157	1893
458.377	1883
458.598	1876
458.818	1887
459.038	1989
459.258	2146
459.478	2124
459.698	2045
459.918	2100
460.138	2235
460.358	2249
460.578	2192
460.798	2366
461.018	2487
461.238	2342
461.458	2252
461.678	2253
461.898	2216
462.118	2137
462.338	2228
462.558	2229
462.777	2242
462.997	2316
463.217	2522
463.437	2466
463.657	2282
463.876	2244
464.096	2288
464.316	2202
464.536	2372
464.755	2347
464.975	2312
465.195	2224
465.414	2368
465.634	2339
465.854	2283
466.073	2387
466.293	2380
466.512	2096
466.732	2041
466.951	2133
467.171	2140
467.391	2022
467.61	2003
467.829	2046
468.049	2214
468.268	2494
468.488	2319
468.707	2168
468.927	2134
469.146	2094
469.365	2041
469.585	2105
469.804	2015
470.023	2034
470.243	2058
470.462	2043
470.681	1981
470.901	2002
471.12	2069
471.339	2037
471.558	1980
471.777	1971
471.997	1981
472.216	2017
472.435	1937
472.654	1963
472.873	2088
473.092	2188
473.311	2151
473.53	1954
473.749	1927
473.968	2027
474.187	2130
474.406	2234
474.625	2124
474.844	2096
475.063	2064
475.282	2173
475.501	2108
475.72	2070
475.939	2244
476.158	2135
476.377	2064
476.596	2106
476.814	2146
477.033	2146
477.252	2255
477.471	2323
477.69	2213
477.908	2151
478.127	2238
478.346	2464
478.564	2511
478.783	2458
479.002	2530
479.22	2455
479.439	2574
479.658	2939
479.876	2868
480.095	2528
480.313	2394
480.532	2242
480.751	2304
480.969	2380
481.188	2322
481.406	2309
481.624	2226
481.843	2266
482.061	2312
482.28	2352
482.498	2387
482.717	2425
482.935	2255
483.153	2271
483.372	2287
483.59	2244
483.808	2312
484.027	2378
484.245	2454
484.463	2876
484.681	3391
484.9	2488
485.118	2339
485.336	2274
485.554	2410
485.772	2550
485.99	2493
486.209	2525
486.427	2462
486.645	2455
486.863	2452
487.081	2505
487.299	2551
487.517	2536
487.735	2441
487.953	2348
488.171	2349
488.389	2334
488.607	2400
488.825	2674
489.043	2669
489.261	2372
489.479	2540
489.696	2562
489.914	2495
490.132	2496
490.35	2410
490.568	2550
490.786	2461
491.003	2298
491.221	2413
491.439	2474
491.657	2457
491.874	2482
492.092	2508
492.31	2510
492.527	2458
492.745	2439
492.963	2430
493.18	2547
493.398	2729
493.615	2814
493.833	2533
494.05	2498
494.268	2482
494.485	2599
494.703	2545
494.92	2429
495.138	2468
495.355	2473
495.573	2590
495.79	2777
496.008	2809
496.225	2592
496.442	2569
496.66	2674
496.877	2637
497.094	2760
497.312	2754
497.529	2676
497.746	2708
497.963	3267
498.181	3668
498.398	3402
498.615	3375
498.832	3222
499.049	3188
499.267	3115
499.484	3417
499.701	3657
499.918	3649
500.135	3943
500.352	4319
500.569	4279
500.786	4487
501.003	4181
501.22	3758
501.437	3656
501.654	3738
501.871	3650
502.088	3193
502.305	3145
502.522	3074
502.739	2836
502.956	2769
503.172	2754
503.389	2628
503.606	2617
503.823	2637
504.04	2630
504.256	2678
504.473	2654
504.69	2765
504.907	2621
505.123	2453
505.34	2561
505.557	3416
505.773	2906
505.99	2406
506.207	2284
506.423	2262
506.64	2249
506.856	2246
507.073	2603
507.289	2797
507.506	2669
507.722	2276
507.939	2145
508.155	2180
508.372	2222
508.588	2142
508.805	2050
509.021	2060
509.238	2064
509.454	2030
509.67	2038
509.887	2012
510.103	2040
510.319	2041
510.536	2181
510.752	2281
510.968	2244
511.184	2369
511.401	2291
511.617	2047
511.833	2013
512.049	2002
512.265	1984
512.481	2002
512.698	2088
512.914	2216
513.13	2124
513.346	2023
513.562	1966
513.778	2009
513.994	2104
514.21	2174
514.426	2211
514.642	2440
514.858	2372
515.074	2083
515.29	2036
515.506	2112
515.721	2125
515.937	2144
516.153	2414
516.369	2338
516.585	2193
516.801	2085
517.016	2081
517.232	2130
517.448	2185
517.664	2187
517.879	2146
518.095	2297
518.311	2213
518.527	2088
518.742	2051
518.958	1993
519.173	2009
519.389	2021
519.605	2076
519.82	2068
520.036	2117
520.251	2001
520.467	2013
520.682	2223
520.898	2316
521.113	2084
521.329	2007
521.544	2151
521.76	2058
521.975	1964
522.19	1901
522.406	1918
522.621	2323
522.836	2357
523.052	1883
523.267	1945
523.482	1896
523.698	1839
523.913	1786
524.128	1863
524.343	1953
524.559	1974
524.774	1874
524.989	1835
525.204	1807
525.419	1792
525.634	1790
525.849	1807
526.064	1812
526.28	1856
526.495	1773
526.71	1770
526.925	1780
527.14	1777
527.355	1730
527.57	1703
527.785	1790
527.999	1735
528.214	1716
528.429	1713
528.644	1703
528.859	1751
529.074	1712
529.289	1725
529.503	1753
529.718	1759
529.933	1764
530.148	1703
530.363	1683
530.577	1694
530.792	1760
531.007	1792
531.221	1711
531.436	1775
531.651	1832
531.865	1899
532.08	1842
532.295	1685
532.509	1656
532.724	1657
532.938	1777
533.153	1880
533.367	1842
533.582	1759
533.796	1721
534.011	1743
534.225	1766
534.44	1712
534.654	1691
534.868	1696
535.083	1765
535.297	1778
535.511	1744
535.726	1706
535.94	1713
536.154	1706
536.369	1682
536.583	1640
536.797	1656
537.011	1729
537.225	1622
537.44	1576
537.654	1659
537.868	1637
538.082	1535
538.296	1522
538.51	1584
538.724	1579
538.938	1564
539.153	1594
539.367	1615
539.581	1638
539.795	1729
540.009	1674
540.222	1650
540.436	1678
540.65	1755
540.864	1826
541.078	1718
541.292	1601
541.506	1575
541.72	1630
541.934	1638
