Data from WStandard_LampEnergy10_LIBS07252019.E.O._I.C._HRD10591_15-54-57-928.txt Node
Date: Thu Jul 25 15:54:57 EDT 2019
User: cochatt
Spectrometer: HR+D1059
Trigger mode: 1
Integration Time (sec): 1.000000E-1
Scans to average: 1
Electric dark correction enabled: true
Nonlinearity correction enabled: false
Boxcar width: 0
XAxis mode: Wavelengths
Number of Pixels in Spectrum: 2048
>>>>>Begin Spectral Data<<<<<
223.165	-6.69
223.4	-6.69
223.635	-6.69
223.869	-20.69
224.104	-17.69
224.338	-21.69
224.573	-18.69
224.808	-16.69
225.042	-10.69
225.277	-3.69
225.511	2.31
225.746	11.31
225.98	12.31
226.215	4.31
226.449	20.31
226.683	17.31
226.918	24.31
227.152	24.31
227.387	34.31
227.621	40.31
227.856	57.31
228.09	44.31
228.324	59.31
228.559	51.31
228.793	76.31
229.027	127.31
229.262	145.31
229.496	142.31
229.73	141.31
229.964	165.31
230.199	178.31
230.433	166.31
230.667	178.31
230.901	177.31
231.136	179.31
231.37	165.31
231.604	166.31
231.838	182.31
232.072	193.31
232.306	182.31
232.541	187.31
232.775	183.31
233.009	195.31
233.243	207.31
233.477	192.31
233.711	208.31
233.945	210.31
234.179	189.31
234.413	196.31
234.647	219.31
234.881	202.31
235.115	190.31
235.349	198.31
235.583	192.31
235.817	206.31
236.051	182.31
236.285	181.31
236.519	200.31
236.753	215.31
236.987	219.31
237.221	235.31
237.455	260.31
237.689	249.31
237.922	229.31
238.156	228.31
238.39	217.31
238.624	233.31
238.858	231.31
239.091	255.31
239.325	269.31
239.559	279.31
239.793	289.31
240.027	305.31
240.26	277.31
240.494	232.31
240.728	225.31
240.961	233.31
241.195	250.31
241.429	261.31
241.662	255.31
241.896	237.31
242.13	238.31
242.363	262.31
242.597	269.31
242.83	277.31
243.064	285.31
243.298	284.31
243.531	285.31
243.765	269.31
243.998	293.31
244.232	259.31
244.465	243.31
244.699	245.31
244.932	283.31
245.166	301.31
245.399	310.31
245.633	305.31
245.866	297.31
246.099	288.31
246.333	285.31
246.566	302.31
246.8	311.31
247.033	354.31
247.266	325.31
247.5	317.31
247.733	340.31
247.966	318.31
248.2	354.31
248.433	352.31
248.666	369.31
248.899	390.31
249.133	428.31
249.366	460.31
249.599	398.31
249.832	352.31
250.066	366.31
250.299	363.31
250.532	352.31
250.765	327.31
250.998	359.31
251.231	341.31
251.465	355.31
251.698	346.31
251.931	339.31
252.164	328.31
252.397	355.31
252.63	360.31
252.863	333.31
253.096	329.31
253.329	343.31
253.562	347.31
253.795	379.31
254.028	367.31
254.261	350.31
254.494	326.31
254.727	342.31
254.96	352.31
255.193	375.31
255.426	415.31
255.659	453.31
255.892	479.31
256.124	391.31
256.357	377.31
256.59	400.31
256.823	418.31
257.056	414.31
257.289	467.31
257.521	513.31
257.754	462.31
257.987	441.31
258.22	468.31
258.452	461.31
258.685	401.31
258.918	401.31
259.151	380.31
259.383	381.31
259.616	350.31
259.849	380.31
260.081	411.31
260.314	444.31
260.547	481.31
260.779	467.31
261.012	442.31
261.244	405.31
261.477	408.31
261.71	420.31
261.942	433.31
262.175	407.31
262.407	428.31
262.64	407.31
262.872	383.31
263.105	374.31
263.337	361.31
263.57	361.31
263.802	380.31
264.035	381.31
264.267	364.31
264.499	318.31
264.732	366.31
264.964	396.31
265.197	421.31
265.429	434.31
265.661	469.31
265.894	516.31
266.126	482.31
266.358	454.31
266.591	455.31
266.823	485.31
267.055	437.31
267.287	446.31
267.52	431.31
267.752	459.31
267.984	446.31
268.216	454.31
268.448	474.31
268.681	458.31
268.913	411.31
269.145	408.31
269.377	409.31
269.609	449.31
269.841	500.31
270.073	569.31
270.306	612.31
270.538	631.31
270.77	537.31
271.002	482.31
271.234	461.31
271.466	468.31
271.698	538.31
271.93	612.31
272.162	584.31
272.394	536.31
272.626	506.31
272.858	446.31
273.09	417.31
273.322	413.31
273.553	392.31
273.785	407.31
274.017	429.31
274.249	450.31
274.481	454.31
274.713	422.31
274.945	386.31
275.176	399.31
275.408	411.31
275.64	404.31
275.872	437.31
276.104	448.31
276.335	483.31
276.567	535.31
276.799	527.31
277.031	474.31
277.262	503.31
277.494	518.31
277.726	542.31
277.957	523.31
278.189	486.31
278.421	430.31
278.652	433.31
278.884	431.31
279.115	427.31
279.347	430.31
279.579	434.31
279.81	455.31
280.042	503.31
280.273	501.31
280.505	498.31
280.736	511.31
280.968	491.31
281.199	439.31
281.431	433.31
281.662	438.31
281.894	423.31
282.125	439.31
282.356	446.31
282.588	469.31
282.819	449.31
283.051	488.31
283.282	521.31
283.513	499.31
283.745	463.31
283.976	416.31
284.207	435.31
284.439	443.31
284.67	458.31
284.901	448.31
285.132	473.31
285.364	450.31
285.595	451.31
285.826	449.31
286.057	452.31
286.288	454.31
286.52	466.31
286.751	493.31
286.982	489.31
287.213	463.31
287.444	442.31
287.675	462.31
287.906	477.31
288.138	492.31
288.369	463.31
288.6	486.31
288.831	443.31
289.062	442.31
289.293	465.31
289.524	463.31
289.755	474.31
289.986	465.31
290.217	443.31
290.448	456.31
290.679	449.31
290.91	465.31
291.141	472.31
291.371	499.31
291.602	468.31
291.833	483.31
292.064	496.31
292.295	491.31
292.526	507.31
292.757	505.31
292.987	487.31
293.218	486.31
293.449	526.31
293.68	599.31
293.91	617.31
294.141	565.31
294.372	556.31
294.603	563.31
294.833	595.31
295.064	537.31
295.295	518.31
295.525	453.31
295.756	469.31
295.987	441.31
296.217	446.31
296.448	466.31
296.679	466.31
296.909	464.31
297.14	475.31
297.37	507.31
297.601	514.31
297.831	527.31
298.062	541.31
298.292	480.31
298.523	470.31
298.753	474.31
298.984	482.31
299.214	481.31
299.445	501.31
299.675	511.31
299.905	498.31
300.136	472.31
300.366	487.31
300.597	473.31
300.827	463.31
301.057	495.31
301.288	519.31
301.518	522.31
301.748	542.31
301.979	551.31
302.209	552.31
302.439	599.31
302.669	601.31
302.9	565.31
303.13	519.31
303.36	511.31
303.59	506.31
303.82	515.31
304.051	526.31
304.281	546.31
304.511	534.31
304.741	577.31
304.971	626.31
305.201	619.31
305.431	565.31
305.661	486.31
305.891	446.31
306.121	461.31
306.352	476.31
306.582	520.31
306.812	545.31
307.042	569.31
307.272	576.31
307.502	599.31
307.731	637.31
307.961	657.31
308.191	573.31
308.421	537.31
308.651	498.31
308.881	509.31
309.111	508.31
309.341	498.31
309.571	492.31
309.8	501.31
310.03	492.31
310.26	495.31
310.49	475.31
310.72	517.31
310.949	517.31
311.179	547.31
311.409	522.31
311.639	515.31
311.868	500.31
312.098	523.31
312.328	534.31
312.557	521.31
312.787	525.31
313.017	524.31
313.246	520.31
313.476	531.31
313.706	520.31
313.935	527.31
314.165	559.31
314.394	583.31
314.624	586.31
314.853	614.31
315.083	641.31
315.312	645.31
315.542	596.31
315.771	537.31
316.001	565.31
316.23	566.31
316.46	572.31
316.689	548.31
316.919	518.31
317.148	528.31
317.377	543.31
317.607	592.31
317.836	644.31
318.065	675.31
318.295	595.31
318.524	602.31
318.753	559.31
318.983	580.31
319.212	569.31
319.441	547.31
319.67	554.31
319.9	564.31
320.129	626.31
320.358	602.31
320.587	625.31
320.816	632.31
321.046	598.31
321.275	569.31
321.504	600.31
321.733	639.31
321.962	604.31
322.191	567.31
322.42	576.31
322.649	566.31
322.878	551.31
323.108	542.31
323.337	595.31
323.566	601.31
323.795	586.31
324.024	574.31
324.253	564.31
324.482	547.31
324.71	554.31
324.939	524.31
325.168	553.31
325.397	587.31
325.626	579.31
325.855	562.31
326.084	587.31
326.313	585.31
326.542	575.31
326.77	588.31
326.999	594.31
327.228	576.31
327.457	566.31
327.686	532.31
327.914	548.31
328.143	568.31
328.372	583.31
328.6	565.31
328.829	559.31
329.058	555.31
329.287	569.31
329.515	573.31
329.744	610.31
329.972	607.31
330.201	636.31
330.43	601.31
330.658	621.31
330.887	607.31
331.115	610.31
331.344	595.31
331.572	564.31
331.801	618.31
332.03	609.31
332.258	619.31
332.486	609.31
332.715	601.31
332.943	609.31
333.172	605.31
333.4	625.31
333.629	626.31
333.857	669.31
334.085	722.31
334.314	837.31
334.542	833.31
334.771	795.31
334.999	709.31
335.227	633.31
335.455	621.31
335.684	631.31
335.912	643.31
336.14	650.31
336.369	615.31
336.597	614.31
336.825	602.31
337.053	642.31
337.281	685.31
337.51	728.31
337.738	717.31
337.966	676.31
338.194	572.31
338.422	588.31
338.65	622.31
338.878	604.31
339.106	591.31
339.334	581.31
339.562	574.31
339.79	586.31
340.018	613.31
340.246	654.31
340.474	622.31
340.702	625.31
340.93	643.31
341.158	616.31
341.386	619.31
341.614	604.31
341.842	610.31
342.07	611.31
342.298	595.31
342.526	610.31
342.754	594.31
342.981	592.31
343.209	579.31
343.437	596.31
343.665	601.31
343.893	649.31
344.12	625.31
344.348	649.31
344.576	602.31
344.804	592.31
345.031	597.31
345.259	589.31
345.487	557.31
345.714	555.31
345.942	540.31
346.17	580.31
346.397	620.31
346.625	596.31
346.853	561.31
347.08	540.31
347.308	554.31
347.535	569.31
347.763	572.31
347.99	581.31
348.218	577.31
348.445	564.31
348.673	574.31
348.9	598.31
349.128	619.31
349.355	620.31
349.583	605.31
349.81	577.31
350.037	507.31
350.265	527.31
350.492	534.31
350.72	573.31
350.947	577.31
351.174	586.31
351.402	543.31
351.629	528.31
351.856	525.31
352.083	549.31
352.311	525.31
352.538	554.31
352.765	598.31
352.992	583.31
353.22	571.31
353.447	544.31
353.674	566.31
353.901	565.31
354.128	556.31
354.355	566.31
354.583	605.31
354.81	595.31
355.037	606.31
355.264	567.31
355.491	592.31
355.718	555.31
355.945	566.31
356.172	574.31
356.399	551.31
356.626	553.31
356.853	573.31
357.08	642.31
357.307	686.31
357.534	669.31
357.761	577.31
357.988	549.31
358.215	538.31
358.441	554.31
358.668	552.31
358.895	546.31
359.122	628.31
359.349	645.31
359.576	605.31
359.802	588.31
360.029	553.31
360.256	558.31
360.483	578.31
360.709	616.31
360.936	637.31
361.163	635.31
361.39	684.31
361.616	720.31
361.843	721.31
362.07	641.31
362.296	595.31
362.523	541.31
362.749	562.31
362.976	581.31
363.203	571.31
363.429	581.31
363.656	566.31
363.882	607.31
364.109	686.31
364.335	659.31
364.562	627.31
364.788	598.31
365.015	601.31
365.241	571.31
365.468	582.31
365.694	611.31
365.92	637.31
366.147	573.31
366.373	553.31
366.599	543.31
366.826	559.31
367.052	594.31
367.278	573.31
367.505	603.31
367.731	615.31
367.957	614.31
368.184	639.31
368.41	665.31
368.636	649.31
368.862	663.31
369.089	681.31
369.315	635.31
369.541	613.31
369.767	627.31
369.993	595.31
370.219	602.31
370.445	627.31
370.672	656.31
370.898	677.31
371.124	646.31
371.35	666.31
371.576	661.31
371.802	677.31
372.028	637.31
372.254	642.31
372.48	577.31
372.706	601.31
372.932	602.31
373.158	615.31
373.384	598.31
373.61	643.31
373.835	661.31
374.061	649.31
374.287	639.31
374.513	641.31
374.739	648.31
374.965	645.31
375.191	665.31
375.416	639.31
375.642	649.31
375.868	693.31
376.094	717.31
376.319	690.31
376.545	648.31
376.771	703.31
376.997	698.31
377.222	708.31
377.448	698.31
377.674	702.31
377.899	708.31
378.125	742.31
378.35	699.31
378.576	654.31
378.802	620.31
379.027	633.31
379.253	643.31
379.478	645.31
379.704	633.31
379.929	641.31
380.155	635.31
380.38	675.31
380.606	673.31
380.831	681.31
381.057	694.31
381.282	713.31
381.507	717.31
381.733	768.31
381.958	747.31
382.184	689.31
382.409	691.31
382.634	677.31
382.86	668.31
383.085	669.31
383.31	713.31
383.535	787.31
383.761	821.31
383.986	794.31
384.211	729.31
384.436	752.31
384.662	779.31
384.887	801.31
385.112	737.31
385.337	748.31
385.562	724.31
385.787	731.31
386.013	755.31
386.238	777.31
386.463	746.31
386.688	831.31
386.913	860.31
387.138	821.31
387.363	772.31
387.588	788.31
387.813	786.31
388.038	805.31
388.263	812.31
388.488	757.31
388.713	735.31
388.938	695.31
389.163	774.31
389.387	769.31
389.612	739.31
389.837	775.31
390.062	771.31
390.287	777.31
390.512	737.31
390.736	725.31
390.961	731.31
391.186	743.31
391.411	763.31
391.636	769.31
391.86	750.31
392.085	753.31
392.31	767.31
392.534	773.31
392.759	769.31
392.984	768.31
393.208	789.31
393.433	801.31
393.658	838.31
393.882	829.31
394.107	777.31
394.331	767.31
394.556	769.31
394.78	793.31
395.005	818.31
395.229	822.31
395.454	854.31
395.678	871.31
395.903	868.31
396.127	818.31
396.352	823.31
396.576	835.31
396.801	853.31
397.025	859.31
397.249	834.31
397.474	830.31
397.698	814.31
397.922	869.31
398.147	889.31
398.371	928.31
398.595	936.31
398.82	854.31
399.044	907.31
399.268	939.31
399.492	961.31
399.717	996.31
399.941	992.31
400.165	974.31
400.389	975.31
400.613	982.31
400.837	1142.31
401.062	1152.31
401.286	1037.31
401.51	997.31
401.734	1009.31
401.958	951.31
402.182	935.31
402.406	879.31
402.63	893.31
402.854	885.31
403.078	900.31
403.302	937.31
403.526	939.31
403.75	953.31
403.974	930.31
404.198	961.31
404.422	1003.31
404.645	1066.31
404.869	970.31
405.093	900.31
405.317	902.31
405.541	921.31
405.765	947.31
405.988	925.31
406.212	931.31
406.436	935.31
406.66	1016.31
406.883	1035.31
407.107	1150.31
407.331	1223.31
407.555	1295.31
407.778	1105.31
408.002	986.31
408.226	981.31
408.449	971.31
408.673	954.31
408.896	953.31
409.12	980.31
409.344	965.31
409.567	957.31
409.791	945.31
410.014	973.31
410.238	1049.31
410.461	1084.31
410.685	989.31
410.908	940.31
411.132	985.31
411.355	949.31
411.578	921.31
411.802	927.31
412.025	958.31
412.249	933.31
412.472	927.31
412.695	905.31
412.919	930.31
413.142	892.31
413.365	933.31
413.589	967.31
413.812	1025.31
414.035	1014.31
414.258	933.31
414.482	908.31
414.705	961.31
414.928	942.31
415.151	925.31
415.374	919.31
415.597	940.31
415.821	938.31
416.044	935.31
416.267	960.31
416.49	929.31
416.713	895.31
416.936	949.31
417.159	985.31
417.382	991.31
417.605	921.31
417.828	936.31
418.051	958.31
418.274	979.31
418.497	942.31
418.72	945.31
418.943	938.31
419.166	971.31
419.389	1014.31
419.611	968.31
419.834	963.31
420.057	926.31
420.28	926.31
420.503	956.31
420.726	979.31
420.948	947.31
421.171	931.31
421.394	949.31
421.617	987.31
421.839	986.31
422.062	981.31
422.285	958.31
422.507	929.31
422.73	921.31
422.953	886.31
423.175	892.31
423.398	940.31
423.621	935.31
423.843	959.31
424.066	999.31
424.288	1026.31
424.511	1051.31
424.733	1026.31
424.956	948.31
425.178	922.31
425.401	942.31
425.623	939.31
425.846	921.31
426.068	959.31
426.291	982.31
426.513	966.31
426.735	963.31
426.958	1057.31
427.18	1062.31
427.402	1018.31
427.625	1034.31
427.847	1006.31
428.069	940.31
428.292	923.31
428.514	876.31
428.736	888.31
428.958	911.31
429.181	925.31
429.403	1076.31
429.625	1264.31
429.847	1065.31
430.069	968.31
430.292	1042.31
430.514	1015.31
430.736	1010.31
430.958	996.31
431.18	926.31
431.402	867.31
431.624	875.31
431.846	825.31
432.068	733.31
432.29	769.31
432.512	793.31
432.734	887.31
432.956	928.31
433.178	976.31
433.4	986.31
433.622	946.31
433.844	927.31
434.066	866.31
434.287	819.31
434.509	788.31
434.731	842.31
434.953	911.31
435.175	917.31
435.397	898.31
435.618	887.31
435.84	845.31
436.062	830.31
436.284	918.31
436.505	931.31
436.727	949.31
436.949	945.31
437.17	909.31
437.392	899.31
437.614	878.31
437.835	828.31
438.057	849.31
438.278	842.31
438.5	857.31
438.721	901.31
438.943	905.31
439.165	927.31
439.386	938.31
439.608	972.31
439.829	956.31
440.05	943.31
440.272	958.31
440.493	951.31
440.715	981.31
440.936	1034.31
441.158	1090.31
441.379	1060.31
441.6	1060.31
441.822	1012.31
442.043	1024.31
442.264	1003.31
442.486	970.31
442.707	950.31
442.928	937.31
443.149	965.31
443.371	1027.31
443.592	1033.31
443.813	1063.31
444.034	1005.31
444.255	1009.31
444.476	1059.31
444.698	1059.31
444.919	1054.31
445.14	1195.31
445.361	1112.31
445.582	1083.31
445.803	1059.31
446.024	1035.31
446.245	1077.31
446.466	1055.31
446.687	1042.31
446.908	1067.31
447.129	1027.31
447.35	1004.31
447.571	1017.31
447.792	958.31
448.013	958.31
448.234	971.31
448.455	986.31
448.675	979.31
448.896	900.31
449.117	906.31
449.338	946.31
449.559	957.31
449.779	965.31
450	996.31
450.221	1078.31
450.442	1050.31
450.662	950.31
450.883	889.31
451.104	881.31
451.324	886.31
451.545	902.31
451.766	868.31
451.986	859.31
452.207	801.31
452.428	794.31
452.648	808.31
452.869	799.31
453.089	772.31
453.31	792.31
453.53	799.31
453.751	728.31
453.971	722.31
454.192	717.31
454.412	777.31
454.633	783.31
454.853	822.31
455.073	771.31
455.294	771.31
455.514	790.31
455.734	789.31
455.955	784.31
456.175	738.31
456.395	769.31
456.616	742.31
456.836	754.31
457.056	739.31
457.276	728.31
457.497	705.31
457.717	681.31
457.937	704.31
458.157	737.31
458.377	705.31
458.598	698.31
458.818	663.31
459.038	709.31
459.258	691.31
459.478	703.31
459.698	725.31
459.918	757.31
460.138	815.31
460.358	846.31
460.578	877.31
460.798	887.31
461.018	925.31
461.238	889.31
461.458	870.31
461.678	853.31
461.898	806.31
462.118	837.31
462.338	836.31
462.558	863.31
462.777	862.31
462.997	866.31
463.217	894.31
463.437	911.31
463.657	836.31
463.876	845.31
464.096	832.31
464.316	852.31
464.536	866.31
464.755	862.31
464.975	871.31
465.195	873.31
465.414	870.31
465.634	892.31
465.854	895.31
466.073	985.31
466.293	934.31
466.512	868.31
466.732	904.31
466.951	910.31
467.171	906.31
467.391	888.31
467.61	897.31
467.829	892.31
468.049	965.31
468.268	1075.31
468.488	972.31
468.707	919.31
468.927	926.31
469.146	912.31
469.365	940.31
469.585	946.31
469.804	913.31
470.023	943.31
470.243	938.31
470.462	966.31
470.681	939.31
470.901	956.31
471.12	935.31
471.339	953.31
471.558	915.31
471.777	902.31
471.997	901.31
472.216	859.31
472.435	810.31
472.654	776.31
472.873	810.31
473.092	860.31
473.311	859.31
473.53	834.31
473.749	835.31
473.968	857.31
474.187	845.31
474.406	846.31
474.625	878.31
474.844	895.31
475.063	887.31
475.282	854.31
475.501	834.31
475.72	867.31
475.939	893.31
476.158	915.31
476.377	855.31
476.596	831.31
476.814	847.31
477.033	833.31
477.252	845.31
477.471	909.31
477.69	900.31
477.908	949.31
478.127	985.31
478.346	983.31
478.564	1003.31
478.783	1013.31
479.002	1013.31
479.22	1011.31
479.439	1021.31
479.658	1075.31
479.876	1021.31
480.095	914.31
480.313	942.31
480.532	899.31
480.751	879.31
480.969	857.31
481.188	788.31
481.406	795.31
481.624	805.31
481.843	806.31
482.061	828.31
482.28	875.31
482.498	899.31
482.717	883.31
482.935	905.31
483.153	1014.31
483.372	1049.31
483.59	1038.31
483.808	994.31
484.027	974.31
484.245	972.31
484.463	1217.31
484.681	1291.31
484.9	1049.31
485.118	973.31
485.336	937.31
485.554	920.31
485.772	894.31
485.99	881.31
486.209	924.31
486.427	903.31
486.645	953.31
486.863	1003.31
487.081	1086.31
487.299	1021.31
487.517	1045.31
487.735	1114.31
487.953	1205.31
488.171	1177.31
488.389	1128.31
488.607	1097.31
488.825	1162.31
489.043	1098.31
489.261	980.31
489.479	1063.31
489.696	1078.31
489.914	1048.31
490.132	1046.31
490.35	1085.31
490.568	1177.31
490.786	1230.31
491.003	1181.31
491.221	1243.31
491.439	1281.31
491.657	1304.31
491.874	1365.31
492.092	1466.31
492.31	1513.31
492.527	1466.31
492.745	1401.31
492.963	1314.31
493.18	1335.31
493.398	1364.31
493.615	1358.31
493.833	1262.31
494.05	1225.31
494.268	1233.31
494.485	1227.31
494.703	1237.31
494.92	1209.31
495.138	1252.31
495.355	1262.31
495.573	1278.31
495.79	1271.31
496.008	1289.31
496.225	1286.31
496.442	1241.31
496.66	1225.31
496.877	1185.31
497.094	1231.31
497.312	1231.31
497.529	1188.31
497.746	1196.31
497.963	1267.31
498.181	1329.31
498.398	1270.31
498.615	1227.31
498.832	1198.31
499.049	1165.31
499.267	1174.31
499.484	1232.31
499.701	1343.31
499.918	1384.31
500.135	1473.31
