Data from WStandard_LampEnergy5.5LIBS07252019.E.O._I.C._HRD10591_16-07-32-920.txt Node
Date: Thu Jul 25 16:07:32 EDT 2019
User: cochatt
Spectrometer: HR+D1059
Trigger mode: 1
Integration Time (sec): 1.000000E-1
Scans to average: 1
Electric dark correction enabled: true
Nonlinearity correction enabled: false
Boxcar width: 0
XAxis mode: Wavelengths
Number of Pixels in Spectrum: 2048
>>>>>Begin Spectral Data<<<<<
223.165	-28.5
223.4	-28.5
223.635	-28.5
223.869	-18.5
224.104	-11.5
224.338	-2.5
224.573	-10.5
224.808	-15.5
225.042	-3.5
225.277	-0.5
225.511	-15.5
225.746	12.5
225.98	5.5
226.215	11.5
226.449	5.5
226.683	22.5
226.918	23.5
227.152	25.5
227.387	26.5
227.621	44.5
227.856	39.5
228.09	36.5
228.324	45.5
228.559	51.5
228.793	138.5
229.027	368.5
229.262	388.5
229.496	393.5
229.73	418.5
229.964	435.5
230.199	466.5
230.433	499.5
230.667	492.5
230.901	520.5
231.136	509.5
231.37	469.5
231.604	476.5
231.838	465.5
232.072	484.5
232.306	459.5
232.541	493.5
232.775	558.5
233.009	643.5
233.243	591.5
233.477	523.5
233.711	550.5
233.945	575.5
234.179	572.5
234.413	610.5
234.647	631.5
234.881	624.5
235.115	550.5
235.349	568.5
235.583	551.5
235.817	576.5
236.051	545.5
236.285	558.5
236.519	612.5
236.753	662.5
236.987	705.5
237.221	674.5
237.455	765.5
237.689	742.5
237.922	687.5
238.156	689.5
238.39	691.5
238.624	721.5
238.858	767.5
239.091	779.5
239.325	800.5
239.559	909.5
239.793	962.5
240.027	1077.5
240.26	1072.5
240.494	733.5
240.728	715.5
240.961	739.5
241.195	739.5
241.429	850.5
241.662	844.5
241.896	776.5
242.13	785.5
242.363	852.5
242.597	907.5
242.83	902.5
243.064	927.5
243.298	996.5
243.531	962.5
243.765	951.5
243.998	940.5
244.232	858.5
244.465	813.5
244.699	813.5
244.932	907.5
245.166	1061.5
245.399	1012.5
245.633	914.5
245.866	913.5
246.099	953.5
246.333	990.5
246.566	1004.5
246.8	1073.5
247.033	1213.5
247.266	1116.5
247.5	1063.5
247.733	1068.5
247.966	1135.5
248.2	1305.5
248.433	1208.5
248.666	1227.5
248.899	1359.5
249.133	1577.5
249.366	1816.5
249.599	1425.5
249.832	1263.5
250.066	1273.5
250.299	1327.5
250.532	1257.5
250.765	1099.5
250.998	1197.5
251.231	1218.5
251.465	1289.5
251.698	1230.5
251.931	1226.5
252.164	1221.5
252.397	1310.5
252.63	1282.5
252.863	1144.5
253.096	1103.5
253.329	1174.5
253.562	1255.5
253.795	1314.5
254.028	1297.5
254.261	1202.5
254.494	1189.5
254.727	1125.5
254.96	1153.5
255.193	1248.5
255.426	1433.5
255.659	1657.5
255.892	1710.5
256.124	1430.5
256.357	1361.5
256.59	1497.5
256.823	1457.5
257.056	1431.5
257.289	1721.5
257.521	1961.5
257.754	1735.5
257.987	1594.5
258.22	1842.5
258.452	1797.5
258.685	1476.5
258.918	1442.5
259.151	1399.5
259.383	1345.5
259.616	1194.5
259.849	1284.5
260.081	1419.5
260.314	1588.5
260.547	1720.5
260.779	1753.5
261.012	1666.5
261.244	1487.5
261.477	1402.5
261.71	1451.5
261.942	1465.5
262.175	1380.5
262.407	1517.5
262.64	1413.5
262.872	1313.5
263.105	1260.5
263.337	1334.5
263.57	1330.5
263.802	1337.5
264.035	1269.5
264.267	1183.5
264.499	1161.5
264.732	1264.5
264.964	1323.5
265.197	1386.5
265.429	1430.5
265.661	1658.5
265.894	1791.5
266.126	1801.5
266.358	1638.5
266.591	1699.5
266.823	1853.5
267.055	1651.5
267.287	1627.5
267.52	1590.5
267.752	1579.5
267.984	1607.5
268.216	1649.5
268.448	1663.5
268.681	1656.5
268.913	1537.5
269.145	1492.5
269.377	1435.5
269.609	1536.5
269.841	1761.5
270.073	2111.5
270.306	2297.5
270.538	2487.5
270.77	2097.5
271.002	1757.5
271.234	1660.5
271.466	1632.5
271.698	1887.5
271.93	2274.5
272.162	2289.5
272.394	2028.5
272.626	1954.5
272.858	1699.5
273.09	1487.5
273.322	1487.5
273.553	1389.5
273.785	1446.5
274.017	1492.5
274.249	1569.5
274.481	1635.5
274.713	1461.5
274.945	1439.5
275.176	1479.5
275.408	1438.5
275.64	1414.5
275.872	1384.5
276.104	1483.5
276.335	1666.5
276.567	1881.5
276.799	1947.5
277.031	1713.5
277.262	1607.5
277.494	1668.5
277.726	1865.5
277.957	1898.5
278.189	1705.5
278.421	1587.5
278.652	1505.5
278.884	1527.5
279.115	1511.5
279.347	1585.5
279.579	1503.5
279.81	1504.5
280.042	1639.5
280.273	1839.5
280.505	1806.5
280.736	1812.5
280.968	1792.5
281.199	1571.5
281.431	1438.5
281.662	1459.5
281.894	1475.5
282.125	1501.5
282.356	1543.5
282.588	1577.5
282.819	1529.5
283.051	1695.5
283.282	1859.5
283.513	1769.5
283.745	1565.5
283.976	1436.5
284.207	1460.5
284.439	1476.5
284.67	1528.5
284.901	1581.5
285.132	1586.5
285.364	1554.5
285.595	1630.5
285.826	1559.5
286.057	1543.5
286.288	1508.5
286.52	1561.5
286.751	1746.5
286.982	1795.5
287.213	1618.5
287.444	1531.5
287.675	1507.5
287.906	1579.5
288.138	1677.5
288.369	1668.5
288.6	1568.5
288.831	1497.5
289.062	1484.5
289.293	1578.5
289.524	1549.5
289.755	1608.5
289.986	1593.5
290.217	1489.5
290.448	1509.5
290.679	1570.5
290.91	1583.5
291.141	1591.5
291.371	1654.5
291.602	1677.5
291.833	1646.5
292.064	1690.5
292.295	1646.5
292.526	1678.5
292.757	1805.5
292.987	1695.5
293.218	1577.5
293.449	1719.5
293.68	1900.5
293.91	2097.5
294.141	1945.5
294.372	1815.5
294.603	1873.5
294.833	1898.5
295.064	1873.5
295.295	1705.5
295.525	1618.5
295.756	1571.5
295.987	1470.5
296.217	1490.5
296.448	1548.5
296.679	1561.5
296.909	1528.5
297.14	1526.5
297.37	1536.5
297.601	1627.5
297.831	1797.5
298.062	1760.5
298.292	1637.5
298.523	1543.5
298.753	1563.5
298.984	1572.5
299.214	1573.5
299.445	1629.5
299.675	1682.5
299.905	1650.5
300.136	1584.5
300.366	1576.5
300.597	1510.5
300.827	1505.5
301.057	1570.5
301.288	1612.5
301.518	1643.5
301.748	1705.5
301.979	1770.5
302.209	1800.5
302.439	1951.5
302.669	2017.5
302.9	1844.5
303.13	1665.5
303.36	1667.5
303.59	1701.5
303.82	1705.5
304.051	1654.5
304.281	1683.5
304.511	1702.5
304.741	1778.5
304.971	1935.5
305.201	2092.5
305.431	1971.5
305.661	1638.5
305.891	1476.5
306.121	1483.5
306.352	1534.5
306.582	1632.5
306.812	1689.5
307.042	1860.5
307.272	1838.5
307.502	1885.5
307.731	2012.5
307.961	2173.5
308.191	2100.5
308.421	1750.5
308.651	1634.5
308.881	1621.5
309.111	1609.5
309.341	1569.5
309.571	1592.5
309.8	1609.5
310.03	1604.5
310.26	1567.5
310.49	1601.5
310.72	1627.5
310.949	1679.5
311.179	1761.5
311.409	1673.5
311.639	1665.5
311.868	1630.5
312.098	1621.5
312.328	1627.5
312.557	1607.5
312.787	1646.5
313.017	1701.5
313.246	1684.5
313.476	1651.5
313.706	1693.5
313.935	1694.5
314.165	1732.5
314.394	1779.5
314.624	1875.5
314.853	1926.5
315.083	1989.5
315.312	2100.5
315.542	1988.5
315.771	1772.5
316.001	1699.5
316.23	1850.5
316.46	1839.5
316.689	1809.5
316.919	1704.5
317.148	1645.5
317.377	1682.5
317.607	1777.5
317.836	1970.5
318.065	2070.5
318.295	2002.5
318.524	1954.5
318.753	1859.5
318.983	1809.5
319.212	1780.5
319.441	1727.5
319.67	1693.5
319.9	1762.5
320.129	1835.5
320.358	1978.5
320.587	1978.5
320.816	1962.5
321.046	1955.5
321.275	1813.5
321.504	1824.5
321.733	1988.5
321.962	1964.5
322.191	1773.5
322.42	1765.5
322.649	1785.5
322.878	1742.5
323.108	1718.5
323.337	1830.5
323.566	1814.5
323.795	1824.5
324.024	1824.5
324.253	1751.5
324.482	1821.5
324.71	1730.5
324.939	1663.5
325.168	1691.5
325.397	1745.5
325.626	1828.5
325.855	1804.5
326.084	1722.5
326.313	1760.5
326.542	1780.5
326.77	1857.5
326.999	1870.5
327.228	1779.5
327.457	1709.5
327.686	1653.5
327.914	1657.5
328.143	1796.5
328.372	1791.5
328.6	1767.5
328.829	1741.5
329.058	1686.5
329.287	1711.5
329.515	1737.5
329.744	1799.5
329.972	1915.5
330.201	1984.5
330.43	1934.5
330.658	1860.5
330.887	1864.5
331.115	1853.5
331.344	1878.5
331.572	1849.5
331.801	1869.5
332.03	1861.5
332.258	1858.5
332.486	1894.5
332.715	1889.5
332.943	1911.5
333.172	1861.5
333.4	1821.5
333.629	1925.5
333.857	2097.5
334.085	2255.5
334.314	2503.5
334.542	2830.5
334.771	2582.5
334.999	2249.5
335.227	2134.5
335.455	2013.5
335.684	1999.5
335.912	2040.5
336.14	2102.5
336.369	2033.5
336.597	1943.5
336.825	1862.5
337.053	1940.5
337.281	2041.5
337.51	2154.5
337.738	2227.5
337.966	2177.5
338.194	1914.5
338.422	1867.5
338.65	1818.5
338.878	1838.5
339.106	1797.5
339.334	1771.5
339.562	1773.5
339.79	1799.5
340.018	1890.5
340.246	1963.5
340.474	2038.5
340.702	1905.5
340.93	1897.5
341.158	1925.5
341.386	1882.5
341.614	1853.5
341.842	1862.5
342.07	1814.5
342.298	1897.5
342.526	1906.5
342.754	1820.5
342.981	1844.5
343.209	1810.5
343.437	1868.5
343.665	1815.5
343.893	1841.5
344.12	1989.5
344.348	2020.5
344.576	1946.5
344.804	1861.5
345.031	1827.5
345.259	1878.5
345.487	1780.5
345.714	1740.5
345.942	1724.5
346.17	1697.5
346.397	1740.5
346.625	1793.5
346.853	1700.5
347.08	1621.5
347.308	1644.5
347.535	1673.5
347.763	1745.5
347.99	1735.5
348.218	1643.5
348.445	1643.5
348.673	1713.5
348.9	1728.5
349.128	1811.5
349.355	1860.5
349.583	1825.5
349.81	1793.5
350.037	1637.5
350.265	1588.5
350.492	1615.5
350.72	1647.5
350.947	1724.5
351.174	1774.5
351.402	1669.5
351.629	1611.5
351.856	1581.5
352.083	1597.5
352.311	1586.5
352.538	1679.5
352.765	1726.5
352.992	1778.5
353.22	1701.5
353.447	1621.5
353.674	1657.5
353.901	1733.5
354.128	1692.5
354.355	1620.5
354.583	1745.5
354.81	1745.5
355.037	1747.5
355.264	1759.5
355.491	1695.5
355.718	1738.5
355.945	1732.5
356.172	1690.5
356.399	1650.5
356.626	1682.5
356.853	1694.5
357.08	1838.5
357.307	2049.5
357.534	2016.5
357.761	1750.5
357.988	1660.5
358.215	1613.5
358.441	1636.5
358.668	1653.5
358.895	1660.5
359.122	1709.5
359.349	1932.5
359.576	1855.5
359.802	1729.5
360.029	1650.5
360.256	1609.5
360.483	1650.5
360.709	1693.5
360.936	1775.5
361.163	1795.5
361.39	1971.5
361.616	2135.5
361.843	2072.5
362.07	2000.5
362.296	1684.5
362.523	1629.5
362.749	1661.5
362.976	1662.5
363.203	1727.5
363.429	1687.5
363.656	1622.5
363.882	1703.5
364.109	1826.5
364.335	2066.5
364.562	1898.5
364.788	1799.5
365.015	1735.5
365.241	1647.5
365.468	1683.5
365.694	1740.5
365.92	1868.5
366.147	1781.5
366.373	1652.5
366.599	1586.5
366.826	1644.5
367.052	1657.5
367.278	1657.5
367.505	1697.5
367.731	1740.5
367.957	1745.5
368.184	1789.5
368.41	1869.5
368.636	1860.5
368.862	1892.5
369.089	1914.5
369.315	1818.5
369.541	1786.5
369.767	1743.5
369.993	1659.5
370.219	1678.5
370.445	1742.5
370.672	1842.5
370.898	1878.5
371.124	1859.5
371.35	1801.5
371.576	1824.5
371.802	1899.5
372.028	1830.5
372.254	1740.5
372.48	1710.5
372.706	1646.5
372.932	1672.5
373.158	1699.5
373.384	1726.5
373.61	1766.5
373.835	1935.5
374.061	1795.5
374.287	1749.5
374.513	1765.5
374.739	1778.5
374.965	1785.5
375.191	1817.5
375.416	1821.5
375.642	1817.5
375.868	1890.5
376.094	2027.5
376.319	1867.5
376.545	1772.5
376.771	1800.5
376.997	1882.5
377.222	1889.5
377.448	1827.5
377.674	1850.5
377.899	1840.5
378.125	1901.5
378.35	1961.5
378.576	1781.5
378.802	1690.5
379.027	1696.5
379.253	1761.5
379.478	1754.5
379.704	1757.5
379.929	1760.5
380.155	1749.5
380.38	1779.5
380.606	1814.5
380.831	1786.5
381.057	1858.5
381.282	1900.5
381.507	1847.5
381.733	1927.5
381.958	2051.5
382.184	1897.5
382.409	1843.5
382.634	1836.5
382.86	1840.5
383.085	1854.5
383.31	1878.5
383.535	2041.5
383.761	2165.5
383.986	2082.5
384.211	1985.5
384.436	1977.5
384.662	2047.5
384.887	2149.5
385.112	2027.5
385.337	2031.5
385.562	1997.5
385.787	2006.5
386.013	2070.5
386.238	2090.5
386.463	2013.5
386.688	2179.5
386.913	2278.5
387.138	2263.5
387.363	2077.5
387.588	2106.5
387.813	2077.5
388.038	2108.5
388.263	2142.5
388.488	2130.5
388.713	1976.5
388.938	1877.5
389.163	1923.5
389.387	1998.5
389.612	1995.5
389.837	2075.5
390.062	2051.5
390.287	2057.5
390.512	2053.5
390.736	2014.5
390.961	1931.5
391.186	1899.5
391.411	1914.5
391.636	2033.5
391.86	2061.5
392.085	1981.5
392.31	2027.5
392.534	1993.5
392.759	2055.5
392.984	2016.5
393.208	2050.5
393.433	2094.5
393.658	2154.5
393.882	2204.5
394.107	2103.5
394.331	1957.5
394.556	1967.5
394.78	2041.5
395.005	2142.5
395.229	2169.5
395.454	2311.5
395.678	2362.5
395.903	2249.5
396.127	2108.5
396.352	2150.5
396.576	2161.5
396.801	2202.5
397.025	2183.5
397.249	2207.5
397.474	2171.5
397.698	2140.5
397.922	2221.5
398.147	2283.5
398.371	2435.5
398.595	2409.5
398.82	2255.5
399.044	2349.5
399.268	2440.5
399.492	2627.5
399.717	2681.5
399.941	2719.5
400.165	2652.5
400.389	2571.5
400.613	2539.5
400.837	2809.5
401.062	3278.5
401.286	2779.5
401.51	2494.5
401.734	2646.5
401.958	2558.5
402.182	2398.5
402.406	2316.5
402.63	2277.5
402.854	2303.5
403.078	2322.5
403.302	2379.5
403.526	2411.5
403.75	2372.5
403.974	2435.5
404.198	2458.5
404.422	2480.5
404.645	2569.5
404.869	2591.5
405.093	2377.5
405.317	2309.5
405.541	2405.5
405.765	2429.5
405.988	2424.5
406.212	2456.5
406.436	2479.5
406.66	2609.5
406.883	2587.5
407.107	2896.5
407.331	3156.5
407.555	3396.5
407.778	3108.5
408.002	2613.5
408.226	2536.5
408.449	2521.5
408.673	2443.5
408.896	2477.5
409.12	2474.5
409.344	2483.5
409.567	2415.5
409.791	2467.5
410.014	2439.5
410.238	2555.5
410.461	2722.5
410.685	2451.5
410.908	2299.5
411.132	2394.5
411.355	2400.5
411.578	2380.5
411.802	2363.5
412.025	2423.5
412.249	2355.5
412.472	2281.5
412.695	2239.5
412.919	2275.5
413.142	2291.5
413.365	2300.5
413.589	2384.5
413.812	2451.5
414.035	2532.5
414.258	2335.5
414.482	2269.5
414.705	2293.5
414.928	2285.5
415.151	2270.5
415.374	2315.5
415.597	2358.5
415.821	2343.5
416.044	2414.5
416.267	2433.5
416.49	2245.5
416.713	2187.5
416.936	2292.5
417.159	2320.5
417.382	2318.5
417.605	2230.5
417.828	2270.5
418.051	2333.5
418.274	2294.5
418.497	2186.5
418.72	2211.5
418.943	2189.5
419.166	2373.5
419.389	2469.5
419.611	2346.5
419.834	2255.5
420.057	2286.5
420.28	2249.5
420.503	2205.5
420.726	2278.5
420.948	2256.5
421.171	2150.5
421.394	2241.5
421.617	2327.5
421.839	2311.5
422.062	2232.5
422.285	2227.5
422.507	2173.5
422.73	2127.5
422.953	2116.5
423.175	2120.5
423.398	2183.5
423.621	2161.5
423.843	2223.5
424.066	2243.5
424.288	2305.5
424.511	2386.5
424.733	2298.5
424.956	2126.5
425.178	2125.5
425.401	2173.5
425.623	2169.5
425.846	2169.5
426.068	2250.5
426.291	2290.5
426.513	2270.5
426.735	2227.5
426.958	2428.5
427.18	2559.5
427.402	2350.5
427.625	2331.5
427.847	2391.5
428.069	2215.5
428.292	2173.5
428.514	2105.5
428.736	2087.5
428.958	2145.5
429.181	2130.5
429.403	2355.5
429.625	2926.5
429.847	2617.5
430.069	2193.5
430.292	2419.5
430.514	2509.5
430.736	2357.5
430.958	2419.5
431.18	2325.5
431.402	2127.5
431.624	2124.5
431.846	2103.5
432.068	2057.5
432.29	2075.5
432.512	2186.5
432.734	2219.5
432.956	2239.5
433.178	2347.5
433.4	2268.5
433.622	2363.5
433.844	2199.5
434.066	2089.5
434.287	2093.5
434.509	2209.5
434.731	2324.5
434.953	2469.5
435.175	2444.5
435.397	2273.5
435.618	2241.5
435.84	2254.5
436.062	2235.5
436.284	2269.5
436.505	2253.5
436.727	2289.5
436.949	2283.5
437.17	2143.5
437.392	2149.5
437.614	2139.5
437.835	2073.5
438.057	2181.5
438.278	2337.5
438.5	2191.5
438.721	2107.5
438.943	2114.5
439.165	2136.5
439.386	2048.5
439.608	2100.5
439.829	2122.5
440.05	2112.5
440.272	2109.5
440.493	2072.5
440.715	2135.5
440.936	2283.5
441.158	2518.5
441.379	2433.5
441.6	2322.5
441.822	2325.5
442.043	2284.5
442.264	2233.5
442.486	2122.5
442.707	2127.5
442.928	2103.5
443.149	2239.5
443.371	2338.5
443.592	2366.5
443.813	2361.5
444.034	2321.5
444.255	2335.5
444.476	2362.5
444.698	2463.5
444.919	2398.5
445.14	2456.5
445.361	2465.5
445.582	2552.5
445.803	2422.5
446.024	2341.5
446.245	2464.5
446.466	2349.5
446.687	2259.5
446.908	2191.5
447.129	2140.5
447.35	2189.5
447.571	2161.5
447.792	2111.5
448.013	2057.5
448.234	2094.5
448.455	2247.5
448.675	2244.5
448.896	2019.5
449.117	2030.5
449.338	2101.5
449.559	2160.5
449.779	2300.5
450	2516.5
450.221	2745.5
450.442	2650.5
450.662	2292.5
450.883	2069.5
451.104	2010.5
451.324	2022.5
451.545	2166.5
451.766	2085.5
451.986	1997.5
452.207	1988.5
452.428	1918.5
452.648	1867.5
452.869	1929.5
453.089	2117.5
453.31	2108.5
453.53	2166.5
453.751	2024.5
453.971	1945.5
454.192	1989.5
454.412	2113.5
454.633	2066.5
454.853	2009.5
455.073	1820.5
455.294	1857.5
455.514	1867.5
455.734	1864.5
455.955	1909.5
456.175	1872.5
456.395	1919.5
456.616	1980.5
456.836	1985.5
457.056	1974.5
457.276	1984.5
457.497	1919.5
457.717	1804.5
457.937	1837.5
458.157	1952.5
458.377	1890.5
458.598	1904.5
458.818	1915.5
459.038	2043.5
459.258	2199.5
459.478	2177.5
459.698	2077.5
459.918	2132.5
460.138	2231.5
460.358	2310.5
460.578	2274.5
460.798	2363.5
461.018	2525.5
461.238	2422.5
461.458	2284.5
461.678	2333.5
461.898	2247.5
462.118	2180.5
462.338	2297.5
462.558	2284.5
462.777	2306.5
462.997	2399.5
463.217	2535.5
463.437	2510.5
463.657	2340.5
463.876	2340.5
464.096	2306.5
464.316	2274.5
464.536	2446.5
464.755	2415.5
464.975	2400.5
465.195	2333.5
465.414	2445.5
465.634	2460.5
465.854	2282.5
466.073	2417.5
466.293	2397.5
466.512	2109.5
466.732	2096.5
466.951	2118.5
467.171	2179.5
467.391	2057.5
467.61	2037.5
467.829	2052.5
468.049	2262.5
468.268	2477.5
468.488	2302.5
468.707	2236.5
468.927	2167.5
469.146	2113.5
469.365	2035.5
469.585	2054.5
469.804	2107.5
470.023	2066.5
470.243	2098.5
470.462	2131.5
470.681	2064.5
470.901	2065.5
471.12	2098.5
471.339	2070.5
471.558	2046.5
471.777	2032.5
471.997	2049.5
472.216	2055.5
472.435	1956.5
472.654	2001.5
472.873	2083.5
473.092	2228.5
473.311	2169.5
473.53	2004.5
473.749	1966.5
473.968	2064.5
474.187	2182.5
474.406	2285.5
474.625	2163.5
474.844	2101.5
475.063	2064.5
475.282	2186.5
475.501	2105.5
475.72	2065.5
475.939	2219.5
476.158	2185.5
476.377	2087.5
476.596	2140.5
476.814	2179.5
477.033	2243.5
477.252	2295.5
477.471	2402.5
477.69	2237.5
477.908	2199.5
478.127	2303.5
478.346	2474.5
478.564	2539.5
478.783	2470.5
479.002	2553.5
479.22	2483.5
479.439	2569.5
479.658	2941.5
479.876	2942.5
480.095	2544.5
480.313	2436.5
480.532	2352.5
480.751	2386.5
480.969	2423.5
481.188	2371.5
481.406	2366.5
481.624	2282.5
481.843	2341.5
482.061	2398.5
482.28	2417.5
482.498	2473.5
482.717	2400.5
482.935	2317.5
483.153	2316.5
483.372	2361.5
483.59	2272.5
483.808	2379.5
484.027	2404.5
484.245	2505.5
484.463	2895.5
484.681	3346.5
484.9	2625.5
485.118	2337.5
485.336	2351.5
485.554	2455.5
485.772	2517.5
485.99	2496.5
486.209	2530.5
486.427	2506.5
486.645	2468.5
486.863	2443.5
487.081	2514.5
487.299	2644.5
487.517	2503.5
487.735	2434.5
487.953	2391.5
488.171	2431.5
488.389	2380.5
488.607	2431.5
488.825	2643.5
489.043	2751.5
489.261	2455.5
489.479	2595.5
489.696	2626.5
489.914	2562.5
490.132	2499.5
490.35	2481.5
490.568	2546.5
490.786	2503.5
491.003	2341.5
491.221	2419.5
491.439	2500.5
491.657	2481.5
491.874	2515.5
492.092	2522.5
492.31	2530.5
492.527	2501.5
492.745	2530.5
492.963	2504.5
493.18	2587.5
493.398	2760.5
493.615	2878.5
493.833	2633.5
494.05	2497.5
494.268	2524.5
494.485	2618.5
494.703	2537.5
494.92	2534.5
495.138	2518.5
495.355	2535.5
495.573	2593.5
495.79	2821.5
496.008	2875.5
496.225	2628.5
496.442	2681.5
496.66	2695.5
496.877	2630.5
497.094	2769.5
497.312	2800.5
497.529	2764.5
497.746	2822.5
497.963	3331.5
498.181	3768.5
498.398	3454.5
498.615	3349.5
498.832	3289.5
499.049	3256.5
499.267	3219.5
499.484	3491.5
499.701	3802.5
499.918	3853.5
500.135	4046.5
500.352	4385.5
500.569	4225.5
500.786	4500.5
501.003	4293.5
501.22	3892.5
501.437	3793.5
501.654	3783.5
501.871	3748.5
502.088	3219.5
502.305	3241.5
502.522	3114.5
502.739	2899.5
502.956	2789.5
503.172	2776.5
503.389	2751.5
