Data from WStandard_LampEnergy5.5LIBS07252019.E.O._I.C._HRD10591_16-08-01-920.txt Node
Date: Thu Jul 25 16:08:01 EDT 2019
User: cochatt
Spectrometer: HR+D1059
Trigger mode: 1
Integration Time (sec): 1.000000E-1
Scans to average: 1
Electric dark correction enabled: true
Nonlinearity correction enabled: false
Boxcar width: 0
XAxis mode: Wavelengths
Number of Pixels in Spectrum: 2048
>>>>>Begin Spectral Data<<<<<
223.165	-11.38
223.4	-11.38
223.635	-11.38
223.869	-10.38
224.104	-21.38
224.338	-3.38
224.573	-13.38
224.808	-0.38
225.042	-7.38
225.277	-16.38
225.511	1.62
225.746	-8.38
225.98	-0.38
226.215	8.62
226.449	20.62
226.683	17.62
226.918	16.62
227.152	27.62
227.387	28.62
227.621	35.62
227.856	39.62
228.09	43.62
228.324	31.62
228.559	59.62
228.793	140.62
229.027	357.62
229.262	373.62
229.496	387.62
229.73	405.62
229.964	457.62
230.199	471.62
230.433	469.62
230.667	528.62
230.901	553.62
231.136	492.62
231.37	499.62
231.604	447.62
231.838	476.62
232.072	487.62
232.306	473.62
232.541	487.62
232.775	560.62
233.009	631.62
233.243	618.62
233.477	555.62
233.711	561.62
233.945	597.62
234.179	560.62
234.413	583.62
234.647	636.62
234.881	597.62
235.115	563.62
235.349	581.62
235.583	578.62
235.817	593.62
236.051	531.62
236.285	559.62
236.519	608.62
236.753	684.62
236.987	712.62
237.221	691.62
237.455	785.62
237.689	744.62
237.922	653.62
238.156	669.62
238.39	678.62
238.624	729.62
238.858	779.62
239.091	799.62
239.325	841.62
239.559	939.62
239.793	977.62
240.027	1086.62
240.26	1085.62
240.494	771.62
240.728	728.62
240.961	756.62
241.195	775.62
241.429	843.62
241.662	855.62
241.896	786.62
242.13	793.62
242.363	887.62
242.597	941.62
242.83	892.62
243.064	928.62
243.298	989.62
243.531	964.62
243.765	973.62
243.998	969.62
244.232	842.62
244.465	811.62
244.699	819.62
244.932	953.62
245.166	1087.62
245.399	1036.62
245.633	927.62
245.866	930.62
246.099	965.62
246.333	978.62
246.566	994.62
246.8	1088.62
247.033	1212.62
247.266	1097.62
247.5	1072.62
247.733	1093.62
247.966	1154.62
248.2	1291.62
248.433	1206.62
248.666	1267.62
248.899	1377.62
249.133	1593.62
249.366	1801.62
249.599	1457.62
249.832	1285.62
250.066	1331.62
250.299	1349.62
250.532	1258.62
250.765	1131.62
250.998	1186.62
251.231	1219.62
251.465	1299.62
251.698	1202.62
251.931	1187.62
252.164	1232.62
252.397	1303.62
252.63	1316.62
252.863	1164.62
253.096	1112.62
253.329	1179.62
253.562	1245.62
253.795	1295.62
254.028	1295.62
254.261	1227.62
254.494	1205.62
254.727	1171.62
254.96	1193.62
255.193	1293.62
255.426	1498.62
255.659	1723.62
255.892	1732.62
256.124	1413.62
256.357	1369.62
256.59	1501.62
256.823	1463.62
257.056	1468.62
257.289	1770.62
257.521	1964.62
257.754	1763.62
257.987	1646.62
258.22	1837.62
258.452	1803.62
258.685	1447.62
258.918	1426.62
259.151	1425.62
259.383	1345.62
259.616	1186.62
259.849	1252.62
260.081	1458.62
260.314	1578.62
260.547	1776.62
260.779	1833.62
261.012	1659.62
261.244	1505.62
261.477	1414.62
261.71	1468.62
261.942	1462.62
262.175	1434.62
262.407	1544.62
262.64	1437.62
262.872	1355.62
263.105	1294.62
263.337	1323.62
263.57	1364.62
263.802	1348.62
264.035	1284.62
264.267	1215.62
264.499	1195.62
264.732	1272.62
264.964	1314.62
265.197	1380.62
265.429	1448.62
265.661	1644.62
265.894	1811.62
266.126	1861.62
266.358	1645.62
266.591	1699.62
266.823	1853.62
267.055	1677.62
267.287	1659.62
267.52	1654.62
267.752	1568.62
267.984	1613.62
268.216	1715.62
268.448	1787.62
268.681	1724.62
268.913	1580.62
269.145	1468.62
269.377	1446.62
269.609	1525.62
269.841	1814.62
270.073	2082.62
270.306	2348.62
270.538	2509.62
270.77	2135.62
271.002	1791.62
271.234	1701.62
271.466	1691.62
271.698	1887.62
271.93	2299.62
272.162	2332.62
272.394	2081.62
272.626	2019.62
272.858	1738.62
273.09	1503.62
273.322	1474.62
273.553	1405.62
273.785	1431.62
274.017	1472.62
274.249	1602.62
274.481	1619.62
274.713	1513.62
274.945	1446.62
275.176	1501.62
275.408	1445.62
275.64	1425.62
275.872	1411.62
276.104	1485.62
276.335	1708.62
276.567	1972.62
276.799	1979.62
277.031	1740.62
277.262	1688.62
277.494	1721.62
277.726	1959.62
277.957	1955.62
278.189	1729.62
278.421	1598.62
278.652	1553.62
278.884	1514.62
279.115	1560.62
279.347	1592.62
279.579	1508.62
279.81	1511.62
280.042	1677.62
280.273	1872.62
280.505	1823.62
280.736	1903.62
280.968	1742.62
281.199	1595.62
281.431	1478.62
281.662	1437.62
281.894	1488.62
282.125	1544.62
282.356	1581.62
282.588	1659.62
282.819	1605.62
283.051	1749.62
283.282	1886.62
283.513	1795.62
283.745	1596.62
283.976	1457.62
284.207	1459.62
284.439	1531.62
284.67	1491.62
284.901	1624.62
285.132	1627.62
285.364	1589.62
285.595	1596.62
285.826	1600.62
286.057	1569.62
286.288	1530.62
286.52	1602.62
286.751	1739.62
286.982	1805.62
287.213	1647.62
287.444	1507.62
287.675	1496.62
287.906	1583.62
288.138	1742.62
288.369	1628.62
288.6	1568.62
288.831	1481.62
289.062	1485.62
289.293	1564.62
289.524	1573.62
289.755	1607.62
289.986	1656.62
290.217	1480.62
290.448	1528.62
290.679	1575.62
290.91	1551.62
291.141	1620.62
291.371	1728.62
291.602	1645.62
291.833	1656.62
292.064	1683.62
292.295	1708.62
292.526	1691.62
292.757	1815.62
292.987	1716.62
293.218	1590.62
293.449	1727.62
293.68	1961.62
293.91	2129.62
294.141	1967.62
294.372	1834.62
294.603	1908.62
294.833	1988.62
295.064	1894.62
295.295	1705.62
295.525	1669.62
295.756	1539.62
295.987	1456.62
296.217	1527.62
296.448	1547.62
296.679	1561.62
296.909	1545.62
297.14	1529.62
297.37	1580.62
297.601	1658.62
297.831	1791.62
298.062	1793.62
298.292	1669.62
298.523	1576.62
298.753	1581.62
298.984	1592.62
299.214	1591.62
299.445	1613.62
299.675	1703.62
299.905	1661.62
300.136	1624.62
300.366	1555.62
300.597	1508.62
300.827	1524.62
301.057	1573.62
301.288	1693.62
301.518	1703.62
301.748	1688.62
301.979	1803.62
302.209	1793.62
302.439	1952.62
302.669	2025.62
302.9	1905.62
303.13	1703.62
303.36	1744.62
303.59	1762.62
303.82	1683.62
304.051	1679.62
304.281	1734.62
304.511	1719.62
304.741	1815.62
304.971	2019.62
305.201	2165.62
305.431	2039.62
305.661	1636.62
305.891	1505.62
306.121	1475.62
306.352	1538.62
306.582	1608.62
306.812	1732.62
307.042	1867.62
307.272	1866.62
307.502	1877.62
307.731	2045.62
307.961	2263.62
308.191	2098.62
308.421	1795.62
308.651	1663.62
308.881	1659.62
309.111	1624.62
309.341	1613.62
309.571	1627.62
309.8	1632.62
310.03	1598.62
310.26	1604.62
310.49	1610.62
310.72	1648.62
310.949	1707.62
311.179	1746.62
311.409	1712.62
311.639	1705.62
311.868	1647.62
312.098	1643.62
312.328	1638.62
312.557	1593.62
312.787	1651.62
313.017	1714.62
313.246	1685.62
313.476	1673.62
313.706	1757.62
313.935	1724.62
314.165	1764.62
314.394	1754.62
314.624	1886.62
314.853	2003.62
315.083	2062.62
315.312	2154.62
315.542	2018.62
315.771	1781.62
316.001	1716.62
316.23	1837.62
316.46	1862.62
316.689	1837.62
316.919	1754.62
317.148	1660.62
317.377	1656.62
317.607	1802.62
317.836	2057.62
318.065	2122.62
318.295	2099.62
318.524	1967.62
318.753	1832.62
318.983	1825.62
319.212	1814.62
319.441	1781.62
319.67	1721.62
319.9	1752.62
320.129	1905.62
320.358	1965.62
320.587	2020.62
320.816	1987.62
321.046	1990.62
321.275	1849.62
321.504	1836.62
321.733	2064.62
321.962	2008.62
322.191	1797.62
322.42	1846.62
322.649	1783.62
322.878	1769.62
323.108	1795.62
323.337	1856.62
323.566	1841.62
323.795	1844.62
324.024	1849.62
324.253	1774.62
324.482	1807.62
324.71	1727.62
324.939	1656.62
325.168	1678.62
325.397	1783.62
325.626	1798.62
325.855	1876.62
326.084	1778.62
326.313	1812.62
326.542	1802.62
326.77	1856.62
326.999	1899.62
327.228	1809.62
327.457	1644.62
327.686	1650.62
327.914	1708.62
328.143	1804.62
328.372	1740.62
328.6	1805.62
328.829	1723.62
329.058	1742.62
329.287	1731.62
329.515	1776.62
329.744	1828.62
329.972	1882.62
330.201	1993.62
330.43	1974.62
330.658	1847.62
330.887	1862.62
331.115	1892.62
331.344	1895.62
331.572	1847.62
331.801	1859.62
332.03	1895.62
332.258	1844.62
332.486	1927.62
332.715	1927.62
332.943	1907.62
333.172	1855.62
333.4	1906.62
333.629	1910.62
333.857	2045.62
334.085	2244.62
334.314	2472.62
334.542	2779.62
334.771	2612.62
334.999	2217.62
335.227	2132.62
335.455	2037.62
335.684	2002.62
335.912	2054.62
336.14	2098.62
336.369	2028.62
336.597	1954.62
336.825	1853.62
337.053	1958.62
337.281	2097.62
337.51	2165.62
337.738	2250.62
337.966	2146.62
338.194	1945.62
338.422	1909.62
338.65	1898.62
338.878	1851.62
339.106	1819.62
339.334	1771.62
339.562	1785.62
339.79	1786.62
340.018	1904.62
340.246	1971.62
340.474	2025.62
340.702	1908.62
340.93	1977.62
341.158	1877.62
341.386	1898.62
341.614	1881.62
341.842	1834.62
342.07	1883.62
342.298	1876.62
342.526	1936.62
342.754	1812.62
342.981	1826.62
343.209	1853.62
343.437	1801.62
343.665	1866.62
343.893	1889.62
344.12	1958.62
344.348	1998.62
344.576	1935.62
344.804	1837.62
345.031	1837.62
345.259	1876.62
345.487	1787.62
345.714	1721.62
345.942	1699.62
346.17	1690.62
346.397	1759.62
346.625	1755.62
346.853	1661.62
347.08	1631.62
347.308	1642.62
347.535	1713.62
347.763	1799.62
347.99	1770.62
348.218	1667.62
348.445	1659.62
348.673	1705.62
348.9	1776.62
349.128	1799.62
349.355	1889.62
349.583	1843.62
349.81	1737.62
350.037	1624.62
350.265	1621.62
350.492	1635.62
350.72	1660.62
350.947	1755.62
351.174	1785.62
351.402	1690.62
351.629	1604.62
351.856	1585.62
352.083	1587.62
352.311	1595.62
352.538	1639.62
352.765	1717.62
352.992	1735.62
353.22	1721.62
353.447	1640.62
353.674	1699.62
353.901	1738.62
354.128	1675.62
354.355	1639.62
354.583	1717.62
354.81	1814.62
355.037	1758.62
355.264	1740.62
355.491	1692.62
355.718	1713.62
355.945	1715.62
356.172	1687.62
356.399	1622.62
356.626	1658.62
356.853	1685.62
357.08	1830.62
357.307	2017.62
357.534	2056.62
357.761	1795.62
357.988	1627.62
358.215	1605.62
358.441	1597.62
358.668	1586.62
358.895	1628.62
359.122	1748.62
359.349	1940.62
359.576	1917.62
359.802	1682.62
360.029	1671.62
360.256	1656.62
360.483	1642.62
360.709	1672.62
360.936	1790.62
361.163	1795.62
361.39	1967.62
361.616	2167.62
361.843	2100.62
362.07	2024.62
362.296	1740.62
362.523	1663.62
362.749	1696.62
362.976	1735.62
363.203	1715.62
363.429	1683.62
363.656	1619.62
363.882	1718.62
364.109	1849.62
364.335	2047.62
364.562	1897.62
364.788	1770.62
365.015	1703.62
365.241	1636.62
365.468	1698.62
365.694	1818.62
365.92	1847.62
366.147	1777.62
366.373	1687.62
366.599	1634.62
366.826	1661.62
367.052	1651.62
367.278	1661.62
367.505	1671.62
367.731	1700.62
367.957	1736.62
368.184	1808.62
368.41	1930.62
368.636	1945.62
368.862	1921.62
369.089	1929.62
369.315	1861.62
369.541	1780.62
369.767	1738.62
369.993	1693.62
370.219	1727.62
370.445	1740.62
370.672	1836.62
370.898	1946.62
371.124	1925.62
371.35	1755.62
371.576	1793.62
371.802	1931.62
372.028	1843.62
372.254	1787.62
372.48	1721.62
372.706	1671.62
372.932	1689.62
373.158	1716.62
373.384	1734.62
373.61	1757.62
373.835	1868.62
374.061	1831.62
374.287	1795.62
374.513	1821.62
374.739	1791.62
374.965	1817.62
375.191	1807.62
375.416	1818.62
375.642	1882.62
375.868	1919.62
376.094	2025.62
376.319	1914.62
376.545	1786.62
376.771	1840.62
376.997	1937.62
377.222	1911.62
377.448	1846.62
377.674	1866.62
377.899	1880.62
378.125	1979.62
378.35	1965.62
378.576	1788.62
378.802	1708.62
379.027	1726.62
379.253	1741.62
379.478	1765.62
379.704	1762.62
379.929	1753.62
380.155	1755.62
380.38	1756.62
380.606	1770.62
380.831	1781.62
381.057	1894.62
381.282	1898.62
381.507	1887.62
381.733	1984.62
381.958	2123.62
382.184	1893.62
382.409	1806.62
382.634	1921.62
382.86	1859.62
383.085	1863.62
383.31	1889.62
383.535	2085.62
383.761	2210.62
383.986	2095.62
384.211	2025.62
384.436	1990.62
384.662	2084.62
384.887	2223.62
385.112	2053.62
385.337	2072.62
385.562	2040.62
385.787	2035.62
386.013	2052.62
386.238	2089.62
386.463	2070.62
386.688	2239.62
386.913	2382.62
387.138	2283.62
387.363	2095.62
387.588	2119.62
387.813	2108.62
388.038	2108.62
388.263	2197.62
388.488	2137.62
388.713	1903.62
388.938	1990.62
389.163	1939.62
389.387	1987.62
389.612	1964.62
389.837	2023.62
390.062	2060.62
390.287	2041.62
390.512	2022.62
390.736	1973.62
390.961	1939.62
391.186	1914.62
391.411	1952.62
391.636	1969.62
391.86	2020.62
392.085	2025.62
392.31	1992.62
392.534	2005.62
392.759	2074.62
392.984	2003.62
393.208	2080.62
393.433	2122.62
393.658	2196.62
393.882	2199.62
394.107	2082.62
394.331	2017.62
394.556	1996.62
394.78	2033.62
395.005	2101.62
395.229	2209.62
395.454	2371.62
395.678	2382.62
395.903	2209.62
396.127	2088.62
396.352	2173.62
396.576	2217.62
396.801	2249.62
397.025	2236.62
397.249	2236.62
397.474	2180.62
397.698	2199.62
397.922	2248.62
398.147	2365.62
398.371	2462.62
398.595	2417.62
398.82	2316.62
399.044	2347.62
399.268	2442.62
399.492	2627.62
399.717	2716.62
399.941	2751.62
400.165	2688.62
400.389	2587.62
400.613	2578.62
400.837	2824.62
401.062	3377.62
401.286	2887.62
401.51	2532.62
401.734	2617.62
401.958	2624.62
402.182	2411.62
402.406	2282.62
402.63	2252.62
402.854	2307.62
403.078	2381.62
403.302	2352.62
403.526	2362.62
403.75	2437.62
403.974	2448.62
404.198	2420.62
404.422	2481.62
404.645	2646.62
404.869	2611.62
405.093	2331.62
405.317	2321.62
405.541	2387.62
405.765	2417.62
405.988	2432.62
406.212	2464.62
406.436	2480.62
406.66	2628.62
406.883	2656.62
407.107	2992.62
407.331	3252.62
407.555	3458.62
407.778	3225.62
408.002	2628.62
408.226	2503.62
408.449	2556.62
408.673	2415.62
408.896	2465.62
409.12	2527.62
409.344	2499.62
409.567	2384.62
409.791	2463.62
410.014	2463.62
410.238	2613.62
410.461	2797.62
410.685	2496.62
410.908	2359.62
411.132	2419.62
411.355	2382.62
411.578	2357.62
411.802	2365.62
412.025	2433.62
412.249	2355.62
412.472	2275.62
412.695	2300.62
412.919	2290.62
413.142	2293.62
413.365	2312.62
413.589	2446.62
413.812	2480.62
414.035	2613.62
414.258	2328.62
414.482	2314.62
414.705	2346.62
414.928	2292.62
415.151	2289.62
415.374	2249.62
415.597	2330.62
415.821	2397.62
416.044	2429.62
416.267	2410.62
416.49	2179.62
416.713	2185.62
416.936	2296.62
417.159	2399.62
417.382	2409.62
417.605	2266.62
417.828	2350.62
418.051	2345.62
418.274	2292.62
418.497	2205.62
418.72	2179.62
418.943	2213.62
419.166	2356.62
419.389	2461.62
419.611	2317.62
419.834	2258.62
420.057	2317.62
420.28	2207.62
420.503	2218.62
420.726	2325.62
420.948	2313.62
421.171	2213.62
421.394	2215.62
421.617	2298.62
421.839	2304.62
422.062	2251.62
422.285	2198.62
422.507	2199.62
422.73	2131.62
422.953	2127.62
423.175	2117.62
423.398	2195.62
423.621	2269.62
423.843	2219.62
424.066	2251.62
424.288	2388.62
424.511	2443.62
424.733	2336.62
424.956	2117.62
425.178	2074.62
425.401	2100.62
425.623	2128.62
425.846	2126.62
426.068	2333.62
426.291	2370.62
426.513	2247.62
426.735	2293.62
426.958	2452.62
427.18	2659.62
427.402	2359.62
427.625	2451.62
427.847	2491.62
428.069	2299.62
428.292	2205.62
428.514	2118.62
428.736	2149.62
428.958	2162.62
429.181	2154.62
429.403	2437.62
429.625	3128.62
429.847	2724.62
430.069	2225.62
430.292	2425.62
430.514	2584.62
430.736	2346.62
430.958	2479.62
431.18	2291.62
431.402	2154.62
431.624	2107.62
431.846	2130.62
432.068	2135.62
432.29	2084.62
432.512	2119.62
432.734	2144.62
432.956	2195.62
433.178	2339.62
433.4	2326.62
433.622	2290.62
433.844	2174.62
434.066	2127.62
434.287	2123.62
434.509	2209.62
434.731	2314.62
434.953	2443.62
435.175	2386.62
435.397	2243.62
435.618	2256.62
435.84	2278.62
436.062	2219.62
436.284	2188.62
436.505	2279.62
436.727	2315.62
436.949	2201.62
437.17	2125.62
437.392	2124.62
437.614	2198.62
437.835	2108.62
438.057	2270.62
438.278	2335.62
438.5	2191.62
438.721	2127.62
438.943	2148.62
439.165	2141.62
439.386	2067.62
439.608	2112.62
439.829	2099.62
440.05	2130.62
440.272	2102.62
440.493	2103.62
440.715	2179.62
440.936	2258.62
441.158	2534.62
441.379	2451.62
441.6	2325.62
441.822	2311.62
442.043	2281.62
442.264	2272.62
442.486	2131.62
442.707	2155.62
442.928	2103.62
443.149	2183.62
443.371	2361.62
443.592	2426.62
443.813	2363.62
444.034	2331.62
444.255	2320.62
444.476	2383.62
444.698	2430.62
444.919	2376.62
445.14	2475.62
445.361	2476.62
445.582	2547.62
445.803	2471.62
446.024	2354.62
446.245	2457.62
446.466	2344.62
446.687	2216.62
446.908	2248.62
447.129	2183.62
447.35	2215.62
447.571	2178.62
447.792	2054.62
448.013	2042.62
448.234	2137.62
448.455	2249.62
448.675	2275.62
448.896	2082.62
449.117	2018.62
449.338	2089.62
449.559	2209.62
449.779	2336.62
450	2540.62
450.221	2751.62
450.442	2655.62
450.662	2328.62
450.883	2057.62
451.104	1980.62
451.324	2085.62
451.545	2152.62
451.766	2100.62
451.986	2020.62
452.207	1944.62
452.428	1913.62
452.648	1885.62
452.869	1959.62
453.089	2092.62
453.31	2105.62
453.53	2157.62
453.751	2102.62
453.971	1935.62
454.192	2018.62
454.412	2147.62
454.633	2091.62
454.853	2041.62
455.073	1879.62
455.294	1848.62
455.514	1870.62
455.734	1896.62
455.955	1947.62
456.175	1912.62
456.395	1899.62
456.616	1969.62
456.836	2041.62
457.056	1986.62
457.276	1976.62
457.497	1926.62
457.717	1839.62
457.937	1855.62
458.157	1917.62
458.377	1922.62
458.598	1913.62
458.818	1910.62
459.038	2082.62
459.258	2209.62
459.478	2175.62
459.698	2075.62
459.918	2131.62
460.138	2253.62
460.358	2297.62
460.578	2271.62
460.798	2363.62
461.018	2539.62
461.238	2433.62
461.458	2294.62
461.678	2331.62
461.898	2273.62
462.118	2220.62
462.338	2306.62
462.558	2272.62
462.777	2271.62
462.997	2360.62
463.217	2567.62
463.437	2562.62
463.657	2323.62
463.876	2315.62
464.096	2268.62
464.316	2293.62
464.536	2406.62
464.755	2397.62
464.975	2431.62
465.195	2303.62
465.414	2435.62
465.634	2471.62
465.854	2291.62
466.073	2481.62
466.293	2421.62
466.512	2121.62
466.732	2067.62
466.951	2205.62
467.171	2202.62
467.391	2036.62
467.61	2044.62
467.829	2057.62
468.049	2281.62
468.268	2561.62
468.488	2354.62
468.707	2233.62
468.927	2140.62
469.146	2133.62
469.365	2057.62
469.585	2117.62
469.804	2103.62
470.023	2099.62
470.243	2116.62
470.462	2093.62
470.681	2042.62
470.901	2142.62
471.12	2144.62
471.339	2117.62
471.558	2056.62
471.777	1999.62
471.997	2061.62
472.216	2100.62
472.435	2017.62
472.654	2051.62
472.873	2115.62
473.092	2267.62
473.311	2160.62
473.53	1992.62
473.749	2019.62
473.968	2093.62
474.187	2165.62
474.406	2249.62
474.625	2170.62
474.844	2129.62
475.063	2136.62
475.282	2219.62
475.501	2129.62
475.72	2152.62
475.939	2343.62
476.158	2217.62
476.377	2120.62
476.596	2109.62
476.814	2159.62
477.033	2163.62
477.252	2311.62
477.471	2361.62
477.69	2226.62
477.908	2186.62
478.127	2303.62
478.346	2525.62
478.564	2534.62
478.783	2514.62
479.002	2547.62
479.22	2457.62
479.439	2622.62
479.658	2928.62
479.876	2951.62
480.095	2523.62
480.313	2467.62
480.532	2361.62
480.751	2402.62
480.969	2452.62
481.188	2395.62
481.406	2357.62
481.624	2301.62
481.843	2326.62
482.061	2422.62
482.28	2419.62
482.498	2442.62
482.717	2473.62
482.935	2307.62
483.153	2295.62
483.372	2331.62
483.59	2332.62
483.808	2337.62
484.027	2348.62
484.245	2575.62
484.463	3003.62
484.681	3537.62
484.9	2595.62
485.118	2429.62
485.336	2366.62
485.554	2445.62
485.772	2619.62
485.99	2533.62
486.209	2544.62
486.427	2533.62
486.645	2532.62
486.863	2432.62
487.081	2554.62
487.299	2643.62
