Data from WStandard_LampEnergy10_LIBS07252019.E.O._I.C._HRD10591_15-53-00-927.txt Node
Date: Thu Jul 25 15:53:00 EDT 2019
User: cochatt
Spectrometer: HR+D1059
Trigger mode: 1
Integration Time (sec): 1.000000E-1
Scans to average: 1
Electric dark correction enabled: true
Nonlinearity correction enabled: false
Boxcar width: 0
XAxis mode: Wavelengths
Number of Pixels in Spectrum: 2048
>>>>>Begin Spectral Data<<<<<
223.165	-14.75
223.4	-14.75
223.635	-14.75
223.869	-14.75
224.104	-18.75
224.338	-13.75
224.573	-11.75
224.808	-21.75
225.042	-6.75
225.277	2.25
225.511	-2.75
225.746	18.25
225.98	13.25
226.215	4.25
226.449	8.25
226.683	11.25
226.918	12.25
227.152	35.25
227.387	39.25
227.621	31.25
227.856	36.25
228.09	36.25
228.324	54.25
228.559	47.25
228.793	70.25
229.027	146.25
229.262	151.25
229.496	154.25
229.73	145.25
229.964	159.25
230.199	166.25
230.433	165.25
230.667	182.25
230.901	183.25
231.136	204.25
231.37	189.25
231.604	159.25
231.838	179.25
232.072	185.25
232.306	173.25
232.541	188.25
232.775	210.25
233.009	234.25
233.243	189.25
233.477	201.25
233.711	195.25
233.945	205.25
234.179	181.25
234.413	216.25
234.647	219.25
234.881	204.25
235.115	210.25
235.349	195.25
235.583	199.25
235.817	205.25
236.051	191.25
236.285	206.25
236.519	221.25
236.753	236.25
236.987	228.25
237.221	229.25
237.455	237.25
237.689	234.25
237.922	230.25
238.156	218.25
238.39	220.25
238.624	234.25
238.858	256.25
239.091	255.25
239.325	267.25
239.559	297.25
239.793	308.25
240.027	334.25
240.26	301.25
240.494	243.25
240.728	217.25
240.961	242.25
241.195	244.25
241.429	245.25
241.662	264.25
241.896	245.25
242.13	258.25
242.363	257.25
242.597	267.25
242.83	284.25
243.064	287.25
243.298	297.25
243.531	293.25
243.765	291.25
243.998	263.25
244.232	246.25
244.465	271.25
244.699	272.25
244.932	301.25
245.166	319.25
245.399	307.25
245.633	272.25
245.866	277.25
246.099	300.25
246.333	287.25
246.566	285.25
246.8	349.25
247.033	339.25
247.266	342.25
247.5	336.25
247.733	336.25
247.966	349.25
248.2	376.25
248.433	358.25
248.666	371.25
248.899	393.25
249.133	449.25
249.366	475.25
249.599	392.25
249.832	372.25
250.066	373.25
250.299	374.25
250.532	356.25
250.765	345.25
250.998	361.25
251.231	347.25
251.465	378.25
251.698	331.25
251.931	368.25
252.164	353.25
252.397	373.25
252.63	360.25
252.863	347.25
253.096	325.25
253.329	341.25
253.562	392.25
253.795	385.25
254.028	380.25
254.261	373.25
254.494	345.25
254.727	335.25
254.96	369.25
255.193	397.25
255.426	409.25
255.659	461.25
255.892	432.25
256.124	395.25
256.357	414.25
256.59	436.25
256.823	434.25
257.056	438.25
257.289	511.25
257.521	529.25
257.754	461.25
257.987	468.25
258.22	480.25
258.452	465.25
258.685	424.25
258.918	405.25
259.151	403.25
259.383	378.25
259.616	370.25
259.849	375.25
260.081	412.25
260.314	447.25
260.547	509.25
260.779	484.25
261.012	443.25
261.244	412.25
261.477	415.25
261.71	417.25
261.942	421.25
262.175	404.25
262.407	424.25
262.64	383.25
262.872	362.25
263.105	351.25
263.337	369.25
263.57	374.25
263.802	375.25
264.035	351.25
264.267	355.25
264.499	344.25
264.732	377.25
264.964	390.25
265.197	416.25
265.429	455.25
265.661	444.25
265.894	515.25
266.126	504.25
266.358	457.25
266.591	472.25
266.823	497.25
267.055	455.25
267.287	453.25
267.52	448.25
267.752	453.25
267.984	451.25
268.216	480.25
268.448	495.25
268.681	474.25
268.913	435.25
269.145	424.25
269.377	420.25
269.609	471.25
269.841	535.25
270.073	604.25
270.306	631.25
270.538	637.25
270.77	551.25
271.002	496.25
271.234	474.25
271.466	487.25
271.698	547.25
271.93	616.25
272.162	626.25
272.394	549.25
272.626	529.25
272.858	476.25
273.09	431.25
273.322	426.25
273.553	404.25
273.785	409.25
274.017	421.25
274.249	463.25
274.481	462.25
274.713	420.25
274.945	439.25
275.176	412.25
275.408	422.25
275.64	422.25
275.872	425.25
276.104	427.25
276.335	515.25
276.567	529.25
276.799	536.25
277.031	484.25
277.262	457.25
277.494	487.25
277.726	541.25
277.957	514.25
278.189	472.25
278.421	467.25
278.652	437.25
278.884	455.25
279.115	455.25
279.347	441.25
279.579	444.25
279.81	470.25
280.042	483.25
280.273	515.25
280.505	533.25
280.736	516.25
280.968	482.25
281.199	462.25
281.431	438.25
281.662	420.25
281.894	425.25
282.125	432.25
282.356	457.25
282.588	468.25
282.819	473.25
283.051	505.25
283.282	522.25
283.513	510.25
283.745	474.25
283.976	443.25
284.207	441.25
284.439	440.25
284.67	458.25
284.901	469.25
285.132	471.25
285.364	453.25
285.595	476.25
285.826	461.25
286.057	455.25
286.288	465.25
286.52	479.25
286.751	536.25
286.982	503.25
287.213	460.25
287.444	454.25
287.675	439.25
287.906	476.25
288.138	504.25
288.369	485.25
288.6	477.25
288.831	444.25
289.062	449.25
289.293	468.25
289.524	486.25
289.755	495.25
289.986	501.25
290.217	462.25
290.448	441.25
290.679	488.25
290.91	473.25
291.141	488.25
291.371	489.25
291.602	520.25
291.833	497.25
292.064	494.25
292.295	506.25
292.526	498.25
292.757	515.25
292.987	511.25
293.218	505.25
293.449	533.25
293.68	574.25
293.91	595.25
294.141	589.25
294.372	546.25
294.603	571.25
294.833	567.25
295.064	555.25
295.295	530.25
295.525	474.25
295.756	482.25
295.987	438.25
296.217	460.25
296.448	487.25
296.679	481.25
296.909	455.25
297.14	472.25
297.37	459.25
297.601	524.25
297.831	541.25
298.062	530.25
298.292	498.25
298.523	509.25
298.753	499.25
298.984	489.25
299.214	496.25
299.445	511.25
299.675	535.25
299.905	500.25
300.136	491.25
300.366	490.25
300.597	467.25
300.827	475.25
301.057	510.25
301.288	525.25
301.518	513.25
301.748	539.25
301.979	569.25
302.209	578.25
302.439	606.25
302.669	587.25
302.9	561.25
303.13	517.25
303.36	533.25
303.59	522.25
303.82	506.25
304.051	522.25
304.281	545.25
304.511	560.25
304.741	593.25
304.971	642.25
305.201	648.25
305.431	573.25
305.661	489.25
305.891	429.25
306.121	471.25
306.352	506.25
306.582	515.25
306.812	554.25
307.042	590.25
307.272	593.25
307.502	611.25
307.731	654.25
307.961	655.25
308.191	594.25
308.421	535.25
308.651	516.25
308.881	509.25
309.111	497.25
309.341	493.25
309.571	535.25
309.8	511.25
310.03	513.25
310.26	511.25
310.49	501.25
310.72	529.25
310.949	568.25
311.179	525.25
311.409	516.25
311.639	514.25
311.868	520.25
312.098	511.25
312.328	528.25
312.557	517.25
312.787	527.25
313.017	531.25
313.246	526.25
313.476	555.25
313.706	539.25
313.935	555.25
314.165	547.25
314.394	564.25
314.624	595.25
314.853	633.25
315.083	645.25
315.312	645.25
315.542	597.25
315.771	557.25
316.001	550.25
316.23	579.25
316.46	602.25
316.689	553.25
316.919	526.25
317.148	512.25
317.377	554.25
317.607	613.25
317.836	656.25
318.065	684.25
318.295	619.25
318.524	599.25
318.753	571.25
318.983	551.25
319.212	567.25
319.441	551.25
319.67	540.25
319.9	570.25
320.129	615.25
320.358	626.25
320.587	615.25
320.816	615.25
321.046	607.25
321.275	609.25
321.504	621.25
321.733	611.25
321.962	620.25
322.191	568.25
322.42	586.25
322.649	560.25
322.878	570.25
323.108	595.25
323.337	602.25
323.566	603.25
323.795	603.25
324.024	578.25
324.253	586.25
324.482	579.25
324.71	561.25
324.939	539.25
325.168	575.25
325.397	576.25
325.626	570.25
325.855	604.25
326.084	592.25
326.313	581.25
326.542	583.25
326.77	629.25
326.999	600.25
327.228	537.25
327.457	535.25
327.686	548.25
327.914	551.25
328.143	603.25
328.372	560.25
328.6	597.25
328.829	552.25
329.058	553.25
329.287	548.25
329.515	576.25
329.744	581.25
329.972	611.25
330.201	641.25
330.43	632.25
330.658	604.25
330.887	604.25
331.115	621.25
331.344	626.25
331.572	615.25
331.801	587.25
332.03	572.25
332.258	612.25
332.486	630.25
332.715	618.25
332.943	628.25
333.172	610.25
333.4	602.25
333.629	655.25
333.857	683.25
334.085	757.25
334.314	830.25
334.542	855.25
334.771	773.25
334.999	718.25
335.227	669.25
335.455	663.25
335.684	671.25
335.912	652.25
336.14	663.25
336.369	657.25
336.597	626.25
336.825	643.25
337.053	661.25
337.281	682.25
337.51	712.25
337.738	716.25
337.966	672.25
338.194	607.25
338.422	605.25
338.65	612.25
338.878	587.25
339.106	578.25
339.334	580.25
339.562	583.25
339.79	595.25
340.018	611.25
340.246	644.25
340.474	645.25
340.702	619.25
340.93	631.25
341.158	612.25
341.386	613.25
341.614	617.25
341.842	627.25
342.07	627.25
342.298	614.25
342.526	609.25
342.754	587.25
342.981	611.25
343.209	608.25
343.437	601.25
343.665	599.25
343.893	628.25
344.12	663.25
344.348	657.25
344.576	626.25
344.804	591.25
345.031	610.25
345.259	604.25
345.487	594.25
345.714	564.25
345.942	573.25
346.17	611.25
346.397	586.25
346.625	563.25
346.853	570.25
347.08	575.25
347.308	555.25
347.535	580.25
347.763	606.25
347.99	602.25
348.218	577.25
348.445	585.25
348.673	573.25
348.9	629.25
349.128	628.25
349.355	634.25
349.583	610.25
349.81	579.25
350.037	530.25
350.265	547.25
350.492	548.25
350.72	576.25
350.947	581.25
351.174	580.25
351.402	576.25
351.629	556.25
351.856	548.25
352.083	533.25
352.311	560.25
352.538	580.25
352.765	588.25
352.992	576.25
353.22	554.25
353.447	559.25
353.674	565.25
353.901	583.25
354.128	593.25
354.355	598.25
354.583	633.25
354.81	620.25
355.037	583.25
355.264	603.25
355.491	563.25
355.718	583.25
355.945	568.25
356.172	558.25
356.399	574.25
356.626	586.25
356.853	603.25
357.08	668.25
357.307	709.25
357.534	653.25
357.761	577.25
357.988	563.25
358.215	531.25
358.441	570.25
358.668	548.25
358.895	564.25
359.122	628.25
359.349	648.25
359.576	624.25
359.802	589.25
360.029	579.25
360.256	568.25
360.483	562.25
360.709	593.25
360.936	623.25
361.163	653.25
361.39	716.25
361.616	720.25
361.843	723.25
362.07	641.25
362.296	595.25
362.523	559.25
362.749	580.25
362.976	598.25
363.203	585.25
363.429	586.25
363.656	585.25
363.882	633.25
364.109	689.25
364.335	688.25
364.562	644.25
364.788	609.25
365.015	578.25
365.241	583.25
365.468	589.25
365.694	607.25
365.92	614.25
366.147	598.25
366.373	593.25
366.599	572.25
366.826	565.25
367.052	568.25
367.278	579.25
367.505	617.25
367.731	639.25
367.957	608.25
368.184	645.25
368.41	659.25
368.636	664.25
368.862	683.25
369.089	664.25
369.315	634.25
369.541	641.25
369.767	619.25
369.993	587.25
370.219	624.25
370.445	626.25
370.672	641.25
370.898	701.25
371.124	695.25
371.35	617.25
371.576	687.25
371.802	692.25
372.028	640.25
372.254	644.25
372.48	598.25
372.706	590.25
372.932	602.25
373.158	609.25
373.384	640.25
373.61	654.25
373.835	648.25
374.061	625.25
374.287	616.25
374.513	647.25
374.739	631.25
374.965	657.25
375.191	659.25
375.416	671.25
375.642	669.25
375.868	703.25
376.094	714.25
376.319	685.25
376.545	652.25
376.771	704.25
376.997	711.25
377.222	710.25
377.448	697.25
377.674	691.25
377.899	719.25
378.125	722.25
378.35	697.25
378.576	624.25
378.802	636.25
379.027	630.25
379.253	654.25
379.478	674.25
379.704	650.25
379.929	648.25
380.155	660.25
380.38	661.25
380.606	689.25
380.831	674.25
381.057	716.25
381.282	746.25
381.507	706.25
381.733	755.25
381.958	772.25
382.184	692.25
382.409	687.25
382.634	703.25
382.86	700.25
383.085	716.25
383.31	720.25
383.535	797.25
383.761	799.25
383.986	776.25
384.211	747.25
384.436	732.25
384.662	776.25
384.887	794.25
385.112	730.25
385.337	758.25
385.562	735.25
385.787	743.25
386.013	794.25
386.238	787.25
386.463	775.25
386.688	861.25
386.913	889.25
387.138	834.25
387.363	801.25
387.588	769.25
387.813	753.25
388.038	791.25
388.263	805.25
388.488	761.25
388.713	736.25
388.938	747.25
389.163	744.25
389.387	772.25
389.612	732.25
389.837	760.25
390.062	792.25
390.287	791.25
390.512	793.25
390.736	776.25
390.961	716.25
391.186	715.25
391.411	752.25
391.636	738.25
391.86	765.25
392.085	765.25
392.31	773.25
392.534	777.25
392.759	768.25
392.984	764.25
393.208	795.25
393.433	821.25
393.658	848.25
393.882	852.25
394.107	800.25
394.331	768.25
394.556	786.25
394.78	817.25
395.005	826.25
395.229	873.25
395.454	901.25
395.678	893.25
395.903	843.25
396.127	793.25
396.352	837.25
396.576	868.25
396.801	860.25
397.025	865.25
397.249	888.25
397.474	840.25
397.698	844.25
397.922	892.25
398.147	904.25
398.371	912.25
398.595	917.25
398.82	880.25
399.044	905.25
399.268	954.25
399.492	982.25
399.717	1008.25
399.941	1012.25
400.165	1019.25
400.389	984.25
400.613	1002.25
400.837	1152.25
401.062	1196.25
401.286	1027.25
401.51	996.25
401.734	1031.25
401.958	959.25
402.182	922.25
402.406	895.25
402.63	892.25
402.854	921.25
403.078	958.25
403.302	896.25
403.526	936.25
403.75	939.25
403.974	963.25
404.198	941.25
404.422	992.25
404.645	1034.25
404.869	998.25
405.093	905.25
405.317	899.25
405.541	927.25
405.765	922.25
405.988	941.25
406.212	957.25
406.436	1009.25
406.66	1042.25
406.883	1053.25
407.107	1154.25
407.331	1223.25
407.555	1301.25
407.778	1138.25
408.002	979.25
408.226	961.25
408.449	985.25
408.673	973.25
408.896	985.25
409.12	956.25
409.344	929.25
409.567	936.25
409.791	967.25
410.014	960.25
410.238	1041.25
410.461	1083.25
410.685	979.25
410.908	959.25
411.132	977.25
411.355	979.25
411.578	958.25
411.802	954.25
412.025	958.25
412.249	965.25
412.472	925.25
412.695	940.25
412.919	922.25
413.142	945.25
413.365	943.25
413.589	969.25
413.812	1007.25
414.035	1019.25
414.258	936.25
414.482	921.25
414.705	937.25
414.928	923.25
415.151	949.25
415.374	932.25
415.597	957.25
415.821	948.25
416.044	951.25
416.267	972.25
416.49	932.25
416.713	907.25
416.936	959.25
417.159	1000.25
417.382	977.25
417.605	945.25
417.828	939.25
418.051	978.25
418.274	947.25
418.497	942.25
418.72	923.25
418.943	929.25
419.166	998.25
419.389	986.25
419.611	984.25
419.834	966.25
420.057	987.25
420.28	946.25
420.503	971.25
420.726	992.25
420.948	957.25
421.171	929.25
421.394	956.25
421.617	1025.25
421.839	1011.25
422.062	984.25
422.285	987.25
422.507	969.25
422.73	919.25
422.953	905.25
423.175	885.25
423.398	949.25
423.621	938.25
423.843	975.25
424.066	994.25
424.288	1052.25
424.511	1049.25
424.733	1000.25
424.956	953.25
425.178	931.25
425.401	943.25
425.623	989.25
425.846	949.25
426.068	981.25
426.291	985.25
426.513	955.25
426.735	986.25
426.958	1055.25
427.18	1072.25
427.402	999.25
427.625	1077.25
427.847	1027.25
428.069	945.25
428.292	930.25
428.514	917.25
428.736	912.25
428.958	925.25
429.181	964.25
429.403	1116.25
429.625	1258.25
429.847	1078.25
430.069	989.25
430.292	1077.25
430.514	1046.25
430.736	990.25
430.958	1032.25
431.18	948.25
431.402	892.25
431.624	861.25
431.846	819.25
432.068	732.25
432.29	769.25
432.512	821.25
432.734	908.25
432.956	924.25
433.178	1007.25
433.4	979.25
433.622	973.25
433.844	926.25
434.066	871.25
434.287	817.25
434.509	799.25
434.731	834.25
434.953	941.25
435.175	919.25
435.397	925.25
435.618	894.25
435.84	869.25
436.062	848.25
436.284	918.25
436.505	927.25
436.727	969.25
436.949	933.25
437.17	912.25
437.392	907.25
437.614	871.25
437.835	819.25
438.057	839.25
438.278	861.25
438.5	877.25
438.721	920.25
438.943	957.25
439.165	945.25
439.386	957.25
439.608	989.25
439.829	951.25
440.05	999.25
440.272	961.25
440.493	980.25
440.715	1008.25
440.936	1043.25
441.158	1116.25
441.379	1074.25
441.6	1046.25
441.822	1033.25
442.043	1012.25
442.264	1032.25
442.486	988.25
442.707	994.25
442.928	970.25
443.149	987.25
443.371	1034.25
443.592	1049.25
443.813	1045.25
444.034	1028.25
444.255	1040.25
444.476	1025.25
444.698	1041.25
444.919	1071.25
445.14	1132.25
445.361	1130.25
445.582	1083.25
445.803	1053.25
446.024	1075.25
446.245	1084.25
446.466	1071.25
446.687	1074.25
446.908	1083.25
447.129	1057.25
447.35	1045.25
447.571	1009.25
447.792	977.25
448.013	956.25
448.234	987.25
448.455	1002.25
448.675	996.25
448.896	959.25
449.117	949.25
449.338	965.25
449.559	1004.25
449.779	995.25
450	1033.25
450.221	1077.25
450.442	988.25
450.662	937.25
450.883	920.25
451.104	913.25
451.324	890.25
451.545	919.25
451.766	887.25
451.986	868.25
452.207	847.25
452.428	817.25
452.648	804.25
452.869	819.25
453.089	791.25
453.31	775.25
453.53	780.25
453.751	731.25
453.971	712.25
454.192	757.25
454.412	789.25
454.633	807.25
454.853	827.25
455.073	743.25
455.294	781.25
455.514	783.25
455.734	777.25
455.955	810.25
456.175	754.25
456.395	740.25
456.616	771.25
456.836	778.25
457.056	761.25
457.276	719.25
457.497	741.25
457.717	710.25
457.937	741.25
458.157	727.25
458.377	713.25
458.598	701.25
458.818	675.25
459.038	712.25
459.258	727.25
459.478	725.25
459.698	730.25
459.918	746.25
460.138	797.25
460.358	855.25
460.578	846.25
460.798	864.25
461.018	898.25
461.238	866.25
461.458	871.25
461.678	849.25
461.898	835.25
462.118	836.25
462.338	857.25
462.558	868.25
462.777	856.25
462.997	905.25
463.217	907.25
463.437	881.25
463.657	882.25
463.876	858.25
464.096	860.25
464.316	863.25
464.536	898.25
464.755	899.25
464.975	887.25
465.195	873.25
465.414	898.25
465.634	887.25
465.854	927.25
466.073	980.25
466.293	977.25
466.512	901.25
466.732	880.25
466.951	927.25
467.171	922.25
467.391	900.25
467.61	925.25
467.829	963.25
468.049	1013.25
468.268	1093.25
468.488	999.25
468.707	902.25
468.927	970.25
469.146	930.25
469.365	934.25
469.585	965.25
469.804	945.25
470.023	938.25
470.243	972.25
470.462	974.25
470.681	948.25
470.901	940.25
471.12	921.25
471.339	965.25
471.558	961.25
471.777	928.25
471.997	904.25
472.216	916.25
472.435	823.25
472.654	799.25
472.873	807.25
473.092	862.25
473.311	831.25
473.53	843.25
473.749	865.25
473.968	862.25
474.187	863.25
474.406	851.25
474.625	873.25
474.844	907.25
475.063	887.25
475.282	881.25
475.501	849.25
475.72	885.25
475.939	930.25
476.158	883.25
476.377	873.25
476.596	871.25
476.814	865.25
477.033	843.25
477.252	864.25
477.471	932.25
477.69	940.25
477.908	965.25
478.127	999.25
478.346	1033.25
478.564	1030.25
478.783	1043.25
479.002	1055.25
479.22	1044.25
479.439	1037.25
479.658	1072.25
479.876	1007.25
480.095	918.25
480.313	935.25
480.532	870.25
480.751	866.25
480.969	855.25
481.188	807.25
481.406	805.25
481.624	779.25
481.843	807.25
482.061	861.25
482.28	892.25
482.498	909.25
482.717	886.25
482.935	940.25
483.153	1019.25
483.372	1045.25
483.59	1042.25
483.808	980.25
484.027	925.25
484.245	1019.25
484.463	1224.25
484.681	1324.25
484.9	1052.25
485.118	1012.25
485.336	965.25
485.554	931.25
485.772	908.25
485.99	915.25
486.209	919.25
486.427	922.25
486.645	953.25
486.863	1017.25
487.081	1091.25
487.299	1031.25
487.517	1017.25
487.735	1113.25
487.953	1239.25
488.171	1237.25
488.389	1159.25
488.607	1126.25
488.825	1163.25
489.043	1091.25
489.261	991.25
489.479	1052.25
489.696	1060.25
489.914	1089.25
490.132	1092.25
490.35	1113.25
490.568	1204.25
490.786	1217.25
491.003	1203.25
491.221	1285.25
491.439	1332.25
491.657	1335.25
491.874	1407.25
492.092	1512.25
492.31	1540.25
492.527	1483.25
492.745	1400.25
492.963	1351.25
493.18	1365.25
493.398	1383.25
493.615	1394.25
493.833	1290.25
494.05	1255.25
494.268	1271.25
494.485	1275.25
494.703	1279.25
494.92	1248.25
495.138	1279.25
495.355	1241.25
495.573	1255.25
495.79	1330.25
496.008	1354.25
496.225	1273.25
496.442	1285.25
496.66	1271.25
496.877	1228.25
497.094	1281.25
497.312	1254.25
497.529	1258.25
497.746	1231.25
497.963	1260.25
498.181	1370.25
498.398	1282.25
498.615	1226.25
498.832	1183.25
499.049	1170.25
499.267	1189.25
499.484	1294.25
499.701	1358.25
499.918	1421.25
500.135	1496.25
