Data from WStandard_LampEnergy8_LIBS07252019.E.O._I.C._HRD10591_16-00-03-929.txt Node
Date: Thu Jul 25 16:00:03 EDT 2019
User: cochatt
Spectrometer: HR+D1059
Trigger mode: 1
Integration Time (sec): 1.000000E-1
Scans to average: 1
Electric dark correction enabled: true
Nonlinearity correction enabled: false
Boxcar width: 0
XAxis mode: Wavelengths
Number of Pixels in Spectrum: 2048
>>>>>Begin Spectral Data<<<<<
223.165	-21.19
223.4	-21.19
223.635	-21.19
223.869	-22.19
224.104	-11.19
224.338	-23.19
224.573	-14.19
224.808	-5.19
225.042	-15.19
225.277	6.81
225.511	-0.19
225.746	-4.19
225.98	18.81
226.215	7.81
226.449	5.81
226.683	25.81
226.918	31.81
227.152	19.81
227.387	40.81
227.621	41.81
227.856	49.81
228.09	44.81
228.324	53.81
228.559	57.81
228.793	100.81
229.027	197.81
229.262	185.81
229.496	209.81
229.73	207.81
229.964	239.81
230.199	254.81
230.433	272.81
230.667	249.81
230.901	292.81
231.136	267.81
231.37	263.81
231.604	243.81
231.838	247.81
232.072	260.81
232.306	246.81
232.541	261.81
232.775	302.81
233.009	305.81
233.243	289.81
233.477	288.81
233.711	307.81
233.945	307.81
234.179	285.81
234.413	317.81
234.647	331.81
234.881	317.81
235.115	302.81
235.349	299.81
235.583	291.81
235.817	285.81
236.051	287.81
236.285	309.81
236.519	305.81
236.753	350.81
236.987	360.81
237.221	338.81
237.455	378.81
237.689	361.81
237.922	350.81
238.156	344.81
238.39	345.81
238.624	354.81
238.858	374.81
239.091	387.81
239.325	407.81
239.559	451.81
239.793	477.81
240.027	515.81
240.26	503.81
240.494	371.81
240.728	365.81
240.961	383.81
241.195	371.81
241.429	379.81
241.662	396.81
241.896	405.81
242.13	386.81
242.363	438.81
242.597	441.81
242.83	429.81
243.064	418.81
243.298	462.81
243.531	455.81
243.765	464.81
243.998	452.81
244.232	397.81
244.465	393.81
244.699	413.81
244.932	448.81
245.166	497.81
245.399	503.81
245.633	468.81
245.866	418.81
246.099	450.81
246.333	482.81
246.566	486.81
246.8	525.81
247.033	567.81
247.266	525.81
247.5	507.81
247.733	506.81
247.966	546.81
248.2	602.81
248.433	577.81
248.666	608.81
248.899	670.81
249.133	713.81
249.366	783.81
249.599	663.81
249.832	626.81
250.066	612.81
250.299	612.81
250.532	568.81
250.765	518.81
250.998	542.81
251.231	575.81
251.465	598.81
251.698	561.81
251.931	585.81
252.164	601.81
252.397	593.81
252.63	576.81
252.863	493.81
253.096	529.81
253.329	558.81
253.562	570.81
253.795	598.81
254.028	586.81
254.261	557.81
254.494	554.81
254.727	540.81
254.96	576.81
255.193	632.81
255.426	695.81
255.659	746.81
255.892	768.81
256.124	645.81
256.357	651.81
256.59	671.81
256.823	674.81
257.056	698.81
257.289	793.81
257.521	871.81
257.754	791.81
257.987	742.81
258.22	851.81
258.452	786.81
258.685	659.81
258.918	652.81
259.151	664.81
259.383	634.81
259.616	599.81
259.849	604.81
260.081	661.81
260.314	767.81
260.547	838.81
260.779	814.81
261.012	742.81
261.244	682.81
261.477	666.81
261.71	704.81
261.942	672.81
262.175	677.81
262.407	712.81
262.64	652.81
262.872	614.81
263.105	605.81
263.337	646.81
263.57	622.81
263.802	622.81
264.035	576.81
264.267	582.81
264.499	559.81
264.732	602.81
264.964	639.81
265.197	645.81
265.429	702.81
265.661	756.81
265.894	823.81
266.126	858.81
266.358	776.81
266.591	818.81
266.823	850.81
267.055	773.81
267.287	717.81
267.52	761.81
267.752	734.81
267.984	741.81
268.216	791.81
268.448	798.81
268.681	782.81
268.913	724.81
269.145	666.81
269.377	682.81
269.609	737.81
269.841	856.81
270.073	989.81
270.306	1071.81
270.538	1101.81
270.77	941.81
271.002	839.81
271.234	780.81
271.466	784.81
271.698	884.81
271.93	1042.81
272.162	1008.81
272.394	965.81
272.626	880.81
272.858	791.81
273.09	657.81
273.322	690.81
273.553	679.81
273.785	660.81
274.017	696.81
274.249	753.81
274.481	737.81
274.713	690.81
274.945	687.81
275.176	714.81
275.408	673.81
275.64	671.81
275.872	667.81
276.104	743.81
276.335	813.81
276.567	918.81
276.799	909.81
277.031	814.81
277.262	793.81
277.494	801.81
277.726	894.81
277.957	854.81
278.189	783.81
278.421	746.81
278.652	728.81
278.884	720.81
279.115	721.81
279.347	744.81
279.579	716.81
279.81	709.81
280.042	779.81
280.273	886.81
280.505	859.81
280.736	878.81
280.968	801.81
281.199	709.81
281.431	704.81
281.662	692.81
281.894	738.81
282.125	754.81
282.356	771.81
282.588	768.81
282.819	746.81
283.051	813.81
283.282	863.81
283.513	833.81
283.745	753.81
283.976	669.81
284.207	727.81
284.439	746.81
284.67	761.81
284.901	753.81
285.132	752.81
285.364	761.81
285.595	774.81
285.826	755.81
286.057	754.81
286.288	746.81
286.52	794.81
286.751	805.81
286.982	835.81
287.213	773.81
287.444	701.81
287.675	720.81
287.906	775.81
288.138	833.81
288.369	805.81
288.6	737.81
288.831	739.81
289.062	745.81
289.293	753.81
289.524	769.81
289.755	785.81
289.986	760.81
290.217	713.81
290.448	713.81
290.679	763.81
290.91	781.81
291.141	797.81
291.371	806.81
291.602	817.81
291.833	820.81
292.064	837.81
292.295	788.81
292.526	794.81
292.757	855.81
292.987	813.81
293.218	802.81
293.449	861.81
293.68	961.81
293.91	1001.81
294.141	938.81
294.372	895.81
294.603	963.81
294.833	946.81
295.064	893.81
295.295	818.81
295.525	810.81
295.756	773.81
295.987	757.81
296.217	747.81
296.448	763.81
296.679	753.81
296.909	751.81
297.14	762.81
297.37	772.81
297.601	814.81
297.831	868.81
298.062	870.81
298.292	801.81
298.523	766.81
298.753	797.81
298.984	788.81
299.214	797.81
299.445	804.81
299.675	801.81
299.905	839.81
300.136	809.81
300.366	767.81
300.597	737.81
300.827	759.81
301.057	793.81
301.288	831.81
301.518	843.81
301.748	849.81
301.979	911.81
302.209	903.81
302.439	935.81
302.669	968.81
302.9	921.81
303.13	867.81
303.36	837.81
303.59	864.81
303.82	840.81
304.051	837.81
304.281	848.81
304.511	867.81
304.741	932.81
304.971	987.81
305.201	1052.81
305.431	919.81
305.661	813.81
305.891	786.81
306.121	746.81
306.352	780.81
306.582	843.81
306.812	895.81
307.042	897.81
307.272	945.81
307.502	969.81
307.731	1050.81
307.961	1055.81
308.191	947.81
308.421	879.81
308.651	842.81
308.881	823.81
309.111	795.81
309.341	790.81
309.571	838.81
309.8	803.81
310.03	810.81
310.26	812.81
310.49	799.81
310.72	836.81
310.949	864.81
311.179	854.81
311.409	833.81
311.639	817.81
311.868	806.81
312.098	845.81
312.328	834.81
312.557	800.81
312.787	853.81
313.017	867.81
313.246	860.81
313.476	870.81
313.706	905.81
313.935	856.81
314.165	901.81
314.394	936.81
314.624	959.81
314.853	1010.81
315.083	1020.81
315.312	1031.81
315.542	962.81
315.771	893.81
316.001	898.81
316.23	949.81
316.46	901.81
316.689	892.81
316.919	872.81
317.148	844.81
317.377	895.81
317.607	943.81
317.836	1084.81
318.065	1038.81
318.295	1025.81
318.524	991.81
318.753	937.81
318.983	946.81
319.212	910.81
319.441	913.81
319.67	891.81
319.9	918.81
320.129	965.81
320.358	997.81
320.587	1035.81
320.816	1019.81
321.046	979.81
321.275	955.81
321.504	971.81
321.733	1063.81
321.962	977.81
322.191	921.81
322.42	908.81
322.649	909.81
322.878	901.81
323.108	910.81
323.337	937.81
323.566	928.81
323.795	935.81
324.024	924.81
324.253	927.81
324.482	929.81
324.71	897.81
324.939	871.81
325.168	899.81
325.397	913.81
325.626	938.81
325.855	935.81
326.084	900.81
326.313	924.81
326.542	919.81
326.77	961.81
326.999	952.81
327.228	915.81
327.457	881.81
327.686	854.81
327.914	891.81
328.143	929.81
328.372	915.81
328.6	933.81
328.829	908.81
329.058	897.81
329.287	914.81
329.515	922.81
329.744	943.81
329.972	971.81
330.201	1043.81
330.43	992.81
330.658	971.81
330.887	979.81
331.115	977.81
331.344	976.81
331.572	950.81
331.801	947.81
332.03	974.81
332.258	985.81
332.486	1002.81
332.715	982.81
332.943	964.81
333.172	990.81
333.4	990.81
333.629	997.81
333.857	1082.81
334.085	1215.81
334.314	1356.81
334.542	1374.81
334.771	1267.81
334.999	1158.81
335.227	1065.81
335.455	1045.81
335.684	1043.81
335.912	1088.81
336.14	1073.81
336.369	1036.81
336.597	1001.81
336.825	1013.81
337.053	1009.81
337.281	1085.81
337.51	1114.81
337.738	1148.81
337.966	1114.81
338.194	989.81
338.422	1000.81
338.65	929.81
338.878	943.81
339.106	958.81
339.334	942.81
339.562	927.81
339.79	959.81
340.018	1028.81
340.246	1013.81
340.474	1005.81
340.702	986.81
340.93	1031.81
341.158	953.81
341.386	1000.81
341.614	981.81
341.842	982.81
342.07	969.81
342.298	1015.81
342.526	983.81
342.754	975.81
342.981	948.81
343.209	962.81
343.437	991.81
343.665	971.81
343.893	987.81
344.12	1056.81
344.348	1025.81
344.576	1012.81
344.804	978.81
345.031	957.81
345.259	993.81
345.487	946.81
345.714	916.81
345.942	902.81
346.17	912.81
346.397	947.81
346.625	938.81
346.853	872.81
347.08	895.81
347.308	899.81
347.535	911.81
347.763	945.81
347.99	939.81
348.218	893.81
348.445	884.81
348.673	887.81
348.9	930.81
349.128	960.81
349.355	999.81
349.583	972.81
349.81	907.81
350.037	874.81
350.265	859.81
350.492	866.81
350.72	922.81
350.947	917.81
351.174	943.81
351.402	907.81
351.629	858.81
351.856	845.81
352.083	846.81
352.311	861.81
352.538	912.81
352.765	918.81
352.992	926.81
353.22	905.81
353.447	886.81
353.674	889.81
353.901	901.81
354.128	869.81
354.355	861.81
354.583	950.81
354.81	949.81
355.037	934.81
355.264	927.81
355.491	939.81
355.718	917.81
355.945	911.81
356.172	915.81
356.399	888.81
356.626	905.81
356.853	922.81
357.08	1014.81
357.307	1090.81
357.534	1032.81
357.761	951.81
357.988	882.81
358.215	861.81
358.441	870.81
358.668	850.81
358.895	887.81
359.122	965.81
359.349	1039.81
359.576	1007.81
359.802	919.81
360.029	900.81
360.256	901.81
360.483	876.81
360.709	933.81
360.936	965.81
361.163	1030.81
361.39	1119.81
361.616	1115.81
361.843	1133.81
362.07	1030.81
362.296	915.81
362.523	897.81
362.749	905.81
362.976	933.81
363.203	925.81
363.429	913.81
363.656	885.81
363.882	944.81
364.109	1057.81
364.335	1093.81
364.562	1002.81
364.788	960.81
365.015	903.81
365.241	879.81
365.468	944.81
365.694	966.81
365.92	997.81
366.147	914.81
366.373	913.81
366.599	888.81
366.826	910.81
367.052	925.81
367.278	901.81
367.505	922.81
367.731	959.81
367.957	941.81
368.184	1019.81
368.41	1066.81
368.636	1021.81
368.862	1013.81
369.089	1017.81
369.315	1020.81
369.541	979.81
369.767	921.81
369.993	937.81
370.219	904.81
370.445	987.81
370.672	1045.81
370.898	1059.81
371.124	1011.81
371.35	983.81
371.576	1000.81
371.802	1032.81
372.028	1005.81
372.254	970.81
372.48	906.81
372.706	938.81
372.932	936.81
373.158	966.81
373.384	970.81
373.61	958.81
373.835	1031.81
374.061	957.81
374.287	965.81
374.513	979.81
374.739	981.81
374.965	959.81
375.191	969.81
375.416	1019.81
375.642	1041.81
375.868	1076.81
376.094	1135.81
376.319	1031.81
376.545	994.81
376.771	1031.81
376.997	1073.81
377.222	1029.81
377.448	1033.81
377.674	1023.81
377.899	1025.81
378.125	1133.81
378.35	1081.81
378.576	969.81
378.802	926.81
379.027	934.81
379.253	936.81
379.478	949.81
379.704	948.81
379.929	965.81
380.155	990.81
380.38	994.81
380.606	996.81
380.831	1008.81
381.057	1053.81
381.282	1060.81
381.507	1031.81
381.733	1130.81
381.958	1171.81
382.184	1071.81
382.409	1022.81
382.634	1007.81
382.86	1042.81
383.085	1063.81
383.31	1042.81
383.535	1178.81
383.761	1210.81
383.986	1156.81
384.211	1097.81
384.436	1095.81
384.662	1191.81
384.887	1200.81
385.112	1117.81
385.337	1136.81
385.562	1128.81
385.787	1090.81
386.013	1176.81
386.238	1147.81
386.463	1165.81
386.688	1254.81
386.913	1287.81
387.138	1207.81
387.363	1175.81
387.588	1142.81
387.813	1167.81
388.038	1181.81
388.263	1210.81
388.488	1174.81
388.713	1082.81
388.938	1067.81
389.163	1073.81
389.387	1113.81
389.612	1081.81
389.837	1109.81
390.062	1145.81
390.287	1115.81
390.512	1123.81
390.736	1102.81
390.961	1106.81
391.186	1106.81
391.411	1091.81
391.636	1096.81
391.86	1127.81
392.085	1109.81
392.31	1114.81
392.534	1098.81
392.759	1174.81
392.984	1101.81
393.208	1145.81
393.433	1179.81
393.658	1188.81
393.882	1211.81
394.107	1153.81
394.331	1138.81
394.556	1125.81
394.78	1151.81
395.005	1213.81
395.229	1244.81
395.454	1300.81
395.678	1316.81
395.903	1230.81
396.127	1185.81
396.352	1191.81
396.576	1255.81
396.801	1243.81
397.025	1216.81
397.249	1234.81
397.474	1206.81
397.698	1216.81
397.922	1231.81
398.147	1313.81
398.371	1344.81
398.595	1371.81
398.82	1305.81
399.044	1305.81
399.268	1343.81
399.492	1439.81
399.717	1442.81
399.941	1462.81
400.165	1440.81
400.389	1413.81
400.613	1446.81
400.837	1634.81
401.062	1819.81
401.286	1521.81
401.51	1425.81
401.734	1446.81
401.958	1397.81
402.182	1277.81
402.406	1239.81
402.63	1265.81
402.854	1287.81
403.078	1320.81
403.302	1311.81
403.526	1327.81
403.75	1344.81
403.974	1377.81
404.198	1366.81
404.422	1409.81
404.645	1483.81
404.869	1403.81
405.093	1306.81
405.317	1284.81
405.541	1311.81
405.765	1373.81
405.988	1369.81
406.212	1367.81
406.436	1375.81
406.66	1450.81
406.883	1494.81
407.107	1690.81
407.331	1775.81
407.555	1863.81
407.778	1705.81
408.002	1421.81
408.226	1432.81
408.449	1414.81
408.673	1345.81
408.896	1391.81
409.12	1385.81
409.344	1356.81
409.567	1348.81
409.791	1336.81
410.014	1398.81
410.238	1453.81
410.461	1497.81
410.685	1369.81
410.908	1342.81
411.132	1363.81
411.355	1341.81
411.578	1319.81
411.802	1325.81
412.025	1366.81
412.249	1307.81
412.472	1291.81
412.695	1298.81
412.919	1246.81
413.142	1286.81
413.365	1320.81
413.589	1341.81
413.812	1405.81
414.035	1411.81
414.258	1320.81
414.482	1285.81
414.705	1299.81
414.928	1312.81
415.151	1309.81
415.374	1309.81
415.597	1330.81
415.821	1332.81
416.044	1339.81
416.267	1354.81
416.49	1266.81
416.713	1241.81
416.936	1329.81
417.159	1379.81
417.382	1337.81
417.605	1288.81
417.828	1311.81
418.051	1309.81
418.274	1336.81
418.497	1265.81
418.72	1282.81
418.943	1251.81
419.166	1309.81
419.389	1365.81
419.611	1289.81
419.834	1301.81
420.057	1267.81
420.28	1271.81
420.503	1324.81
420.726	1318.81
420.948	1313.81
421.171	1247.81
421.394	1243.81
421.617	1313.81
421.839	1315.81
422.062	1311.81
422.285	1257.81
422.507	1255.81
422.73	1238.81
422.953	1191.81
423.175	1212.81
423.398	1263.81
423.621	1250.81
423.843	1290.81
424.066	1313.81
424.288	1351.81
424.511	1407.81
424.733	1367.81
424.956	1222.81
425.178	1246.81
425.401	1215.81
425.623	1288.81
425.846	1265.81
426.068	1295.81
426.291	1376.81
426.513	1327.81
426.735	1321.81
426.958	1402.81
427.18	1451.81
427.402	1335.81
427.625	1414.81
427.847	1334.81
428.069	1246.81
428.292	1264.81
428.514	1213.81
428.736	1241.81
428.958	1268.81
429.181	1279.81
429.403	1445.81
429.625	1775.81
429.847	1437.81
430.069	1299.81
430.292	1415.81
430.514	1407.81
430.736	1311.81
430.958	1362.81
431.18	1285.81
431.402	1221.81
431.624	1205.81
431.846	1186.81
432.068	1141.81
432.29	1158.81
432.512	1192.81
432.734	1246.81
432.956	1252.81
433.178	1341.81
433.4	1310.81
433.622	1313.81
433.844	1253.81
434.066	1202.81
434.287	1167.81
434.509	1190.81
434.731	1258.81
434.953	1301.81
435.175	1317.81
435.397	1248.81
435.618	1256.81
435.84	1255.81
436.062	1232.81
436.284	1215.81
436.505	1267.81
436.727	1284.81
436.949	1272.81
437.17	1234.81
437.392	1213.81
437.614	1187.81
437.835	1164.81
438.057	1186.81
438.278	1233.81
438.5	1217.81
438.721	1231.81
438.943	1258.81
439.165	1215.81
439.386	1221.81
439.608	1231.81
439.829	1269.81
440.05	1214.81
440.272	1227.81
440.493	1239.81
440.715	1267.81
440.936	1333.81
441.158	1431.81
441.379	1405.81
441.6	1374.81
441.822	1368.81
442.043	1350.81
442.264	1314.81
442.486	1273.81
442.707	1211.81
442.928	1273.81
443.149	1314.81
443.371	1327.81
443.592	1359.81
443.813	1363.81
444.034	1355.81
444.255	1352.81
444.476	1396.81
444.698	1399.81
444.919	1397.81
445.14	1484.81
445.361	1442.81
445.582	1423.81
445.803	1397.81
446.024	1386.81
446.245	1377.81
446.466	1362.81
446.687	1309.81
446.908	1297.81
447.129	1298.81
447.35	1285.81
447.571	1303.81
447.792	1223.81
448.013	1229.81
448.234	1248.81
448.455	1281.81
448.675	1281.81
448.896	1182.81
449.117	1181.81
449.338	1233.81
449.559	1257.81
449.779	1305.81
450	1405.81
450.221	1476.81
450.442	1363.81
450.662	1301.81
450.883	1169.81
451.104	1157.81
451.324	1159.81
451.545	1226.81
451.766	1159.81
451.986	1111.81
452.207	1110.81
452.428	1081.81
452.648	1084.81
452.869	1106.81
453.089	1144.81
453.31	1140.81
453.53	1150.81
453.751	1097.81
453.971	1057.81
454.192	1069.81
454.412	1139.81
454.633	1155.81
454.853	1082.81
455.073	1057.81
455.294	1043.81
455.514	1049.81
455.734	1046.81
455.955	1059.81
456.175	1055.81
456.395	1071.81
456.616	1089.81
456.836	1089.81
457.056	1093.81
457.276	1062.81
457.497	1046.81
457.717	1042.81
457.937	1047.81
458.157	1034.81
458.377	1048.81
458.598	1013.81
458.818	1030.81
459.038	1118.81
459.258	1151.81
459.478	1112.81
459.698	1138.81
459.918	1133.81
460.138	1195.81
460.358	1263.81
460.578	1259.81
460.798	1278.81
461.018	1307.81
461.238	1282.81
461.458	1252.81
461.678	1255.81
461.898	1203.81
462.118	1209.81
462.338	1208.81
462.558	1252.81
462.777	1265.81
462.997	1327.81
463.217	1361.81
463.437	1317.81
463.657	1248.81
463.876	1239.81
464.096	1261.81
464.316	1295.81
464.536	1288.81
464.755	1311.81
464.975	1309.81
465.195	1238.81
465.414	1321.81
465.634	1275.81
465.854	1244.81
466.073	1349.81
466.293	1320.81
466.512	1230.81
466.732	1206.81
466.951	1249.81
467.171	1218.81
467.391	1177.81
467.61	1182.81
467.829	1192.81
468.049	1316.81
468.268	1425.81
468.488	1295.81
468.707	1234.81
468.927	1182.81
469.146	1177.81
469.365	1177.81
469.585	1261.81
469.804	1193.81
470.023	1224.81
470.243	1263.81
470.462	1221.81
470.681	1205.81
470.901	1234.81
471.12	1211.81
471.339	1260.81
471.558	1194.81
471.777	1181.81
471.997	1195.81
472.216	1176.81
472.435	1112.81
472.654	1089.81
472.873	1153.81
473.092	1202.81
473.311	1178.81
473.53	1122.81
473.749	1158.81
473.968	1175.81
474.187	1205.81
474.406	1239.81
474.625	1211.81
474.844	1187.81
475.063	1207.81
475.282	1230.81
475.501	1178.81
475.72	1192.81
475.939	1280.81
476.158	1236.81
476.377	1198.81
476.596	1190.81
476.814	1201.81
477.033	1199.81
477.252	1262.81
477.471	1310.81
477.69	1258.81
477.908	1261.81
478.127	1303.81
478.346	1378.81
478.564	1384.81
478.783	1358.81
479.002	1433.81
479.22	1411.81
479.439	1451.81
479.658	1559.81
479.876	1541.81
480.095	1333.81
480.313	1326.81
480.532	1269.81
480.751	1283.81
480.969	1279.81
481.188	1277.81
481.406	1222.81
481.624	1219.81
481.843	1256.81
482.061	1298.81
482.28	1311.81
482.498	1329.81
482.717	1297.81
482.935	1261.81
483.153	1351.81
483.372	1354.81
483.59	1386.81
483.808	1345.81
484.027	1382.81
484.245	1429.81
484.463	1727.81
484.681	1849.81
484.9	1425.81
485.118	1349.81
485.336	1363.81
485.554	1355.81
485.772	1379.81
485.99	1328.81
486.209	1368.81
486.427	1358.81
486.645	1394.81
486.863	1405.81
487.081	1476.81
487.299	1475.81
487.517	1457.81
487.735	1453.81
487.953	1503.81
488.171	1469.81
488.389	1446.81
488.607	1425.81
488.825	1582.81
489.043	1494.81
489.261	1409.81
489.479	1443.81
489.696	1450.81
489.914	1442.81
490.132	1419.81
490.35	1445.81
490.568	1524.81
490.786	1481.81
491.003	1485.81
491.221	1531.81
491.439	1547.81
491.657	1550.81
491.874	1595.81
492.092	1637.81
492.31	1643.81
492.527	1659.81
492.745	1578.81
492.963	1598.81
493.18	1584.81
493.398	1694.81
493.615	1689.81
493.833	1586.81
