Data from WStandard_LampEnergy10_LIBS07252019.E.O._I.C._HRD10591_15-53-12-928.txt Node
Date: Thu Jul 25 15:53:12 EDT 2019
User: cochatt
Spectrometer: HR+D1059
Trigger mode: 1
Integration Time (sec): 1.000000E-1
Scans to average: 1
Electric dark correction enabled: true
Nonlinearity correction enabled: false
Boxcar width: 0
XAxis mode: Wavelengths
Number of Pixels in Spectrum: 2048
>>>>>Begin Spectral Data<<<<<
223.165	-8.62
223.4	-8.62
223.635	-8.62
223.869	1.38
224.104	-11.62
224.338	-29.62
224.573	-13.62
224.808	-23.62
225.042	-0.62
225.277	2.38
225.511	-1.62
225.746	-5.62
225.98	10.38
226.215	5.38
226.449	3.38
226.683	22.38
226.918	16.38
227.152	33.38
227.387	32.38
227.621	34.38
227.856	44.38
228.09	46.38
228.324	46.38
228.559	58.38
228.793	72.38
229.027	128.38
229.262	146.38
229.496	157.38
229.73	147.38
229.964	164.38
230.199	168.38
230.433	180.38
230.667	192.38
230.901	193.38
231.136	173.38
231.37	192.38
231.604	182.38
231.838	187.38
232.072	182.38
232.306	185.38
232.541	189.38
232.775	185.38
233.009	189.38
233.243	202.38
233.477	190.38
233.711	204.38
233.945	214.38
234.179	200.38
234.413	206.38
234.647	235.38
234.881	189.38
235.115	197.38
235.349	208.38
235.583	210.38
235.817	202.38
236.051	189.38
236.285	185.38
236.519	194.38
236.753	221.38
236.987	223.38
237.221	208.38
237.455	229.38
237.689	237.38
237.922	214.38
238.156	201.38
238.39	216.38
238.624	241.38
238.858	240.38
239.091	245.38
239.325	263.38
239.559	302.38
239.793	292.38
240.027	309.38
240.26	280.38
240.494	248.38
240.728	227.38
240.961	235.38
241.195	247.38
241.429	258.38
241.662	253.38
241.896	240.38
242.13	244.38
242.363	275.38
242.597	299.38
242.83	263.38
243.064	280.38
243.298	301.38
243.531	266.38
243.765	284.38
243.998	276.38
244.232	251.38
244.465	258.38
244.699	274.38
244.932	292.38
245.166	312.38
245.399	293.38
245.633	294.38
245.866	279.38
246.099	290.38
246.333	297.38
246.566	297.38
246.8	314.38
247.033	345.38
247.266	340.38
247.5	340.38
247.733	318.38
247.966	346.38
248.2	352.38
248.433	358.38
248.666	373.38
248.899	378.38
249.133	442.38
249.366	458.38
249.599	409.38
249.832	358.38
250.066	365.38
250.299	364.38
250.532	376.38
250.765	324.38
250.998	332.38
251.231	365.38
251.465	354.38
251.698	340.38
251.931	349.38
252.164	355.38
252.397	357.38
252.63	382.38
252.863	324.38
253.096	334.38
253.329	358.38
253.562	357.38
253.795	362.38
254.028	377.38
254.261	358.38
254.494	340.38
254.727	343.38
254.96	329.38
255.193	382.38
255.426	420.38
255.659	472.38
255.892	450.38
256.124	404.38
256.357	392.38
256.59	409.38
256.823	428.38
257.056	423.38
257.289	513.38
257.521	542.38
257.754	461.38
257.987	457.38
258.22	473.38
258.452	461.38
258.685	410.38
258.918	388.38
259.151	406.38
259.383	371.38
259.616	365.38
259.849	374.38
260.081	417.38
260.314	452.38
260.547	472.38
260.779	462.38
261.012	438.38
261.244	418.38
261.477	403.38
261.71	399.38
261.942	389.38
262.175	408.38
262.407	418.38
262.64	402.38
262.872	389.38
263.105	375.38
263.337	379.38
263.57	373.38
263.802	389.38
264.035	363.38
264.267	342.38
264.499	345.38
264.732	365.38
264.964	378.38
265.197	412.38
265.429	425.38
265.661	478.38
265.894	500.38
266.126	512.38
266.358	486.38
266.591	494.38
266.823	490.38
267.055	461.38
267.287	467.38
267.52	438.38
267.752	453.38
267.984	428.38
268.216	444.38
268.448	470.38
268.681	444.38
268.913	443.38
269.145	396.38
269.377	408.38
269.609	440.38
269.841	550.38
270.073	600.38
270.306	635.38
270.538	616.38
270.77	565.38
271.002	496.38
271.234	498.38
271.466	473.38
271.698	547.38
271.93	629.38
272.162	587.38
272.394	538.38
272.626	507.38
272.858	464.38
273.09	419.38
273.322	425.38
273.553	415.38
273.785	437.38
274.017	433.38
274.249	452.38
274.481	440.38
274.713	421.38
274.945	414.38
275.176	413.38
275.408	413.38
275.64	385.38
275.872	410.38
276.104	448.38
276.335	481.38
276.567	522.38
276.799	512.38
277.031	482.38
277.262	514.38
277.494	500.38
277.726	531.38
277.957	532.38
278.189	478.38
278.421	447.38
278.652	412.38
278.884	438.38
279.115	448.38
279.347	435.38
279.579	433.38
279.81	440.38
280.042	504.38
280.273	516.38
280.505	523.38
280.736	498.38
280.968	486.38
281.199	440.38
281.431	423.38
281.662	452.38
281.894	442.38
282.125	435.38
282.356	461.38
282.588	466.38
282.819	470.38
283.051	487.38
283.282	538.38
283.513	505.38
283.745	452.38
283.976	420.38
284.207	432.38
284.439	436.38
284.67	447.38
284.901	445.38
285.132	463.38
285.364	450.38
285.595	457.38
285.826	450.38
286.057	444.38
286.288	454.38
286.52	470.38
286.751	519.38
286.982	509.38
287.213	452.38
287.444	468.38
287.675	435.38
287.906	476.38
288.138	498.38
288.369	474.38
288.6	430.38
288.831	441.38
289.062	444.38
289.293	476.38
289.524	454.38
289.755	490.38
289.986	489.38
290.217	444.38
290.448	443.38
290.679	457.38
290.91	488.38
291.141	493.38
291.371	510.38
291.602	487.38
291.833	496.38
292.064	493.38
292.295	510.38
292.526	508.38
292.757	521.38
292.987	499.38
293.218	478.38
293.449	501.38
293.68	580.38
293.91	592.38
294.141	571.38
294.372	551.38
294.603	560.38
294.833	568.38
295.064	544.38
295.295	489.38
295.525	486.38
295.756	458.38
295.987	458.38
296.217	457.38
296.448	465.38
296.679	472.38
296.909	474.38
297.14	467.38
297.37	476.38
297.601	518.38
297.831	520.38
298.062	502.38
298.292	504.38
298.523	446.38
298.753	474.38
298.984	472.38
299.214	497.38
299.445	506.38
299.675	510.38
299.905	496.38
300.136	480.38
300.366	494.38
300.597	474.38
300.827	477.38
301.057	491.38
301.288	534.38
301.518	522.38
301.748	528.38
301.979	547.38
302.209	586.38
302.439	624.38
302.669	621.38
302.9	564.38
303.13	540.38
303.36	516.38
303.59	516.38
303.82	513.38
304.051	498.38
304.281	536.38
304.511	529.38
304.741	589.38
304.971	628.38
305.201	638.38
305.431	587.38
305.661	480.38
305.891	473.38
306.121	459.38
306.352	471.38
306.582	528.38
306.812	570.38
307.042	568.38
307.272	579.38
307.502	598.38
307.731	658.38
307.961	629.38
308.191	589.38
308.421	529.38
308.651	510.38
308.881	515.38
309.111	513.38
309.341	481.38
309.571	500.38
309.8	514.38
310.03	475.38
310.26	501.38
310.49	502.38
310.72	534.38
310.949	536.38
311.179	542.38
311.409	532.38
311.639	521.38
311.868	534.38
312.098	522.38
312.328	494.38
312.557	514.38
312.787	530.38
313.017	539.38
313.246	543.38
313.476	545.38
313.706	541.38
313.935	557.38
314.165	538.38
314.394	566.38
314.624	590.38
314.853	633.38
315.083	649.38
315.312	618.38
315.542	586.38
315.771	568.38
316.001	553.38
316.23	599.38
316.46	573.38
316.689	583.38
316.919	539.38
317.148	525.38
317.377	527.38
317.607	600.38
317.836	644.38
318.065	650.38
318.295	640.38
318.524	590.38
318.753	580.38
318.983	568.38
319.212	568.38
319.441	549.38
319.67	555.38
319.9	587.38
320.129	624.38
320.358	628.38
320.587	650.38
320.816	643.38
321.046	609.38
321.275	576.38
321.504	627.38
321.733	622.38
321.962	599.38
322.191	566.38
322.42	576.38
322.649	575.38
322.878	552.38
323.108	557.38
323.337	592.38
323.566	594.38
323.795	558.38
324.024	583.38
324.253	572.38
324.482	570.38
324.71	582.38
324.939	538.38
325.168	553.38
325.397	566.38
325.626	575.38
325.855	582.38
326.084	550.38
326.313	572.38
326.542	588.38
326.77	604.38
326.999	577.38
327.228	547.38
327.457	551.38
327.686	559.38
327.914	560.38
328.143	583.38
328.372	568.38
328.6	577.38
328.829	566.38
329.058	547.38
329.287	563.38
329.515	590.38
329.744	579.38
329.972	613.38
330.201	637.38
330.43	626.38
330.658	602.38
330.887	610.38
331.115	625.38
331.344	612.38
331.572	578.38
331.801	608.38
332.03	628.38
332.258	602.38
332.486	606.38
332.715	623.38
332.943	605.38
333.172	598.38
333.4	629.38
333.629	636.38
333.857	681.38
334.085	744.38
334.314	864.38
334.542	848.38
334.771	767.38
334.999	702.38
335.227	688.38
335.455	654.38
335.684	633.38
335.912	646.38
336.14	667.38
336.369	660.38
336.597	603.38
336.825	628.38
337.053	639.38
337.281	672.38
337.51	701.38
337.738	712.38
337.966	666.38
338.194	606.38
338.422	601.38
338.65	597.38
338.878	604.38
339.106	569.38
339.334	585.38
339.562	578.38
339.79	607.38
340.018	632.38
340.246	636.38
340.474	645.38
340.702	636.38
340.93	627.38
341.158	621.38
341.386	608.38
341.614	590.38
341.842	614.38
342.07	588.38
342.298	607.38
342.526	631.38
342.754	603.38
342.981	604.38
343.209	570.38
343.437	585.38
343.665	591.38
343.893	633.38
344.12	629.38
344.348	644.38
344.576	616.38
344.804	613.38
345.031	590.38
345.259	572.38
345.487	573.38
345.714	569.38
345.942	563.38
346.17	577.38
346.397	580.38
346.625	580.38
346.853	540.38
347.08	560.38
347.308	568.38
347.535	560.38
347.763	587.38
347.99	600.38
348.218	569.38
348.445	574.38
348.673	571.38
348.9	598.38
349.128	619.38
349.355	615.38
349.583	604.38
349.81	587.38
350.037	536.38
350.265	536.38
350.492	535.38
350.72	566.38
350.947	578.38
351.174	590.38
351.402	548.38
351.629	547.38
351.856	509.38
352.083	540.38
352.311	538.38
352.538	582.38
352.765	590.38
352.992	599.38
353.22	576.38
353.447	557.38
353.674	573.38
353.901	561.38
354.128	540.38
354.355	556.38
354.583	594.38
354.81	603.38
355.037	586.38
355.264	583.38
355.491	580.38
355.718	560.38
355.945	582.38
356.172	554.38
356.399	548.38
356.626	560.38
356.853	576.38
357.08	663.38
357.307	690.38
357.534	664.38
357.761	602.38
357.988	562.38
358.215	554.38
358.441	555.38
358.668	539.38
358.895	573.38
359.122	608.38
359.349	662.38
359.576	636.38
359.802	570.38
360.029	562.38
360.256	562.38
360.483	573.38
360.709	589.38
360.936	588.38
361.163	644.38
361.39	688.38
361.616	701.38
361.843	698.38
362.07	627.38
362.296	572.38
362.523	568.38
362.749	569.38
362.976	582.38
363.203	605.38
363.429	583.38
363.656	586.38
363.882	600.38
364.109	658.38
364.335	681.38
364.562	627.38
364.788	598.38
365.015	597.38
365.241	579.38
365.468	610.38
365.694	625.38
365.92	609.38
366.147	596.38
366.373	573.38
366.599	575.38
366.826	569.38
367.052	586.38
367.278	592.38
367.505	596.38
367.731	611.38
367.957	601.38
368.184	626.38
368.41	688.38
368.636	687.38
368.862	688.38
369.089	700.38
369.315	634.38
369.541	622.38
369.767	611.38
369.993	598.38
370.219	596.38
370.445	619.38
370.672	674.38
370.898	682.38
371.124	666.38
371.35	674.38
371.576	682.38
371.802	644.38
372.028	653.38
372.254	626.38
372.48	596.38
372.706	585.38
372.932	615.38
373.158	609.38
373.384	597.38
373.61	642.38
373.835	648.38
374.061	637.38
374.287	636.38
374.513	652.38
374.739	619.38
374.965	642.38
375.191	660.38
375.416	648.38
375.642	655.38
375.868	736.38
376.094	734.38
376.319	668.38
376.545	635.38
376.771	667.38
376.997	692.38
377.222	674.38
377.448	659.38
377.674	674.38
377.899	697.38
378.125	724.38
378.35	701.38
378.576	657.38
378.802	608.38
379.027	658.38
379.253	638.38
379.478	645.38
379.704	658.38
379.929	650.38
380.155	670.38
380.38	645.38
380.606	661.38
380.831	678.38
381.057	695.38
381.282	699.38
381.507	710.38
381.733	732.38
381.958	742.38
382.184	711.38
382.409	684.38
382.634	679.38
382.86	701.38
383.085	680.38
383.31	715.38
383.535	809.38
383.761	780.38
383.986	766.38
384.211	744.38
384.436	724.38
384.662	775.38
384.887	782.38
385.112	747.38
385.337	734.38
385.562	750.38
385.787	759.38
386.013	754.38
386.238	764.38
386.463	778.38
386.688	843.38
386.913	863.38
387.138	816.38
387.363	761.38
387.588	798.38
387.813	780.38
388.038	788.38
388.263	835.38
388.488	770.38
388.713	721.38
388.938	736.38
389.163	724.38
389.387	774.38
389.612	767.38
389.837	776.38
390.062	771.38
390.287	773.38
390.512	758.38
390.736	749.38
390.961	734.38
391.186	729.38
391.411	731.38
391.636	753.38
391.86	759.38
392.085	754.38
392.31	760.38
392.534	779.38
392.759	772.38
392.984	765.38
393.208	776.38
393.433	820.38
393.658	842.38
393.882	823.38
394.107	808.38
394.331	776.38
394.556	780.38
394.78	758.38
395.005	794.38
395.229	836.38
395.454	882.38
395.678	880.38
395.903	861.38
396.127	820.38
396.352	842.38
396.576	858.38
396.801	869.38
397.025	882.38
397.249	850.38
397.474	856.38
397.698	833.38
397.922	883.38
398.147	906.38
398.371	919.38
398.595	880.38
398.82	883.38
399.044	913.38
399.268	930.38
399.492	995.38
399.717	988.38
399.941	1003.38
400.165	977.38
400.389	962.38
400.613	991.38
400.837	1124.38
401.062	1223.38
401.286	1038.38
401.51	978.38
401.734	1032.38
401.958	981.38
402.182	906.38
402.406	902.38
402.63	886.38
402.854	901.38
403.078	879.38
403.302	910.38
403.526	905.38
403.75	915.38
403.974	948.38
404.198	957.38
404.422	974.38
404.645	1016.38
404.869	990.38
405.093	912.38
405.317	937.38
405.541	926.38
405.765	918.38
405.988	970.38
406.212	942.38
406.436	995.38
406.66	1028.38
406.883	1033.38
407.107	1160.38
407.331	1237.38
407.555	1256.38
407.778	1145.38
408.002	1006.38
408.226	974.38
408.449	944.38
408.673	977.38
408.896	961.38
409.12	992.38
409.344	930.38
409.567	940.38
409.791	940.38
410.014	964.38
410.238	1035.38
410.461	1076.38
410.685	959.38
410.908	973.38
411.132	981.38
411.355	969.38
411.578	924.38
411.802	964.38
412.025	952.38
412.249	915.38
412.472	949.38
412.695	951.38
412.919	952.38
413.142	917.38
413.365	952.38
413.589	967.38
413.812	1026.38
414.035	993.38
414.258	963.38
414.482	924.38
414.705	948.38
414.928	927.38
415.151	919.38
415.374	947.38
415.597	955.38
415.821	973.38
416.044	966.38
416.267	978.38
416.49	919.38
416.713	923.38
416.936	969.38
417.159	1010.38
417.382	968.38
417.605	968.38
417.828	945.38
418.051	954.38
418.274	937.38
418.497	951.38
418.72	940.38
418.943	934.38
419.166	964.38
419.389	1013.38
419.611	987.38
419.834	920.38
420.057	978.38
420.28	952.38
420.503	962.38
420.726	962.38
420.948	966.38
421.171	928.38
421.394	944.38
421.617	974.38
421.839	991.38
422.062	998.38
422.285	938.38
422.507	928.38
422.73	907.38
422.953	909.38
423.175	887.38
423.398	940.38
423.621	944.38
423.843	956.38
424.066	973.38
424.288	1016.38
424.511	1048.38
424.733	1026.38
424.956	925.38
425.178	953.38
425.401	946.38
425.623	953.38
425.846	946.38
426.068	1001.38
426.291	982.38
426.513	972.38
426.735	982.38
426.958	1060.38
427.18	1095.38
427.402	1012.38
427.625	1034.38
427.847	1017.38
428.069	919.38
428.292	946.38
428.514	918.38
428.736	908.38
428.958	881.38
429.181	930.38
429.403	1075.38
429.625	1236.38
429.847	1048.38
430.069	969.38
430.292	1056.38
430.514	1050.38
430.736	1013.38
430.958	969.38
431.18	940.38
431.402	887.38
431.624	861.38
431.846	816.38
432.068	729.38
432.29	733.38
432.512	815.38
432.734	922.38
432.956	964.38
433.178	1000.38
433.4	991.38
433.622	953.38
433.844	934.38
434.066	850.38
434.287	794.38
434.509	776.38
434.731	846.38
434.953	889.38
435.175	910.38
435.397	936.38
435.618	884.38
435.84	834.38
436.062	829.38
436.284	940.38
436.505	954.38
436.727	966.38
436.949	924.38
437.17	875.38
437.392	920.38
437.614	860.38
437.835	830.38
438.057	843.38
438.278	849.38
438.5	872.38
438.721	901.38
438.943	948.38
439.165	930.38
439.386	922.38
439.608	961.38
439.829	946.38
440.05	965.38
440.272	984.38
440.493	965.38
440.715	978.38
440.936	1024.38
441.158	1072.38
441.379	1061.38
441.6	1048.38
441.822	1048.38
442.043	1032.38
442.264	1002.38
442.486	974.38
442.707	1004.38
442.928	966.38
443.149	969.38
443.371	1027.38
443.592	1052.38
443.813	1026.38
444.034	1027.38
444.255	1054.38
444.476	1066.38
444.698	1056.38
444.919	1048.38
445.14	1157.38
445.361	1106.38
445.582	1076.38
445.803	1092.38
446.024	1037.38
446.245	1102.38
446.466	1077.38
446.687	1055.38
446.908	1055.38
447.129	1044.38
447.35	1082.38
447.571	1039.38
447.792	987.38
448.013	990.38
448.234	1012.38
448.455	1005.38
448.675	1004.38
448.896	935.38
449.117	918.38
449.338	968.38
449.559	1004.38
449.779	983.38
450	1061.38
450.221	1049.38
450.442	1044.38
450.662	980.38
450.883	910.38
451.104	877.38
451.324	877.38
451.545	892.38
451.766	870.38
451.986	835.38
452.207	856.38
452.428	815.38
452.648	808.38
452.869	783.38
453.089	797.38
453.31	798.38
453.53	789.38
453.751	765.38
453.971	715.38
454.192	717.38
454.412	779.38
454.633	792.38
454.853	798.38
455.073	807.38
455.294	771.38
455.514	784.38
455.734	755.38
455.955	767.38
456.175	747.38
456.395	737.38
456.616	753.38
456.836	755.38
457.056	749.38
457.276	720.38
457.497	704.38
457.717	697.38
457.937	702.38
458.157	742.38
458.377	710.38
458.598	678.38
458.818	670.38
459.038	701.38
459.258	719.38
459.478	713.38
459.698	673.38
459.918	742.38
460.138	819.38
460.358	839.38
460.578	842.38
460.798	862.38
461.018	914.38
461.238	914.38
461.458	875.38
461.678	872.38
461.898	836.38
462.118	822.38
462.338	843.38
462.558	869.38
462.777	836.38
462.997	867.38
463.217	891.38
463.437	875.38
463.657	843.38
463.876	850.38
464.096	851.38
464.316	878.38
464.536	884.38
464.755	880.38
464.975	916.38
465.195	889.38
465.414	884.38
465.634	885.38
465.854	917.38
466.073	984.38
466.293	931.38
466.512	866.38
466.732	896.38
466.951	913.38
467.171	905.38
467.391	893.38
467.61	883.38
467.829	930.38
468.049	1015.38
468.268	1051.38
468.488	946.38
468.707	936.38
468.927	909.38
469.146	913.38
469.365	924.38
469.585	916.38
469.804	921.38
470.023	942.38
470.243	966.38
470.462	937.38
470.681	934.38
470.901	948.38
471.12	965.38
471.339	933.38
471.558	903.38
471.777	937.38
471.997	902.38
472.216	853.38
472.435	790.38
472.654	786.38
472.873	809.38
473.092	822.38
473.311	843.38
473.53	827.38
473.749	866.38
473.968	844.38
474.187	842.38
474.406	864.38
474.625	849.38
474.844	898.38
475.063	873.38
475.282	864.38
475.501	813.38
475.72	852.38
475.939	928.38
476.158	903.38
476.377	875.38
476.596	886.38
476.814	853.38
477.033	813.38
477.252	870.38
477.471	875.38
477.69	903.38
477.908	955.38
478.127	1008.38
478.346	1018.38
478.564	990.38
478.783	1015.38
479.002	1052.38
479.22	1038.38
479.439	1051.38
479.658	1033.38
479.876	1005.38
480.095	909.38
480.313	921.38
480.532	899.38
480.751	879.38
480.969	845.38
481.188	808.38
481.406	788.38
481.624	789.38
481.843	825.38
482.061	845.38
482.28	875.38
482.498	889.38
482.717	894.38
482.935	892.38
483.153	973.38
483.372	1036.38
483.59	1032.38
483.808	1003.38
484.027	970.38
484.245	1029.38
484.463	1200.38
484.681	1344.38
484.9	1028.38
485.118	977.38
485.336	942.38
485.554	909.38
485.772	900.38
485.99	903.38
486.209	873.38
486.427	902.38
486.645	965.38
486.863	1026.38
487.081	1091.38
487.299	1042.38
487.517	1020.38
487.735	1144.38
487.953	1194.38
488.171	1176.38
488.389	1154.38
488.607	1097.38
488.825	1173.38
489.043	1062.38
489.261	1002.38
489.479	1065.38
489.696	1065.38
489.914	1059.38
490.132	1023.38
490.35	1115.38
490.568	1160.38
490.786	1166.38
491.003	1212.38
491.221	1242.38
491.439	1306.38
491.657	1356.38
491.874	1366.38
492.092	1483.38
492.31	1525.38
492.527	1520.38
492.745	1386.38
492.963	1334.38
493.18	1316.38
493.398	1382.38
493.615	1395.38
493.833	1318.38
494.05	1271.38
494.268	1248.38
494.485	1264.38
494.703	1267.38
494.92	1249.38
495.138	1261.38
495.355	1252.38
495.573	1269.38
495.79	1321.38
496.008	1325.38
496.225	1282.38
496.442	1252.38
496.66	1244.38
496.877	1228.38
497.094	1265.38
497.312	1233.38
497.529	1248.38
497.746	1180.38
497.963	1277.38
498.181	1316.38
498.398	1283.38
498.615	1218.38
498.832	1155.38
499.049	1174.38
499.267	1180.38
499.484	1251.38
499.701	1366.38
499.918	1374.38
500.135	1464.38
