Data from WStandard_LampEnergy10_LIBS07252019.E.O._I.C._HRD10591_15-54-10-928.txt Node
Date: Thu Jul 25 15:54:10 EDT 2019
User: cochatt
Spectrometer: HR+D1059
Trigger mode: 1
Integration Time (sec): 1.000000E-1
Scans to average: 1
Electric dark correction enabled: true
Nonlinearity correction enabled: false
Boxcar width: 0
XAxis mode: Wavelengths
Number of Pixels in Spectrum: 2048
>>>>>Begin Spectral Data<<<<<
223.165	-18.38
223.4	-18.38
223.635	-18.38
223.869	-13.38
224.104	-18.38
224.338	-15.38
224.573	-0.38
224.808	-17.38
225.042	-11.38
225.277	-15.38
225.511	-10.38
225.746	6.62
225.98	15.62
226.215	8.62
226.449	5.62
226.683	18.62
226.918	25.62
227.152	39.62
227.387	31.62
227.621	33.62
227.856	59.62
228.09	38.62
228.324	56.62
228.559	49.62
228.793	81.62
229.027	126.62
229.262	140.62
229.496	148.62
229.73	144.62
229.964	145.62
230.199	164.62
230.433	192.62
230.667	182.62
230.901	185.62
231.136	178.62
231.37	182.62
231.604	163.62
231.838	176.62
232.072	178.62
232.306	180.62
232.541	185.62
232.775	210.62
233.009	206.62
233.243	198.62
233.477	183.62
233.711	204.62
233.945	180.62
234.179	207.62
234.413	193.62
234.647	205.62
234.881	204.62
235.115	180.62
235.349	216.62
235.583	190.62
235.817	183.62
236.051	188.62
236.285	211.62
236.519	198.62
236.753	203.62
236.987	214.62
237.221	232.62
237.455	244.62
237.689	231.62
237.922	242.62
238.156	228.62
238.39	217.62
238.624	240.62
238.858	225.62
239.091	252.62
239.325	258.62
239.559	282.62
239.793	291.62
240.027	298.62
240.26	303.62
240.494	240.62
240.728	234.62
240.961	227.62
241.195	232.62
241.429	259.62
241.662	235.62
241.896	242.62
242.13	254.62
242.363	271.62
242.597	272.62
242.83	276.62
243.064	291.62
243.298	295.62
243.531	278.62
243.765	284.62
243.998	275.62
244.232	268.62
244.465	248.62
244.699	268.62
244.932	289.62
245.166	315.62
245.399	288.62
245.633	290.62
245.866	283.62
246.099	305.62
246.333	308.62
246.566	320.62
246.8	314.62
247.033	357.62
247.266	320.62
247.5	319.62
247.733	329.62
247.966	337.62
248.2	376.62
248.433	354.62
248.666	388.62
248.899	410.62
249.133	447.62
249.366	475.62
249.599	406.62
249.832	374.62
250.066	354.62
250.299	374.62
250.532	350.62
250.765	336.62
250.998	339.62
251.231	369.62
251.465	343.62
251.698	366.62
251.931	368.62
252.164	357.62
252.397	394.62
252.63	364.62
252.863	329.62
253.096	345.62
253.329	352.62
253.562	372.62
253.795	371.62
254.028	377.62
254.261	353.62
254.494	360.62
254.727	339.62
254.96	349.62
255.193	391.62
255.426	421.62
255.659	460.62
255.892	459.62
256.124	409.62
256.357	384.62
256.59	411.62
256.823	425.62
257.056	450.62
257.289	499.62
257.521	513.62
257.754	495.62
257.987	460.62
258.22	497.62
258.452	467.62
258.685	404.62
258.918	390.62
259.151	412.62
259.383	392.62
259.616	369.62
259.849	376.62
260.081	409.62
260.314	459.62
260.547	501.62
260.779	494.62
261.012	428.62
261.244	434.62
261.477	400.62
261.71	405.62
261.942	406.62
262.175	408.62
262.407	453.62
262.64	403.62
262.872	379.62
263.105	363.62
263.337	380.62
263.57	386.62
263.802	371.62
264.035	361.62
264.267	342.62
264.499	370.62
264.732	378.62
264.964	386.62
265.197	417.62
265.429	433.62
265.661	469.62
265.894	514.62
266.126	517.62
266.358	463.62
266.591	505.62
266.823	496.62
267.055	477.62
267.287	463.62
267.52	457.62
267.752	436.62
267.984	448.62
268.216	466.62
268.448	492.62
268.681	468.62
268.913	446.62
269.145	434.62
269.377	412.62
269.609	479.62
269.841	530.62
270.073	617.62
270.306	642.62
270.538	630.62
270.77	558.62
271.002	512.62
271.234	490.62
271.466	504.62
271.698	548.62
271.93	635.62
272.162	612.62
272.394	555.62
272.626	511.62
272.858	478.62
273.09	429.62
273.322	422.62
273.553	395.62
273.785	404.62
274.017	431.62
274.249	442.62
274.481	425.62
274.713	436.62
274.945	416.62
275.176	430.62
275.408	423.62
275.64	411.62
275.872	411.62
276.104	452.62
276.335	494.62
276.567	539.62
276.799	536.62
277.031	474.62
277.262	490.62
277.494	507.62
277.726	558.62
277.957	535.62
278.189	489.62
278.421	464.62
278.652	443.62
278.884	438.62
279.115	438.62
279.347	444.62
279.579	444.62
279.81	449.62
280.042	484.62
280.273	511.62
280.505	543.62
280.736	499.62
280.968	468.62
281.199	443.62
281.431	438.62
281.662	427.62
281.894	419.62
282.125	464.62
282.356	445.62
282.588	458.62
282.819	486.62
283.051	522.62
283.282	537.62
283.513	493.62
283.745	443.62
283.976	410.62
284.207	445.62
284.439	452.62
284.67	469.62
284.901	454.62
285.132	487.62
285.364	455.62
285.595	475.62
285.826	445.62
286.057	444.62
286.288	461.62
286.52	469.62
286.751	497.62
286.982	476.62
287.213	464.62
287.444	441.62
287.675	457.62
287.906	465.62
288.138	499.62
288.369	467.62
288.6	459.62
288.831	442.62
289.062	464.62
289.293	470.62
289.524	454.62
289.755	474.62
289.986	464.62
290.217	460.62
290.448	449.62
290.679	452.62
290.91	462.62
291.141	489.62
291.371	488.62
291.602	489.62
291.833	508.62
292.064	504.62
292.295	496.62
292.526	524.62
292.757	512.62
292.987	497.62
293.218	522.62
293.449	539.62
293.68	594.62
293.91	616.62
294.141	567.62
294.372	525.62
294.603	582.62
294.833	595.62
295.064	528.62
295.295	512.62
295.525	496.62
295.756	466.62
295.987	448.62
296.217	452.62
296.448	471.62
296.679	454.62
296.909	487.62
297.14	450.62
297.37	499.62
297.601	512.62
297.831	539.62
298.062	514.62
298.292	489.62
298.523	476.62
298.753	475.62
298.984	507.62
299.214	487.62
299.445	516.62
299.675	518.62
299.905	485.62
300.136	498.62
300.366	468.62
300.597	480.62
300.827	485.62
301.057	488.62
301.288	516.62
301.518	527.62
301.748	536.62
301.979	542.62
302.209	549.62
302.439	589.62
302.669	600.62
302.9	560.62
303.13	536.62
303.36	516.62
303.59	535.62
303.82	538.62
304.051	541.62
304.281	541.62
304.511	530.62
304.741	598.62
304.971	626.62
305.201	656.62
305.431	558.62
305.661	489.62
305.891	452.62
306.121	444.62
306.352	511.62
306.582	532.62
306.812	560.62
307.042	566.62
307.272	578.62
307.502	587.62
307.731	623.62
307.961	649.62
308.191	603.62
308.421	530.62
308.651	525.62
308.881	501.62
309.111	514.62
309.341	499.62
309.571	501.62
309.8	500.62
310.03	507.62
310.26	511.62
310.49	508.62
310.72	529.62
310.949	535.62
311.179	538.62
311.409	531.62
311.639	502.62
311.868	523.62
312.098	527.62
312.328	509.62
312.557	525.62
312.787	514.62
313.017	517.62
313.246	532.62
313.476	517.62
313.706	546.62
313.935	543.62
314.165	561.62
314.394	572.62
314.624	604.62
314.853	640.62
315.083	624.62
315.312	638.62
315.542	595.62
315.771	552.62
316.001	538.62
316.23	593.62
316.46	579.62
316.689	576.62
316.919	529.62
317.148	539.62
317.377	550.62
317.607	587.62
317.836	642.62
318.065	648.62
318.295	646.62
318.524	615.62
318.753	584.62
318.983	574.62
319.212	561.62
319.441	542.62
319.67	537.62
319.9	574.62
320.129	594.62
320.358	610.62
320.587	635.62
320.816	625.62
321.046	617.62
321.275	574.62
321.504	596.62
321.733	625.62
321.962	610.62
322.191	589.62
322.42	579.62
322.649	553.62
322.878	562.62
323.108	560.62
323.337	584.62
323.566	593.62
323.795	596.62
324.024	590.62
324.253	573.62
324.482	586.62
324.71	546.62
324.939	546.62
325.168	579.62
325.397	588.62
325.626	585.62
325.855	558.62
326.084	570.62
326.313	576.62
326.542	583.62
326.77	594.62
326.999	596.62
327.228	552.62
327.457	551.62
327.686	533.62
327.914	564.62
328.143	575.62
328.372	580.62
328.6	566.62
328.829	562.62
329.058	539.62
329.287	558.62
329.515	587.62
329.744	562.62
329.972	640.62
330.201	642.62
330.43	635.62
330.658	592.62
330.887	591.62
331.115	604.62
331.344	613.62
331.572	571.62
331.801	598.62
332.03	597.62
332.258	614.62
332.486	610.62
332.715	610.62
332.943	617.62
333.172	606.62
333.4	610.62
333.629	616.62
333.857	678.62
334.085	745.62
334.314	848.62
334.542	855.62
334.771	756.62
334.999	690.62
335.227	662.62
335.455	640.62
335.684	667.62
335.912	648.62
336.14	663.62
336.369	626.62
336.597	596.62
336.825	626.62
337.053	614.62
337.281	690.62
337.51	701.62
337.738	711.62
337.966	685.62
338.194	627.62
338.422	603.62
338.65	596.62
338.878	594.62
339.106	599.62
339.334	595.62
339.562	585.62
339.79	574.62
340.018	636.62
340.246	664.62
340.474	631.62
340.702	625.62
340.93	649.62
341.158	611.62
341.386	620.62
341.614	602.62
341.842	618.62
342.07	643.62
342.298	615.62
342.526	634.62
342.754	598.62
342.981	608.62
343.209	599.62
343.437	603.62
343.665	596.62
343.893	626.62
344.12	632.62
344.348	640.62
344.576	618.62
344.804	589.62
345.031	601.62
345.259	608.62
345.487	567.62
345.714	574.62
345.942	555.62
346.17	593.62
346.397	588.62
346.625	586.62
346.853	568.62
347.08	560.62
347.308	572.62
347.535	572.62
347.763	601.62
347.99	563.62
348.218	558.62
348.445	596.62
348.673	588.62
348.9	597.62
349.128	617.62
349.355	647.62
349.583	607.62
349.81	584.62
350.037	535.62
350.265	546.62
350.492	562.62
350.72	587.62
350.947	591.62
351.174	587.62
351.402	552.62
351.629	561.62
351.856	499.62
352.083	528.62
352.311	539.62
352.538	568.62
352.765	589.62
352.992	595.62
353.22	567.62
353.447	571.62
353.674	540.62
353.901	553.62
354.128	548.62
354.355	561.62
354.583	607.62
354.81	617.62
355.037	568.62
355.264	582.62
355.491	591.62
355.718	589.62
355.945	583.62
356.172	557.62
356.399	542.62
356.626	559.62
356.853	606.62
357.08	667.62
357.307	686.62
357.534	644.62
357.761	599.62
357.988	548.62
358.215	561.62
358.441	547.62
358.668	554.62
358.895	564.62
359.122	625.62
359.349	654.62
359.576	632.62
359.802	559.62
360.029	548.62
360.256	578.62
360.483	562.62
360.709	575.62
360.936	613.62
361.163	638.62
361.39	705.62
361.616	750.62
361.843	734.62
362.07	640.62
362.296	581.62
362.523	572.62
362.749	577.62
362.976	610.62
363.203	592.62
363.429	576.62
363.656	556.62
363.882	616.62
364.109	669.62
364.335	664.62
364.562	652.62
364.788	607.62
365.015	575.62
365.241	582.62
365.468	581.62
365.694	619.62
365.92	625.62
366.147	601.62
366.373	562.62
366.599	571.62
366.826	565.62
367.052	576.62
367.278	590.62
367.505	582.62
367.731	606.62
367.957	609.62
368.184	655.62
368.41	667.62
368.636	679.62
368.862	674.62
369.089	668.62
369.315	668.62
369.541	607.62
369.767	614.62
369.993	589.62
370.219	574.62
370.445	615.62
370.672	663.62
370.898	698.62
371.124	658.62
371.35	641.62
371.576	646.62
371.802	656.62
372.028	649.62
372.254	617.62
372.48	627.62
372.706	602.62
372.932	599.62
373.158	607.62
373.384	625.62
373.61	646.62
373.835	677.62
374.061	649.62
374.287	641.62
374.513	647.62
374.739	673.62
374.965	642.62
375.191	660.62
375.416	655.62
375.642	678.62
375.868	706.62
376.094	718.62
376.319	681.62
376.545	651.62
376.771	702.62
376.997	705.62
377.222	704.62
377.448	674.62
377.674	680.62
377.899	693.62
378.125	712.62
378.35	681.62
378.576	659.62
378.802	608.62
379.027	642.62
379.253	639.62
379.478	656.62
379.704	694.62
379.929	648.62
380.155	669.62
380.38	694.62
380.606	678.62
380.831	697.62
381.057	716.62
381.282	696.62
381.507	695.62
381.733	766.62
381.958	774.62
382.184	699.62
382.409	662.62
382.634	676.62
382.86	690.62
383.085	693.62
383.31	750.62
383.535	776.62
383.761	819.62
383.986	782.62
384.211	768.62
384.436	753.62
384.662	778.62
384.887	795.62
385.112	736.62
385.337	758.62
385.562	750.62
385.787	749.62
386.013	781.62
386.238	775.62
386.463	788.62
386.688	847.62
386.913	866.62
387.138	843.62
387.363	792.62
387.588	786.62
387.813	768.62
388.038	788.62
388.263	808.62
388.488	764.62
388.713	730.62
388.938	750.62
389.163	727.62
389.387	746.62
389.612	740.62
389.837	777.62
390.062	750.62
390.287	762.62
390.512	758.62
390.736	742.62
390.961	724.62
391.186	721.62
391.411	745.62
391.636	742.62
391.86	752.62
392.085	766.62
392.31	770.62
392.534	766.62
392.759	799.62
392.984	773.62
393.208	769.62
393.433	835.62
393.658	858.62
393.882	827.62
394.107	806.62
394.331	780.62
394.556	786.62
394.78	791.62
395.005	794.62
395.229	836.62
395.454	880.62
395.678	858.62
395.903	842.62
396.127	814.62
396.352	840.62
396.576	850.62
396.801	861.62
397.025	863.62
397.249	853.62
397.474	866.62
397.698	817.62
397.922	890.62
398.147	894.62
398.371	954.62
398.595	915.62
398.82	880.62
399.044	920.62
399.268	943.62
399.492	969.62
399.717	981.62
399.941	997.62
400.165	975.62
400.389	947.62
400.613	980.62
400.837	1147.62
401.062	1178.62
401.286	1032.62
401.51	1009.62
401.734	1022.62
401.958	928.62
402.182	901.62
402.406	894.62
402.63	870.62
402.854	880.62
403.078	909.62
403.302	921.62
403.526	938.62
403.75	940.62
403.974	930.62
404.198	952.62
404.422	1001.62
404.645	1024.62
404.869	986.62
405.093	906.62
405.317	923.62
405.541	939.62
405.765	963.62
405.988	931.62
406.212	917.62
406.436	985.62
406.66	1029.62
406.883	1070.62
407.107	1172.62
407.331	1225.62
407.555	1305.62
407.778	1139.62
408.002	1026.62
408.226	964.62
408.449	941.62
408.673	948.62
408.896	970.62
409.12	963.62
409.344	981.62
409.567	947.62
409.791	988.62
410.014	977.62
410.238	1029.62
410.461	1067.62
410.685	989.62
410.908	944.62
411.132	953.62
411.355	925.62
411.578	943.62
411.802	947.62
412.025	971.62
412.249	957.62
412.472	928.62
412.695	947.62
412.919	950.62
413.142	920.62
413.365	950.62
413.589	972.62
413.812	1012.62
414.035	1022.62
414.258	937.62
414.482	942.62
414.705	917.62
414.928	940.62
415.151	928.62
415.374	915.62
415.597	938.62
415.821	950.62
416.044	950.62
416.267	979.62
416.49	951.62
416.713	938.62
416.936	943.62
417.159	982.62
417.382	1007.62
417.605	965.62
417.828	944.62
418.051	944.62
418.274	944.62
418.497	959.62
418.72	948.62
418.943	929.62
419.166	939.62
419.389	996.62
419.611	959.62
419.834	934.62
420.057	959.62
420.28	942.62
420.503	948.62
420.726	960.62
420.948	954.62
421.171	920.62
421.394	924.62
421.617	991.62
421.839	1008.62
422.062	995.62
422.285	942.62
422.507	946.62
422.73	924.62
422.953	905.62
423.175	879.62
423.398	929.62
423.621	952.62
423.843	940.62
424.066	993.62
424.288	1034.62
424.511	1062.62
424.733	1025.62
424.956	940.62
425.178	910.62
425.401	943.62
425.623	920.62
425.846	935.62
426.068	983.62
426.291	973.62
426.513	966.62
426.735	963.62
426.958	1039.62
427.18	1084.62
427.402	1010.62
427.625	1074.62
427.847	1010.62
428.069	930.62
428.292	929.62
428.514	913.62
428.736	912.62
428.958	929.62
429.181	964.62
429.403	1082.62
429.625	1270.62
429.847	1057.62
430.069	960.62
430.292	1079.62
430.514	1022.62
430.736	986.62
430.958	996.62
431.18	937.62
431.402	901.62
431.624	871.62
431.846	811.62
432.068	750.62
432.29	747.62
432.512	811.62
432.734	921.62
432.956	932.62
433.178	987.62
433.4	969.62
433.622	966.62
433.844	928.62
434.066	860.62
434.287	789.62
434.509	814.62
434.731	848.62
434.953	933.62
435.175	965.62
435.397	928.62
435.618	900.62
435.84	856.62
436.062	824.62
436.284	923.62
436.505	935.62
436.727	956.62
436.949	935.62
437.17	894.62
437.392	901.62
437.614	854.62
437.835	836.62
438.057	869.62
438.278	878.62
438.5	875.62
438.721	900.62
438.943	905.62
439.165	933.62
439.386	954.62
439.608	981.62
439.829	958.62
440.05	968.62
440.272	983.62
440.493	963.62
440.715	999.62
440.936	1041.62
441.158	1053.62
441.379	1066.62
441.6	1058.62
441.822	1052.62
442.043	1032.62
442.264	1012.62
442.486	986.62
442.707	988.62
442.928	993.62
443.149	1003.62
443.371	979.62
443.592	1042.62
443.813	1024.62
444.034	1011.62
444.255	1044.62
444.476	1057.62
444.698	1055.62
444.919	1082.62
445.14	1129.62
445.361	1091.62
445.582	1074.62
445.803	1056.62
446.024	1091.62
446.245	1090.62
446.466	1084.62
446.687	1040.62
446.908	1043.62
447.129	1022.62
447.35	1023.62
447.571	1003.62
447.792	979.62
448.013	971.62
448.234	989.62
448.455	1032.62
448.675	995.62
448.896	928.62
449.117	904.62
449.338	933.62
449.559	947.62
449.779	1007.62
450	1043.62
450.221	1068.62
450.442	1052.62
450.662	952.62
450.883	889.62
451.104	887.62
451.324	860.62
451.545	901.62
451.766	896.62
451.986	844.62
452.207	835.62
452.428	833.62
452.648	798.62
452.869	812.62
453.089	778.62
453.31	778.62
453.53	804.62
453.751	768.62
453.971	719.62
454.192	725.62
454.412	809.62
454.633	811.62
454.853	805.62
455.073	780.62
455.294	779.62
455.514	791.62
455.734	777.62
455.955	785.62
456.175	769.62
456.395	724.62
456.616	750.62
456.836	762.62
457.056	746.62
457.276	745.62
457.497	705.62
457.717	716.62
457.937	723.62
458.157	730.62
458.377	727.62
458.598	705.62
458.818	703.62
459.038	729.62
459.258	730.62
459.478	732.62
459.698	714.62
459.918	740.62
460.138	794.62
460.358	823.62
460.578	855.62
460.798	876.62
461.018	904.62
461.238	882.62
461.458	872.62
461.678	879.62
461.898	811.62
462.118	804.62
462.338	896.62
462.558	865.62
462.777	844.62
462.997	873.62
463.217	883.62
463.437	865.62
463.657	857.62
463.876	823.62
464.096	830.62
464.316	846.62
464.536	897.62
464.755	908.62
464.975	867.62
465.195	858.62
465.414	895.62
465.634	926.62
465.854	903.62
466.073	995.62
466.293	938.62
466.512	887.62
466.732	886.62
466.951	925.62
467.171	923.62
467.391	864.62
467.61	904.62
467.829	914.62
468.049	996.62
468.268	1064.62
468.488	965.62
468.707	980.62
468.927	936.62
469.146	888.62
469.365	904.62
469.585	934.62
469.804	913.62
470.023	962.62
470.243	927.62
470.462	945.62
470.681	946.62
470.901	937.62
471.12	960.62
471.339	967.62
471.558	917.62
471.777	926.62
471.997	916.62
472.216	883.62
472.435	811.62
472.654	774.62
472.873	800.62
473.092	837.62
473.311	841.62
473.53	824.62
473.749	834.62
473.968	853.62
474.187	848.62
474.406	873.62
474.625	844.62
474.844	901.62
475.063	890.62
475.282	861.62
475.501	850.62
475.72	851.62
475.939	903.62
476.158	912.62
476.377	886.62
476.596	869.62
476.814	838.62
477.033	830.62
477.252	873.62
477.471	936.62
477.69	927.62
477.908	939.62
478.127	981.62
478.346	1042.62
478.564	1026.62
478.783	1003.62
479.002	1034.62
479.22	1034.62
479.439	1026.62
479.658	1082.62
479.876	1017.62
480.095	962.62
480.313	914.62
480.532	900.62
480.751	866.62
480.969	859.62
481.188	814.62
481.406	792.62
481.624	780.62
481.843	811.62
482.061	844.62
482.28	867.62
482.498	893.62
482.717	859.62
482.935	912.62
483.153	985.62
483.372	1039.62
483.59	1035.62
483.808	977.62
484.027	942.62
484.245	1011.62
484.463	1249.62
484.681	1323.62
484.9	1052.62
485.118	999.62
485.336	946.62
485.554	928.62
485.772	909.62
485.99	931.62
486.209	919.62
486.427	922.62
486.645	954.62
486.863	1020.62
487.081	1064.62
487.299	1020.62
487.517	1032.62
487.735	1118.62
487.953	1215.62
488.171	1190.62
488.389	1162.62
488.607	1095.62
488.825	1180.62
489.043	1081.62
489.261	985.62
489.479	1084.62
489.696	1081.62
489.914	1054.62
490.132	1076.62
490.35	1094.62
490.568	1176.62
490.786	1182.62
491.003	1198.62
491.221	1259.62
491.439	1338.62
491.657	1328.62
491.874	1385.62
492.092	1494.62
492.31	1513.62
492.527	1486.62
492.745	1385.62
492.963	1328.62
493.18	1324.62
493.398	1377.62
493.615	1354.62
493.833	1312.62
494.05	1234.62
494.268	1234.62
494.485	1288.62
494.703	1256.62
494.92	1255.62
495.138	1263.62
495.355	1243.62
495.573	1278.62
495.79	1294.62
496.008	1300.62
496.225	1260.62
496.442	1225.62
496.66	1248.62
496.877	1242.62
497.094	1252.62
497.312	1251.62
497.529	1179.62
497.746	1178.62
497.963	1288.62
498.181	1302.62
498.398	1291.62
498.615	1252.62
498.832	1169.62
499.049	1198.62
499.267	1198.62
499.484	1280.62
499.701	1375.62
499.918	1413.62
500.135	1514.62
