Data from WStandard_LampEnergy10_LIBS07252019.E.O._I.C._HRD10591_15-54-40-928.txt Node
Date: Thu Jul 25 15:54:40 EDT 2019
User: cochatt
Spectrometer: HR+D1059
Trigger mode: 1
Integration Time (sec): 1.000000E-1
Scans to average: 1
Electric dark correction enabled: true
Nonlinearity correction enabled: false
Boxcar width: 0
XAxis mode: Wavelengths
Number of Pixels in Spectrum: 2048
>>>>>Begin Spectral Data<<<<<
223.165	-24.19
223.4	-24.19
223.635	-24.19
223.869	-20.19
224.104	-25.19
224.338	-10.19
224.573	-5.19
224.808	-16.19
225.042	-10.19
225.277	7.81
225.511	4.81
225.746	12.81
225.98	0.81
226.215	14.81
226.449	6.81
226.683	19.81
226.918	3.81
227.152	39.81
227.387	28.81
227.621	37.81
227.856	54.81
228.09	55.81
228.324	55.81
228.559	65.81
228.793	79.81
229.027	140.81
229.262	124.81
229.496	150.81
229.73	164.81
229.964	169.81
230.199	164.81
230.433	169.81
230.667	179.81
230.901	193.81
231.136	167.81
231.37	181.81
231.604	178.81
231.838	174.81
232.072	173.81
232.306	176.81
232.541	175.81
232.775	200.81
233.009	208.81
233.243	197.81
233.477	186.81
233.711	203.81
233.945	197.81
234.179	218.81
234.413	207.81
234.647	215.81
234.881	208.81
235.115	185.81
235.349	203.81
235.583	191.81
235.817	201.81
236.051	182.81
236.285	172.81
236.519	198.81
236.753	221.81
236.987	231.81
237.221	226.81
237.455	237.81
237.689	222.81
237.922	212.81
238.156	225.81
238.39	235.81
238.624	236.81
238.858	232.81
239.091	241.81
239.325	268.81
239.559	294.81
239.793	289.81
240.027	285.81
240.26	309.81
240.494	242.81
240.728	214.81
240.961	233.81
241.195	251.81
241.429	234.81
241.662	233.81
241.896	232.81
242.13	247.81
242.363	271.81
242.597	281.81
242.83	262.81
243.064	265.81
243.298	281.81
243.531	281.81
243.765	289.81
243.998	287.81
244.232	255.81
244.465	247.81
244.699	259.81
244.932	282.81
245.166	305.81
245.399	287.81
245.633	262.81
245.866	277.81
246.099	300.81
246.333	287.81
246.566	301.81
246.8	324.81
247.033	343.81
247.266	328.81
247.5	317.81
247.733	331.81
247.966	340.81
248.2	366.81
248.433	371.81
248.666	381.81
248.899	390.81
249.133	437.81
249.366	473.81
249.599	392.81
249.832	361.81
250.066	377.81
250.299	357.81
250.532	364.81
250.765	326.81
250.998	338.81
251.231	348.81
251.465	339.81
251.698	343.81
251.931	349.81
252.164	355.81
252.397	354.81
252.63	365.81
252.863	347.81
253.096	337.81
253.329	339.81
253.562	354.81
253.795	363.81
254.028	374.81
254.261	340.81
254.494	343.81
254.727	335.81
254.96	350.81
255.193	382.81
255.426	418.81
255.659	443.81
255.892	453.81
256.124	382.81
256.357	395.81
256.59	414.81
256.823	401.81
257.056	417.81
257.289	478.81
257.521	496.81
257.754	462.81
257.987	441.81
258.22	472.81
258.452	451.81
258.685	433.81
258.918	391.81
259.151	401.81
259.383	369.81
259.616	348.81
259.849	376.81
260.081	402.81
260.314	438.81
260.547	471.81
260.779	472.81
261.012	430.81
261.244	400.81
261.477	374.81
261.71	412.81
261.942	391.81
262.175	389.81
262.407	416.81
262.64	400.81
262.872	376.81
263.105	383.81
263.337	379.81
263.57	367.81
263.802	390.81
264.035	358.81
264.267	342.81
264.499	346.81
264.732	361.81
264.964	391.81
265.197	398.81
265.429	414.81
265.661	462.81
265.894	509.81
266.126	523.81
266.358	473.81
266.591	466.81
266.823	514.81
267.055	446.81
267.287	460.81
267.52	429.81
267.752	448.81
267.984	434.81
268.216	467.81
268.448	460.81
268.681	461.81
268.913	446.81
269.145	402.81
269.377	409.81
269.609	456.81
269.841	527.81
270.073	590.81
270.306	635.81
270.538	631.81
270.77	541.81
271.002	498.81
271.234	477.81
271.466	484.81
271.698	525.81
271.93	591.81
272.162	586.81
272.394	552.81
272.626	524.81
272.858	459.81
273.09	414.81
273.322	410.81
273.553	405.81
273.785	436.81
274.017	417.81
274.249	445.81
274.481	450.81
274.713	421.81
274.945	411.81
275.176	421.81
275.408	406.81
275.64	398.81
275.872	421.81
276.104	450.81
276.335	504.81
276.567	525.81
276.799	509.81
277.031	476.81
277.262	467.81
277.494	501.81
277.726	529.81
277.957	504.81
278.189	481.81
278.421	445.81
278.652	417.81
278.884	443.81
279.115	438.81
279.347	447.81
279.579	444.81
279.81	457.81
280.042	471.81
280.273	508.81
280.505	527.81
280.736	503.81
280.968	486.81
281.199	424.81
281.431	411.81
281.662	425.81
281.894	459.81
282.125	447.81
282.356	438.81
282.588	445.81
282.819	445.81
283.051	499.81
283.282	501.81
283.513	498.81
283.745	463.81
283.976	437.81
284.207	425.81
284.439	449.81
284.67	458.81
284.901	467.81
285.132	467.81
285.364	455.81
285.595	452.81
285.826	457.81
286.057	466.81
286.288	454.81
286.52	463.81
286.751	503.81
286.982	498.81
287.213	460.81
287.444	437.81
287.675	450.81
287.906	469.81
288.138	487.81
288.369	479.81
288.6	441.81
288.831	426.81
289.062	443.81
289.293	440.81
289.524	458.81
289.755	472.81
289.986	467.81
290.217	443.81
290.448	439.81
290.679	442.81
290.91	451.81
291.141	457.81
291.371	495.81
291.602	482.81
291.833	455.81
292.064	491.81
292.295	497.81
292.526	527.81
292.757	511.81
292.987	497.81
293.218	489.81
293.449	517.81
293.68	574.81
293.91	585.81
294.141	522.81
294.372	541.81
294.603	580.81
294.833	576.81
295.064	548.81
295.295	481.81
295.525	475.81
295.756	450.81
295.987	427.81
296.217	455.81
296.448	450.81
296.679	475.81
296.909	452.81
297.14	472.81
297.37	470.81
297.601	504.81
297.831	522.81
298.062	533.81
298.292	517.81
298.523	467.81
298.753	487.81
298.984	484.81
299.214	491.81
299.445	492.81
299.675	492.81
299.905	498.81
300.136	486.81
300.366	466.81
300.597	459.81
300.827	465.81
301.057	474.81
301.288	489.81
301.518	514.81
301.748	533.81
301.979	556.81
302.209	572.81
302.439	582.81
302.669	563.81
302.9	549.81
303.13	525.81
303.36	527.81
303.59	517.81
303.82	523.81
304.051	524.81
304.281	504.81
304.511	534.81
304.741	565.81
304.971	634.81
305.201	635.81
305.431	583.81
305.661	487.81
305.891	460.81
306.121	475.81
306.352	489.81
306.582	513.81
306.812	531.81
307.042	565.81
307.272	579.81
307.502	594.81
307.731	638.81
307.961	630.81
308.191	582.81
308.421	490.81
308.651	498.81
308.881	505.81
309.111	488.81
309.341	494.81
309.571	513.81
309.8	481.81
310.03	497.81
310.26	491.81
310.49	506.81
310.72	522.81
310.949	539.81
311.179	512.81
311.409	503.81
311.639	503.81
311.868	515.81
312.098	507.81
312.328	517.81
312.557	503.81
312.787	520.81
313.017	514.81
313.246	531.81
313.476	537.81
313.706	525.81
313.935	532.81
314.165	551.81
314.394	565.81
314.624	595.81
314.853	618.81
315.083	631.81
315.312	634.81
315.542	569.81
315.771	559.81
316.001	563.81
316.23	597.81
316.46	556.81
316.689	537.81
316.919	508.81
317.148	516.81
317.377	544.81
317.607	582.81
317.836	648.81
318.065	626.81
318.295	626.81
318.524	587.81
318.753	572.81
318.983	559.81
319.212	563.81
319.441	549.81
319.67	557.81
319.9	563.81
320.129	594.81
320.358	619.81
320.587	626.81
320.816	584.81
321.046	598.81
321.275	616.81
321.504	605.81
321.733	643.81
321.962	609.81
322.191	565.81
322.42	563.81
322.649	569.81
322.878	569.81
323.108	558.81
323.337	600.81
323.566	554.81
323.795	573.81
324.024	565.81
324.253	553.81
324.482	565.81
324.71	556.81
324.939	533.81
325.168	564.81
325.397	577.81
325.626	579.81
325.855	586.81
326.084	572.81
326.313	550.81
326.542	592.81
326.77	598.81
326.999	557.81
327.228	557.81
327.457	540.81
327.686	525.81
327.914	573.81
328.143	561.81
328.372	568.81
328.6	587.81
328.829	559.81
329.058	569.81
329.287	539.81
329.515	553.81
329.744	575.81
329.972	586.81
330.201	623.81
330.43	621.81
330.658	605.81
330.887	629.81
331.115	606.81
331.344	599.81
331.572	606.81
331.801	591.81
332.03	611.81
332.258	604.81
332.486	593.81
332.715	631.81
332.943	607.81
333.172	602.81
333.4	620.81
333.629	627.81
333.857	682.81
334.085	760.81
334.314	846.81
334.542	858.81
334.771	791.81
334.999	698.81
335.227	660.81
335.455	643.81
335.684	627.81
335.912	659.81
336.14	659.81
336.369	634.81
336.597	607.81
336.825	612.81
337.053	619.81
337.281	675.81
337.51	710.81
337.738	710.81
337.966	660.81
338.194	628.81
338.422	607.81
338.65	597.81
338.878	596.81
339.106	595.81
339.334	558.81
339.562	573.81
339.79	581.81
340.018	631.81
340.246	647.81
340.474	629.81
340.702	618.81
340.93	626.81
341.158	617.81
341.386	621.81
341.614	611.81
341.842	627.81
342.07	595.81
342.298	629.81
342.526	613.81
342.754	611.81
342.981	588.81
343.209	604.81
343.437	575.81
343.665	605.81
343.893	602.81
344.12	651.81
344.348	623.81
344.576	588.81
344.804	603.81
345.031	598.81
345.259	599.81
345.487	565.81
345.714	562.81
345.942	546.81
346.17	573.81
346.397	577.81
346.625	590.81
346.853	574.81
347.08	549.81
347.308	555.81
347.535	554.81
347.763	582.81
347.99	579.81
348.218	540.81
348.445	597.81
348.673	599.81
348.9	607.81
349.128	615.81
349.355	642.81
349.583	614.81
349.81	565.81
350.037	555.81
350.265	554.81
350.492	531.81
350.72	570.81
350.947	579.81
351.174	593.81
351.402	549.81
351.629	554.81
351.856	538.81
352.083	537.81
352.311	534.81
352.538	553.81
352.765	570.81
352.992	589.81
353.22	541.81
353.447	553.81
353.674	579.81
353.901	576.81
354.128	585.81
354.355	585.81
354.583	598.81
354.81	623.81
355.037	581.81
355.264	583.81
355.491	581.81
355.718	559.81
355.945	571.81
356.172	563.81
356.399	541.81
356.626	558.81
356.853	615.81
357.08	652.81
357.307	700.81
357.534	643.81
357.761	597.81
357.988	551.81
358.215	537.81
358.441	530.81
358.668	554.81
358.895	591.81
359.122	615.81
359.349	633.81
359.576	611.81
359.802	562.81
360.029	551.81
360.256	543.81
360.483	579.81
360.709	588.81
360.936	604.81
361.163	637.81
361.39	678.81
361.616	737.81
361.843	703.81
362.07	635.81
362.296	611.81
362.523	570.81
362.749	603.81
362.976	602.81
363.203	591.81
363.429	561.81
363.656	558.81
363.882	605.81
364.109	671.81
364.335	683.81
364.562	653.81
364.788	584.81
365.015	559.81
365.241	554.81
365.468	592.81
365.694	628.81
365.92	635.81
366.147	609.81
366.373	586.81
366.599	543.81
366.826	567.81
367.052	551.81
367.278	568.81
367.505	604.81
367.731	622.81
367.957	608.81
368.184	633.81
368.41	675.81
368.636	682.81
368.862	672.81
369.089	689.81
369.315	609.81
369.541	611.81
369.767	596.81
369.993	581.81
370.219	594.81
370.445	629.81
370.672	673.81
370.898	673.81
371.124	690.81
371.35	636.81
371.576	650.81
371.802	674.81
372.028	636.81
372.254	632.81
372.48	611.81
372.706	619.81
372.932	595.81
373.158	622.81
373.384	643.81
373.61	655.81
373.835	683.81
374.061	639.81
374.287	605.81
374.513	628.81
374.739	656.81
374.965	630.81
375.191	643.81
375.416	665.81
375.642	682.81
375.868	718.81
376.094	714.81
376.319	660.81
376.545	648.81
376.771	659.81
376.997	732.81
377.222	704.81
377.448	666.81
377.674	665.81
377.899	694.81
378.125	739.81
378.35	696.81
378.576	661.81
378.802	627.81
379.027	604.81
379.253	647.81
379.478	646.81
379.704	631.81
379.929	621.81
380.155	632.81
380.38	647.81
380.606	657.81
380.831	680.81
381.057	705.81
381.282	686.81
381.507	706.81
381.733	733.81
381.958	732.81
382.184	714.81
382.409	682.81
382.634	700.81
382.86	684.81
383.085	683.81
383.31	700.81
383.535	802.81
383.761	803.81
383.986	750.81
384.211	735.81
384.436	742.81
384.662	771.81
384.887	770.81
385.112	737.81
385.337	741.81
385.562	765.81
385.787	725.81
386.013	762.81
386.238	759.81
386.463	767.81
386.688	830.81
386.913	854.81
387.138	853.81
387.363	776.81
387.588	805.81
387.813	756.81
388.038	803.81
388.263	785.81
388.488	780.81
388.713	728.81
388.938	744.81
389.163	718.81
389.387	735.81
389.612	733.81
389.837	746.81
390.062	773.81
390.287	742.81
390.512	747.81
390.736	742.81
390.961	747.81
391.186	727.81
391.411	740.81
391.636	746.81
391.86	763.81
392.085	748.81
392.31	755.81
392.534	773.81
392.759	808.81
392.984	785.81
393.208	762.81
393.433	795.81
393.658	827.81
393.882	823.81
394.107	757.81
394.331	783.81
394.556	743.81
394.78	767.81
395.005	838.81
395.229	829.81
395.454	892.81
395.678	861.81
395.903	819.81
396.127	829.81
396.352	866.81
396.576	851.81
396.801	844.81
397.025	853.81
397.249	846.81
397.474	825.81
397.698	838.81
397.922	872.81
398.147	904.81
398.371	908.81
398.595	913.81
398.82	864.81
399.044	894.81
399.268	901.81
399.492	964.81
399.717	1012.81
399.941	1013.81
400.165	967.81
400.389	947.81
400.613	988.81
400.837	1118.81
401.062	1210.81
401.286	1022.81
401.51	1007.81
401.734	972.81
401.958	948.81
402.182	896.81
402.406	882.81
402.63	906.81
402.854	872.81
403.078	907.81
403.302	913.81
403.526	912.81
403.75	954.81
403.974	976.81
404.198	943.81
404.422	974.81
404.645	1025.81
404.869	997.81
405.093	907.81
405.317	911.81
405.541	935.81
405.765	935.81
405.988	930.81
406.212	967.81
406.436	964.81
406.66	989.81
406.883	1043.81
407.107	1149.81
407.331	1237.81
407.555	1297.81
407.778	1161.81
408.002	995.81
408.226	980.81
408.449	1006.81
408.673	951.81
408.896	955.81
409.12	947.81
409.344	939.81
409.567	935.81
409.791	929.81
410.014	989.81
410.238	1033.81
410.461	1070.81
410.685	977.81
410.908	974.81
411.132	965.81
411.355	955.81
411.578	949.81
411.802	947.81
412.025	953.81
412.249	944.81
412.472	911.81
412.695	915.81
412.919	934.81
413.142	915.81
413.365	935.81
413.589	973.81
413.812	1031.81
414.035	981.81
414.258	923.81
414.482	919.81
414.705	943.81
414.928	912.81
415.151	913.81
415.374	911.81
415.597	931.81
415.821	953.81
416.044	959.81
416.267	945.81
416.49	911.81
416.713	914.81
416.936	988.81
417.159	994.81
417.382	954.81
417.605	952.81
417.828	936.81
418.051	952.81
418.274	938.81
418.497	897.81
418.72	920.81
418.943	943.81
419.166	964.81
419.389	997.81
419.611	954.81
419.834	953.81
420.057	971.81
420.28	967.81
420.503	944.81
420.726	972.81
420.948	942.81
421.171	912.81
421.394	907.81
421.617	993.81
421.839	998.81
422.062	970.81
422.285	951.81
422.507	939.81
422.73	886.81
422.953	902.81
423.175	899.81
423.398	926.81
423.621	937.81
423.843	995.81
424.066	971.81
424.288	1027.81
424.511	1031.81
424.733	995.81
424.956	949.81
425.178	955.81
425.401	935.81
425.623	958.81
425.846	933.81
426.068	985.81
426.291	966.81
426.513	941.81
426.735	969.81
426.958	1037.81
427.18	1081.81
427.402	1007.81
427.625	1013.81
427.847	1000.81
428.069	936.81
428.292	905.81
428.514	909.81
428.736	933.81
428.958	936.81
429.181	957.81
429.403	1089.81
429.625	1261.81
429.847	1064.81
430.069	961.81
430.292	1064.81
430.514	1015.81
430.736	990.81
430.958	972.81
431.18	974.81
431.402	890.81
431.624	852.81
431.846	800.81
432.068	745.81
432.29	767.81
432.512	805.81
432.734	859.81
432.956	924.81
433.178	994.81
433.4	970.81
433.622	972.81
433.844	921.81
434.066	853.81
434.287	814.81
434.509	795.81
434.731	851.81
434.953	904.81
435.175	932.81
435.397	930.81
435.618	898.81
435.84	837.81
436.062	865.81
436.284	894.81
436.505	897.81
436.727	961.81
436.949	932.81
437.17	923.81
437.392	892.81
437.614	867.81
437.835	811.81
438.057	830.81
438.278	853.81
438.5	869.81
438.721	894.81
438.943	927.81
439.165	915.81
439.386	933.81
439.608	954.81
439.829	974.81
440.05	974.81
440.272	982.81
440.493	968.81
440.715	984.81
440.936	1012.81
441.158	1061.81
441.379	1034.81
441.6	1029.81
441.822	1011.81
442.043	1041.81
442.264	1015.81
442.486	973.81
442.707	940.81
442.928	956.81
443.149	984.81
443.371	1004.81
443.592	1021.81
443.813	1009.81
444.034	1029.81
444.255	1041.81
444.476	1020.81
444.698	1051.81
444.919	1058.81
445.14	1165.81
445.361	1097.81
445.582	1057.81
445.803	1036.81
446.024	1039.81
446.245	1105.81
446.466	1064.81
446.687	1034.81
446.908	1063.81
447.129	1009.81
447.35	1037.81
447.571	1036.81
447.792	964.81
448.013	974.81
448.234	965.81
448.455	965.81
448.675	962.81
448.896	958.81
449.117	914.81
449.338	914.81
449.559	959.81
449.779	989.81
450	1030.81
450.221	1067.81
450.442	1046.81
450.662	941.81
450.883	869.81
451.104	865.81
451.324	877.81
451.545	891.81
451.766	883.81
451.986	847.81
452.207	840.81
452.428	791.81
452.648	783.81
452.869	772.81
453.089	789.81
453.31	792.81
453.53	790.81
453.751	767.81
453.971	722.81
454.192	735.81
454.412	796.81
454.633	795.81
454.853	806.81
455.073	765.81
455.294	783.81
455.514	804.81
455.734	776.81
455.955	757.81
456.175	751.81
456.395	742.81
456.616	738.81
456.836	743.81
457.056	757.81
457.276	726.81
457.497	686.81
457.717	686.81
457.937	715.81
458.157	728.81
458.377	697.81
458.598	665.81
458.818	672.81
459.038	737.81
459.258	737.81
459.478	739.81
459.698	729.81
459.918	754.81
460.138	818.81
460.358	835.81
460.578	837.81
460.798	864.81
461.018	878.81
461.238	891.81
461.458	876.81
461.678	833.81
461.898	836.81
462.118	814.81
462.338	866.81
462.558	868.81
462.777	857.81
462.997	899.81
463.217	901.81
463.437	911.81
463.657	866.81
463.876	813.81
464.096	819.81
464.316	859.81
464.536	870.81
464.755	917.81
464.975	883.81
465.195	870.81
465.414	905.81
465.634	870.81
465.854	893.81
466.073	993.81
466.293	954.81
466.512	879.81
466.732	888.81
466.951	915.81
467.171	879.81
467.391	874.81
467.61	898.81
467.829	933.81
468.049	1000.81
468.268	1054.81
468.488	974.81
468.707	937.81
468.927	908.81
469.146	909.81
469.365	958.81
469.585	944.81
469.804	937.81
470.023	938.81
470.243	941.81
470.462	953.81
470.681	912.81
470.901	930.81
471.12	906.81
471.339	945.81
471.558	909.81
471.777	926.81
471.997	884.81
472.216	843.81
472.435	816.81
472.654	742.81
472.873	784.81
473.092	837.81
473.311	847.81
473.53	836.81
473.749	816.81
473.968	863.81
474.187	847.81
474.406	813.81
474.625	860.81
474.844	846.81
475.063	888.81
475.282	838.81
475.501	828.81
475.72	846.81
475.939	946.81
476.158	896.81
476.377	854.81
476.596	862.81
476.814	845.81
477.033	811.81
477.252	870.81
477.471	895.81
477.69	943.81
477.908	948.81
478.127	969.81
478.346	1035.81
478.564	997.81
478.783	1004.81
479.002	1028.81
479.22	1016.81
479.439	1054.81
479.658	1054.81
479.876	991.81
480.095	925.81
480.313	932.81
480.532	908.81
480.751	861.81
480.969	815.81
481.188	807.81
481.406	776.81
481.624	759.81
481.843	796.81
482.061	828.81
482.28	884.81
482.498	899.81
482.717	881.81
482.935	917.81
483.153	993.81
483.372	1057.81
483.59	1015.81
483.808	987.81
484.027	941.81
484.245	997.81
484.463	1217.81
484.681	1312.81
484.9	1019.81
485.118	963.81
485.336	936.81
485.554	936.81
485.772	914.81
485.99	877.81
486.209	899.81
486.427	902.81
486.645	947.81
486.863	1033.81
487.081	1029.81
487.299	1049.81
487.517	1057.81
487.735	1104.81
487.953	1197.81
488.171	1169.81
488.389	1118.81
488.607	1057.81
488.825	1107.81
489.043	1094.81
489.261	1032.81
489.479	1028.81
489.696	1076.81
489.914	1055.81
490.132	1051.81
490.35	1084.81
490.568	1169.81
490.786	1134.81
491.003	1173.81
491.221	1293.81
491.439	1340.81
491.657	1366.81
491.874	1378.81
492.092	1463.81
492.31	1521.81
492.527	1476.81
492.745	1358.81
492.963	1338.81
493.18	1327.81
493.398	1379.81
493.615	1317.81
493.833	1307.81
494.05	1239.81
494.268	1256.81
494.485	1278.81
494.703	1259.81
494.92	1259.81
495.138	1218.81
495.355	1205.81
495.573	1263.81
495.79	1272.81
496.008	1273.81
496.225	1242.81
496.442	1236.81
496.66	1279.81
496.877	1237.81
497.094	1268.81
497.312	1238.81
497.529	1195.81
497.746	1195.81
497.963	1298.81
498.181	1334.81
498.398	1281.81
498.615	1218.81
498.832	1197.81
499.049	1157.81
499.267	1191.81
499.484	1262.81
499.701	1379.81
499.918	1388.81
500.135	1523.81
500.352	1583.81
