Data from WStandard_LampEnergy10_LIBS07252019.E.O._I.C._HRD10591_15-52-44-927.txt Node
Date: Thu Jul 25 15:52:44 EDT 2019
User: cochatt
Spectrometer: HR+D1059
Trigger mode: 1
Integration Time (sec): 1.000000E-1
Scans to average: 1
Electric dark correction enabled: true
Nonlinearity correction enabled: false
Boxcar width: 0
XAxis mode: Wavelengths
Number of Pixels in Spectrum: 2048
>>>>>Begin Spectral Data<<<<<
223.165	-12.06
223.4	-12.06
223.635	-12.06
223.869	-3.06
224.104	-19.06
224.338	-25.06
224.573	-35.06
224.808	-10.06
225.042	1.94
225.277	-13.06
225.511	-1.06
225.746	5.94
225.98	3.94
226.215	4.94
226.449	16.94
226.683	20.94
226.918	37.94
227.152	25.94
227.387	38.94
227.621	23.94
227.856	37.94
228.09	37.94
228.324	68.94
228.559	54.94
228.793	330.94
229.027	956.94
229.262	986.94
229.496	1040.94
229.73	1030.94
229.964	1212.94
230.199	1202.94
230.433	1276.94
230.667	1372.94
230.901	1470.94
231.136	1338.94
231.37	1260.94
231.604	1209.94
231.838	1230.94
232.072	1261.94
232.306	1152.94
232.541	1237.94
232.775	1519.94
233.009	1708.94
233.243	1611.94
233.477	1421.94
233.711	1491.94
233.945	1567.94
234.179	1482.94
234.413	1616.94
234.647	1801.94
234.881	1668.94
235.115	1488.94
235.349	1568.94
235.583	1592.94
235.817	1565.94
236.051	1502.94
236.285	1537.94
236.519	1668.94
236.753	1884.94
236.987	1941.94
237.221	1889.94
237.455	2207.94
237.689	2088.94
237.922	1970.94
238.156	1905.94
238.39	1881.94
238.624	2038.94
238.858	2135.94
239.091	2205.94
239.325	2278.94
239.559	2691.94
239.793	2794.94
240.027	3063.94
240.26	3111.94
240.494	2175.94
240.728	2042.94
240.961	2114.94
241.195	2136.94
241.429	2415.94
241.662	2428.94
241.896	2212.94
242.13	2216.94
242.363	2471.94
242.597	2730.94
242.83	2545.94
243.064	2672.94
243.298	2837.94
243.531	2759.94
243.765	2820.94
243.998	2762.94
244.232	2398.94
244.465	2308.94
244.699	2320.94
244.932	2641.94
245.166	3111.94
245.399	2977.94
245.633	2728.94
245.866	2623.94
246.099	2757.94
246.333	2856.94
246.566	2862.94
246.8	3119.94
247.033	3588.94
247.266	3302.94
247.5	3174.94
247.733	3199.94
247.966	3363.94
248.2	3815.94
248.433	3588.94
248.666	3671.94
248.899	3997.94
249.133	4648.94
249.366	5428.94
249.599	4404.94
249.832	3817.94
250.066	3933.94
250.299	4073.94
250.532	3684.94
250.765	3182.94
250.998	3479.94
251.231	3677.94
251.465	3822.94
251.698	3608.94
251.931	3597.94
252.164	3698.94
252.397	3891.94
252.63	3851.94
252.863	3326.94
253.096	3238.94
253.329	3566.94
253.562	3634.94
253.795	4064.94
254.028	3958.94
254.261	3656.94
254.494	3582.94
254.727	3356.94
254.96	3452.94
255.193	3871.94
255.426	4328.94
255.659	5029.94
255.892	5186.94
256.124	4278.94
256.357	4046.94
256.59	4427.94
256.823	4422.94
257.056	4316.94
257.289	5253.94
257.521	6007.94
257.754	5305.94
257.987	4902.94
258.22	5618.94
258.452	5472.94
258.685	4302.94
258.918	4290.94
259.151	4298.94
259.383	4119.94
259.616	3600.94
259.849	3820.94
260.081	4368.94
260.314	4849.94
260.547	5327.94
260.779	5436.94
261.012	5025.94
261.244	4516.94
261.477	4252.94
261.71	4467.94
261.942	4415.94
262.175	4216.94
262.407	4618.94
262.64	4272.94
262.872	3976.94
263.105	3850.94
263.337	3953.94
263.57	3991.94
263.802	4114.94
264.035	3778.94
264.267	3557.94
264.499	3448.94
264.732	3725.94
264.964	4042.94
265.197	4158.94
265.429	4388.94
265.661	4865.94
265.894	5404.94
266.126	5698.94
266.358	4969.94
266.591	5129.94
266.823	5747.94
267.055	4991.94
267.287	5018.94
267.52	4890.94
267.752	4861.94
267.984	4779.94
268.216	5100.94
268.448	5155.94
268.681	5202.94
268.913	4730.94
269.145	4419.94
269.377	4294.94
269.609	4645.94
269.841	5451.94
270.073	6428.94
270.306	7164.94
270.538	7822.94
270.77	6580.94
271.002	5385.94
271.234	5210.94
271.466	5032.94
271.698	5597.94
271.93	6984.94
272.162	7070.94
272.394	6280.94
272.626	6072.94
272.858	5266.94
273.09	4571.94
273.322	4541.94
273.553	4281.94
273.785	4358.94
274.017	4494.94
274.249	4981.94
274.481	4952.94
274.713	4583.94
274.945	4385.94
275.176	4520.94
275.408	4385.94
275.64	4346.94
275.872	4206.94
276.104	4487.94
276.335	5155.94
276.567	5965.94
276.799	6087.94
277.031	5385.94
277.262	5007.94
277.494	5161.94
277.726	5878.94
277.957	5856.94
278.189	5256.94
278.421	4822.94
278.652	4683.94
278.884	4648.94
279.115	4612.94
279.347	4804.94
279.579	4544.94
279.81	4451.94
280.042	5033.94
280.273	5598.94
280.505	5630.94
280.736	5741.94
280.968	5484.94
281.199	4772.94
281.431	4508.94
281.662	4525.94
281.894	4505.94
282.125	4653.94
282.356	4880.94
282.588	4901.94
282.819	4788.94
283.051	5188.94
283.282	5680.94
283.513	5528.94
283.745	4760.94
283.976	4446.94
284.207	4461.94
284.439	4568.94
284.67	4711.94
284.901	4770.94
285.132	4929.94
285.364	4780.94
285.595	4853.94
285.826	4730.94
286.057	4714.94
286.288	4619.94
286.52	4823.94
286.751	5305.94
286.982	5522.94
287.213	5027.94
287.444	4572.94
287.675	4507.94
287.906	4761.94
288.138	5169.94
288.369	5008.94
288.6	4724.94
288.831	4591.94
289.062	4553.94
289.293	4735.94
289.524	4695.94
289.755	4909.94
289.986	4949.94
290.217	4463.94
290.448	4581.94
290.679	4738.94
290.91	4797.94
291.141	4899.94
291.371	5078.94
291.602	5070.94
291.833	4957.94
292.064	5130.94
292.295	4975.94
292.526	5092.94
292.757	5513.94
292.987	5164.94
293.218	4768.94
293.449	5147.94
293.68	5879.94
293.91	6451.94
294.141	5902.94
294.372	5415.94
294.603	5692.94
294.833	6072.94
295.064	5701.94
295.295	5126.94
295.525	5006.94
295.756	4724.94
295.987	4386.94
296.217	4542.94
296.448	4648.94
296.679	4682.94
296.909	4677.94
297.14	4625.94
297.37	4671.94
297.601	4964.94
297.831	5330.94
298.062	5449.94
298.292	4948.94
298.523	4626.94
298.753	4723.94
298.984	4771.94
299.214	4749.94
299.445	4908.94
299.675	5080.94
299.905	5056.94
300.136	4913.94
300.366	4813.94
300.597	4542.94
300.827	4573.94
301.057	4742.94
301.288	5046.94
301.518	4965.94
301.748	5089.94
301.979	5389.94
302.209	5461.94
302.439	5806.94
302.669	6239.94
302.9	5765.94
303.13	5042.94
303.36	5058.94
303.59	5220.94
303.82	5111.94
304.051	5103.94
304.281	5074.94
304.511	5040.94
304.741	5227.94
304.971	5936.94
305.201	6534.94
305.431	6104.94
305.661	4965.94
305.891	4516.94
306.121	4440.94
306.352	4559.94
306.582	4828.94
306.812	5201.94
307.042	5696.94
307.272	5612.94
307.502	5651.94
307.731	6166.94
307.961	6850.94
308.191	6215.94
308.421	5323.94
308.651	4918.94
308.881	4929.94
309.111	4876.94
309.341	4856.94
309.571	4781.94
309.8	4925.94
310.03	4873.94
310.26	4759.94
310.49	4805.94
310.72	4836.94
310.949	5127.94
311.179	5292.94
311.409	5160.94
311.639	4987.94
311.868	4860.94
312.098	4990.94
312.328	4948.94
312.557	4870.94
312.787	4953.94
313.017	5091.94
313.246	5115.94
313.476	5065.94
313.706	5270.94
313.935	5164.94
314.165	5190.94
314.394	5290.94
314.624	5686.94
314.853	5903.94
315.083	6158.94
315.312	6423.94
315.542	5949.94
315.771	5212.94
316.001	5244.94
316.23	5518.94
316.46	5575.94
316.689	5408.94
316.919	5180.94
317.148	4947.94
317.377	4986.94
317.607	5346.94
317.836	5924.94
318.065	6313.94
318.295	6053.94
318.524	5796.94
318.753	5522.94
318.983	5435.94
319.212	5316.94
319.441	5210.94
319.67	5175.94
319.9	5200.94
320.129	5516.94
320.358	5819.94
320.587	6049.94
320.816	5933.94
321.046	5814.94
321.275	5374.94
321.504	5404.94
321.733	6013.94
321.962	5910.94
322.191	5248.94
322.42	5328.94
322.649	5243.94
322.878	5161.94
323.108	5238.94
323.337	5484.94
323.566	5457.94
323.795	5436.94
324.024	5523.94
324.253	5284.94
324.482	5396.94
324.71	5285.94
324.939	4972.94
325.168	5062.94
325.397	5276.94
325.626	5493.94
325.855	5599.94
326.084	5313.94
326.313	5237.94
326.542	5475.94
326.77	5498.94
326.999	5592.94
327.228	5357.94
327.457	5070.94
327.686	5006.94
327.914	5106.94
328.143	5233.94
328.372	5279.94
328.6	5301.94
328.829	5278.94
329.058	5206.94
329.287	5199.94
329.515	5304.94
329.744	5349.94
329.972	5596.94
330.201	5886.94
330.43	5794.94
330.658	5513.94
330.887	5595.94
331.115	5555.94
331.344	5636.94
331.572	5554.94
331.801	5522.94
332.03	5576.94
332.258	5536.94
332.486	5642.94
332.715	5696.94
332.943	5723.94
333.172	5488.94
333.4	5588.94
333.629	5750.94
333.857	6099.94
334.085	6663.94
334.314	7504.94
334.542	8455.94
334.771	7922.94
334.999	6831.94
335.227	6453.94
335.455	6060.94
335.684	5913.94
335.912	6021.94
336.14	6301.94
336.369	6148.94
336.597	5729.94
336.825	5654.94
337.053	5726.94
337.281	6090.94
337.51	6320.94
337.738	6676.94
337.966	6450.94
338.194	5745.94
338.422	5590.94
338.65	5500.94
338.878	5420.94
339.106	5365.94
339.334	5278.94
339.562	5154.94
339.79	5296.94
340.018	5612.94
340.246	5815.94
340.474	5925.94
340.702	5634.94
340.93	5727.94
341.158	5639.94
341.386	5489.94
341.614	5488.94
341.842	5417.94
342.07	5451.94
342.298	5558.94
342.526	5502.94
342.754	5412.94
342.981	5263.94
343.209	5345.94
343.437	5360.94
343.665	5320.94
343.893	5597.94
344.12	5866.94
344.348	6016.94
344.576	5724.94
344.804	5496.94
345.031	5404.94
345.259	5427.94
345.487	5310.94
345.714	4987.94
345.942	4970.94
346.17	4999.94
346.397	5155.94
346.625	5227.94
346.853	4912.94
347.08	4824.94
347.308	4832.94
347.535	4989.94
347.763	5223.94
347.99	5089.94
348.218	4837.94
348.445	4992.94
348.673	5009.94
348.9	5189.94
349.128	5253.94
349.355	5573.94
349.583	5374.94
349.81	5176.94
350.037	4707.94
350.265	4665.94
350.492	4753.94
350.72	4872.94
350.947	4970.94
351.174	5177.94
351.402	4881.94
351.629	4667.94
351.856	4645.94
352.083	4627.94
352.311	4583.94
352.538	4731.94
352.765	4947.94
352.992	5170.94
353.22	4945.94
353.447	4764.94
353.674	4837.94
353.901	4953.94
354.128	4832.94
354.355	4769.94
354.583	4976.94
354.81	5112.94
355.037	5140.94
355.264	5150.94
355.491	4966.94
355.718	5052.94
355.945	4944.94
356.172	4906.94
356.399	4789.94
356.626	4807.94
356.853	4910.94
357.08	5272.94
357.307	5866.94
357.534	6035.94
357.761	5166.94
357.988	4840.94
358.215	4649.94
358.441	4708.94
358.668	4706.94
358.895	4678.94
359.122	5014.94
359.349	5514.94
359.576	5502.94
359.802	5016.94
360.029	4802.94
360.256	4684.94
360.483	4717.94
360.709	4861.94
360.936	5141.94
361.163	5212.94
361.39	5746.94
361.616	6259.94
361.843	6092.94
362.07	5785.94
362.296	4980.94
362.523	4831.94
362.749	4868.94
362.976	4897.94
363.203	5070.94
363.429	4897.94
363.656	4757.94
363.882	4856.94
364.109	5312.94
364.335	5943.94
364.562	5502.94
364.788	5302.94
365.015	5043.94
365.241	4786.94
365.468	4846.94
365.694	5050.94
365.92	5350.94
366.147	5128.94
366.373	4784.94
366.599	4728.94
366.826	4713.94
367.052	4717.94
367.278	4831.94
367.505	4906.94
367.731	5003.94
367.957	5047.94
368.184	5149.94
368.41	5358.94
368.636	5492.94
368.862	5464.94
369.089	5573.94
369.315	5356.94
369.541	5149.94
369.767	5015.94
369.993	4864.94
370.219	4902.94
370.445	4956.94
370.672	5121.94
370.898	5585.94
371.124	5546.94
371.35	5162.94
371.576	5285.94
371.802	5599.94
372.028	5272.94
372.254	5110.94
372.48	5006.94
372.706	4936.94
372.932	4885.94
373.158	5016.94
373.384	5032.94
373.61	5161.94
373.835	5472.94
374.061	5256.94
374.287	5066.94
374.513	5108.94
374.739	5209.94
374.965	5130.94
375.191	5268.94
375.416	5293.94
375.642	5228.94
375.868	5576.94
376.094	5780.94
376.319	5550.94
376.545	5112.94
376.771	5178.94
376.997	5423.94
377.222	5340.94
377.448	5224.94
377.674	5284.94
377.899	5266.94
378.125	5593.94
378.35	5638.94
378.576	5120.94
378.802	4914.94
379.027	4928.94
379.253	5049.94
379.478	5079.94
379.704	5021.94
379.929	5102.94
380.155	5077.94
380.38	5134.94
380.606	5252.94
380.831	5075.94
381.057	5441.94
381.282	5498.94
381.507	5281.94
381.733	5534.94
381.958	5961.94
382.184	5444.94
382.409	5220.94
382.634	5349.94
382.86	5342.94
383.085	5340.94
383.31	5366.94
383.535	5872.94
383.761	6271.94
383.986	6006.94
384.211	5796.94
384.436	5720.94
384.662	5991.94
384.887	6303.94
385.112	5894.94
385.337	6028.94
385.562	5905.94
385.787	5906.94
386.013	6094.94
386.238	6018.94
386.463	6026.94
386.688	6296.94
386.913	6779.94
387.138	6732.94
387.363	6130.94
387.588	6033.94
387.813	6079.94
388.038	6108.94
388.263	6363.94
388.488	6164.94
388.713	5668.94
388.938	5615.94
389.163	5687.94
389.387	5757.94
389.612	5742.94
389.837	5982.94
390.062	6046.94
390.287	5891.94
390.512	5906.94
390.736	5828.94
390.961	5680.94
391.186	5561.94
391.411	5572.94
391.636	5730.94
391.86	5836.94
392.085	5821.94
392.31	5789.94
392.534	5914.94
392.759	6035.94
392.984	5884.94
393.208	5943.94
393.433	6126.94
393.658	6276.94
393.882	6402.94
394.107	6054.94
394.331	5877.94
394.556	5862.94
394.78	6011.94
395.005	6119.94
395.229	6366.94
395.454	6865.94
395.678	6858.94
395.903	6579.94
396.127	6214.94
396.352	6303.94
396.576	6418.94
396.801	6527.94
397.025	6353.94
397.249	6437.94
397.474	6400.94
397.698	6273.94
397.922	6468.94
398.147	6772.94
398.371	7051.94
398.595	7039.94
398.82	6853.94
399.044	6851.94
399.268	7144.94
399.492	7655.94
399.717	7998.94
399.941	8221.94
400.165	7987.94
400.389	7685.94
400.613	7516.94
400.837	8110.94
401.062	9488.94
401.286	8234.94
401.51	7325.94
401.734	7816.94
401.958	7554.94
402.182	7009.94
402.406	6747.94
402.63	6561.94
402.854	6657.94
403.078	6766.94
403.302	6972.94
403.526	7106.94
403.75	7137.94
403.974	7185.94
404.198	7077.94
404.422	7320.94
404.645	7582.94
404.869	7574.94
405.093	6964.94
405.317	6869.94
405.541	7180.94
405.765	7045.94
405.988	7074.94
406.212	7315.94
406.436	7410.94
406.66	7582.94
406.883	7648.94
407.107	8461.94
407.331	9172.94
407.555	9987.94
407.778	9336.94
408.002	7729.94
408.226	7487.94
408.449	7515.94
408.673	7329.94
408.896	7249.94
409.12	7435.94
409.344	7296.94
409.567	7046.94
409.791	7148.94
410.014	7171.94
410.238	7522.94
410.461	8045.94
410.685	7250.94
410.908	6881.94
411.132	7045.94
411.355	7046.94
411.578	6860.94
411.802	6950.94
412.025	7095.94
412.249	6931.94
412.472	6736.94
412.695	6632.94
412.919	6709.94
413.142	6722.94
413.365	6793.94
413.589	7011.94
413.812	7128.94
414.035	7462.94
414.258	6894.94
414.482	6716.94
414.705	6838.94
414.928	6702.94
415.151	6666.94
415.374	6769.94
415.597	6823.94
415.821	6908.94
416.044	7228.94
416.267	7295.94
416.49	6552.94
416.713	6441.94
416.936	6674.94
417.159	6912.94
417.382	6980.94
417.605	6601.94
417.828	6788.94
418.051	6972.94
418.274	6793.94
418.497	6489.94
418.72	6511.94
418.943	6484.94
419.166	7091.94
419.389	7341.94
419.611	6944.94
419.834	6708.94
420.057	6728.94
420.28	6523.94
420.503	6520.94
420.726	6669.94
420.948	6644.94
421.171	6477.94
421.394	6583.94
421.617	6764.94
421.839	6734.94
422.062	6580.94
422.285	6419.94
422.507	6462.94
422.73	6338.94
422.953	6230.94
423.175	6278.94
423.398	6548.94
423.621	6534.94
423.843	6575.94
424.066	6648.94
424.288	6868.94
424.511	6938.94
424.733	6782.94
424.956	6250.94
425.178	6062.94
425.401	6241.94
425.623	6344.94
425.846	6287.94
426.068	6592.94
426.291	6777.94
426.513	6704.94
426.735	6615.94
426.958	6995.94
427.18	7524.94
427.402	6800.94
427.625	6940.94
427.847	7113.94
428.069	6607.94
428.292	6436.94
428.514	6222.94
428.736	6194.94
428.958	6217.94
429.181	6282.94
429.403	7035.94
429.625	8766.94
429.847	7753.94
430.069	6419.94
430.292	7100.94
430.514	7370.94
430.736	6841.94
430.958	7152.94
431.18	6796.94
431.402	6319.94
431.624	6197.94
431.846	6312.94
432.068	6144.94
432.29	6252.94
432.512	6374.94
432.734	6516.94
432.956	6618.94
433.178	6816.94
433.4	6806.94
433.622	6776.94
433.844	6455.94
434.066	6200.94
434.287	6246.94
434.509	6478.94
434.731	6792.94
434.953	7300.94
435.175	7152.94
435.397	6690.94
435.618	6678.94
435.84	6733.94
436.062	6580.94
436.284	6597.94
436.505	6676.94
436.727	6864.94
436.949	6533.94
437.17	6393.94
437.392	6427.94
437.614	6314.94
437.835	6160.94
438.057	6676.94
438.278	6950.94
438.5	6427.94
438.721	6233.94
438.943	6425.94
439.165	6390.94
439.386	6176.94
439.608	6199.94
439.829	6260.94
440.05	6309.94
440.272	6200.94
440.493	6077.94
440.715	6290.94
440.936	6685.94
441.158	7495.94
441.379	7332.94
441.6	7046.94
441.822	6895.94
442.043	6814.94
442.264	6588.94
442.486	6372.94
442.707	6278.94
442.928	6300.94
443.149	6471.94
443.371	7032.94
443.592	7140.94
443.813	6885.94
444.034	6887.94
444.255	6981.94
444.476	7060.94
444.698	7273.94
444.919	7222.94
445.14	7166.94
445.361	7311.94
445.582	7653.94
445.803	7237.94
446.024	6955.94
446.245	7268.94
446.466	6997.94
446.687	6592.94
446.908	6534.94
447.129	6410.94
447.35	6530.94
447.571	6524.94
447.792	6231.94
448.013	6124.94
448.234	6318.94
448.455	6644.94
448.675	6707.94
448.896	6095.94
449.117	5929.94
449.338	6109.94
449.559	6423.94
449.779	6794.94
450	7576.94
450.221	8110.94
450.442	7804.94
450.662	6828.94
450.883	5968.94
451.104	5844.94
451.324	6087.94
451.545	6272.94
451.766	6260.94
451.986	5869.94
452.207	5798.94
452.428	5569.94
452.648	5531.94
452.869	5671.94
453.089	6202.94
453.31	6284.94
453.53	6351.94
453.751	6134.94
453.971	5673.94
454.192	5845.94
454.412	6341.94
454.633	6074.94
454.853	5904.94
455.073	5486.94
455.294	5442.94
455.514	5416.94
455.734	5511.94
455.955	5682.94
456.175	5664.94
456.395	5605.94
456.616	5798.94
456.836	5934.94
457.056	5804.94
457.276	5792.94
457.497	5598.94
457.717	5403.94
457.937	5479.94
458.157	5671.94
458.377	5613.94
458.598	5587.94
458.818	5590.94
459.038	5961.94
459.258	6434.94
459.478	6357.94
459.698	6204.94
459.918	6312.94
460.138	6622.94
460.358	6803.94
460.578	6717.94
460.798	7046.94
461.018	7457.94
461.238	7001.94
461.458	6643.94
461.678	6868.94
461.898	6593.94
462.118	6318.94
462.338	6748.94
462.558	6770.94
462.777	6747.94
462.997	7144.94
463.217	7556.94
463.437	7539.94
463.657	6884.94
463.876	6813.94
464.096	6840.94
464.316	6692.94
464.536	7080.94
464.755	7024.94
464.975	7252.94
465.195	6874.94
465.414	7208.94
465.634	7196.94
465.854	6718.94
466.073	7100.94
466.293	7064.94
466.512	6189.94
466.732	6180.94
466.951	6498.94
467.171	6392.94
467.391	6290.94
467.61	6000.94
467.829	6124.94
468.049	6562.94
468.268	7329.94
468.488	6926.94
468.707	6571.94
468.927	6316.94
469.146	6280.94
469.365	6070.94
469.585	6149.94
469.804	6118.94
470.023	6217.94
470.243	6334.94
470.462	6147.94
470.681	6064.94
470.901	6206.94
471.12	6247.94
471.339	6137.94
471.558	5898.94
471.777	5892.94
471.997	5985.94
472.216	6056.94
472.435	5869.94
472.654	5868.94
472.873	6161.94
473.092	6674.94
473.311	6318.94
473.53	5782.94
473.749	5777.94
473.968	6099.94
474.187	6425.94
474.406	6855.94
474.625	6290.94
474.844	6178.94
475.063	6272.94
475.282	6473.94
475.501	6243.94
475.72	6207.94
475.939	6510.94
476.158	6473.94
476.377	6192.94
476.596	6292.94
476.814	6444.94
477.033	6431.94
477.252	6745.94
477.471	7036.94
477.69	6594.94
477.908	6445.94
478.127	6924.94
478.346	7519.94
478.564	7528.94
478.783	7417.94
479.002	7638.94
479.22	7395.94
479.439	7682.94
479.658	8804.94
479.876	8712.94
480.095	7549.94
480.313	7253.94
480.532	6850.94
480.751	6885.94
480.969	7057.94
481.188	7044.94
481.406	6903.94
481.624	6713.94
481.843	6824.94
482.061	6972.94
482.28	7118.94
482.498	7326.94
482.717	7208.94
482.935	6915.94
483.153	6885.94
483.372	6918.94
483.59	6787.94
483.808	6937.94
484.027	7065.94
484.245	7437.94
484.463	8545.94
484.681	9913.94
484.9	7719.94
485.118	7200.94
485.336	6958.94
485.554	7303.94
485.772	7653.94
485.99	7464.94
486.209	7560.94
486.427	7457.94
