Data from WStandard_LampEnergy8_LIBS07252019.E.O._I.C._HRD10591_16-00-21-929.txt Node
Date: Thu Jul 25 16:00:21 EDT 2019
User: cochatt
Spectrometer: HR+D1059
Trigger mode: 1
Integration Time (sec): 1.000000E-1
Scans to average: 1
Electric dark correction enabled: true
Nonlinearity correction enabled: false
Boxcar width: 0
XAxis mode: Wavelengths
Number of Pixels in Spectrum: 2048
>>>>>Begin Spectral Data<<<<<
223.165	-16.38
223.4	-16.38
223.635	-16.38
223.869	-6.38
224.104	-21.38
224.338	-16.38
224.573	-15.38
224.808	-12.38
225.042	9.62
225.277	0.62
225.511	2.62
225.746	-4.38
225.98	-11.38
226.215	-11.38
226.449	16.62
226.683	28.62
226.918	25.62
227.152	31.62
227.387	32.62
227.621	37.62
227.856	44.62
228.09	48.62
228.324	49.62
228.559	56.62
228.793	79.62
229.027	206.62
229.262	204.62
229.496	220.62
229.73	219.62
229.964	238.62
230.199	238.62
230.433	269.62
230.667	268.62
230.901	290.62
231.136	259.62
231.37	255.62
231.604	256.62
231.838	258.62
232.072	262.62
232.306	242.62
232.541	264.62
232.775	286.62
233.009	312.62
233.243	306.62
233.477	291.62
233.711	299.62
233.945	287.62
234.179	313.62
234.413	313.62
234.647	318.62
234.881	299.62
235.115	280.62
235.349	300.62
235.583	283.62
235.817	277.62
236.051	276.62
236.285	289.62
236.519	315.62
236.753	335.62
236.987	358.62
237.221	340.62
237.455	382.62
237.689	366.62
237.922	341.62
238.156	341.62
238.39	334.62
238.624	347.62
238.858	368.62
239.091	397.62
239.325	417.62
239.559	468.62
239.793	482.62
240.027	473.62
240.26	478.62
240.494	382.62
240.728	370.62
240.961	353.62
241.195	386.62
241.429	406.62
241.662	404.62
241.896	393.62
242.13	384.62
242.363	427.62
242.597	441.62
242.83	451.62
243.064	436.62
243.298	474.62
243.531	458.62
243.765	446.62
243.998	453.62
244.232	379.62
244.465	399.62
244.699	412.62
244.932	454.62
245.166	494.62
245.399	467.62
245.633	458.62
245.866	439.62
246.099	442.62
246.333	462.62
246.566	511.62
246.8	517.62
247.033	562.62
247.266	521.62
247.5	518.62
247.733	510.62
247.966	566.62
248.2	591.62
248.433	588.62
248.666	597.62
248.899	644.62
249.133	723.62
249.366	789.62
249.599	656.62
249.832	575.62
250.066	589.62
250.299	619.62
250.532	569.62
250.765	524.62
250.998	567.62
251.231	561.62
251.465	592.62
251.698	567.62
251.931	542.62
252.164	578.62
252.397	592.62
252.63	602.62
252.863	531.62
253.096	533.62
253.329	559.62
253.562	556.62
253.795	603.62
254.028	599.62
254.261	561.62
254.494	554.62
254.727	530.62
254.96	547.62
255.193	647.62
255.426	675.62
255.659	765.62
255.892	769.62
256.124	657.62
256.357	639.62
256.59	665.62
256.823	672.62
257.056	697.62
257.289	821.62
257.521	883.62
257.754	759.62
257.987	756.62
258.22	792.62
258.452	787.62
258.685	667.62
258.918	645.62
259.151	662.62
259.383	629.62
259.616	570.62
259.849	592.62
260.081	646.62
260.314	720.62
260.547	794.62
260.779	795.62
261.012	728.62
261.244	692.62
261.477	631.62
261.71	672.62
261.942	676.62
262.175	643.62
262.407	683.62
262.64	655.62
262.872	628.62
263.105	602.62
263.337	601.62
263.57	627.62
263.802	604.62
264.035	580.62
264.267	548.62
264.499	556.62
264.732	585.62
264.964	610.62
265.197	643.62
265.429	696.62
265.661	727.62
265.894	811.62
266.126	822.62
266.358	760.62
266.591	790.62
266.823	832.62
267.055	757.62
267.287	747.62
267.52	735.62
267.752	727.62
267.984	742.62
268.216	786.62
268.448	786.62
268.681	756.62
268.913	699.62
269.145	690.62
269.377	691.62
269.609	733.62
269.841	845.62
270.073	978.62
270.306	1034.62
270.538	1059.62
270.77	937.62
271.002	807.62
271.234	766.62
271.466	809.62
271.698	875.62
271.93	1007.62
272.162	996.62
272.394	915.62
272.626	854.62
272.858	780.62
273.09	670.62
273.322	708.62
273.553	642.62
273.785	672.62
274.017	724.62
274.249	759.62
274.481	756.62
274.713	697.62
274.945	666.62
275.176	682.62
275.408	678.62
275.64	648.62
275.872	671.62
276.104	728.62
276.335	805.62
276.567	879.62
276.799	868.62
277.031	809.62
277.262	759.62
277.494	826.62
277.726	888.62
277.957	861.62
278.189	785.62
278.421	728.62
278.652	733.62
278.884	715.62
279.115	745.62
279.347	735.62
279.579	709.62
279.81	726.62
280.042	794.62
280.273	843.62
280.505	837.62
280.736	838.62
280.968	803.62
281.199	735.62
281.431	706.62
281.662	690.62
281.894	702.62
282.125	712.62
282.356	732.62
282.588	744.62
282.819	765.62
283.051	812.62
283.282	865.62
283.513	829.62
283.745	750.62
283.976	702.62
284.207	720.62
284.439	723.62
284.67	716.62
284.901	761.62
285.132	781.62
285.364	751.62
285.595	748.62
285.826	741.62
286.057	743.62
286.288	768.62
286.52	784.62
286.751	828.62
286.982	814.62
287.213	774.62
287.444	713.62
287.675	734.62
287.906	758.62
288.138	790.62
288.369	775.62
288.6	740.62
288.831	717.62
289.062	748.62
289.293	719.62
289.524	732.62
289.755	777.62
289.986	768.62
290.217	716.62
290.448	736.62
290.679	762.62
290.91	770.62
291.141	766.62
291.371	799.62
291.602	797.62
291.833	803.62
292.064	826.62
292.295	784.62
292.526	799.62
292.757	834.62
292.987	788.62
293.218	788.62
293.449	823.62
293.68	939.62
293.91	1000.62
294.141	922.62
294.372	879.62
294.603	900.62
294.833	932.62
295.064	894.62
295.295	812.62
295.525	788.62
295.756	733.62
295.987	714.62
296.217	737.62
296.448	757.62
296.679	787.62
296.909	763.62
297.14	740.62
297.37	785.62
297.601	827.62
297.831	856.62
298.062	842.62
298.292	779.62
298.523	770.62
298.753	757.62
298.984	791.62
299.214	832.62
299.445	807.62
299.675	831.62
299.905	823.62
300.136	779.62
300.366	758.62
300.597	751.62
300.827	745.62
301.057	811.62
301.288	826.62
301.518	830.62
301.748	865.62
301.979	876.62
302.209	916.62
302.439	976.62
302.669	967.62
302.9	904.62
303.13	838.62
303.36	837.62
303.59	856.62
303.82	850.62
304.051	818.62
304.281	839.62
304.511	871.62
304.741	916.62
304.971	994.62
305.201	1015.62
305.431	948.62
305.661	786.62
305.891	746.62
306.121	727.62
306.352	781.62
306.582	818.62
306.812	851.62
307.042	916.62
307.272	911.62
307.502	964.62
307.731	1037.62
307.961	1066.62
308.191	945.62
308.421	845.62
308.651	801.62
308.881	800.62
309.111	794.62
309.341	796.62
309.571	817.62
309.8	835.62
310.03	806.62
310.26	824.62
310.49	801.62
310.72	833.62
310.949	847.62
311.179	856.62
311.409	850.62
311.639	820.62
311.868	818.62
312.098	824.62
312.328	826.62
312.557	789.62
312.787	855.62
313.017	869.62
313.246	854.62
313.476	859.62
313.706	864.62
313.935	858.62
314.165	887.62
314.394	924.62
314.624	936.62
314.853	1012.62
315.083	1014.62
315.312	1045.62
315.542	950.62
315.771	894.62
316.001	877.62
316.23	940.62
316.46	903.62
316.689	905.62
316.919	867.62
317.148	843.62
317.377	871.62
317.607	943.62
317.836	1006.62
318.065	1029.62
318.295	1016.62
318.524	959.62
318.753	923.62
318.983	923.62
319.212	901.62
319.441	896.62
319.67	878.62
319.9	889.62
320.129	959.62
320.358	980.62
320.587	997.62
320.816	1008.62
321.046	978.62
321.275	939.62
321.504	952.62
321.733	1029.62
321.962	981.62
322.191	911.62
322.42	934.62
322.649	922.62
322.878	892.62
323.108	902.62
323.337	954.62
323.566	933.62
323.795	910.62
324.024	926.62
324.253	907.62
324.482	918.62
324.71	882.62
324.939	875.62
325.168	869.62
325.397	919.62
325.626	933.62
325.855	943.62
326.084	892.62
326.313	922.62
326.542	922.62
326.77	949.62
326.999	944.62
327.228	896.62
327.457	855.62
327.686	878.62
327.914	894.62
328.143	885.62
328.372	910.62
328.6	908.62
328.829	905.62
329.058	888.62
329.287	904.62
329.515	942.62
329.744	942.62
329.972	993.62
330.201	1011.62
330.43	974.62
330.658	963.62
330.887	962.62
331.115	966.62
331.344	946.62
331.572	946.62
331.801	946.62
332.03	952.62
332.258	971.62
332.486	970.62
332.715	969.62
332.943	986.62
333.172	998.62
333.4	947.62
333.629	1008.62
333.857	1078.62
334.085	1189.62
334.314	1356.62
334.542	1382.62
334.771	1246.62
334.999	1121.62
335.227	1072.62
335.455	1027.62
335.684	1058.62
335.912	1063.62
336.14	1055.62
336.369	1048.62
336.597	1008.62
336.825	981.62
337.053	1030.62
337.281	1102.62
337.51	1145.62
337.738	1132.62
337.966	1060.62
338.194	969.62
338.422	942.62
338.65	973.62
338.878	967.62
339.106	937.62
339.334	930.62
339.562	895.62
339.79	943.62
340.018	1024.62
340.246	1022.62
340.474	1006.62
340.702	996.62
340.93	980.62
341.158	971.62
341.386	978.62
341.614	972.62
341.842	971.62
342.07	976.62
342.298	975.62
342.526	980.62
342.754	979.62
342.981	952.62
343.209	948.62
343.437	959.62
343.665	983.62
343.893	977.62
344.12	1046.62
344.348	1013.62
344.576	984.62
344.804	969.62
345.031	970.62
345.259	951.62
345.487	940.62
345.714	908.62
345.942	887.62
346.17	923.62
346.397	921.62
346.625	931.62
346.853	892.62
347.08	867.62
347.308	887.62
347.535	873.62
347.763	944.62
347.99	912.62
348.218	874.62
348.445	886.62
348.673	921.62
348.9	952.62
349.128	986.62
349.355	986.62
349.583	960.62
349.81	926.62
350.037	847.62
350.265	841.62
350.492	851.62
350.72	891.62
350.947	921.62
351.174	929.62
351.402	898.62
351.629	878.62
351.856	848.62
352.083	832.62
352.311	843.62
352.538	866.62
352.765	931.62
352.992	904.62
353.22	870.62
353.447	844.62
353.674	889.62
353.901	905.62
354.128	889.62
354.355	908.62
354.583	916.62
354.81	933.62
355.037	952.62
355.264	936.62
355.491	896.62
355.718	893.62
355.945	891.62
356.172	886.62
356.399	874.62
356.626	879.62
356.853	915.62
357.08	1011.62
357.307	1040.62
357.534	1015.62
357.761	934.62
357.988	868.62
358.215	870.62
358.441	870.62
358.668	869.62
358.895	857.62
359.122	954.62
359.349	1017.62
359.576	987.62
359.802	930.62
360.029	854.62
360.256	864.62
360.483	889.62
360.709	922.62
360.936	960.62
361.163	1025.62
361.39	1089.62
361.616	1137.62
361.843	1106.62
362.07	1003.62
362.296	910.62
362.523	866.62
362.749	888.62
362.976	914.62
363.203	888.62
363.429	887.62
363.656	866.62
363.882	919.62
364.109	1010.62
364.335	1078.62
364.562	983.62
364.788	960.62
365.015	898.62
365.241	898.62
365.468	915.62
365.694	972.62
365.92	979.62
366.147	928.62
366.373	870.62
366.599	873.62
366.826	890.62
367.052	914.62
367.278	895.62
367.505	891.62
367.731	914.62
367.957	931.62
368.184	995.62
368.41	1054.62
368.636	1029.62
368.862	1044.62
369.089	1048.62
369.315	1003.62
369.541	952.62
369.767	917.62
369.993	887.62
370.219	898.62
370.445	920.62
370.672	994.62
370.898	1035.62
371.124	1007.62
371.35	950.62
371.576	972.62
371.802	1023.62
372.028	971.62
372.254	937.62
372.48	937.62
372.706	913.62
372.932	940.62
373.158	952.62
373.384	949.62
373.61	987.62
373.835	1015.62
374.061	998.62
374.287	968.62
374.513	951.62
374.739	947.62
374.965	974.62
375.191	1003.62
375.416	1026.62
375.642	1035.62
375.868	1071.62
376.094	1066.62
376.319	1024.62
376.545	987.62
376.771	1010.62
376.997	1042.62
377.222	1018.62
377.448	1002.62
377.674	1008.62
377.899	1024.62
378.125	1050.62
378.35	1074.62
378.576	967.62
378.802	895.62
379.027	962.62
379.253	978.62
379.478	978.62
379.704	968.62
379.929	958.62
380.155	987.62
380.38	986.62
380.606	1010.62
380.831	1029.62
381.057	1066.62
381.282	1042.62
381.507	1035.62
381.733	1081.62
381.958	1128.62
382.184	1029.62
382.409	1012.62
382.634	1024.62
382.86	1012.62
383.085	1029.62
383.31	1055.62
383.535	1153.62
383.761	1202.62
383.986	1132.62
384.211	1091.62
384.436	1088.62
384.662	1121.62
384.887	1149.62
385.112	1088.62
385.337	1093.62
385.562	1110.62
385.787	1081.62
386.013	1138.62
386.238	1116.62
386.463	1158.62
386.688	1230.62
386.913	1301.62
387.138	1214.62
387.363	1125.62
387.588	1144.62
387.813	1146.62
388.038	1172.62
388.263	1208.62
388.488	1140.62
388.713	1035.62
388.938	1072.62
389.163	1049.62
389.387	1090.62
389.612	1094.62
389.837	1126.62
390.062	1125.62
390.287	1141.62
390.512	1103.62
390.736	1113.62
390.961	1080.62
391.186	1073.62
391.411	1081.62
391.636	1097.62
391.86	1114.62
392.085	1107.62
392.31	1080.62
392.534	1100.62
392.759	1119.62
392.984	1124.62
393.208	1174.62
393.433	1160.62
393.658	1159.62
393.882	1184.62
394.107	1169.62
394.331	1132.62
394.556	1093.62
394.78	1146.62
395.005	1175.62
395.229	1207.62
395.454	1302.62
395.678	1275.62
395.903	1227.62
396.127	1181.62
396.352	1186.62
396.576	1218.62
396.801	1216.62
397.025	1165.62
397.249	1193.62
397.474	1222.62
397.698	1214.62
397.922	1249.62
398.147	1292.62
398.371	1337.62
398.595	1333.62
398.82	1242.62
399.044	1310.62
399.268	1346.62
399.492	1448.62
399.717	1458.62
399.941	1443.62
400.165	1444.62
400.389	1413.62
400.613	1450.62
400.837	1642.62
401.062	1756.62
401.286	1501.62
401.51	1407.62
401.734	1439.62
401.958	1363.62
402.182	1309.62
402.406	1242.62
402.63	1239.62
402.854	1270.62
403.078	1279.62
403.302	1279.62
403.526	1311.62
403.75	1338.62
403.974	1376.62
404.198	1334.62
404.422	1426.62
404.645	1430.62
404.869	1400.62
405.093	1310.62
405.317	1259.62
405.541	1293.62
405.765	1316.62
405.988	1335.62
406.212	1347.62
406.436	1368.62
406.66	1413.62
406.883	1456.62
407.107	1626.62
407.331	1756.62
407.555	1838.62
407.778	1674.62
408.002	1425.62
408.226	1432.62
408.449	1361.62
408.673	1351.62
408.896	1340.62
409.12	1393.62
409.344	1338.62
409.567	1302.62
409.791	1347.62
410.014	1379.62
410.238	1439.62
410.461	1510.62
410.685	1381.62
410.908	1328.62
411.132	1352.62
411.355	1341.62
411.578	1342.62
411.802	1352.62
412.025	1328.62
412.249	1307.62
412.472	1262.62
412.695	1286.62
412.919	1229.62
413.142	1286.62
413.365	1296.62
413.589	1321.62
413.812	1406.62
414.035	1416.62
414.258	1295.62
414.482	1278.62
414.705	1275.62
414.928	1267.62
415.151	1275.62
415.374	1298.62
415.597	1300.62
415.821	1285.62
416.044	1347.62
416.267	1333.62
416.49	1234.62
416.713	1279.62
416.936	1303.62
417.159	1329.62
417.382	1328.62
417.605	1249.62
417.828	1306.62
418.051	1306.62
418.274	1267.62
418.497	1247.62
418.72	1207.62
418.943	1274.62
419.166	1319.62
419.389	1320.62
419.611	1293.62
419.834	1255.62
420.057	1316.62
420.28	1280.62
420.503	1287.62
420.726	1305.62
420.948	1316.62
421.171	1237.62
421.394	1274.62
421.617	1296.62
421.839	1313.62
422.062	1262.62
422.285	1229.62
422.507	1247.62
422.73	1242.62
422.953	1182.62
423.175	1207.62
423.398	1223.62
423.621	1237.62
423.843	1245.62
424.066	1257.62
424.288	1341.62
424.511	1348.62
424.733	1291.62
424.956	1219.62
425.178	1223.62
425.401	1216.62
425.623	1228.62
425.846	1258.62
426.068	1321.62
426.291	1292.62
426.513	1293.62
426.735	1291.62
426.958	1409.62
427.18	1424.62
427.402	1316.62
427.625	1401.62
427.847	1385.62
428.069	1264.62
428.292	1234.62
428.514	1209.62
428.736	1193.62
428.958	1207.62
429.181	1238.62
429.403	1448.62
429.625	1723.62
429.847	1431.62
430.069	1273.62
430.292	1406.62
430.514	1425.62
430.736	1297.62
430.958	1300.62
431.18	1274.62
431.402	1185.62
431.624	1180.62
431.846	1164.62
432.068	1106.62
432.29	1112.62
432.512	1171.62
432.734	1210.62
432.956	1248.62
433.178	1338.62
433.4	1296.62
433.622	1281.62
433.844	1252.62
434.066	1182.62
434.287	1143.62
434.509	1163.62
434.731	1224.62
434.953	1355.62
435.175	1313.62
435.397	1271.62
435.618	1245.62
435.84	1220.62
436.062	1170.62
436.284	1220.62
436.505	1280.62
436.727	1331.62
436.949	1219.62
437.17	1219.62
437.392	1227.62
437.614	1185.62
437.835	1145.62
438.057	1218.62
438.278	1216.62
438.5	1179.62
438.721	1190.62
438.943	1196.62
439.165	1214.62
439.386	1206.62
439.608	1239.62
439.829	1196.62
440.05	1238.62
440.272	1239.62
440.493	1234.62
440.715	1246.62
440.936	1312.62
441.158	1433.62
441.379	1376.62
441.6	1353.62
441.822	1319.62
442.043	1327.62
442.264	1296.62
442.486	1248.62
442.707	1235.62
442.928	1243.62
443.149	1305.62
443.371	1326.62
443.592	1381.62
443.813	1336.62
444.034	1328.62
444.255	1314.62
444.476	1340.62
444.698	1369.62
444.919	1358.62
445.14	1442.62
445.361	1424.62
445.582	1411.62
445.803	1384.62
446.024	1337.62
446.245	1375.62
446.466	1332.62
446.687	1295.62
446.908	1298.62
447.129	1300.62
447.35	1264.62
447.571	1298.62
447.792	1221.62
448.013	1185.62
448.234	1274.62
448.455	1275.62
448.675	1273.62
448.896	1211.62
449.117	1177.62
449.338	1194.62
449.559	1268.62
449.779	1300.62
450	1409.62
450.221	1410.62
450.442	1350.62
450.662	1257.62
450.883	1146.62
451.104	1134.62
451.324	1157.62
451.545	1167.62
451.766	1160.62
451.986	1115.62
452.207	1127.62
452.428	1047.62
452.648	1078.62
452.869	1110.62
453.089	1097.62
453.31	1114.62
453.53	1112.62
453.751	1095.62
453.971	1059.62
454.192	1072.62
454.412	1134.62
454.633	1097.62
454.853	1074.62
455.073	1053.62
455.294	1033.62
455.514	1039.62
455.734	1037.62
455.955	1063.62
456.175	1077.62
456.395	1055.62
456.616	1097.62
456.836	1084.62
457.056	1057.62
457.276	1040.62
457.497	1052.62
457.717	990.62
457.937	1024.62
458.157	1016.62
458.377	1025.62
458.598	1016.62
458.818	1032.62
459.038	1061.62
459.258	1108.62
459.478	1119.62
459.698	1114.62
459.918	1148.62
460.138	1198.62
460.358	1206.62
460.578	1207.62
460.798	1276.62
461.018	1342.62
461.238	1267.62
461.458	1250.62
461.678	1262.62
461.898	1206.62
462.118	1191.62
462.338	1221.62
462.558	1219.62
462.777	1236.62
462.997	1304.62
463.217	1346.62
463.437	1304.62
463.657	1249.62
463.876	1229.62
464.096	1244.62
464.316	1240.62
464.536	1271.62
464.755	1297.62
464.975	1258.62
465.195	1276.62
465.414	1297.62
465.634	1277.62
465.854	1256.62
466.073	1354.62
466.293	1308.62
466.512	1186.62
466.732	1192.62
466.951	1231.62
467.171	1189.62
467.391	1159.62
467.61	1147.62
467.829	1192.62
468.049	1314.62
468.268	1415.62
468.488	1288.62
468.707	1225.62
468.927	1195.62
469.146	1204.62
469.365	1202.62
469.585	1190.62
469.804	1186.62
470.023	1212.62
470.243	1225.62
470.462	1211.62
470.681	1178.62
470.901	1207.62
471.12	1191.62
471.339	1199.62
471.558	1184.62
471.777	1155.62
471.997	1197.62
472.216	1139.62
472.435	1091.62
472.654	1118.62
472.873	1142.62
473.092	1181.62
473.311	1170.62
473.53	1130.62
473.749	1114.62
473.968	1147.62
474.187	1195.62
474.406	1213.62
474.625	1186.62
474.844	1201.62
475.063	1183.62
475.282	1195.62
475.501	1182.62
475.72	1174.62
475.939	1268.62
476.158	1211.62
476.377	1233.62
476.596	1185.62
476.814	1219.62
477.033	1187.62
477.252	1236.62
477.471	1238.62
477.69	1255.62
477.908	1246.62
478.127	1351.62
478.346	1387.62
478.564	1374.62
478.783	1368.62
479.002	1384.62
479.22	1388.62
479.439	1442.62
479.658	1513.62
479.876	1499.62
480.095	1359.62
480.313	1301.62
480.532	1280.62
480.751	1282.62
480.969	1307.62
481.188	1241.62
481.406	1240.62
481.624	1217.62
481.843	1233.62
482.061	1252.62
482.28	1318.62
482.498	1344.62
482.717	1298.62
482.935	1262.62
483.153	1335.62
483.372	1370.62
483.59	1329.62
483.808	1318.62
484.027	1348.62
484.245	1462.62
484.463	1710.62
484.681	1810.62
484.9	1447.62
485.118	1370.62
485.336	1320.62
485.554	1326.62
485.772	1368.62
485.99	1309.62
486.209	1366.62
486.427	1357.62
486.645	1358.62
486.863	1411.62
487.081	1448.62
487.299	1436.62
487.517	1402.62
487.735	1437.62
487.953	1435.62
488.171	1450.62
488.389	1432.62
488.607	1438.62
488.825	1570.62
489.043	1503.62
489.261	1353.62
489.479	1442.62
489.696	1458.62
489.914	1426.62
490.132	1407.62
490.35	1426.62
490.568	1527.62
490.786	1494.62
491.003	1433.62
491.221	1529.62
491.439	1525.62
491.657	1577.62
491.874	1598.62
492.092	1632.62
492.31	1673.62
492.527	1630.62
492.745	1548.62
492.963	1546.62
493.18	1572.62
493.398	1698.62
493.615	1654.62
493.833	1584.62
494.05	1517.62
