Data from WStandard_LampEnergy10_LIBS07252019.E.O._I.C._HRD10591_15-52-54-927.txt Node
Date: Thu Jul 25 15:52:54 EDT 2019
User: cochatt
Spectrometer: HR+D1059
Trigger mode: 1
Integration Time (sec): 1.000000E-1
Scans to average: 1
Electric dark correction enabled: true
Nonlinearity correction enabled: false
Boxcar width: 0
XAxis mode: Wavelengths
Number of Pixels in Spectrum: 2048
>>>>>Begin Spectral Data<<<<<
223.165	-23.38
223.4	-23.38
223.635	-23.38
223.869	-19.38
224.104	-20.38
224.338	-16.38
224.573	-4.38
224.808	-14.38
225.042	-7.38
225.277	-6.38
225.511	-0.38
225.746	0.62
225.98	14.62
226.215	3.62
226.449	24.62
226.683	17.62
226.918	40.62
227.152	10.62
227.387	34.62
227.621	38.62
227.856	43.62
228.09	47.62
228.324	55.62
228.559	65.62
228.793	60.62
229.027	76.62
229.262	74.62
229.496	88.62
229.73	84.62
229.964	92.62
230.199	94.62
230.433	100.62
230.667	81.62
230.901	95.62
231.136	87.62
231.37	94.62
231.604	104.62
231.838	103.62
232.072	105.62
232.306	99.62
232.541	101.62
232.775	115.62
233.009	101.62
233.243	97.62
233.477	109.62
233.711	113.62
233.945	96.62
234.179	105.62
234.413	108.62
234.647	110.62
234.881	107.62
235.115	100.62
235.349	101.62
235.583	92.62
235.817	107.62
236.051	91.62
236.285	108.62
236.519	103.62
236.753	91.62
236.987	101.62
237.221	101.62
237.455	105.62
237.689	105.62
237.922	103.62
238.156	102.62
238.39	101.62
238.624	117.62
238.858	104.62
239.091	110.62
239.325	117.62
239.559	122.62
239.793	115.62
240.027	133.62
240.26	125.62
240.494	114.62
240.728	100.62
240.961	107.62
241.195	118.62
241.429	109.62
241.662	101.62
241.896	119.62
242.13	102.62
242.363	100.62
242.597	106.62
242.83	107.62
243.064	102.62
243.298	123.62
243.531	115.62
243.765	118.62
243.998	105.62
244.232	108.62
244.465	110.62
244.699	124.62
244.932	115.62
245.166	121.62
245.399	124.62
245.633	111.62
245.866	114.62
246.099	106.62
246.333	115.62
246.566	121.62
246.8	113.62
247.033	126.62
247.266	118.62
247.5	120.62
247.733	129.62
247.966	134.62
248.2	125.62
248.433	125.62
248.666	125.62
248.899	130.62
249.133	143.62
249.366	163.62
249.599	129.62
249.832	143.62
250.066	134.62
250.299	144.62
250.532	127.62
250.765	135.62
250.998	120.62
251.231	130.62
251.465	129.62
251.698	127.62
251.931	122.62
252.164	127.62
252.397	132.62
252.63	127.62
252.863	125.62
253.096	124.62
253.329	125.62
253.562	135.62
253.795	146.62
254.028	133.62
254.261	118.62
254.494	131.62
254.727	138.62
254.96	146.62
255.193	131.62
255.426	140.62
255.659	149.62
255.892	139.62
256.124	136.62
256.357	140.62
256.59	122.62
256.823	141.62
257.056	147.62
257.289	153.62
257.521	151.62
257.754	148.62
257.987	139.62
258.22	139.62
258.452	154.62
258.685	147.62
258.918	135.62
259.151	129.62
259.383	138.62
259.616	122.62
259.849	147.62
260.081	135.62
260.314	136.62
260.547	149.62
260.779	156.62
261.012	157.62
261.244	130.62
261.477	147.62
261.71	135.62
261.942	133.62
262.175	142.62
262.407	141.62
262.64	135.62
262.872	123.62
263.105	123.62
263.337	131.62
263.57	135.62
263.802	112.62
264.035	124.62
264.267	128.62
264.499	129.62
264.732	129.62
264.964	139.62
265.197	153.62
265.429	138.62
265.661	143.62
265.894	164.62
266.126	173.62
266.358	159.62
266.591	146.62
266.823	143.62
267.055	149.62
267.287	145.62
267.52	154.62
267.752	147.62
267.984	153.62
268.216	154.62
268.448	157.62
268.681	152.62
268.913	144.62
269.145	147.62
269.377	141.62
269.609	139.62
269.841	166.62
270.073	173.62
270.306	186.62
270.538	193.62
270.77	173.62
271.002	165.62
271.234	147.62
271.466	155.62
271.698	172.62
271.93	164.62
272.162	186.62
272.394	159.62
272.626	137.62
272.858	154.62
273.09	139.62
273.322	149.62
273.553	142.62
273.785	148.62
274.017	150.62
274.249	154.62
274.481	151.62
274.713	149.62
274.945	150.62
275.176	142.62
275.408	146.62
275.64	132.62
275.872	141.62
276.104	150.62
276.335	167.62
276.567	183.62
276.799	164.62
277.031	172.62
277.262	156.62
277.494	157.62
277.726	182.62
277.957	169.62
278.189	147.62
278.421	142.62
278.652	156.62
278.884	161.62
279.115	131.62
279.347	145.62
279.579	163.62
279.81	133.62
280.042	153.62
280.273	168.62
280.505	152.62
280.736	162.62
280.968	151.62
281.199	149.62
281.431	152.62
281.662	145.62
281.894	147.62
282.125	154.62
282.356	153.62
282.588	131.62
282.819	147.62
283.051	137.62
283.282	157.62
283.513	173.62
283.745	166.62
283.976	147.62
284.207	150.62
284.439	155.62
284.67	157.62
284.901	158.62
285.132	164.62
285.364	169.62
285.595	177.62
285.826	167.62
286.057	149.62
286.288	150.62
286.52	150.62
286.751	151.62
286.982	151.62
287.213	148.62
287.444	161.62
287.675	150.62
287.906	166.62
288.138	166.62
288.369	150.62
288.6	143.62
288.831	152.62
289.062	165.62
289.293	151.62
289.524	162.62
289.755	162.62
289.986	157.62
290.217	141.62
290.448	150.62
290.679	137.62
290.91	167.62
291.141	152.62
291.371	157.62
291.602	156.62
291.833	155.62
292.064	147.62
292.295	153.62
292.526	152.62
292.757	149.62
292.987	162.62
293.218	164.62
293.449	169.62
293.68	187.62
293.91	163.62
294.141	178.62
294.372	163.62
294.603	169.62
294.833	171.62
295.064	157.62
295.295	150.62
295.525	151.62
295.756	154.62
295.987	165.62
296.217	153.62
296.448	149.62
296.679	143.62
296.909	134.62
297.14	161.62
297.37	159.62
297.601	177.62
297.831	162.62
298.062	168.62
298.292	154.62
298.523	153.62
298.753	154.62
298.984	161.62
299.214	163.62
299.445	150.62
299.675	166.62
299.905	170.62
300.136	162.62
300.366	144.62
300.597	170.62
300.827	165.62
301.057	153.62
301.288	159.62
301.518	165.62
301.748	154.62
301.979	172.62
302.209	170.62
302.439	166.62
302.669	179.62
302.9	167.62
303.13	150.62
303.36	191.62
303.59	162.62
303.82	163.62
304.051	157.62
304.281	169.62
304.511	166.62
304.741	167.62
304.971	179.62
305.201	185.62
305.431	155.62
305.661	165.62
305.891	150.62
306.121	166.62
306.352	155.62
306.582	169.62
306.812	161.62
307.042	170.62
307.272	162.62
307.502	165.62
307.731	184.62
307.961	193.62
308.191	178.62
308.421	165.62
308.651	152.62
308.881	161.62
309.111	169.62
309.341	154.62
309.571	156.62
309.8	160.62
310.03	150.62
310.26	166.62
310.49	144.62
310.72	153.62
310.949	168.62
311.179	177.62
311.409	167.62
311.639	167.62
311.868	158.62
312.098	150.62
312.328	157.62
312.557	169.62
312.787	165.62
313.017	171.62
313.246	165.62
313.476	163.62
313.706	172.62
313.935	166.62
314.165	156.62
314.394	162.62
314.624	177.62
314.853	193.62
315.083	184.62
315.312	183.62
315.542	162.62
315.771	181.62
316.001	174.62
316.23	177.62
316.46	183.62
316.689	172.62
316.919	154.62
317.148	149.62
317.377	190.62
317.607	183.62
317.836	187.62
318.065	185.62
318.295	178.62
318.524	181.62
318.753	175.62
318.983	174.62
319.212	157.62
319.441	167.62
319.67	177.62
319.9	178.62
320.129	187.62
320.358	191.62
320.587	186.62
320.816	192.62
321.046	182.62
321.275	181.62
321.504	185.62
321.733	194.62
321.962	177.62
322.191	173.62
322.42	172.62
322.649	166.62
322.878	166.62
323.108	182.62
323.337	165.62
323.566	157.62
323.795	168.62
324.024	155.62
324.253	187.62
324.482	189.62
324.71	172.62
324.939	161.62
325.168	172.62
325.397	169.62
325.626	172.62
325.855	178.62
326.084	163.62
326.313	169.62
326.542	170.62
326.77	169.62
326.999	183.62
327.228	177.62
327.457	169.62
327.686	166.62
327.914	172.62
328.143	171.62
328.372	177.62
328.6	171.62
328.829	181.62
329.058	166.62
329.287	167.62
329.515	166.62
329.744	194.62
329.972	179.62
330.201	181.62
330.43	173.62
330.658	172.62
330.887	184.62
331.115	191.62
331.344	178.62
331.572	187.62
331.801	169.62
332.03	164.62
332.258	185.62
332.486	191.62
332.715	179.62
332.943	190.62
333.172	169.62
333.4	198.62
333.629	175.62
333.857	181.62
334.085	193.62
334.314	212.62
334.542	222.62
334.771	211.62
334.999	181.62
335.227	172.62
335.455	196.62
335.684	189.62
335.912	170.62
336.14	186.62
336.369	187.62
336.597	190.62
336.825	160.62
337.053	185.62
337.281	165.62
337.51	196.62
337.738	188.62
337.966	193.62
338.194	183.62
338.422	171.62
338.65	157.62
338.878	170.62
339.106	173.62
339.334	195.62
339.562	181.62
339.79	171.62
340.018	195.62
340.246	200.62
340.474	167.62
340.702	193.62
340.93	179.62
341.158	177.62
341.386	181.62
341.614	179.62
341.842	185.62
342.07	168.62
342.298	175.62
342.526	181.62
342.754	167.62
342.981	198.62
343.209	165.62
343.437	172.62
343.665	192.62
343.893	183.62
344.12	194.62
344.348	184.62
344.576	191.62
344.804	179.62
345.031	188.62
345.259	174.62
345.487	180.62
345.714	175.62
345.942	167.62
346.17	179.62
346.397	179.62
346.625	169.62
346.853	163.62
347.08	165.62
347.308	171.62
347.535	174.62
347.763	171.62
347.99	175.62
348.218	167.62
348.445	172.62
348.673	169.62
348.9	194.62
349.128	183.62
349.355	190.62
349.583	164.62
349.81	171.62
350.037	167.62
350.265	166.62
350.492	179.62
350.72	190.62
350.947	174.62
351.174	195.62
351.402	179.62
351.629	173.62
351.856	179.62
352.083	173.62
352.311	172.62
352.538	163.62
352.765	173.62
352.992	174.62
353.22	154.62
353.447	169.62
353.674	181.62
353.901	162.62
354.128	170.62
354.355	162.62
354.583	185.62
354.81	172.62
355.037	182.62
355.264	189.62
355.491	186.62
355.718	183.62
355.945	177.62
356.172	170.62
356.399	182.62
356.626	185.62
356.853	194.62
357.08	186.62
357.307	203.62
357.534	187.62
357.761	176.62
357.988	165.62
358.215	172.62
358.441	174.62
358.668	168.62
358.895	166.62
359.122	198.62
359.349	201.62
359.576	177.62
359.802	189.62
360.029	184.62
360.256	185.62
360.483	195.62
360.709	181.62
360.936	183.62
361.163	202.62
361.39	204.62
361.616	210.62
361.843	205.62
362.07	196.62
362.296	180.62
362.523	182.62
362.749	193.62
362.976	179.62
363.203	186.62
363.429	166.62
363.656	175.62
363.882	169.62
364.109	188.62
364.335	197.62
364.562	193.62
364.788	188.62
365.015	174.62
365.241	179.62
365.468	185.62
365.694	202.62
365.92	194.62
366.147	186.62
366.373	172.62
366.599	199.62
366.826	179.62
367.052	181.62
367.278	182.62
367.505	183.62
367.731	205.62
367.957	204.62
368.184	215.62
368.41	203.62
368.636	215.62
368.862	226.62
369.089	231.62
369.315	209.62
369.541	198.62
369.767	209.62
369.993	199.62
370.219	202.62
370.445	229.62
370.672	222.62
370.898	225.62
371.124	224.62
371.35	225.62
371.576	223.62
371.802	231.62
372.028	226.62
372.254	219.62
372.48	212.62
372.706	215.62
372.932	229.62
373.158	214.62
373.384	233.62
373.61	227.62
373.835	229.62
374.061	236.62
374.287	242.62
374.513	233.62
374.739	230.62
374.965	237.62
375.191	241.62
375.416	247.62
375.642	243.62
375.868	262.62
376.094	242.62
376.319	271.62
376.545	239.62
376.771	257.62
376.997	261.62
377.222	250.62
377.448	246.62
377.674	241.62
377.899	241.62
378.125	248.62
378.35	254.62
378.576	244.62
378.802	242.62
379.027	231.62
379.253	246.62
379.478	260.62
379.704	268.62
379.929	261.62
380.155	255.62
380.38	265.62
380.606	245.62
380.831	268.62
381.057	278.62
381.282	275.62
381.507	273.62
381.733	282.62
381.958	297.62
382.184	258.62
382.409	278.62
382.634	281.62
382.86	271.62
383.085	267.62
383.31	283.62
383.535	285.62
383.761	291.62
383.986	298.62
384.211	267.62
384.436	292.62
384.662	278.62
384.887	282.62
385.112	271.62
385.337	286.62
385.562	285.62
385.787	297.62
386.013	307.62
386.238	310.62
386.463	299.62
386.688	308.62
386.913	317.62
387.138	309.62
387.363	301.62
387.588	302.62
387.813	310.62
388.038	313.62
388.263	338.62
388.488	290.62
388.713	286.62
388.938	298.62
389.163	297.62
389.387	317.62
389.612	285.62
389.837	317.62
390.062	313.62
390.287	316.62
390.512	300.62
390.736	328.62
390.961	321.62
391.186	314.62
391.411	314.62
391.636	315.62
391.86	324.62
392.085	320.62
392.31	323.62
392.534	319.62
392.759	315.62
392.984	315.62
393.208	340.62
393.433	345.62
393.658	342.62
393.882	333.62
394.107	335.62
394.331	346.62
394.556	328.62
394.78	338.62
395.005	339.62
395.229	371.62
395.454	356.62
395.678	375.62
395.903	344.62
396.127	354.62
396.352	358.62
396.576	369.62
396.801	377.62
397.025	361.62
397.249	352.62
397.474	353.62
397.698	343.62
397.922	370.62
398.147	362.62
398.371	380.62
398.595	391.62
398.82	397.62
399.044	385.62
399.268	402.62
399.492	409.62
399.717	389.62
399.941	405.62
400.165	385.62
400.389	392.62
400.613	384.62
400.837	426.62
401.062	458.62
401.286	420.62
401.51	395.62
401.734	406.62
401.958	415.62
402.182	387.62
402.406	378.62
402.63	391.62
402.854	394.62
403.078	411.62
403.302	392.62
403.526	398.62
403.75	403.62
403.974	400.62
404.198	423.62
404.422	441.62
404.645	446.62
404.869	425.62
405.093	417.62
405.317	414.62
405.541	444.62
405.765	423.62
405.988	431.62
406.212	430.62
406.436	424.62
406.66	435.62
406.883	457.62
407.107	475.62
407.331	509.62
407.555	504.62
407.778	471.62
408.002	451.62
408.226	453.62
408.449	421.62
408.673	421.62
408.896	448.62
409.12	436.62
409.344	452.62
409.567	437.62
409.791	440.62
410.014	454.62
410.238	458.62
410.461	467.62
410.685	460.62
410.908	447.62
411.132	457.62
411.355	463.62
411.578	462.62
411.802	439.62
412.025	451.62
412.249	438.62
412.472	466.62
412.695	449.62
412.919	436.62
413.142	452.62
413.365	446.62
413.589	461.62
413.812	458.62
414.035	468.62
414.258	482.62
414.482	473.62
414.705	451.62
414.928	446.62
415.151	458.62
415.374	451.62
415.597	439.62
415.821	458.62
416.044	468.62
416.267	460.62
416.49	463.62
416.713	481.62
416.936	479.62
417.159	479.62
417.382	479.62
417.605	470.62
417.828	474.62
418.051	491.62
418.274	483.62
418.497	478.62
418.72	487.62
418.943	471.62
419.166	515.62
419.389	520.62
419.611	508.62
419.834	495.62
420.057	515.62
420.28	485.62
420.503	499.62
420.726	489.62
420.948	486.62
421.171	481.62
421.394	486.62
421.617	539.62
421.839	552.62
422.062	542.62
422.285	499.62
422.507	476.62
422.73	467.62
422.953	453.62
423.175	442.62
423.398	466.62
423.621	457.62
423.843	502.62
424.066	548.62
424.288	567.62
424.511	554.62
424.733	586.62
424.956	509.62
425.178	528.62
425.401	498.62
425.623	513.62
425.846	501.62
426.068	522.62
426.291	489.62
426.513	478.62
426.735	508.62
426.958	517.62
427.18	529.62
427.402	534.62
427.625	501.62
427.847	503.62
428.069	478.62
428.292	481.62
428.514	468.62
428.736	489.62
428.958	492.62
429.181	497.62
429.403	504.62
429.625	550.62
429.847	516.62
430.069	505.62
430.292	527.62
430.514	490.62
430.736	483.62
430.958	522.62
431.18	463.62
431.402	454.62
431.624	417.62
431.846	339.62
432.068	283.62
432.29	292.62
432.512	338.62
432.734	426.62
432.956	464.62
433.178	515.62
433.4	531.62
433.622	532.62
433.844	491.62
434.066	426.62
434.287	332.62
434.509	272.62
434.731	312.62
434.953	362.62
435.175	413.62
435.397	455.62
435.618	401.62
435.84	357.62
436.062	390.62
436.284	453.62
436.505	448.62
436.727	483.62
436.949	490.62
437.17	465.62
437.392	471.62
437.614	423.62
437.835	378.62
438.057	348.62
438.278	379.62
438.5	427.62
438.721	492.62
438.943	536.62
439.165	531.62
439.386	543.62
439.608	583.62
439.829	555.62
440.05	564.62
440.272	554.62
440.493	559.62
440.715	580.62
440.936	592.62
441.158	580.62
441.379	575.62
441.6	637.62
441.822	607.62
442.043	589.62
442.264	563.62
442.486	575.62
442.707	553.62
442.928	542.62
443.149	553.62
443.371	545.62
443.592	578.62
443.813	592.62
444.034	539.62
444.255	549.62
444.476	568.62
444.698	570.62
444.919	573.62
445.14	700.62
445.361	630.62
445.582	620.62
445.803	587.62
446.024	589.62
446.245	631.62
446.466	633.62
446.687	631.62
446.908	673.62
447.129	645.62
447.35	643.62
447.571	622.62
447.792	586.62
448.013	550.62
448.234	548.62
448.455	573.62
448.675	555.62
448.896	553.62
449.117	520.62
449.338	522.62
449.559	527.62
449.779	565.62
450	530.62
450.221	562.62
450.442	525.62
450.662	523.62
450.883	484.62
451.104	507.62
451.324	484.62
451.545	469.62
451.766	470.62
451.986	467.62
452.207	462.62
452.428	426.62
452.648	421.62
452.869	407.62
453.089	379.62
453.31	342.62
453.53	325.62
453.751	282.62
453.971	292.62
454.192	312.62
454.412	327.62
454.633	376.62
454.853	385.62
455.073	389.62
455.294	417.62
455.514	403.62
455.734	386.62
455.955	391.62
456.175	362.62
456.395	323.62
456.616	338.62
456.836	324.62
457.056	337.62
457.276	317.62
457.497	317.62
457.717	321.62
457.937	284.62
458.157	328.62
458.377	302.62
458.598	267.62
458.818	248.62
459.038	209.62
459.258	226.62
459.478	235.62
459.698	238.62
459.918	252.62
460.138	307.62
460.358	325.62
460.578	365.62
460.798	376.62
461.018	367.62
461.238	376.62
461.458	355.62
461.678	346.62
461.898	356.62
462.118	365.62
462.338	358.62
462.558	367.62
462.777	348.62
462.997	346.62
463.217	321.62
463.437	345.62
463.657	321.62
463.876	318.62
464.096	330.62
464.316	351.62
464.536	349.62
464.755	381.62
464.975	387.62
465.195	387.62
465.414	380.62
465.634	366.62
465.854	380.62
466.073	449.62
466.293	418.62
466.512	436.62
466.732	433.62
466.951	476.62
467.171	489.62
467.391	484.62
467.61	458.62
467.829	485.62
468.049	501.62
468.268	516.62
468.488	491.62
468.707	473.62
468.927	490.62
469.146	491.62
469.365	502.62
469.585	520.62
469.804	523.62
470.023	543.62
470.243	525.62
470.462	545.62
470.681	524.62
470.901	511.62
471.12	537.62
471.339	523.62
471.558	517.62
471.777	528.62
471.997	460.62
472.216	445.62
472.435	369.62
472.654	317.62
472.873	336.62
473.092	363.62
473.311	389.62
473.53	421.62
473.749	420.62
473.968	418.62
474.187	377.62
474.406	386.62
474.625	409.62
474.844	443.62
475.063	437.62
475.282	421.62
475.501	391.62
475.72	398.62
475.939	433.62
476.158	431.62
476.377	415.62
476.596	421.62
476.814	381.62
477.033	328.62
477.252	356.62
477.471	428.62
477.69	468.62
477.908	491.62
478.127	511.62
478.346	505.62
478.564	485.62
478.783	509.62
479.002	497.62
479.22	503.62
479.439	482.62
479.658	434.62
479.876	404.62
480.095	363.62
480.313	355.62
480.532	393.62
480.751	330.62
480.969	271.62
481.188	272.62
481.406	236.62
481.624	255.62
481.843	237.62
482.061	286.62
482.28	336.62
482.498	370.62
482.717	327.62
482.935	409.62
483.153	494.62
483.372	579.62
483.59	542.62
483.808	477.62
484.027	438.62
484.245	427.62
484.463	527.62
484.681	559.62
484.9	478.62
485.118	477.62
485.336	404.62
485.554	350.62
485.772	300.62
485.99	316.62
486.209	335.62
486.427	335.62
486.645	391.62
486.863	498.62
487.081	511.62
487.299	453.62
487.517	492.62
487.735	620.62
487.953	737.62
488.171	745.62
488.389	652.62
488.607	615.62
488.825	557.62
489.043	453.62
489.261	455.62
489.479	477.62
489.696	529.62
489.914	525.62
490.132	535.62
490.35	598.62
490.568	659.62
490.786	685.62
491.003	742.62
491.221	780.62
491.439	811.62
491.657	865.62
491.874	916.62
492.092	979.62
492.31	1107.62
492.527	1042.62
492.745	957.62
492.963	871.62
493.18	850.62
493.398	817.62
493.615	814.62
493.833	789.62
494.05	762.62
494.268	725.62
494.485	738.62
494.703	755.62
494.92	771.62
495.138	751.62
495.355	745.62
495.573	771.62
495.79	780.62
496.008	739.62
496.225	714.62
496.442	711.62
496.66	718.62
496.877	698.62
497.094	673.62
497.312	669.62
497.529	648.62
497.746	605.62
497.963	550.62
498.181	510.62
498.398	497.62
498.615	457.62
498.832	405.62
499.049	440.62
499.267	443.62
499.484	478.62
499.701	530.62
499.918	547.62
500.135	613.62
500.352	641.62
500.569	639.62
500.786	679.62
501.003	635.62
501.22	588.62
501.437	598.62
501.654	597.62
501.871	563.62
502.088	496.62
502.305	503.62
