Data from WStandard_LampEnergy5.5LIBS07252019.E.O._I.C._HRD10591_16-09-16-920.txt Node
Date: Thu Jul 25 16:09:16 EDT 2019
User: cochatt
Spectrometer: HR+D1059
Trigger mode: 1
Integration Time (sec): 1.000000E-1
Scans to average: 1
Electric dark correction enabled: true
Nonlinearity correction enabled: false
Boxcar width: 0
XAxis mode: Wavelengths
Number of Pixels in Spectrum: 2048
>>>>>Begin Spectral Data<<<<<
223.165	-9.81
223.4	-9.81
223.635	-9.81
223.869	0.19
224.104	-17.81
224.338	-23.81
224.573	-17.81
224.808	-30.81
225.042	0.19
225.277	-16.81
225.511	13.19
225.746	12.19
225.98	10.19
226.215	15.19
226.449	10.19
226.683	20.19
226.918	23.19
227.152	12.19
227.387	37.19
227.621	28.19
227.856	30.19
228.09	50.19
228.324	42.19
228.559	60.19
228.793	143.19
229.027	341.19
229.262	374.19
229.496	363.19
229.73	404.19
229.964	427.19
230.199	428.19
230.433	467.19
230.667	474.19
230.901	498.19
231.136	466.19
231.37	444.19
231.604	444.19
231.838	436.19
232.072	446.19
232.306	417.19
232.541	461.19
232.775	522.19
233.009	581.19
233.243	562.19
233.477	514.19
233.711	532.19
233.945	531.19
234.179	526.19
234.413	554.19
234.647	618.19
234.881	569.19
235.115	518.19
235.349	551.19
235.583	516.19
235.817	553.19
236.051	512.19
236.285	530.19
236.519	566.19
236.753	634.19
236.987	667.19
237.221	627.19
237.455	743.19
237.689	694.19
237.922	642.19
238.156	614.19
238.39	648.19
238.624	674.19
238.858	719.19
239.091	723.19
239.325	752.19
239.559	888.19
239.793	903.19
240.027	1015.19
240.26	988.19
240.494	741.19
240.728	692.19
240.961	708.19
241.195	708.19
241.429	754.19
241.662	770.19
241.896	715.19
242.13	720.19
242.363	814.19
242.597	866.19
242.83	851.19
243.064	835.19
243.298	907.19
243.531	870.19
243.765	873.19
243.998	894.19
244.232	750.19
244.465	761.19
244.699	746.19
244.932	851.19
245.166	968.19
245.399	954.19
245.633	866.19
245.866	854.19
246.099	887.19
246.333	907.19
246.566	930.19
246.8	992.19
247.033	1098.19
247.266	1046.19
247.5	969.19
247.733	988.19
247.966	1045.19
248.2	1173.19
248.433	1098.19
248.666	1175.19
248.899	1245.19
249.133	1468.19
249.366	1652.19
249.599	1369.19
249.832	1166.19
250.066	1211.19
250.299	1219.19
250.532	1171.19
250.765	1048.19
250.998	1102.19
251.231	1171.19
251.465	1186.19
251.698	1122.19
251.931	1088.19
252.164	1143.19
252.397	1234.19
252.63	1172.19
252.863	1062.19
253.096	1025.19
253.329	1096.19
253.562	1116.19
253.795	1206.19
254.028	1176.19
254.261	1147.19
254.494	1111.19
254.727	1064.19
254.96	1077.19
255.193	1170.19
255.426	1318.19
255.659	1549.19
255.892	1605.19
256.124	1316.19
256.357	1263.19
256.59	1321.19
256.823	1363.19
257.056	1297.19
257.289	1602.19
257.521	1798.19
257.754	1613.19
257.987	1504.19
258.22	1674.19
258.452	1648.19
258.685	1350.19
258.918	1326.19
259.151	1308.19
259.383	1260.19
259.616	1108.19
259.849	1158.19
260.081	1326.19
260.314	1440.19
260.547	1620.19
260.779	1634.19
261.012	1521.19
261.244	1371.19
261.477	1310.19
261.71	1353.19
261.942	1355.19
262.175	1278.19
262.407	1404.19
262.64	1263.19
262.872	1227.19
263.105	1163.19
263.337	1212.19
263.57	1208.19
263.802	1236.19
264.035	1146.19
264.267	1108.19
264.499	1074.19
264.732	1182.19
264.964	1246.19
265.197	1273.19
265.429	1315.19
265.661	1486.19
265.894	1627.19
266.126	1715.19
266.358	1493.19
266.591	1577.19
266.823	1669.19
267.055	1567.19
267.287	1520.19
267.52	1528.19
267.752	1474.19
267.984	1477.19
268.216	1512.19
268.448	1575.19
268.681	1591.19
268.913	1447.19
269.145	1365.19
269.377	1312.19
269.609	1416.19
269.841	1630.19
270.073	1936.19
270.306	2147.19
270.538	2311.19
270.77	1947.19
271.002	1649.19
271.234	1599.19
271.466	1560.19
271.698	1690.19
271.93	2090.19
272.162	2089.19
272.394	1860.19
272.626	1820.19
272.858	1598.19
273.09	1376.19
273.322	1347.19
273.553	1298.19
273.785	1338.19
274.017	1380.19
274.249	1494.19
274.481	1499.19
274.713	1358.19
274.945	1360.19
275.176	1362.19
275.408	1304.19
275.64	1330.19
275.872	1320.19
276.104	1371.19
276.335	1567.19
276.567	1772.19
276.799	1795.19
277.031	1619.19
277.262	1492.19
277.494	1582.19
277.726	1738.19
277.957	1754.19
278.189	1550.19
278.421	1472.19
278.652	1433.19
278.884	1393.19
279.115	1406.19
279.347	1469.19
279.579	1405.19
279.81	1412.19
280.042	1520.19
280.273	1677.19
280.505	1668.19
280.736	1707.19
280.968	1626.19
281.199	1446.19
281.431	1364.19
281.662	1395.19
281.894	1412.19
282.125	1432.19
282.356	1497.19
282.588	1518.19
282.819	1484.19
283.051	1575.19
283.282	1684.19
283.513	1668.19
283.745	1435.19
283.976	1387.19
284.207	1378.19
284.439	1418.19
284.67	1401.19
284.901	1480.19
285.132	1500.19
285.364	1479.19
285.595	1478.19
285.826	1451.19
286.057	1438.19
286.288	1414.19
286.52	1433.19
286.751	1612.19
286.982	1632.19
287.213	1508.19
287.444	1409.19
287.675	1381.19
287.906	1480.19
288.138	1571.19
288.369	1556.19
288.6	1457.19
288.831	1360.19
289.062	1450.19
289.293	1482.19
289.524	1432.19
289.755	1534.19
289.986	1504.19
290.217	1362.19
290.448	1432.19
290.679	1468.19
290.91	1480.19
291.141	1530.19
291.371	1562.19
291.602	1528.19
291.833	1512.19
292.064	1544.19
292.295	1558.19
292.526	1545.19
292.757	1664.19
292.987	1574.19
293.218	1482.19
293.449	1540.19
293.68	1785.19
293.91	1966.19
294.141	1776.19
294.372	1684.19
294.603	1739.19
294.833	1851.19
295.064	1752.19
295.295	1569.19
295.525	1501.19
295.756	1457.19
295.987	1384.19
296.217	1406.19
296.448	1426.19
296.679	1447.19
296.909	1448.19
297.14	1406.19
297.37	1423.19
297.601	1542.19
297.831	1645.19
298.062	1653.19
298.292	1540.19
298.523	1460.19
298.753	1496.19
298.984	1466.19
299.214	1440.19
299.445	1539.19
299.675	1547.19
299.905	1549.19
300.136	1530.19
300.366	1503.19
300.597	1432.19
300.827	1442.19
301.057	1505.19
301.288	1573.19
301.518	1532.19
301.748	1578.19
301.979	1639.19
302.209	1699.19
302.439	1782.19
302.669	1867.19
302.9	1760.19
303.13	1576.19
303.36	1583.19
303.59	1594.19
303.82	1560.19
304.051	1550.19
304.281	1566.19
304.511	1565.19
304.741	1632.19
304.971	1794.19
305.201	1986.19
305.431	1838.19
305.661	1542.19
305.891	1414.19
306.121	1350.19
306.352	1448.19
306.582	1537.19
306.812	1640.19
307.042	1733.19
307.272	1731.19
307.502	1756.19
307.731	1886.19
307.961	2034.19
308.191	1906.19
308.421	1627.19
308.651	1538.19
308.881	1510.19
309.111	1520.19
309.341	1498.19
309.571	1504.19
309.8	1514.19
310.03	1496.19
310.26	1499.19
310.49	1475.19
310.72	1548.19
310.949	1607.19
311.179	1630.19
311.409	1622.19
311.639	1537.19
311.868	1543.19
312.098	1552.19
312.328	1528.19
312.557	1484.19
312.787	1576.19
313.017	1620.19
313.246	1576.19
313.476	1574.19
313.706	1603.19
313.935	1590.19
314.165	1610.19
314.394	1673.19
314.624	1751.19
314.853	1850.19
315.083	1902.19
315.312	1952.19
315.542	1828.19
315.771	1612.19
316.001	1604.19
316.23	1737.19
316.46	1731.19
316.689	1726.19
316.919	1612.19
317.148	1544.19
317.377	1551.19
317.607	1650.19
317.836	1884.19
318.065	1948.19
318.295	1859.19
318.524	1789.19
318.753	1727.19
318.983	1713.19
319.212	1695.19
319.441	1611.19
319.67	1635.19
319.9	1700.19
320.129	1755.19
320.358	1772.19
320.587	1819.19
320.816	1865.19
321.046	1849.19
321.275	1712.19
321.504	1722.19
321.733	1842.19
321.962	1847.19
322.191	1663.19
322.42	1647.19
322.649	1600.19
322.878	1668.19
323.108	1660.19
323.337	1717.19
323.566	1731.19
323.795	1715.19
324.024	1710.19
324.253	1680.19
324.482	1690.19
324.71	1664.19
324.939	1587.19
325.168	1577.19
325.397	1650.19
325.626	1700.19
325.855	1712.19
326.084	1645.19
326.313	1641.19
326.542	1656.19
326.77	1711.19
326.999	1752.19
327.228	1650.19
327.457	1618.19
327.686	1522.19
327.914	1622.19
328.143	1649.19
328.372	1646.19
328.6	1660.19
328.829	1608.19
329.058	1680.19
329.287	1599.19
329.515	1658.19
329.744	1673.19
329.972	1784.19
330.201	1815.19
330.43	1855.19
330.658	1774.19
330.887	1768.19
331.115	1740.19
331.344	1799.19
331.572	1725.19
331.801	1704.19
332.03	1740.19
332.258	1776.19
332.486	1774.19
332.715	1822.19
332.943	1802.19
333.172	1778.19
333.4	1775.19
333.629	1871.19
333.857	1917.19
334.085	2066.19
334.314	2339.19
334.542	2604.19
334.771	2336.19
334.999	2084.19
335.227	1976.19
335.455	1890.19
335.684	1862.19
335.912	1912.19
336.14	1963.19
336.369	1899.19
336.597	1809.19
336.825	1754.19
337.053	1829.19
337.281	1898.19
337.51	1969.19
337.738	2086.19
337.966	1982.19
338.194	1812.19
338.422	1723.19
338.65	1754.19
338.878	1804.19
339.106	1726.19
339.334	1722.19
339.562	1625.19
339.79	1701.19
340.018	1776.19
340.246	1863.19
340.474	1840.19
340.702	1803.19
340.93	1831.19
341.158	1838.19
341.386	1786.19
341.614	1764.19
341.842	1736.19
342.07	1744.19
342.298	1740.19
342.526	1713.19
342.754	1682.19
342.981	1712.19
343.209	1682.19
343.437	1694.19
343.665	1747.19
343.893	1766.19
344.12	1860.19
344.348	1878.19
344.576	1811.19
344.804	1756.19
345.031	1715.19
345.259	1744.19
345.487	1713.19
345.714	1631.19
345.942	1591.19
346.17	1621.19
346.397	1655.19
346.625	1651.19
346.853	1554.19
347.08	1552.19
347.308	1544.19
347.535	1578.19
347.763	1648.19
347.99	1654.19
348.218	1583.19
348.445	1619.19
348.673	1618.19
348.9	1655.19
349.128	1696.19
349.355	1737.19
349.583	1701.19
349.81	1625.19
350.037	1567.19
350.265	1508.19
350.492	1544.19
350.72	1562.19
350.947	1580.19
351.174	1671.19
351.402	1583.19
351.629	1512.19
351.856	1478.19
352.083	1500.19
352.311	1514.19
352.538	1536.19
352.765	1617.19
352.992	1625.19
353.22	1572.19
353.447	1534.19
353.674	1566.19
353.901	1634.19
354.128	1574.19
354.355	1542.19
354.583	1634.19
354.81	1650.19
355.037	1656.19
355.264	1657.19
355.491	1629.19
355.718	1588.19
355.945	1582.19
356.172	1574.19
356.399	1548.19
356.626	1561.19
356.853	1600.19
357.08	1726.19
357.307	1910.19
357.534	1904.19
357.761	1680.19
357.988	1568.19
358.215	1492.19
358.441	1523.19
358.668	1533.19
358.895	1524.19
359.122	1580.19
359.349	1782.19
359.576	1778.19
359.802	1603.19
360.029	1515.19
360.256	1536.19
360.483	1540.19
360.709	1580.19
360.936	1665.19
361.163	1670.19
361.39	1824.19
361.616	2007.19
361.843	1928.19
362.07	1868.19
362.296	1618.19
362.523	1586.19
362.749	1571.19
362.976	1624.19
363.203	1621.19
363.429	1607.19
363.656	1527.19
363.882	1583.19
364.109	1751.19
364.335	1890.19
364.562	1710.19
364.788	1662.19
365.015	1622.19
365.241	1552.19
365.468	1612.19
365.694	1675.19
365.92	1737.19
366.147	1644.19
366.373	1573.19
366.599	1527.19
366.826	1527.19
367.052	1545.19
367.278	1570.19
367.505	1606.19
367.731	1626.19
367.957	1623.19
368.184	1635.19
368.41	1743.19
368.636	1766.19
368.862	1794.19
369.089	1800.19
369.315	1731.19
369.541	1664.19
369.767	1655.19
369.993	1602.19
370.219	1570.19
370.445	1641.19
370.672	1721.19
370.898	1751.19
371.124	1793.19
371.35	1678.19
371.576	1703.19
371.802	1779.19
372.028	1703.19
372.254	1643.19
372.48	1574.19
372.706	1610.19
372.932	1642.19
373.158	1641.19
373.384	1657.19
373.61	1693.19
373.835	1799.19
374.061	1699.19
374.287	1636.19
374.513	1666.19
374.739	1738.19
374.965	1670.19
375.191	1728.19
375.416	1730.19
375.642	1738.19
375.868	1802.19
376.094	1856.19
376.319	1792.19
376.545	1666.19
376.771	1685.19
376.997	1790.19
377.222	1756.19
377.448	1694.19
377.674	1718.19
377.899	1727.19
378.125	1830.19
378.35	1857.19
378.576	1683.19
378.802	1598.19
379.027	1592.19
379.253	1671.19
379.478	1673.19
379.704	1644.19
379.929	1676.19
380.155	1662.19
380.38	1685.19
380.606	1652.19
380.831	1694.19
381.057	1785.19
381.282	1812.19
381.507	1734.19
381.733	1831.19
381.958	1934.19
382.184	1785.19
382.409	1737.19
382.634	1761.19
382.86	1773.19
383.085	1763.19
383.31	1784.19
383.535	1942.19
383.761	2039.19
383.986	1943.19
384.211	1882.19
384.436	1852.19
384.662	1945.19
384.887	2019.19
385.112	1895.19
385.337	1974.19
385.562	1914.19
385.787	1901.19
386.013	1972.19
386.238	1974.19
386.463	1960.19
386.688	2050.19
386.913	2201.19
387.138	2124.19
387.363	1998.19
387.588	1951.19
387.813	1956.19
388.038	1984.19
388.263	2034.19
388.488	1996.19
388.713	1831.19
388.938	1833.19
389.163	1844.19
389.387	1851.19
389.612	1882.19
389.837	1905.19
390.062	1940.19
390.287	1934.19
390.512	1950.19
390.736	1895.19
390.961	1862.19
391.186	1814.19
391.411	1850.19
391.636	1853.19
391.86	1948.19
392.085	1876.19
392.31	1892.19
392.534	1909.19
392.759	1944.19
392.984	1887.19
393.208	1955.19
393.433	1941.19
393.658	2063.19
393.882	2090.19
394.107	1947.19
394.331	1910.19
394.556	1930.19
394.78	1961.19
395.005	1950.19
395.229	2032.19
395.454	2160.19
395.678	2202.19
395.903	2096.19
396.127	2050.19
396.352	2046.19
396.576	2092.19
396.801	2064.19
397.025	2086.19
397.249	2079.19
397.474	2083.19
397.698	2055.19
397.922	2156.19
398.147	2187.19
398.371	2289.19
398.595	2300.19
398.82	2216.19
399.044	2180.19
399.268	2307.19
399.492	2475.19
399.717	2555.19
399.941	2606.19
400.165	2509.19
400.389	2426.19
400.613	2399.19
400.837	2644.19
401.062	3071.19
401.286	2647.19
401.51	2368.19
401.734	2490.19
401.958	2443.19
402.182	2253.19
402.406	2166.19
402.63	2162.19
402.854	2151.19
403.078	2232.19
403.302	2258.19
403.526	2328.19
403.75	2275.19
403.974	2266.19
404.198	2280.19
404.422	2304.19
404.645	2453.19
404.869	2405.19
405.093	2257.19
405.317	2262.19
405.541	2297.19
405.765	2283.19
405.988	2259.19
406.212	2323.19
406.436	2388.19
406.66	2427.19
406.883	2447.19
407.107	2767.19
407.331	2914.19
407.555	3158.19
407.778	2986.19
408.002	2511.19
408.226	2384.19
408.449	2421.19
408.673	2337.19
408.896	2398.19
409.12	2412.19
409.344	2277.19
409.567	2246.19
409.791	2275.19
410.014	2290.19
410.238	2444.19
410.461	2593.19
410.685	2357.19
410.908	2210.19
411.132	2264.19
411.355	2221.19
411.578	2215.19
411.802	2217.19
412.025	2257.19
412.249	2258.19
412.472	2190.19
412.695	2180.19
412.919	2170.19
413.142	2163.19
413.365	2182.19
413.589	2251.19
413.812	2356.19
414.035	2419.19
414.258	2224.19
414.482	2182.19
414.705	2204.19
414.928	2179.19
415.151	2120.19
415.374	2207.19
415.597	2219.19
415.821	2229.19
416.044	2286.19
416.267	2326.19
416.49	2145.19
416.713	2102.19
416.936	2109.19
417.159	2218.19
417.382	2251.19
417.605	2159.19
417.828	2182.19
418.051	2241.19
418.274	2176.19
418.497	2084.19
418.72	2089.19
418.943	2107.19
419.166	2273.19
419.389	2283.19
419.611	2226.19
419.834	2171.19
420.057	2217.19
420.28	2094.19
420.503	2070.19
420.726	2092.19
420.948	2160.19
421.171	2083.19
421.394	2130.19
421.617	2154.19
421.839	2164.19
422.062	2119.19
422.285	2056.19
422.507	2098.19
422.73	2034.19
422.953	2009.19
423.175	1996.19
423.398	2089.19
423.621	2082.19
423.843	2116.19
424.066	2101.19
424.288	2175.19
424.511	2267.19
424.733	2243.19
424.956	2015.19
425.178	2000.19
425.401	2013.19
425.623	2033.19
425.846	2008.19
426.068	2119.19
426.291	2160.19
426.513	2142.19
426.735	2139.19
426.958	2226.19
427.18	2399.19
427.402	2180.19
427.625	2217.19
427.847	2301.19
428.069	2119.19
428.292	2049.19
428.514	2021.19
428.736	2025.19
428.958	2071.19
429.181	2090.19
429.403	2275.19
429.625	2825.19
429.847	2505.19
430.069	2092.19
430.292	2316.19
430.514	2315.19
430.736	2187.19
430.958	2267.19
431.18	2188.19
431.402	2051.19
431.624	2018.19
431.846	2008.19
432.068	1998.19
432.29	2038.19
432.512	2063.19
432.734	2102.19
432.956	2108.19
433.178	2153.19
433.4	2148.19
433.622	2106.19
433.844	2082.19
434.066	2036.19
434.287	2006.19
434.509	2098.19
434.731	2202.19
434.953	2331.19
435.175	2272.19
435.397	2165.19
435.618	2125.19
435.84	2130.19
436.062	2055.19
436.284	2146.19
436.505	2128.19
436.727	2140.19
436.949	2097.19
437.17	2104.19
437.392	2054.19
437.614	2102.19
437.835	2025.19
438.057	2128.19
438.278	2232.19
438.5	2089.19
438.721	2001.19
438.943	2049.19
439.165	1986.19
439.386	1973.19
439.608	1980.19
439.829	2028.19
440.05	1984.19
440.272	1973.19
440.493	1948.19
440.715	2006.19
440.936	2134.19
441.158	2390.19
441.379	2284.19
441.6	2192.19
441.822	2148.19
442.043	2159.19
442.264	2159.19
442.486	2008.19
442.707	1970.19
442.928	2003.19
443.149	2086.19
443.371	2194.19
443.592	2272.19
443.813	2214.19
444.034	2220.19
444.255	2170.19
444.476	2334.19
444.698	2294.19
444.919	2315.19
445.14	2372.19
445.361	2334.19
445.582	2421.19
445.803	2256.19
446.024	2224.19
446.245	2313.19
446.466	2214.19
446.687	2134.19
446.908	2098.19
447.129	2020.19
447.35	2047.19
447.571	2110.19
447.792	1974.19
448.013	1982.19
448.234	2040.19
448.455	2102.19
448.675	2078.19
448.896	1953.19
449.117	1948.19
449.338	1992.19
449.559	1988.19
449.779	2168.19
450	2382.19
450.221	2545.19
450.442	2522.19
450.662	2176.19
450.883	1928.19
451.104	1912.19
451.324	1940.19
451.545	2009.19
451.766	1947.19
451.986	1897.19
452.207	1870.19
452.428	1794.19
452.648	1804.19
452.869	1835.19
453.089	1958.19
453.31	1968.19
453.53	2036.19
453.751	1946.19
453.971	1844.19
454.192	1868.19
454.412	2034.19
454.633	1911.19
454.853	1851.19
455.073	1787.19
455.294	1769.19
455.514	1745.19
455.734	1800.19
455.955	1794.19
456.175	1777.19
456.395	1791.19
456.616	1859.19
456.836	1899.19
457.056	1848.19
457.276	1853.19
457.497	1838.19
457.717	1770.19
457.937	1798.19
458.157	1798.19
458.377	1785.19
458.598	1809.19
458.818	1858.19
459.038	1930.19
459.258	2050.19
459.478	2064.19
459.698	1985.19
459.918	2019.19
460.138	2122.19
460.358	2142.19
460.578	2114.19
460.798	2257.19
461.018	2375.19
461.238	2272.19
461.458	2190.19
461.678	2178.19
461.898	2130.19
462.118	2083.19
462.338	2163.19
462.558	2206.19
462.777	2131.19
462.997	2268.19
463.217	2431.19
463.437	2399.19
463.657	2234.19
463.876	2176.19
464.096	2184.19
464.316	2157.19
464.536	2260.19
464.755	2250.19
464.975	2320.19
465.195	2212.19
465.414	2315.19
465.634	2296.19
465.854	2160.19
466.073	2293.19
466.293	2247.19
466.512	1968.19
466.732	1985.19
466.951	2074.19
467.171	2056.19
467.391	1950.19
467.61	1886.19
467.829	1953.19
468.049	2092.19
468.268	2320.19
468.488	2159.19
468.707	2054.19
468.927	2015.19
469.146	1966.19
469.365	1946.19
469.585	1982.19
469.804	1902.19
470.023	1931.19
470.243	1977.19
470.462	1978.19
470.681	1944.19
470.901	1985.19
471.12	1963.19
471.339	1955.19
471.558	1895.19
471.777	1863.19
471.997	1897.19
472.216	1948.19
472.435	1900.19
472.654	1912.19
472.873	2020.19
473.092	2115.19
473.311	1997.19
473.53	1852.19
473.749	1858.19
473.968	1966.19
474.187	2044.19
474.406	2170.19
474.625	2011.19
474.844	2010.19
475.063	1959.19
475.282	2014.19
475.501	2019.19
475.72	1998.19
475.939	2088.19
476.158	2038.19
476.377	1992.19
476.596	2024.19
476.814	2097.19
477.033	2058.19
477.252	2158.19
477.471	2185.19
477.69	2087.19
477.908	2074.19
478.127	2209.19
478.346	2403.19
478.564	2378.19
478.783	2329.19
479.002	2479.19
479.22	2364.19
479.439	2444.19
479.658	2777.19
479.876	2715.19
480.095	2402.19
480.313	2339.19
480.532	2191.19
480.751	2250.19
480.969	2284.19
481.188	2247.19
481.406	2209.19
481.624	2161.19
481.843	2211.19
482.061	2237.19
482.28	2292.19
482.498	2276.19
482.717	2278.19
482.935	2194.19
483.153	2219.19
483.372	2210.19
483.59	2156.19
483.808	2211.19
484.027	2226.19
484.245	2410.19
484.463	2724.19
484.681	3098.19
484.9	2478.19
485.118	2273.19
485.336	2261.19
485.554	2317.19
485.772	2426.19
485.99	2378.19
486.209	2400.19
486.427	2420.19
486.645	2375.19
486.863	2378.19
487.081	2351.19
487.299	2494.19
487.517	2423.19
