Data from WStandard_LampEnergy10_LIBS07252019.E.O._I.C._HRD10591_15-53-10-928.txt Node
Date: Thu Jul 25 15:53:10 EDT 2019
User: cochatt
Spectrometer: HR+D1059
Trigger mode: 1
Integration Time (sec): 1.000000E-1
Scans to average: 1
Electric dark correction enabled: true
Nonlinearity correction enabled: false
Boxcar width: 0
XAxis mode: Wavelengths
Number of Pixels in Spectrum: 2048
>>>>>Begin Spectral Data<<<<<
223.165	-14.94
223.4	-14.94
223.635	-14.94
223.869	-9.94
224.104	-22.94
224.338	-30.94
224.573	-18.94
224.808	-12.94
225.042	-21.94
225.277	-0.94
225.511	7.06
225.746	-5.94
225.98	20.06
226.215	18.06
226.449	22.06
226.683	15.06
226.918	32.06
227.152	25.06
227.387	40.06
227.621	33.06
227.856	42.06
228.09	39.06
228.324	38.06
228.559	59.06
228.793	77.06
229.027	133.06
229.262	142.06
229.496	165.06
229.73	170.06
229.964	172.06
230.199	187.06
230.433	167.06
230.667	175.06
230.901	184.06
231.136	187.06
231.37	166.06
231.604	149.06
231.838	194.06
232.072	181.06
232.306	166.06
232.541	186.06
232.775	197.06
233.009	205.06
233.243	208.06
233.477	201.06
233.711	185.06
233.945	207.06
234.179	193.06
234.413	205.06
234.647	211.06
234.881	214.06
235.115	183.06
235.349	203.06
235.583	196.06
235.817	202.06
236.051	192.06
236.285	187.06
236.519	208.06
236.753	235.06
236.987	231.06
237.221	216.06
237.455	234.06
237.689	245.06
237.922	219.06
238.156	212.06
238.39	232.06
238.624	246.06
238.858	259.06
239.091	242.06
239.325	274.06
239.559	312.06
239.793	295.06
240.027	315.06
240.26	302.06
240.494	245.06
240.728	237.06
240.961	245.06
241.195	225.06
241.429	245.06
241.662	263.06
241.896	252.06
242.13	259.06
242.363	269.06
242.597	292.06
242.83	299.06
243.064	285.06
243.298	281.06
243.531	297.06
243.765	276.06
243.998	274.06
244.232	251.06
244.465	265.06
244.699	268.06
244.932	286.06
245.166	302.06
245.399	294.06
245.633	279.06
245.866	276.06
246.099	298.06
246.333	300.06
246.566	285.06
246.8	310.06
247.033	346.06
247.266	331.06
247.5	300.06
247.733	321.06
247.966	330.06
248.2	377.06
248.433	355.06
248.666	366.06
248.899	403.06
249.133	434.06
249.366	470.06
249.599	405.06
249.832	367.06
250.066	361.06
250.299	380.06
250.532	366.06
250.765	334.06
250.998	343.06
251.231	347.06
251.465	330.06
251.698	342.06
251.931	349.06
252.164	373.06
252.397	364.06
252.63	367.06
252.863	335.06
253.096	335.06
253.329	351.06
253.562	359.06
253.795	371.06
254.028	379.06
254.261	340.06
254.494	340.06
254.727	334.06
254.96	367.06
255.193	375.06
255.426	428.06
255.659	447.06
255.892	475.06
256.124	403.06
256.357	396.06
256.59	427.06
256.823	424.06
257.056	425.06
257.289	495.06
257.521	537.06
257.754	481.06
257.987	455.06
258.22	468.06
258.452	453.06
258.685	410.06
258.918	405.06
259.151	392.06
259.383	381.06
259.616	354.06
259.849	381.06
260.081	387.06
260.314	442.06
260.547	471.06
260.779	466.06
261.012	441.06
261.244	425.06
261.477	417.06
261.71	404.06
261.942	419.06
262.175	410.06
262.407	426.06
262.64	407.06
262.872	378.06
263.105	363.06
263.337	377.06
263.57	380.06
263.802	372.06
264.035	357.06
264.267	353.06
264.499	358.06
264.732	379.06
264.964	413.06
265.197	398.06
265.429	428.06
265.661	474.06
265.894	509.06
266.126	474.06
266.358	479.06
266.591	473.06
266.823	511.06
267.055	447.06
267.287	472.06
267.52	450.06
267.752	443.06
267.984	469.06
268.216	481.06
268.448	473.06
268.681	459.06
268.913	441.06
269.145	409.06
269.377	401.06
269.609	481.06
269.841	521.06
270.073	586.06
270.306	646.06
270.538	649.06
270.77	522.06
271.002	498.06
271.234	483.06
271.466	498.06
271.698	543.06
271.93	577.06
272.162	602.06
272.394	552.06
272.626	537.06
272.858	471.06
273.09	414.06
273.322	424.06
273.553	389.06
273.785	431.06
274.017	412.06
274.249	457.06
274.481	445.06
274.713	409.06
274.945	435.06
275.176	425.06
275.408	403.06
275.64	397.06
275.872	411.06
276.104	449.06
276.335	496.06
276.567	549.06
276.799	548.06
277.031	481.06
277.262	495.06
277.494	513.06
277.726	520.06
277.957	534.06
278.189	473.06
278.421	436.06
278.652	429.06
278.884	433.06
279.115	427.06
279.347	440.06
279.579	424.06
279.81	444.06
280.042	484.06
280.273	514.06
280.505	510.06
280.736	512.06
280.968	477.06
281.199	447.06
281.431	408.06
281.662	408.06
281.894	435.06
282.125	442.06
282.356	453.06
282.588	447.06
282.819	467.06
283.051	499.06
283.282	532.06
283.513	496.06
283.745	442.06
283.976	426.06
284.207	434.06
284.439	447.06
284.67	463.06
284.901	459.06
285.132	464.06
285.364	471.06
285.595	460.06
285.826	451.06
286.057	449.06
286.288	445.06
286.52	468.06
286.751	497.06
286.982	506.06
287.213	456.06
287.444	425.06
287.675	456.06
287.906	456.06
288.138	474.06
288.369	457.06
288.6	452.06
288.831	427.06
289.062	443.06
289.293	452.06
289.524	468.06
289.755	494.06
289.986	461.06
290.217	441.06
290.448	431.06
290.679	461.06
290.91	477.06
291.141	469.06
291.371	493.06
291.602	515.06
291.833	480.06
292.064	511.06
292.295	513.06
292.526	493.06
292.757	505.06
292.987	495.06
293.218	488.06
293.449	521.06
293.68	561.06
293.91	610.06
294.141	587.06
294.372	552.06
294.603	550.06
294.833	565.06
295.064	530.06
295.295	506.06
295.525	476.06
295.756	476.06
295.987	433.06
296.217	460.06
296.448	467.06
296.679	462.06
296.909	468.06
297.14	465.06
297.37	487.06
297.601	498.06
297.831	551.06
298.062	522.06
298.292	481.06
298.523	463.06
298.753	464.06
298.984	494.06
299.214	491.06
299.445	508.06
299.675	514.06
299.905	467.06
300.136	481.06
300.366	459.06
300.597	448.06
300.827	481.06
301.057	468.06
301.288	513.06
301.518	532.06
301.748	546.06
301.979	555.06
302.209	565.06
302.439	589.06
302.669	597.06
302.9	564.06
303.13	533.06
303.36	513.06
303.59	509.06
303.82	497.06
304.051	516.06
304.281	535.06
304.511	545.06
304.741	564.06
304.971	602.06
305.201	630.06
305.431	573.06
305.661	471.06
305.891	439.06
306.121	487.06
306.352	487.06
306.582	510.06
306.812	533.06
307.042	580.06
307.272	582.06
307.502	604.06
307.731	635.06
307.961	647.06
308.191	597.06
308.421	533.06
308.651	530.06
308.881	519.06
309.111	501.06
309.341	488.06
309.571	505.06
309.8	520.06
310.03	491.06
310.26	501.06
310.49	509.06
310.72	539.06
310.949	538.06
311.179	546.06
311.409	539.06
311.639	521.06
311.868	511.06
312.098	507.06
312.328	515.06
312.557	524.06
312.787	511.06
313.017	533.06
313.246	512.06
313.476	520.06
313.706	522.06
313.935	535.06
314.165	537.06
314.394	572.06
314.624	594.06
314.853	627.06
315.083	634.06
315.312	615.06
315.542	596.06
315.771	537.06
316.001	539.06
316.23	581.06
316.46	584.06
316.689	557.06
316.919	548.06
317.148	529.06
317.377	532.06
317.607	575.06
317.836	625.06
318.065	645.06
318.295	607.06
318.524	592.06
318.753	569.06
318.983	588.06
319.212	563.06
319.441	551.06
319.67	553.06
319.9	555.06
320.129	608.06
320.358	625.06
320.587	639.06
320.816	625.06
321.046	605.06
321.275	576.06
321.504	631.06
321.733	633.06
321.962	599.06
322.191	574.06
322.42	576.06
322.649	563.06
322.878	554.06
323.108	558.06
323.337	587.06
323.566	593.06
323.795	599.06
324.024	560.06
324.253	552.06
324.482	577.06
324.71	540.06
324.939	529.06
325.168	564.06
325.397	564.06
325.626	567.06
325.855	595.06
326.084	557.06
326.313	561.06
326.542	585.06
326.77	576.06
326.999	572.06
327.228	562.06
327.457	517.06
327.686	546.06
327.914	553.06
328.143	563.06
328.372	575.06
328.6	567.06
328.829	533.06
329.058	548.06
329.287	564.06
329.515	583.06
329.744	595.06
329.972	607.06
330.201	631.06
330.43	606.06
330.658	603.06
330.887	612.06
331.115	595.06
331.344	585.06
331.572	574.06
331.801	604.06
332.03	597.06
332.258	605.06
332.486	631.06
332.715	627.06
332.943	607.06
333.172	616.06
333.4	605.06
333.629	634.06
333.857	671.06
334.085	760.06
334.314	821.06
334.542	844.06
334.771	779.06
334.999	706.06
335.227	669.06
335.455	620.06
335.684	652.06
335.912	653.06
336.14	654.06
336.369	637.06
336.597	637.06
336.825	605.06
337.053	623.06
337.281	708.06
337.51	672.06
337.738	696.06
337.966	660.06
338.194	606.06
338.422	610.06
338.65	578.06
338.878	604.06
339.106	595.06
339.334	573.06
339.562	571.06
339.79	584.06
340.018	621.06
340.246	642.06
340.474	642.06
340.702	636.06
340.93	639.06
341.158	619.06
341.386	598.06
341.614	607.06
341.842	595.06
342.07	611.06
342.298	608.06
342.526	595.06
342.754	598.06
342.981	601.06
343.209	584.06
343.437	594.06
343.665	603.06
343.893	601.06
344.12	646.06
344.348	664.06
344.576	619.06
344.804	601.06
345.031	621.06
345.259	602.06
345.487	578.06
345.714	556.06
345.942	572.06
346.17	566.06
346.397	564.06
346.625	580.06
346.853	546.06
347.08	545.06
347.308	580.06
347.535	561.06
347.763	585.06
347.99	584.06
348.218	539.06
348.445	571.06
348.673	601.06
348.9	583.06
349.128	597.06
349.355	613.06
349.583	601.06
349.81	577.06
350.037	533.06
350.265	544.06
350.492	548.06
350.72	561.06
350.947	571.06
351.174	580.06
351.402	531.06
351.629	535.06
351.856	528.06
352.083	531.06
352.311	546.06
352.538	564.06
352.765	596.06
352.992	575.06
353.22	572.06
353.447	540.06
353.674	542.06
353.901	568.06
354.128	570.06
354.355	560.06
354.583	592.06
354.81	587.06
355.037	580.06
355.264	606.06
355.491	571.06
355.718	592.06
355.945	552.06
356.172	566.06
356.399	551.06
356.626	534.06
356.853	608.06
357.08	640.06
357.307	710.06
357.534	642.06
357.761	559.06
357.988	550.06
358.215	563.06
358.441	533.06
358.668	555.06
358.895	541.06
359.122	608.06
359.349	629.06
359.576	639.06
359.802	564.06
360.029	533.06
360.256	530.06
360.483	575.06
360.709	581.06
360.936	609.06
361.163	638.06
361.39	687.06
361.616	738.06
361.843	700.06
362.07	650.06
362.296	562.06
362.523	583.06
362.749	596.06
362.976	589.06
363.203	589.06
363.429	565.06
363.656	561.06
363.882	595.06
364.109	655.06
364.335	676.06
364.562	616.06
364.788	590.06
365.015	578.06
365.241	578.06
365.468	584.06
365.694	612.06
365.92	628.06
366.147	607.06
366.373	550.06
366.599	556.06
366.826	569.06
367.052	566.06
367.278	585.06
367.505	588.06
367.731	611.06
367.957	601.06
368.184	627.06
368.41	661.06
368.636	673.06
368.862	673.06
369.089	662.06
369.315	642.06
369.541	630.06
369.767	607.06
369.993	584.06
370.219	611.06
370.445	621.06
370.672	640.06
370.898	673.06
371.124	647.06
371.35	608.06
371.576	639.06
371.802	675.06
372.028	648.06
372.254	634.06
372.48	586.06
372.706	599.06
372.932	586.06
373.158	599.06
373.384	628.06
373.61	659.06
373.835	670.06
374.061	653.06
374.287	637.06
374.513	618.06
374.739	641.06
374.965	681.06
375.191	654.06
375.416	645.06
375.642	688.06
375.868	720.06
376.094	708.06
376.319	674.06
376.545	645.06
376.771	668.06
376.997	701.06
377.222	703.06
377.448	667.06
377.674	661.06
377.899	666.06
378.125	748.06
378.35	714.06
378.576	658.06
378.802	615.06
379.027	633.06
379.253	667.06
379.478	657.06
379.704	641.06
379.929	649.06
380.155	654.06
380.38	649.06
380.606	655.06
380.831	667.06
381.057	715.06
381.282	706.06
381.507	686.06
381.733	726.06
381.958	726.06
382.184	682.06
382.409	672.06
382.634	702.06
382.86	699.06
383.085	706.06
383.31	709.06
383.535	793.06
383.761	812.06
383.986	780.06
384.211	714.06
384.436	742.06
384.662	756.06
384.887	809.06
385.112	759.06
385.337	735.06
385.562	732.06
385.787	735.06
386.013	778.06
386.238	755.06
386.463	797.06
386.688	837.06
386.913	864.06
387.138	815.06
387.363	791.06
387.588	751.06
387.813	735.06
388.038	775.06
388.263	803.06
388.488	759.06
388.713	731.06
388.938	724.06
389.163	732.06
389.387	739.06
389.612	755.06
389.837	771.06
390.062	764.06
390.287	746.06
390.512	740.06
390.736	739.06
390.961	728.06
391.186	752.06
391.411	732.06
391.636	759.06
391.86	748.06
392.085	737.06
392.31	767.06
392.534	755.06
392.759	775.06
392.984	764.06
393.208	769.06
393.433	813.06
393.658	833.06
393.882	819.06
394.107	798.06
394.331	779.06
394.556	775.06
394.78	789.06
395.005	802.06
395.229	819.06
395.454	888.06
395.678	866.06
395.903	831.06
396.127	825.06
396.352	832.06
396.576	867.06
396.801	852.06
397.025	845.06
397.249	813.06
397.474	841.06
397.698	831.06
397.922	853.06
398.147	867.06
398.371	907.06
398.595	923.06
398.82	899.06
399.044	879.06
399.268	950.06
399.492	955.06
399.717	1011.06
399.941	1013.06
400.165	1009.06
400.389	973.06
400.613	958.06
400.837	1143.06
401.062	1199.06
401.286	1010.06
401.51	981.06
401.734	1013.06
401.958	966.06
402.182	888.06
402.406	895.06
402.63	861.06
402.854	889.06
403.078	903.06
403.302	903.06
403.526	938.06
403.75	945.06
403.974	938.06
404.198	933.06
404.422	973.06
404.645	1001.06
404.869	938.06
405.093	897.06
405.317	927.06
405.541	931.06
405.765	940.06
405.988	916.06
406.212	974.06
406.436	971.06
406.66	1016.06
406.883	1029.06
407.107	1171.06
407.331	1223.06
407.555	1280.06
407.778	1113.06
408.002	1007.06
408.226	972.06
408.449	1018.06
408.673	951.06
408.896	941.06
409.12	966.06
409.344	964.06
409.567	952.06
409.791	961.06
410.014	975.06
410.238	1029.06
410.461	1051.06
410.685	979.06
410.908	939.06
411.132	969.06
411.355	957.06
411.578	974.06
411.802	951.06
412.025	959.06
412.249	928.06
412.472	900.06
412.695	915.06
412.919	913.06
413.142	890.06
413.365	940.06
413.589	961.06
413.812	1009.06
414.035	1010.06
414.258	951.06
414.482	927.06
414.705	924.06
414.928	929.06
415.151	929.06
415.374	925.06
415.597	932.06
415.821	971.06
416.044	943.06
416.267	960.06
416.49	914.06
416.713	901.06
416.936	986.06
417.159	993.06
417.382	962.06
417.605	941.06
417.828	929.06
418.051	968.06
418.274	972.06
418.497	955.06
418.72	951.06
418.943	930.06
419.166	977.06
419.389	1039.06
419.611	978.06
419.834	939.06
420.057	953.06
420.28	973.06
420.503	977.06
420.726	938.06
420.948	945.06
421.171	918.06
421.394	955.06
421.617	994.06
421.839	987.06
422.062	977.06
422.285	939.06
422.507	942.06
422.73	930.06
422.953	886.06
423.175	898.06
423.398	918.06
423.621	937.06
423.843	950.06
424.066	980.06
424.288	1074.06
424.511	1072.06
424.733	1029.06
424.956	947.06
425.178	949.06
425.401	937.06
425.623	934.06
425.846	956.06
426.068	987.06
426.291	963.06
426.513	964.06
426.735	993.06
426.958	1050.06
427.18	1107.06
427.402	996.06
427.625	1020.06
427.847	988.06
428.069	923.06
428.292	911.06
428.514	906.06
428.736	903.06
428.958	920.06
429.181	948.06
429.403	1084.06
429.625	1215.06
429.847	1063.06
430.069	963.06
430.292	1060.06
430.514	1040.06
430.736	947.06
430.958	995.06
431.18	947.06
431.402	898.06
431.624	847.06
431.846	806.06
432.068	737.06
432.29	758.06
432.512	847.06
432.734	901.06
432.956	953.06
433.178	964.06
433.4	1014.06
433.622	965.06
433.844	901.06
434.066	865.06
434.287	798.06
434.509	799.06
434.731	836.06
434.953	917.06
435.175	941.06
435.397	919.06
435.618	879.06
435.84	841.06
436.062	879.06
436.284	893.06
436.505	944.06
436.727	983.06
436.949	943.06
437.17	916.06
437.392	913.06
437.614	852.06
437.835	823.06
438.057	821.06
438.278	842.06
438.5	872.06
438.721	915.06
438.943	908.06
439.165	928.06
439.386	936.06
439.608	961.06
439.829	955.06
440.05	941.06
440.272	976.06
440.493	975.06
440.715	996.06
440.936	1042.06
441.158	1087.06
441.379	1045.06
441.6	1015.06
441.822	1041.06
442.043	1045.06
442.264	1013.06
442.486	931.06
442.707	970.06
442.928	987.06
443.149	999.06
443.371	1026.06
443.592	1003.06
443.813	1060.06
444.034	1033.06
444.255	1032.06
444.476	1032.06
444.698	1037.06
444.919	1059.06
445.14	1170.06
445.361	1110.06
445.582	1084.06
445.803	1064.06
446.024	1065.06
446.245	1082.06
446.466	1066.06
446.687	1065.06
446.908	1058.06
447.129	1033.06
447.35	1025.06
447.571	1016.06
447.792	982.06
448.013	977.06
448.234	973.06
448.455	1001.06
448.675	1014.06
448.896	945.06
449.117	937.06
449.338	964.06
449.559	965.06
449.779	960.06
450	1027.06
450.221	1051.06
450.442	1001.06
450.662	963.06
450.883	900.06
451.104	908.06
451.324	900.06
451.545	900.06
451.766	869.06
451.986	860.06
452.207	841.06
452.428	804.06
452.648	793.06
452.869	803.06
453.089	791.06
453.31	790.06
453.53	760.06
453.751	748.06
453.971	700.06
454.192	740.06
454.412	787.06
454.633	813.06
454.853	798.06
455.073	752.06
455.294	762.06
455.514	767.06
455.734	775.06
455.955	759.06
456.175	750.06
456.395	736.06
456.616	747.06
456.836	736.06
457.056	731.06
457.276	751.06
457.497	717.06
457.717	705.06
457.937	706.06
458.157	741.06
458.377	710.06
458.598	685.06
458.818	675.06
459.038	712.06
459.258	716.06
459.478	737.06
459.698	721.06
459.918	762.06
460.138	835.06
460.358	841.06
460.578	831.06
460.798	845.06
461.018	895.06
461.238	868.06
461.458	856.06
461.678	826.06
461.898	802.06
462.118	821.06
462.338	851.06
462.558	842.06
462.777	864.06
462.997	864.06
463.217	921.06
463.437	876.06
463.657	835.06
463.876	856.06
464.096	849.06
464.316	821.06
464.536	875.06
464.755	886.06
464.975	909.06
465.195	881.06
465.414	905.06
465.634	881.06
465.854	880.06
466.073	961.06
466.293	947.06
466.512	875.06
466.732	875.06
466.951	909.06
467.171	911.06
467.391	872.06
467.61	870.06
467.829	888.06
468.049	982.06
468.268	1061.06
468.488	979.06
468.707	948.06
468.927	933.06
469.146	911.06
469.365	920.06
469.585	942.06
469.804	932.06
470.023	951.06
470.243	947.06
470.462	947.06
470.681	968.06
470.901	948.06
471.12	928.06
471.339	947.06
471.558	931.06
471.777	935.06
471.997	910.06
472.216	840.06
472.435	802.06
472.654	769.06
472.873	802.06
473.092	828.06
473.311	852.06
473.53	835.06
473.749	829.06
473.968	866.06
474.187	883.06
474.406	898.06
474.625	860.06
474.844	881.06
475.063	895.06
475.282	858.06
475.501	819.06
475.72	847.06
475.939	931.06
476.158	883.06
476.377	893.06
476.596	856.06
476.814	841.06
477.033	817.06
477.252	845.06
477.471	886.06
477.69	907.06
477.908	933.06
478.127	1008.06
478.346	1034.06
478.564	1059.06
478.783	971.06
479.002	1068.06
479.22	1014.06
479.439	1073.06
479.658	1065.06
479.876	1004.06
480.095	882.06
480.313	883.06
480.532	873.06
480.751	891.06
480.969	843.06
481.188	827.06
481.406	776.06
481.624	775.06
481.843	779.06
482.061	872.06
482.28	909.06
482.498	915.06
482.717	879.06
482.935	901.06
483.153	984.06
483.372	1051.06
483.59	1036.06
483.808	986.06
484.027	965.06
484.245	996.06
484.463	1207.06
484.681	1276.06
484.9	1031.06
485.118	1002.06
485.336	915.06
485.554	910.06
485.772	889.06
485.99	862.06
486.209	901.06
486.427	935.06
486.645	970.06
486.863	1018.06
487.081	1071.06
487.299	1028.06
487.517	1001.06
487.735	1147.06
487.953	1223.06
488.171	1203.06
488.389	1159.06
488.607	1098.06
488.825	1181.06
489.043	1084.06
489.261	999.06
489.479	1053.06
489.696	1076.06
489.914	1027.06
490.132	1077.06
490.35	1117.06
490.568	1180.06
490.786	1212.06
491.003	1191.06
491.221	1251.06
491.439	1335.06
491.657	1349.06
491.874	1381.06
492.092	1450.06
492.31	1523.06
492.527	1474.06
492.745	1384.06
492.963	1360.06
493.18	1331.06
493.398	1378.06
493.615	1358.06
493.833	1261.06
494.05	1240.06
494.268	1264.06
494.485	1276.06
494.703	1217.06
494.92	1232.06
495.138	1210.06
495.355	1243.06
495.573	1264.06
495.79	1337.06
496.008	1279.06
496.225	1227.06
496.442	1254.06
496.66	1266.06
496.877	1261.06
497.094	1250.06
497.312	1275.06
497.529	1226.06
497.746	1190.06
497.963	1273.06
498.181	1321.06
498.398	1256.06
498.615	1219.06
498.832	1175.06
499.049	1197.06
499.267	1188.06
499.484	1264.06
499.701	1388.06
499.918	1401.06
500.135	1483.06
