Data from WStandard_LampEnergy5.5LIBS07252019.E.O._I.C._HRD10591_16-07-35-919.txt Node
Date: Thu Jul 25 16:07:35 EDT 2019
User: cochatt
Spectrometer: HR+D1059
Trigger mode: 1
Integration Time (sec): 1.000000E-1
Scans to average: 1
Electric dark correction enabled: true
Nonlinearity correction enabled: false
Boxcar width: 0
XAxis mode: Wavelengths
Number of Pixels in Spectrum: 2048
>>>>>Begin Spectral Data<<<<<
223.165	-1.56
223.4	-1.56
223.635	-1.56
223.869	-14.56
224.104	-17.56
224.338	-15.56
224.573	-24.56
224.808	-14.56
225.042	-15.56
225.277	1.44
225.511	-6.56
225.746	6.44
225.98	-1.56
226.215	12.44
226.449	18.44
226.683	36.44
226.918	12.44
227.152	24.44
227.387	28.44
227.621	38.44
227.856	49.44
228.09	31.44
228.324	47.44
228.559	66.44
228.793	144.44
229.027	371.44
229.262	402.44
229.496	384.44
229.73	399.44
229.964	461.44
230.199	472.44
230.433	480.44
230.667	503.44
230.901	541.44
231.136	506.44
231.37	475.44
231.604	467.44
231.838	464.44
232.072	472.44
232.306	451.44
232.541	485.44
232.775	568.44
233.009	623.44
233.243	594.44
233.477	542.44
233.711	561.44
233.945	582.44
234.179	577.44
234.413	589.44
234.647	637.44
234.881	615.44
235.115	572.44
235.349	573.44
235.583	602.44
235.817	578.44
236.051	552.44
236.285	571.44
236.519	613.44
236.753	678.44
236.987	734.44
237.221	681.44
237.455	759.44
237.689	724.44
237.922	698.44
238.156	668.44
238.39	668.44
238.624	705.44
238.858	748.44
239.091	769.44
239.325	825.44
239.559	949.44
239.793	986.44
240.027	1078.44
240.26	1061.44
240.494	804.44
240.728	734.44
240.961	772.44
241.195	774.44
241.429	842.44
241.662	834.44
241.896	812.44
242.13	782.44
242.363	859.44
242.597	956.44
242.83	932.44
243.064	906.44
243.298	989.44
243.531	943.44
243.765	954.44
243.998	956.44
244.232	825.44
244.465	798.44
244.699	812.44
244.932	936.44
245.166	1072.44
245.399	1033.44
245.633	894.44
245.866	917.44
246.099	932.44
246.333	973.44
246.566	1000.44
246.8	1075.44
247.033	1221.44
247.266	1141.44
247.5	1096.44
247.733	1090.44
247.966	1133.44
248.2	1269.44
248.433	1198.44
248.666	1283.44
248.899	1350.44
249.133	1574.44
249.366	1813.44
249.599	1489.44
249.832	1276.44
250.066	1304.44
250.299	1349.44
250.532	1236.44
250.765	1095.44
250.998	1198.44
251.231	1262.44
251.465	1299.44
251.698	1248.44
251.931	1184.44
252.164	1222.44
252.397	1302.44
252.63	1313.44
252.863	1114.44
253.096	1109.44
253.329	1188.44
253.562	1225.44
253.795	1323.44
254.028	1266.44
254.261	1202.44
254.494	1201.44
254.727	1123.44
254.96	1170.44
255.193	1296.44
255.426	1471.44
255.659	1672.44
255.892	1748.44
256.124	1461.44
256.357	1374.44
256.59	1456.44
256.823	1485.44
257.056	1450.44
257.289	1787.44
257.521	1959.44
257.754	1749.44
257.987	1654.44
258.22	1841.44
258.452	1776.44
258.685	1442.44
258.918	1440.44
259.151	1453.44
259.383	1366.44
259.616	1218.44
259.849	1297.44
260.081	1448.44
260.314	1628.44
260.547	1696.44
260.779	1778.44
261.012	1635.44
261.244	1481.44
261.477	1398.44
261.71	1449.44
261.942	1468.44
262.175	1432.44
262.407	1498.44
262.64	1410.44
262.872	1356.44
263.105	1330.44
263.337	1313.44
263.57	1342.44
263.802	1332.44
264.035	1242.44
264.267	1184.44
264.499	1166.44
264.732	1245.44
264.964	1328.44
265.197	1395.44
265.429	1447.44
265.661	1607.44
265.894	1782.44
266.126	1840.44
266.358	1661.44
266.591	1702.44
266.823	1882.44
267.055	1694.44
267.287	1613.44
267.52	1630.44
267.752	1580.44
267.984	1591.44
268.216	1654.44
268.448	1689.44
268.681	1716.44
268.913	1565.44
269.145	1456.44
269.377	1418.44
269.609	1542.44
269.841	1793.44
270.073	2106.44
270.306	2345.44
270.538	2514.44
270.77	2111.44
271.002	1749.44
271.234	1724.44
271.466	1658.44
271.698	1884.44
271.93	2339.44
272.162	2310.44
272.394	2053.44
272.626	1948.44
272.858	1742.44
273.09	1496.44
273.322	1456.44
273.553	1369.44
273.785	1418.44
274.017	1485.44
274.249	1615.44
274.481	1599.44
274.713	1441.44
274.945	1447.44
275.176	1460.44
275.408	1420.44
275.64	1394.44
275.872	1379.44
276.104	1504.44
276.335	1705.44
276.567	1964.44
276.799	1992.44
277.031	1760.44
277.262	1627.44
277.494	1724.44
277.726	1893.44
277.957	1880.44
278.189	1702.44
278.421	1613.44
278.652	1522.44
278.884	1531.44
279.115	1530.44
279.347	1548.44
279.579	1513.44
279.81	1482.44
280.042	1650.44
280.273	1809.44
280.505	1816.44
280.736	1879.44
280.968	1758.44
281.199	1556.44
281.431	1470.44
281.662	1464.44
281.894	1471.44
282.125	1476.44
282.356	1552.44
282.588	1596.44
282.819	1565.44
283.051	1694.44
283.282	1855.44
283.513	1783.44
283.745	1552.44
283.976	1434.44
284.207	1461.44
284.439	1532.44
284.67	1501.44
284.901	1551.44
285.132	1580.44
285.364	1542.44
285.595	1566.44
285.826	1539.44
286.057	1543.44
286.288	1506.44
286.52	1566.44
286.751	1707.44
286.982	1759.44
287.213	1622.44
287.444	1481.44
287.675	1524.44
287.906	1565.44
288.138	1672.44
288.369	1653.44
288.6	1504.44
288.831	1474.44
289.062	1458.44
289.293	1512.44
289.524	1512.44
289.755	1572.44
289.986	1622.44
290.217	1472.44
290.448	1493.44
290.679	1542.44
290.91	1553.44
291.141	1637.44
291.371	1636.44
291.602	1668.44
291.833	1625.44
292.064	1690.44
292.295	1640.44
292.526	1720.44
292.757	1746.44
292.987	1689.44
293.218	1542.44
293.449	1702.44
293.68	1960.44
293.91	2141.44
294.141	1906.44
294.372	1793.44
294.603	1865.44
294.833	1960.44
295.064	1815.44
295.295	1694.44
295.525	1652.44
295.756	1520.44
295.987	1390.44
296.217	1464.44
296.448	1516.44
296.679	1529.44
296.909	1478.44
297.14	1546.44
297.37	1510.44
297.601	1605.44
297.831	1725.44
298.062	1776.44
298.292	1571.44
298.523	1512.44
298.753	1553.44
298.984	1573.44
299.214	1570.44
299.445	1581.44
299.675	1670.44
299.905	1630.44
300.136	1612.44
300.366	1592.44
300.597	1495.44
300.827	1475.44
301.057	1557.44
301.288	1632.44
301.518	1654.44
301.748	1693.44
301.979	1760.44
302.209	1798.44
302.439	1891.44
302.669	2002.44
302.9	1945.44
303.13	1669.44
303.36	1649.44
303.59	1724.44
303.82	1681.44
304.051	1635.44
304.281	1649.44
304.511	1641.44
304.741	1714.44
304.971	1957.44
305.201	2136.44
305.431	1996.44
305.661	1661.44
305.891	1467.44
306.121	1460.44
306.352	1483.44
306.582	1607.44
306.812	1732.44
307.042	1870.44
307.272	1860.44
307.502	1895.44
307.731	2029.44
307.961	2222.44
308.191	2020.44
308.421	1748.44
308.651	1618.44
308.881	1600.44
309.111	1607.44
309.341	1603.44
309.571	1622.44
309.8	1631.44
310.03	1576.44
310.26	1592.44
310.49	1570.44
310.72	1597.44
310.949	1681.44
311.179	1723.44
311.409	1701.44
311.639	1618.44
311.868	1604.44
312.098	1629.44
312.328	1617.44
312.557	1576.44
312.787	1622.44
313.017	1692.44
313.246	1734.44
313.476	1650.44
313.706	1712.44
313.935	1702.44
314.165	1720.44
314.394	1765.44
314.624	1862.44
314.853	1968.44
315.083	2020.44
315.312	2114.44
315.542	1980.44
315.771	1699.44
316.001	1724.44
316.23	1870.44
316.46	1799.44
316.689	1786.44
316.919	1749.44
317.148	1648.44
317.377	1622.44
317.607	1768.44
317.836	1980.44
318.065	2127.44
318.295	2016.44
318.524	1928.44
318.753	1838.44
318.983	1806.44
319.212	1792.44
319.441	1736.44
319.67	1762.44
319.9	1758.44
320.129	1869.44
320.358	1936.44
320.587	2006.44
320.816	1974.44
321.046	1856.44
321.275	1811.44
321.504	1824.44
321.733	2006.44
321.962	1944.44
322.191	1761.44
322.42	1746.44
322.649	1741.44
322.878	1752.44
323.108	1771.44
323.337	1860.44
323.566	1783.44
323.795	1812.44
324.024	1816.44
324.253	1739.44
324.482	1810.44
324.71	1770.44
324.939	1652.44
325.168	1662.44
325.397	1738.44
325.626	1834.44
325.855	1832.44
326.084	1773.44
326.313	1728.44
326.542	1776.44
326.77	1824.44
326.999	1874.44
327.228	1767.44
327.457	1664.44
327.686	1642.44
327.914	1693.44
328.143	1740.44
328.372	1776.44
328.6	1733.44
328.829	1705.44
329.058	1718.44
329.287	1678.44
329.515	1753.44
329.744	1729.44
329.972	1845.44
330.201	1961.44
330.43	1922.44
330.658	1849.44
330.887	1825.44
331.115	1814.44
331.344	1904.44
331.572	1799.44
331.801	1813.44
332.03	1807.44
332.258	1865.44
332.486	1869.44
332.715	1864.44
332.943	1885.44
333.172	1826.44
333.4	1850.44
333.629	1874.44
333.857	2000.44
334.085	2194.44
334.314	2468.44
334.542	2804.44
334.771	2557.44
334.999	2226.44
335.227	2106.44
335.455	2033.44
335.684	1953.44
335.912	2021.44
336.14	2070.44
336.369	2012.44
336.597	1903.44
336.825	1850.44
337.053	1912.44
337.281	2023.44
337.51	2120.44
337.738	2231.44
337.966	2121.44
338.194	1907.44
338.422	1833.44
338.65	1811.44
338.878	1766.44
339.106	1760.44
339.334	1736.44
339.562	1695.44
339.79	1753.44
340.018	1893.44
340.246	1985.44
340.474	1960.44
340.702	1895.44
340.93	1934.44
341.158	1900.44
341.386	1872.44
341.614	1843.44
341.842	1788.44
342.07	1821.44
342.298	1847.44
342.526	1857.44
342.754	1790.44
342.981	1814.44
343.209	1814.44
343.437	1802.44
343.665	1822.44
343.893	1849.44
344.12	1950.44
344.348	1960.44
344.576	1864.44
344.804	1820.44
345.031	1811.44
345.259	1844.44
345.487	1740.44
345.714	1713.44
345.942	1692.44
346.17	1678.44
346.397	1746.44
346.625	1742.44
346.853	1637.44
347.08	1612.44
347.308	1609.44
347.535	1668.44
347.763	1748.44
347.99	1669.44
348.218	1625.44
348.445	1654.44
348.673	1689.44
348.9	1725.44
349.128	1788.44
349.355	1861.44
349.583	1760.44
349.81	1722.44
350.037	1582.44
350.265	1564.44
350.492	1610.44
350.72	1631.44
350.947	1692.44
351.174	1754.44
351.402	1692.44
351.629	1598.44
351.856	1598.44
352.083	1584.44
352.311	1583.44
352.538	1624.44
352.765	1703.44
352.992	1740.44
353.22	1676.44
353.447	1588.44
353.674	1647.44
353.901	1682.44
354.128	1642.44
354.355	1653.44
354.583	1689.44
354.81	1741.44
355.037	1720.44
355.264	1713.44
355.491	1662.44
355.718	1690.44
355.945	1683.44
356.172	1653.44
356.399	1631.44
356.626	1635.44
356.853	1668.44
357.08	1767.44
357.307	1998.44
357.534	2042.44
357.761	1792.44
357.988	1628.44
358.215	1555.44
358.441	1594.44
358.668	1608.44
358.895	1630.44
359.122	1687.44
359.349	1889.44
359.576	1849.44
359.802	1699.44
360.029	1635.44
360.256	1620.44
360.483	1616.44
360.709	1629.44
360.936	1746.44
361.163	1787.44
361.39	1959.44
361.616	2098.44
361.843	2074.44
362.07	1965.44
362.296	1693.44
362.523	1630.44
362.749	1648.44
362.976	1692.44
363.203	1685.44
363.429	1651.44
363.656	1598.44
363.882	1640.44
364.109	1818.44
364.335	2020.44
364.562	1862.44
364.788	1814.44
365.015	1680.44
365.241	1616.44
365.468	1656.44
365.694	1752.44
365.92	1812.44
366.147	1724.44
366.373	1621.44
366.599	1628.44
366.826	1591.44
367.052	1600.44
367.278	1625.44
367.505	1669.44
367.731	1681.44
367.957	1673.44
368.184	1726.44
368.41	1817.44
368.636	1836.44
368.862	1836.44
369.089	1908.44
369.315	1843.44
369.541	1774.44
369.767	1666.44
369.993	1631.44
370.219	1641.44
370.445	1640.44
370.672	1745.44
370.898	1846.44
371.124	1912.44
371.35	1727.44
371.576	1780.44
371.802	1876.44
372.028	1773.44
372.254	1705.44
372.48	1653.44
372.706	1607.44
372.932	1667.44
373.158	1662.44
373.384	1733.44
373.61	1791.44
373.835	1883.44
374.061	1773.44
374.287	1735.44
374.513	1758.44
374.739	1737.44
374.965	1752.44
375.191	1745.44
375.416	1781.44
375.642	1785.44
375.868	1889.44
376.094	1971.44
376.319	1841.44
376.545	1738.44
376.771	1752.44
376.997	1897.44
377.222	1855.44
377.448	1780.44
377.674	1825.44
377.899	1794.44
378.125	1870.44
378.35	1902.44
378.576	1735.44
378.802	1710.44
379.027	1684.44
379.253	1682.44
379.478	1729.44
379.704	1755.44
379.929	1752.44
380.155	1719.44
380.38	1750.44
380.606	1764.44
380.831	1732.44
381.057	1838.44
381.282	1878.44
381.507	1801.44
381.733	1924.44
381.958	2036.44
382.184	1872.44
382.409	1782.44
382.634	1839.44
382.86	1799.44
383.085	1808.44
383.31	1868.44
383.535	1997.44
383.761	2140.44
383.986	2047.44
384.211	1970.44
384.436	1904.44
384.662	2012.44
384.887	2148.44
385.112	1987.44
385.337	2008.44
385.562	2033.44
385.787	2021.44
386.013	2043.44
386.238	2023.44
386.463	2035.44
386.688	2144.44
386.913	2308.44
387.138	2254.44
387.363	2066.44
387.588	2087.44
387.813	2003.44
388.038	2057.44
388.263	2127.44
388.488	2049.44
388.713	1904.44
388.938	1872.44
389.163	1907.44
389.387	1941.44
389.612	1946.44
389.837	2025.44
390.062	2033.44
390.287	1982.44
390.512	1956.44
390.736	1976.44
390.961	1947.44
391.186	1892.44
391.411	1908.44
391.636	1937.44
391.86	1995.44
392.085	1968.44
392.31	1950.44
392.534	1916.44
392.759	2001.44
392.984	1983.44
393.208	2031.44
393.433	2048.44
393.658	2132.44
393.882	2149.44
394.107	2030.44
394.331	1997.44
394.556	1938.44
394.78	1956.44
395.005	2035.44
395.229	2109.44
395.454	2255.44
395.678	2334.44
395.903	2203.44
396.127	2061.44
396.352	2076.44
396.576	2140.44
396.801	2196.44
397.025	2172.44
397.249	2200.44
397.474	2151.44
397.698	2150.44
397.922	2186.44
398.147	2301.44
398.371	2408.44
398.595	2398.44
398.82	2272.44
399.044	2279.44
399.268	2465.44
399.492	2541.44
399.717	2639.44
399.941	2679.44
400.165	2604.44
400.389	2509.44
400.613	2530.44
400.837	2698.44
401.062	3172.44
401.286	2764.44
401.51	2450.44
401.734	2626.44
401.958	2557.44
402.182	2361.44
402.406	2275.44
402.63	2238.44
402.854	2261.44
403.078	2260.44
403.302	2390.44
403.526	2391.44
403.75	2340.44
403.974	2367.44
404.198	2311.44
404.422	2411.44
404.645	2566.44
404.869	2536.44
405.093	2367.44
405.317	2278.44
405.541	2367.44
405.765	2393.44
405.988	2315.44
406.212	2438.44
406.436	2447.44
406.66	2503.44
406.883	2535.44
407.107	2842.44
407.331	3130.44
407.555	3358.44
407.778	3103.44
408.002	2560.44
408.226	2486.44
408.449	2474.44
408.673	2408.44
408.896	2434.44
409.12	2510.44
409.344	2430.44
409.567	2341.44
409.791	2376.44
410.014	2427.44
410.238	2537.44
410.461	2725.44
410.685	2399.44
410.908	2291.44
411.132	2360.44
411.355	2365.44
411.578	2280.44
411.802	2287.44
412.025	2355.44
412.249	2302.44
412.472	2227.44
412.695	2210.44
412.919	2205.44
413.142	2232.44
413.365	2270.44
413.589	2343.44
413.812	2452.44
414.035	2527.44
414.258	2292.44
414.482	2228.44
414.705	2265.44
414.928	2248.44
415.151	2224.44
415.374	2241.44
415.597	2303.44
415.821	2337.44
416.044	2405.44
416.267	2396.44
416.49	2138.44
416.713	2152.44
416.936	2237.44
417.159	2310.44
417.382	2381.44
417.605	2193.44
417.828	2262.44
418.051	2305.44
418.274	2214.44
418.497	2190.44
418.72	2167.44
418.943	2141.44
419.166	2329.44
419.389	2402.44
419.611	2246.44
419.834	2231.44
420.057	2236.44
420.28	2193.44
420.503	2168.44
420.726	2220.44
420.948	2254.44
421.171	2127.44
421.394	2194.44
421.617	2229.44
421.839	2201.44
422.062	2199.44
422.285	2119.44
422.507	2153.44
422.73	2127.44
422.953	2064.44
423.175	2090.44
423.398	2133.44
423.621	2137.44
423.843	2147.44
424.066	2183.44
424.288	2322.44
424.511	2348.44
424.733	2273.44
424.956	2064.44
425.178	2056.44
425.401	2077.44
425.623	2127.44
425.846	2094.44
426.068	2225.44
426.291	2244.44
426.513	2264.44
426.735	2197.44
426.958	2354.44
427.18	2471.44
427.402	2282.44
427.625	2355.44
427.847	2378.44
428.069	2218.44
428.292	2120.44
428.514	2035.44
428.736	2046.44
428.958	2080.44
429.181	2147.44
429.403	2391.44
429.625	2953.44
429.847	2605.44
430.069	2169.44
430.292	2386.44
430.514	2492.44
430.736	2274.44
430.958	2384.44
431.18	2309.44
431.402	2148.44
431.624	2111.44
431.846	2088.44
432.068	2074.44
432.29	2132.44
432.512	2128.44
432.734	2149.44
432.956	2234.44
433.178	2258.44
433.4	2272.44
433.622	2258.44
433.844	2187.44
434.066	2087.44
434.287	2114.44
434.509	2171.44
434.731	2241.44
434.953	2433.44
435.175	2328.44
435.397	2174.44
435.618	2246.44
435.84	2258.44
436.062	2221.44
436.284	2195.44
436.505	2203.44
436.727	2277.44
436.949	2181.44
437.17	2153.44
437.392	2148.44
437.614	2122.44
437.835	2075.44
438.057	2200.44
438.278	2351.44
438.5	2146.44
438.721	2112.44
438.943	2138.44
439.165	2078.44
439.386	2064.44
439.608	2086.44
439.829	2110.44
440.05	2106.44
440.272	2069.44
440.493	2014.44
440.715	2079.44
440.936	2238.44
441.158	2478.44
441.379	2398.44
441.6	2305.44
441.822	2302.44
442.043	2238.44
442.264	2187.44
442.486	2119.44
442.707	2076.44
442.928	2070.44
443.149	2146.44
443.371	2318.44
443.592	2384.44
443.813	2333.44
444.034	2259.44
444.255	2304.44
444.476	2330.44
444.698	2365.44
444.919	2381.44
445.14	2454.44
445.361	2462.44
445.582	2528.44
445.803	2426.44
446.024	2324.44
446.245	2396.44
446.466	2328.44
446.687	2190.44
446.908	2206.44
447.129	2096.44
447.35	2172.44
447.571	2150.44
447.792	2080.44
448.013	2030.44
448.234	2093.44
448.455	2175.44
448.675	2205.44
448.896	2035.44
449.117	1968.44
449.338	2087.44
449.559	2141.44
449.779	2299.44
450	2533.44
450.221	2677.44
450.442	2590.44
450.662	2298.44
450.883	1989.44
451.104	1918.44
451.324	2032.44
451.545	2119.44
451.766	2106.44
451.986	1994.44
452.207	1916.44
452.428	1874.44
452.648	1854.44
452.869	1919.44
453.089	2102.44
453.31	2076.44
453.53	2156.44
453.751	2006.44
453.971	1923.44
454.192	1932.44
454.412	2148.44
454.633	2057.44
454.853	1964.44
455.073	1856.44
455.294	1814.44
455.514	1833.44
455.734	1838.44
455.955	1916.44
456.175	1886.44
456.395	1874.44
456.616	1957.44
456.836	1975.44
457.056	1941.44
457.276	1965.44
457.497	1889.44
457.717	1817.44
457.937	1836.44
458.157	1894.44
458.377	1876.44
458.598	1876.44
458.818	1865.44
459.038	2020.44
459.258	2152.44
459.478	2144.44
459.698	2088.44
459.918	2132.44
460.138	2198.44
460.358	2254.44
460.578	2216.44
460.798	2321.44
461.018	2457.44
461.238	2395.44
461.458	2234.44
461.678	2260.44
461.898	2188.44
462.118	2133.44
462.338	2184.44
462.558	2240.44
462.777	2186.44
462.997	2344.44
463.217	2532.44
463.437	2488.44
463.657	2289.44
463.876	2261.44
464.096	2265.44
464.316	2246.44
464.536	2375.44
464.755	2353.44
464.975	2385.44
465.195	2300.44
465.414	2370.44
465.634	2383.44
465.854	2231.44
466.073	2397.44
466.293	2403.44
466.512	2073.44
466.732	2034.44
466.951	2180.44
467.171	2193.44
467.391	2053.44
467.61	1976.44
467.829	2002.44
468.049	2189.44
468.268	2481.44
468.488	2291.44
468.707	2204.44
468.927	2104.44
469.146	2078.44
469.365	1983.44
469.585	2053.44
469.804	2026.44
470.023	2056.44
470.243	2124.44
470.462	2046.44
470.681	2002.44
470.901	2081.44
471.12	2060.44
471.339	2034.44
471.558	1944.44
471.777	1953.44
471.997	2002.44
472.216	2029.44
472.435	1957.44
472.654	1958.44
472.873	2055.44
473.092	2186.44
473.311	2137.44
473.53	1986.44
473.749	1961.44
473.968	2034.44
474.187	2131.44
474.406	2241.44
474.625	2142.44
474.844	2091.44
475.063	2089.44
475.282	2135.44
475.501	2063.44
475.72	2097.44
475.939	2227.44
476.158	2129.44
476.377	2087.44
476.596	2068.44
476.814	2179.44
477.033	2194.44
477.252	2276.44
477.471	2321.44
477.69	2218.44
477.908	2181.44
478.127	2266.44
478.346	2501.44
478.564	2510.44
478.783	2461.44
479.002	2530.44
479.22	2487.44
479.439	2548.44
479.658	2921.44
479.876	2885.44
480.095	2508.44
480.313	2428.44
480.532	2271.44
480.751	2316.44
480.969	2429.44
481.188	2348.44
481.406	2291.44
481.624	2207.44
481.843	2275.44
482.061	2366.44
482.28	2365.44
482.498	2439.44
482.717	2438.44
482.935	2230.44
483.153	2246.44
483.372	2303.44
483.59	2240.44
483.808	2280.44
484.027	2353.44
484.245	2488.44
484.463	2834.44
484.681	3272.44
484.9	2543.44
485.118	2334.44
485.336	2348.44
485.554	2441.44
485.772	2523.44
485.99	2477.44
486.209	2489.44
486.427	2462.44
486.645	2452.44
486.863	2420.44
487.081	2495.44
487.299	2569.44
