Data from WStandard_LampEnergy8_LIBS07252019.E.O._I.C._HRD10591_16-00-13-929.txt Node
Date: Thu Jul 25 16:00:13 EDT 2019
User: cochatt
Spectrometer: HR+D1059
Trigger mode: 1
Integration Time (sec): 1.000000E-1
Scans to average: 1
Electric dark correction enabled: true
Nonlinearity correction enabled: false
Boxcar width: 0
XAxis mode: Wavelengths
Number of Pixels in Spectrum: 2048
>>>>>Begin Spectral Data<<<<<
223.165	-12.88
223.4	-12.88
223.635	-12.88
223.869	-36.88
224.104	-11.88
224.338	-0.88
224.573	-18.88
224.808	-7.88
225.042	-5.88
225.277	-14.88
225.511	4.12
225.746	5.12
225.98	7.12
226.215	11.12
226.449	12.12
226.683	29.12
226.918	16.12
227.152	25.12
227.387	29.12
227.621	30.12
227.856	24.12
228.09	61.12
228.324	49.12
228.559	39.12
228.793	93.12
229.027	186.12
229.262	205.12
229.496	219.12
229.73	226.12
229.964	235.12
230.199	256.12
230.433	264.12
230.667	271.12
230.901	301.12
231.136	263.12
231.37	250.12
231.604	242.12
231.838	264.12
232.072	266.12
232.306	255.12
232.541	260.12
232.775	309.12
233.009	320.12
233.243	314.12
233.477	291.12
233.711	306.12
233.945	315.12
234.179	286.12
234.413	310.12
234.647	339.12
234.881	304.12
235.115	291.12
235.349	294.12
235.583	295.12
235.817	286.12
236.051	306.12
236.285	292.12
236.519	322.12
236.753	358.12
236.987	353.12
237.221	357.12
237.455	379.12
237.689	369.12
237.922	352.12
238.156	343.12
238.39	342.12
238.624	359.12
238.858	380.12
239.091	405.12
239.325	419.12
239.559	450.12
239.793	469.12
240.027	527.12
240.26	480.12
240.494	367.12
240.728	351.12
240.961	382.12
241.195	375.12
241.429	395.12
241.662	394.12
241.896	387.12
242.13	387.12
242.363	434.12
242.597	467.12
242.83	447.12
243.064	443.12
243.298	472.12
243.531	465.12
243.765	454.12
243.998	432.12
244.232	396.12
244.465	399.12
244.699	412.12
244.932	461.12
245.166	516.12
245.399	477.12
245.633	449.12
245.866	453.12
246.099	479.12
246.333	469.12
246.566	501.12
246.8	516.12
247.033	572.12
247.266	518.12
247.5	512.12
247.733	538.12
247.966	546.12
248.2	610.12
248.433	555.12
248.666	593.12
248.899	677.12
249.133	726.12
249.366	796.12
249.599	674.12
249.832	590.12
250.066	624.12
250.299	625.12
250.532	603.12
250.765	534.12
250.998	565.12
251.231	582.12
251.465	616.12
251.698	547.12
251.931	574.12
252.164	587.12
252.397	578.12
252.63	581.12
252.863	531.12
253.096	549.12
253.329	565.12
253.562	563.12
253.795	625.12
254.028	615.12
254.261	573.12
254.494	570.12
254.727	545.12
254.96	579.12
255.193	645.12
255.426	703.12
255.659	754.12
255.892	768.12
256.124	651.12
256.357	649.12
256.59	679.12
256.823	691.12
257.056	704.12
257.289	837.12
257.521	881.12
257.754	785.12
257.987	783.12
258.22	841.12
258.452	787.12
258.685	674.12
258.918	652.12
259.151	679.12
259.383	594.12
259.616	569.12
259.849	593.12
260.081	673.12
260.314	730.12
260.547	793.12
260.779	784.12
261.012	741.12
261.244	672.12
261.477	662.12
261.71	685.12
261.942	663.12
262.175	680.12
262.407	671.12
262.64	643.12
262.872	638.12
263.105	614.12
263.337	610.12
263.57	622.12
263.802	609.12
264.035	581.12
264.267	548.12
264.499	556.12
264.732	609.12
264.964	618.12
265.197	674.12
265.429	697.12
265.661	765.12
265.894	851.12
266.126	856.12
266.358	770.12
266.591	823.12
266.823	843.12
267.055	786.12
267.287	749.12
267.52	758.12
267.752	758.12
267.984	768.12
268.216	803.12
268.448	806.12
268.681	771.12
268.913	706.12
269.145	682.12
269.377	676.12
269.609	749.12
269.841	878.12
270.073	995.12
270.306	1073.12
270.538	1089.12
270.77	961.12
271.002	814.12
271.234	800.12
271.466	806.12
271.698	907.12
271.93	1029.12
272.162	1048.12
272.394	936.12
272.626	904.12
272.858	777.12
273.09	728.12
273.322	687.12
273.553	657.12
273.785	674.12
274.017	726.12
274.249	765.12
274.481	754.12
274.713	699.12
274.945	704.12
275.176	695.12
275.408	680.12
275.64	665.12
275.872	674.12
276.104	735.12
276.335	833.12
276.567	920.12
276.799	898.12
277.031	798.12
277.262	785.12
277.494	841.12
277.726	871.12
277.957	864.12
278.189	768.12
278.421	773.12
278.652	735.12
278.884	733.12
279.115	749.12
279.347	715.12
279.579	739.12
279.81	725.12
280.042	809.12
280.273	836.12
280.505	849.12
280.736	842.12
280.968	789.12
281.199	727.12
281.431	691.12
281.662	700.12
281.894	709.12
282.125	743.12
282.356	752.12
282.588	737.12
282.819	794.12
283.051	815.12
283.282	904.12
283.513	845.12
283.745	745.12
283.976	729.12
284.207	722.12
284.439	725.12
284.67	737.12
284.901	777.12
285.132	779.12
285.364	757.12
285.595	774.12
285.826	734.12
286.057	724.12
286.288	735.12
286.52	788.12
286.751	849.12
286.982	888.12
287.213	777.12
287.444	708.12
287.675	763.12
287.906	809.12
288.138	805.12
288.369	785.12
288.6	755.12
288.831	753.12
289.062	741.12
289.293	728.12
289.524	767.12
289.755	789.12
289.986	771.12
290.217	742.12
290.448	727.12
290.679	795.12
290.91	770.12
291.141	803.12
291.371	814.12
291.602	813.12
291.833	804.12
292.064	825.12
292.295	813.12
292.526	838.12
292.757	843.12
292.987	805.12
293.218	786.12
293.449	857.12
293.68	939.12
293.91	977.12
294.141	943.12
294.372	914.12
294.603	914.12
294.833	938.12
295.064	910.12
295.295	839.12
295.525	802.12
295.756	729.12
295.987	734.12
296.217	769.12
296.448	737.12
296.679	750.12
296.909	765.12
297.14	749.12
297.37	741.12
297.601	826.12
297.831	856.12
298.062	847.12
298.292	785.12
298.523	785.12
298.753	782.12
298.984	787.12
299.214	786.12
299.445	835.12
299.675	871.12
299.905	849.12
300.136	806.12
300.366	791.12
300.597	765.12
300.827	781.12
301.057	813.12
301.288	853.12
301.518	842.12
301.748	869.12
301.979	903.12
302.209	925.12
302.439	965.12
302.669	978.12
302.9	929.12
303.13	858.12
303.36	816.12
303.59	864.12
303.82	860.12
304.051	818.12
304.281	838.12
304.511	899.12
304.741	955.12
304.971	1011.12
305.201	1061.12
305.431	970.12
305.661	819.12
305.891	755.12
306.121	761.12
306.352	791.12
306.582	832.12
306.812	891.12
307.042	939.12
307.272	933.12
307.502	986.12
307.731	1059.12
307.961	1081.12
308.191	965.12
308.421	855.12
308.651	829.12
308.881	834.12
309.111	858.12
309.341	822.12
309.571	833.12
309.8	843.12
310.03	811.12
310.26	815.12
310.49	804.12
310.72	797.12
310.949	871.12
311.179	864.12
311.409	857.12
311.639	849.12
311.868	821.12
312.098	822.12
312.328	841.12
312.557	855.12
312.787	865.12
313.017	858.12
313.246	859.12
313.476	855.12
313.706	863.12
313.935	909.12
314.165	871.12
314.394	927.12
314.624	990.12
314.853	1003.12
315.083	1054.12
315.312	1075.12
315.542	967.12
315.771	893.12
316.001	895.12
316.23	933.12
316.46	936.12
316.689	913.12
316.919	864.12
317.148	863.12
317.377	896.12
317.607	943.12
317.836	1058.12
318.065	1074.12
318.295	1022.12
318.524	994.12
318.753	971.12
318.983	941.12
319.212	918.12
319.441	919.12
319.67	889.12
319.9	915.12
320.129	984.12
320.358	1020.12
320.587	1026.12
320.816	1020.12
321.046	988.12
321.275	962.12
321.504	959.12
321.733	1033.12
321.962	991.12
322.191	941.12
322.42	944.12
322.649	895.12
322.878	896.12
323.108	938.12
323.337	961.12
323.566	965.12
323.795	915.12
324.024	943.12
324.253	925.12
324.482	946.12
324.71	890.12
324.939	864.12
325.168	879.12
325.397	925.12
325.626	932.12
325.855	935.12
326.084	904.12
326.313	908.12
326.542	934.12
326.77	970.12
326.999	966.12
327.228	951.12
327.457	849.12
327.686	879.12
327.914	903.12
328.143	932.12
328.372	900.12
328.6	905.12
328.829	901.12
329.058	890.12
329.287	909.12
329.515	951.12
329.744	953.12
329.972	1030.12
330.201	1051.12
330.43	1006.12
330.658	977.12
330.887	984.12
331.115	971.12
331.344	994.12
331.572	959.12
331.801	972.12
332.03	992.12
332.258	994.12
332.486	984.12
332.715	955.12
332.943	1009.12
333.172	993.12
333.4	993.12
333.629	1009.12
333.857	1117.12
334.085	1206.12
334.314	1353.12
334.542	1413.12
334.771	1293.12
334.999	1152.12
335.227	1067.12
335.455	1057.12
335.684	1033.12
335.912	1066.12
336.14	1057.12
336.369	1069.12
336.597	1011.12
336.825	1006.12
337.053	1027.12
337.281	1066.12
337.51	1163.12
337.738	1176.12
337.966	1089.12
338.194	983.12
338.422	999.12
338.65	960.12
338.878	965.12
339.106	961.12
339.334	936.12
339.562	904.12
339.79	941.12
340.018	1038.12
340.246	1029.12
340.474	1037.12
340.702	1001.12
340.93	1025.12
341.158	1022.12
341.386	1004.12
341.614	985.12
341.842	987.12
342.07	963.12
342.298	987.12
342.526	980.12
342.754	975.12
342.981	978.12
343.209	982.12
343.437	934.12
343.665	986.12
343.893	1025.12
344.12	1038.12
344.348	1020.12
344.576	1027.12
344.804	979.12
345.031	984.12
345.259	985.12
345.487	939.12
345.714	903.12
345.942	906.12
346.17	922.12
346.397	928.12
346.625	925.12
346.853	919.12
347.08	883.12
347.308	919.12
347.535	911.12
347.763	927.12
347.99	915.12
348.218	911.12
348.445	905.12
348.673	912.12
348.9	944.12
349.128	968.12
349.355	983.12
349.583	974.12
349.81	919.12
350.037	857.12
350.265	867.12
350.492	870.12
350.72	895.12
350.947	957.12
351.174	929.12
351.402	873.12
351.629	848.12
351.856	845.12
352.083	857.12
352.311	869.12
352.538	891.12
352.765	917.12
352.992	933.12
353.22	882.12
353.447	885.12
353.674	914.12
353.901	917.12
354.128	916.12
354.355	902.12
354.583	933.12
354.81	931.12
355.037	944.12
355.264	958.12
355.491	936.12
355.718	921.12
355.945	903.12
356.172	910.12
356.399	888.12
356.626	878.12
356.853	933.12
357.08	1033.12
357.307	1120.12
357.534	1057.12
357.761	943.12
357.988	899.12
358.215	851.12
358.441	855.12
358.668	886.12
358.895	919.12
359.122	967.12
359.349	1034.12
359.576	1005.12
359.802	905.12
360.029	889.12
360.256	892.12
360.483	895.12
360.709	902.12
360.936	981.12
361.163	1025.12
361.39	1101.12
361.616	1174.12
361.843	1122.12
362.07	1040.12
362.296	937.12
362.523	906.12
362.749	935.12
362.976	925.12
363.203	937.12
363.429	912.12
363.656	892.12
363.882	945.12
364.109	1051.12
364.335	1083.12
364.562	1011.12
364.788	980.12
365.015	923.12
365.241	902.12
365.468	964.12
365.694	980.12
365.92	981.12
366.147	942.12
366.373	895.12
366.599	899.12
366.826	907.12
367.052	905.12
367.278	888.12
367.505	924.12
367.731	903.12
367.957	957.12
368.184	994.12
368.41	1050.12
368.636	1037.12
368.862	1066.12
369.089	1093.12
369.315	998.12
369.541	967.12
369.767	950.12
369.993	890.12
370.219	918.12
370.445	986.12
370.672	1008.12
370.898	1034.12
371.124	1032.12
371.35	984.12
371.576	1039.12
371.802	1031.12
372.028	992.12
372.254	963.12
372.48	935.12
372.706	957.12
372.932	950.12
373.158	957.12
373.384	945.12
373.61	1001.12
373.835	1011.12
374.061	1018.12
374.287	1013.12
374.513	959.12
374.739	955.12
374.965	986.12
375.191	990.12
375.416	1010.12
375.642	1030.12
375.868	1079.12
376.094	1103.12
376.319	1048.12
376.545	1000.12
376.771	1040.12
376.997	1057.12
377.222	1030.12
377.448	1029.12
377.674	1031.12
377.899	1009.12
378.125	1104.12
378.35	1043.12
378.576	975.12
378.802	942.12
379.027	929.12
379.253	982.12
379.478	955.12
379.704	999.12
379.929	970.12
380.155	987.12
380.38	983.12
380.606	992.12
380.831	1001.12
381.057	1080.12
381.282	1062.12
381.507	1042.12
381.733	1119.12
381.958	1156.12
382.184	1066.12
382.409	1034.12
382.634	1054.12
382.86	1034.12
383.085	1027.12
383.31	1062.12
383.535	1189.12
383.761	1209.12
383.986	1137.12
384.211	1094.12
384.436	1124.12
384.662	1170.12
384.887	1192.12
385.112	1130.12
385.337	1137.12
385.562	1143.12
385.787	1126.12
386.013	1146.12
386.238	1163.12
386.463	1120.12
386.688	1225.12
386.913	1281.12
387.138	1259.12
387.363	1163.12
387.588	1167.12
387.813	1160.12
388.038	1177.12
388.263	1187.12
388.488	1170.12
388.713	1081.12
388.938	1093.12
389.163	1086.12
389.387	1117.12
389.612	1108.12
389.837	1115.12
390.062	1122.12
390.287	1137.12
390.512	1136.12
390.736	1115.12
390.961	1099.12
391.186	1057.12
391.411	1083.12
391.636	1114.12
391.86	1134.12
392.085	1079.12
392.31	1075.12
392.534	1077.12
392.759	1163.12
392.984	1151.12
393.208	1118.12
393.433	1185.12
393.658	1209.12
393.882	1214.12
394.107	1128.12
394.331	1118.12
394.556	1141.12
394.78	1135.12
395.005	1195.12
395.229	1221.12
395.454	1271.12
395.678	1298.12
395.903	1208.12
396.127	1175.12
396.352	1218.12
396.576	1240.12
396.801	1216.12
397.025	1235.12
397.249	1218.12
397.474	1207.12
397.698	1203.12
397.922	1251.12
398.147	1298.12
398.371	1336.12
398.595	1297.12
398.82	1297.12
399.044	1327.12
399.268	1370.12
399.492	1413.12
399.717	1478.12
399.941	1494.12
400.165	1431.12
400.389	1427.12
400.613	1432.12
400.837	1637.12
401.062	1762.12
401.286	1483.12
401.51	1405.12
401.734	1477.12
401.958	1415.12
402.182	1318.12
402.406	1267.12
402.63	1268.12
402.854	1250.12
403.078	1289.12
403.302	1303.12
403.526	1343.12
403.75	1331.12
403.974	1328.12
404.198	1313.12
404.422	1386.12
404.645	1481.12
404.869	1439.12
405.093	1321.12
405.317	1281.12
405.541	1334.12
405.765	1334.12
405.988	1351.12
406.212	1375.12
406.436	1384.12
406.66	1450.12
406.883	1466.12
407.107	1663.12
407.331	1813.12
407.555	1891.12
407.778	1656.12
408.002	1411.12
408.226	1391.12
408.449	1418.12
408.673	1372.12
408.896	1405.12
409.12	1416.12
409.344	1383.12
409.567	1322.12
409.791	1338.12
410.014	1394.12
410.238	1477.12
410.461	1517.12
410.685	1357.12
410.908	1346.12
411.132	1344.12
411.355	1369.12
411.578	1305.12
411.802	1329.12
412.025	1361.12
412.249	1329.12
412.472	1282.12
412.695	1296.12
412.919	1299.12
413.142	1285.12
413.365	1295.12
413.589	1339.12
413.812	1377.12
414.035	1405.12
414.258	1290.12
414.482	1297.12
414.705	1314.12
414.928	1280.12
415.151	1264.12
415.374	1286.12
415.597	1342.12
415.821	1326.12
416.044	1348.12
416.267	1366.12
416.49	1251.12
416.713	1249.12
416.936	1334.12
417.159	1347.12
417.382	1362.12
417.605	1278.12
417.828	1290.12
418.051	1328.12
418.274	1299.12
418.497	1292.12
418.72	1291.12
418.943	1274.12
419.166	1320.12
419.389	1361.12
419.611	1269.12
419.834	1304.12
420.057	1337.12
420.28	1279.12
420.503	1297.12
420.726	1329.12
420.948	1305.12
421.171	1231.12
421.394	1254.12
421.617	1346.12
421.839	1340.12
422.062	1326.12
422.285	1290.12
422.507	1283.12
422.73	1221.12
422.953	1218.12
423.175	1208.12
423.398	1275.12
423.621	1262.12
423.843	1255.12
424.066	1299.12
424.288	1337.12
424.511	1398.12
424.733	1361.12
424.956	1241.12
425.178	1257.12
425.401	1254.12
425.623	1255.12
425.846	1270.12
426.068	1317.12
426.291	1325.12
426.513	1303.12
426.735	1328.12
426.958	1439.12
427.18	1487.12
427.402	1346.12
427.625	1393.12
427.847	1341.12
428.069	1277.12
428.292	1237.12
428.514	1217.12
428.736	1215.12
428.958	1252.12
429.181	1234.12
429.403	1454.12
429.625	1748.12
429.847	1471.12
430.069	1289.12
430.292	1433.12
430.514	1438.12
430.736	1371.12
430.958	1387.12
431.18	1298.12
431.402	1213.12
431.624	1207.12
431.846	1141.12
432.068	1145.12
432.29	1135.12
432.512	1167.12
432.734	1275.12
432.956	1289.12
433.178	1328.12
433.4	1295.12
433.622	1309.12
433.844	1243.12
434.066	1203.12
434.287	1178.12
434.509	1187.12
434.731	1257.12
434.953	1349.12
435.175	1317.12
435.397	1263.12
435.618	1255.12
435.84	1261.12
436.062	1233.12
436.284	1261.12
436.505	1298.12
436.727	1301.12
436.949	1285.12
437.17	1217.12
437.392	1196.12
437.614	1211.12
437.835	1162.12
438.057	1196.12
438.278	1239.12
438.5	1207.12
438.721	1190.12
438.943	1197.12
439.165	1227.12
439.386	1219.12
439.608	1236.12
439.829	1229.12
440.05	1221.12
440.272	1243.12
440.493	1240.12
440.715	1293.12
440.936	1361.12
441.158	1394.12
441.379	1358.12
441.6	1351.12
441.822	1341.12
442.043	1325.12
442.264	1303.12
442.486	1238.12
442.707	1253.12
442.928	1242.12
443.149	1294.12
443.371	1346.12
443.592	1370.12
443.813	1352.12
444.034	1355.12
444.255	1342.12
444.476	1379.12
444.698	1418.12
444.919	1372.12
445.14	1502.12
445.361	1441.12
445.582	1446.12
445.803	1383.12
446.024	1350.12
446.245	1420.12
446.466	1351.12
446.687	1303.12
446.908	1317.12
447.129	1305.12
447.35	1300.12
447.571	1271.12
447.792	1232.12
448.013	1215.12
448.234	1242.12
448.455	1283.12
448.675	1295.12
448.896	1215.12
449.117	1183.12
449.338	1204.12
449.559	1277.12
449.779	1339.12
450	1417.12
450.221	1459.12
450.442	1425.12
450.662	1243.12
450.883	1158.12
451.104	1159.12
451.324	1178.12
451.545	1205.12
451.766	1187.12
451.986	1119.12
452.207	1156.12
452.428	1092.12
452.648	1059.12
452.869	1090.12
453.089	1145.12
453.31	1145.12
453.53	1146.12
453.751	1099.12
453.971	1066.12
454.192	1069.12
454.412	1137.12
454.633	1149.12
454.853	1095.12
455.073	1079.12
455.294	1049.12
455.514	1066.12
455.734	1075.12
455.955	1085.12
456.175	1063.12
456.395	1084.12
456.616	1059.12
456.836	1089.12
457.056	1082.12
457.276	1081.12
457.497	1041.12
457.717	1014.12
457.937	1043.12
458.157	1042.12
458.377	1030.12
458.598	1052.12
458.818	1026.12
459.038	1083.12
459.258	1153.12
459.478	1103.12
459.698	1102.12
459.918	1151.12
460.138	1199.12
460.358	1256.12
460.578	1233.12
460.798	1277.12
461.018	1344.12
461.238	1312.12
461.458	1245.12
461.678	1267.12
461.898	1188.12
462.118	1172.12
462.338	1226.12
462.558	1285.12
462.777	1232.12
462.997	1309.12
463.217	1349.12
463.437	1349.12
463.657	1264.12
463.876	1275.12
464.096	1227.12
464.316	1265.12
464.536	1265.12
464.755	1290.12
464.975	1285.12
465.195	1270.12
465.414	1322.12
465.634	1290.12
465.854	1265.12
466.073	1382.12
466.293	1319.12
466.512	1186.12
466.732	1194.12
466.951	1269.12
467.171	1223.12
467.391	1194.12
467.61	1162.12
467.829	1195.12
468.049	1307.12
468.268	1423.12
468.488	1309.12
468.707	1237.12
468.927	1224.12
469.146	1179.12
469.365	1190.12
469.585	1209.12
469.804	1191.12
470.023	1213.12
470.243	1263.12
470.462	1206.12
470.681	1227.12
470.901	1205.12
471.12	1206.12
471.339	1222.12
471.558	1213.12
471.777	1184.12
471.997	1202.12
472.216	1205.12
472.435	1097.12
472.654	1115.12
472.873	1194.12
473.092	1222.12
473.311	1183.12
473.53	1152.12
473.749	1155.12
473.968	1152.12
474.187	1214.12
474.406	1247.12
474.625	1186.12
474.844	1199.12
475.063	1206.12
475.282	1227.12
475.501	1161.12
475.72	1172.12
475.939	1246.12
476.158	1209.12
476.377	1209.12
476.596	1207.12
476.814	1181.12
477.033	1224.12
477.252	1250.12
477.471	1293.12
477.69	1301.12
477.908	1268.12
478.127	1339.12
478.346	1409.12
478.564	1394.12
478.783	1428.12
479.002	1455.12
479.22	1414.12
479.439	1454.12
479.658	1569.12
479.876	1489.12
480.095	1337.12
480.313	1333.12
480.532	1266.12
480.751	1271.12
480.969	1261.12
481.188	1265.12
481.406	1261.12
481.624	1209.12
481.843	1272.12
482.061	1239.12
482.28	1333.12
482.498	1355.12
482.717	1307.12
482.935	1281.12
483.153	1353.12
483.372	1362.12
483.59	1350.12
483.808	1371.12
484.027	1386.12
484.245	1436.12
484.463	1745.12
484.681	1885.12
484.9	1458.12
485.118	1369.12
485.336	1305.12
485.554	1345.12
485.772	1418.12
485.99	1359.12
486.209	1376.12
486.427	1374.12
486.645	1396.12
486.863	1429.12
487.081	1411.12
487.299	1471.12
487.517	1447.12
487.735	1493.12
487.953	1519.12
488.171	1494.12
488.389	1466.12
488.607	1439.12
488.825	1589.12
489.043	1514.12
489.261	1399.12
489.479	1461.12
489.696	1470.12
489.914	1434.12
490.132	1424.12
490.35	1454.12
490.568	1503.12
490.786	1487.12
491.003	1465.12
491.221	1554.12
491.439	1562.12
491.657	1577.12
491.874	1562.12
492.092	1634.12
492.31	1701.12
492.527	1646.12
492.745	1583.12
492.963	1552.12
493.18	1567.12
493.398	1661.12
493.615	1710.12
493.833	1568.12
