Data from WStandard_LampEnergy8_LIBS07252019.E.O._I.C._HRD10591_16-00-15-929.txt Node
Date: Thu Jul 25 16:00:15 EDT 2019
User: cochatt
Spectrometer: HR+D1059
Trigger mode: 1
Integration Time (sec): 1.000000E-1
Scans to average: 1
Electric dark correction enabled: true
Nonlinearity correction enabled: false
Boxcar width: 0
XAxis mode: Wavelengths
Number of Pixels in Spectrum: 2048
>>>>>Begin Spectral Data<<<<<
223.165	-1
223.4	-1
223.635	-1
223.869	-18
224.104	-14
224.338	-21
224.573	-14
224.808	-8
225.042	-3
225.277	-12
225.511	-2
225.746	-4
225.98	9
226.215	6
226.449	21
226.683	8
226.918	12
227.152	41
227.387	31
227.621	30
227.856	37
228.09	48
228.324	43
228.559	53
228.793	93
229.027	192
229.262	205
229.496	214
229.73	236
229.964	247
230.199	249
230.433	265
230.667	276
230.901	268
231.136	266
231.37	261
231.604	254
231.838	270
232.072	250
232.306	256
232.541	299
232.775	298
233.009	332
233.243	310
233.477	283
233.711	292
233.945	299
234.179	288
234.413	297
234.647	324
234.881	308
235.115	290
235.349	304
235.583	309
235.817	317
236.051	288
236.285	299
236.519	311
236.753	352
236.987	374
237.221	345
237.455	374
237.689	381
237.922	346
238.156	341
238.39	359
238.624	363
238.858	370
239.091	398
239.325	407
239.559	456
239.793	481
240.027	510
240.26	492
240.494	374
240.728	353
240.961	375
241.195	371
241.429	399
241.662	406
241.896	375
242.13	398
242.363	437
242.597	456
242.83	439
243.064	438
243.298	476
243.531	480
243.765	474
243.998	454
244.232	380
244.465	414
244.699	409
244.932	461
245.166	503
245.399	487
245.633	454
245.866	439
246.099	448
246.333	503
246.566	473
246.8	503
247.033	552
247.266	537
247.5	490
247.733	531
247.966	558
248.2	615
248.433	567
248.666	609
248.899	652
249.133	739
249.366	783
249.599	676
249.832	617
250.066	609
250.299	612
250.532	599
250.765	544
250.998	571
251.231	588
251.465	618
251.698	556
251.931	567
252.164	597
252.397	605
252.63	581
252.863	543
253.096	548
253.329	553
253.562	571
253.795	603
254.028	620
254.261	572
254.494	572
254.727	553
254.96	568
255.193	633
255.426	696
255.659	768
255.892	781
256.124	679
256.357	654
256.59	684
256.823	702
257.056	722
257.289	802
257.521	871
257.754	800
257.987	774
258.22	862
258.452	780
258.685	665
258.918	691
259.151	650
259.383	606
259.616	606
259.849	627
260.081	690
260.314	752
260.547	774
260.779	801
261.012	742
261.244	668
261.477	682
261.71	673
261.942	680
262.175	682
262.407	706
262.64	678
262.872	620
263.105	609
263.337	599
263.57	646
263.802	622
264.035	596
264.267	545
264.499	580
264.732	611
264.964	642
265.197	660
265.429	702
265.661	776
265.894	861
266.126	862
266.358	778
266.591	816
266.823	836
267.055	762
267.287	774
267.52	753
267.752	754
267.984	770
268.216	772
268.448	827
268.681	750
268.913	711
269.145	694
269.377	664
269.609	772
269.841	884
270.073	973
270.306	1102
270.538	1111
270.77	940
271.002	828
271.234	797
271.466	821
271.698	909
271.93	1075
272.162	1030
272.394	917
272.626	902
272.858	770
273.09	691
273.322	678
273.553	674
273.785	679
274.017	706
274.249	756
274.481	758
274.713	700
274.945	691
275.176	697
275.408	696
275.64	650
275.872	668
276.104	748
276.335	845
276.567	913
276.799	881
277.031	834
277.262	822
277.494	801
277.726	888
277.957	870
278.189	820
278.421	754
278.652	725
278.884	719
279.115	719
279.347	749
279.579	744
279.81	708
280.042	804
280.273	873
280.505	865
280.736	890
280.968	832
281.199	715
281.431	731
281.662	733
281.894	706
282.125	731
282.356	785
282.588	775
282.819	792
283.051	846
283.282	889
283.513	843
283.745	712
283.976	707
284.207	718
284.439	723
284.67	794
284.901	776
285.132	788
285.364	757
285.595	737
285.826	762
286.057	756
286.288	750
286.52	787
286.751	858
286.982	863
287.213	806
287.444	736
287.675	732
287.906	785
288.138	836
288.369	793
288.6	766
288.831	712
289.062	756
289.293	739
289.524	774
289.755	773
289.986	774
290.217	730
290.448	754
290.679	774
290.91	776
291.141	807
291.371	855
291.602	813
291.833	820
292.064	836
292.295	825
292.526	850
292.757	884
292.987	830
293.218	789
293.449	880
293.68	980
293.91	1001
294.141	964
294.372	920
294.603	948
294.833	958
295.064	898
295.295	833
295.525	774
295.756	769
295.987	735
296.217	774
296.448	729
296.679	802
296.909	768
297.14	766
297.37	812
297.601	824
297.831	924
298.062	874
298.292	837
298.523	789
298.753	760
298.984	810
299.214	828
299.445	823
299.675	844
299.905	849
300.136	811
300.366	782
300.597	782
300.827	774
301.057	826
301.288	833
301.518	869
301.748	875
301.979	900
302.209	923
302.439	984
302.669	1007
302.9	953
303.13	856
303.36	866
303.59	852
303.82	850
304.051	820
304.281	880
304.511	869
304.741	911
304.971	1044
305.201	1038
305.431	966
305.661	824
305.891	760
306.121	758
306.352	814
306.582	834
306.812	894
307.042	956
307.272	944
307.502	995
307.731	1074
307.961	1073
308.191	990
308.421	870
308.651	844
308.881	824
309.111	845
309.341	818
309.571	850
309.8	834
310.03	829
310.26	822
310.49	807
310.72	835
310.949	889
311.179	896
311.409	816
311.639	850
311.868	851
312.098	823
312.328	825
312.557	832
312.787	857
313.017	877
313.246	865
313.476	882
313.706	869
313.935	866
314.165	891
314.394	924
314.624	999
314.853	1016
315.083	1072
315.312	1062
315.542	983
315.771	894
316.001	926
316.23	951
316.46	931
316.689	943
316.919	908
317.148	840
317.377	905
317.607	968
317.836	1037
318.065	1062
318.295	990
318.524	984
318.753	954
318.983	928
319.212	920
319.441	899
319.67	930
319.9	964
320.129	979
320.358	993
320.587	1038
320.816	1008
321.046	1008
321.275	971
321.504	990
321.733	1052
321.962	1002
322.191	931
322.42	919
322.649	883
322.878	916
323.108	928
323.337	963
323.566	974
323.795	952
324.024	941
324.253	936
324.482	949
324.71	892
324.939	852
325.168	892
325.397	916
325.626	968
325.855	944
326.084	914
326.313	927
326.542	942
326.77	948
326.999	961
327.228	923
327.457	892
327.686	872
327.914	910
328.143	933
328.372	944
328.6	946
328.829	921
329.058	916
329.287	914
329.515	931
329.744	960
329.972	1004
330.201	1032
330.43	973
330.658	987
330.887	954
331.115	978
331.344	970
331.572	972
331.801	969
332.03	963
332.258	974
332.486	1000
332.715	992
332.943	1005
333.172	995
333.4	1002
333.629	1037
333.857	1112
334.085	1257
334.314	1376
334.542	1441
334.771	1306
334.999	1156
335.227	1074
335.455	1056
335.684	1083
335.912	1072
336.14	1100
336.369	1045
336.597	1004
336.825	1012
337.053	1038
337.281	1079
337.51	1154
337.738	1176
337.966	1088
338.194	1014
338.422	996
338.65	962
338.878	984
339.106	934
339.334	990
339.562	912
339.79	965
340.018	1024
340.246	1032
340.474	1044
340.702	1045
340.93	1037
341.158	985
341.386	1010
341.614	980
341.842	1020
342.07	987
342.298	1008
342.526	980
342.754	952
342.981	962
343.209	980
343.437	969
343.665	956
343.893	1017
344.12	1073
344.348	1037
344.576	1013
344.804	1000
345.031	970
345.259	987
345.487	969
345.714	894
345.942	918
346.17	928
346.397	924
346.625	938
346.853	911
347.08	870
347.308	908
347.535	925
347.763	949
347.99	912
348.218	880
348.445	891
348.673	908
348.9	949
349.128	960
349.355	1008
349.583	952
349.81	905
350.037	881
350.265	882
350.492	885
350.72	909
350.947	911
351.174	968
351.402	893
351.629	865
351.856	861
352.083	849
352.311	884
352.538	893
352.765	973
352.992	930
353.22	900
353.447	924
353.674	933
353.901	919
354.128	898
354.355	897
354.583	954
354.81	948
355.037	941
355.264	959
355.491	959
355.718	930
355.945	941
356.172	903
356.399	887
356.626	896
356.853	954
357.08	1018
357.307	1089
357.534	1065
357.761	946
357.988	867
358.215	866
358.441	885
358.668	870
358.895	904
359.122	970
359.349	1060
359.576	1018
359.802	923
360.029	895
360.256	889
360.483	887
360.709	926
360.936	962
361.163	1015
361.39	1108
361.616	1145
361.843	1122
362.07	1057
362.296	941
362.523	899
362.749	939
362.976	931
363.203	935
363.429	922
363.656	867
363.882	987
364.109	1062
364.335	1082
364.562	1033
364.788	936
365.015	920
365.241	933
365.468	956
365.694	957
365.92	990
366.147	935
366.373	900
366.599	882
366.826	897
367.052	916
367.278	907
367.505	904
367.731	947
367.957	930
368.184	984
368.41	1036
368.636	1068
368.862	1067
369.089	1061
369.315	1010
369.541	962
369.767	966
369.993	920
370.219	929
370.445	990
370.672	1024
370.898	1084
371.124	1045
371.35	972
371.576	1013
371.802	1033
372.028	976
372.254	938
372.48	939
372.706	940
372.932	930
373.158	965
373.384	964
373.61	1000
373.835	1049
374.061	1002
374.287	988
374.513	994
374.739	985
374.965	1006
375.191	1016
375.416	987
375.642	1019
375.868	1084
376.094	1101
376.319	1076
376.545	1002
376.771	1034
376.997	1063
377.222	1049
377.448	1012
377.674	1035
377.899	1053
378.125	1074
378.35	1057
378.576	987
378.802	953
379.027	944
379.253	939
379.478	976
379.704	976
379.929	996
380.155	990
380.38	995
380.606	1011
380.831	1035
381.057	1057
381.282	1069
381.507	1022
381.733	1127
381.958	1133
382.184	1050
382.409	1016
382.634	1062
382.86	1016
383.085	1056
383.31	1099
383.535	1191
383.761	1213
383.986	1150
384.211	1117
384.436	1089
384.662	1188
384.887	1194
385.112	1145
385.337	1120
385.562	1110
385.787	1147
386.013	1160
386.238	1158
386.463	1180
386.688	1244
386.913	1312
387.138	1243
387.363	1180
387.588	1146
387.813	1161
388.038	1162
388.263	1221
388.488	1171
388.713	1066
388.938	1088
389.163	1099
389.387	1133
389.612	1132
389.837	1150
390.062	1129
390.287	1131
390.512	1133
390.736	1110
390.961	1081
391.186	1078
391.411	1101
391.636	1116
391.86	1136
392.085	1122
392.31	1106
392.534	1130
392.759	1126
392.984	1135
393.208	1146
393.433	1170
393.658	1223
393.882	1211
394.107	1156
394.331	1122
394.556	1133
394.78	1137
395.005	1184
395.229	1235
395.454	1302
395.678	1321
395.903	1220
396.127	1190
396.352	1209
396.576	1278
396.801	1230
397.025	1244
397.249	1200
397.474	1218
397.698	1190
397.922	1276
398.147	1333
398.371	1366
398.595	1335
398.82	1332
399.044	1326
399.268	1412
399.492	1468
399.717	1479
399.941	1485
400.165	1482
400.389	1433
400.613	1450
400.837	1681
401.062	1803
401.286	1524
401.51	1438
401.734	1468
401.958	1414
402.182	1351
402.406	1293
402.63	1273
402.854	1295
403.078	1338
403.302	1338
403.526	1362
403.75	1335
403.974	1356
404.198	1364
404.422	1418
404.645	1448
404.869	1442
405.093	1308
405.317	1330
405.541	1348
405.765	1334
405.988	1358
406.212	1397
406.436	1382
406.66	1451
406.883	1487
407.107	1657
407.331	1794
407.555	1912
407.778	1704
408.002	1466
408.226	1420
408.449	1399
408.673	1385
408.896	1380
409.12	1412
409.344	1361
409.567	1336
409.791	1377
410.014	1412
410.238	1485
410.461	1531
410.685	1362
410.908	1378
411.132	1373
411.355	1306
411.578	1332
411.802	1331
412.025	1374
412.249	1319
412.472	1304
412.695	1328
412.919	1275
413.142	1294
413.365	1307
413.589	1366
413.812	1389
414.035	1439
414.258	1358
414.482	1288
414.705	1341
414.928	1294
415.151	1299
415.374	1304
415.597	1356
415.821	1322
416.044	1325
416.267	1350
416.49	1237
416.713	1242
416.936	1332
417.159	1359
417.382	1357
417.605	1269
417.828	1302
418.051	1323
418.274	1321
418.497	1297
418.72	1316
418.943	1290
419.166	1357
419.389	1353
419.611	1324
419.834	1306
420.057	1320
420.28	1290
420.503	1282
420.726	1348
420.948	1301
421.171	1286
421.394	1293
421.617	1304
421.839	1338
422.062	1287
422.285	1302
422.507	1312
422.73	1246
422.953	1220
423.175	1211
423.398	1292
423.621	1279
423.843	1288
424.066	1333
424.288	1389
424.511	1404
424.733	1340
424.956	1234
425.178	1245
425.401	1224
425.623	1286
425.846	1280
426.068	1360
426.291	1357
426.513	1341
426.735	1296
426.958	1420
427.18	1496
427.402	1362
427.625	1388
427.847	1365
428.069	1278
428.292	1265
428.514	1222
428.736	1222
428.958	1274
429.181	1272
429.403	1452
429.625	1762
429.847	1494
430.069	1318
430.292	1428
430.514	1428
430.736	1323
430.958	1361
431.18	1313
431.402	1206
431.624	1196
431.846	1188
432.068	1093
432.29	1139
432.512	1173
432.734	1255
432.956	1319
433.178	1285
433.4	1289
433.622	1302
433.844	1265
434.066	1214
434.287	1182
434.509	1220
434.731	1282
434.953	1348
435.175	1305
435.397	1292
435.618	1258
435.84	1227
436.062	1220
436.284	1283
436.505	1309
436.727	1300
436.949	1233
437.17	1245
437.392	1246
437.614	1224
437.835	1169
438.057	1210
438.278	1268
438.5	1172
438.721	1213
438.943	1241
439.165	1250
439.386	1242
439.608	1260
439.829	1271
440.05	1260
440.272	1248
440.493	1264
440.715	1261
440.936	1345
441.158	1440
441.379	1426
441.6	1361
441.822	1350
442.043	1348
442.264	1315
442.486	1225
442.707	1229
442.928	1249
443.149	1276
443.371	1362
443.592	1375
443.813	1378
444.034	1339
444.255	1349
444.476	1402
444.698	1431
444.919	1393
445.14	1463
445.361	1445
445.582	1473
445.803	1398
446.024	1384
446.245	1430
446.466	1383
446.687	1339
446.908	1353
447.129	1245
447.35	1330
447.571	1306
447.792	1260
448.013	1233
448.234	1246
448.455	1298
448.675	1332
448.896	1208
449.117	1178
449.338	1220
449.559	1301
449.779	1311
450	1402
450.221	1492
450.442	1464
450.662	1298
450.883	1181
451.104	1182
451.324	1191
451.545	1232
451.766	1179
451.986	1116
452.207	1116
452.428	1081
452.648	1086
452.869	1104
453.089	1131
453.31	1155
453.53	1150
453.751	1100
453.971	1047
454.192	1113
454.412	1131
454.633	1144
454.853	1111
455.073	1045
455.294	1047
455.514	1069
455.734	1082
455.955	1079
456.175	1093
456.395	1082
456.616	1108
456.836	1104
457.056	1122
457.276	1083
457.497	1037
457.717	1000
457.937	1027
458.157	1037
458.377	1065
458.598	1054
458.818	1073
459.038	1096
459.258	1158
459.478	1170
459.698	1112
459.918	1156
460.138	1219
460.358	1264
460.578	1227
460.798	1331
461.018	1372
461.238	1336
461.458	1263
461.678	1230
461.898	1216
462.118	1194
462.338	1241
462.558	1261
462.777	1258
462.997	1331
463.217	1395
463.437	1367
463.657	1247
463.876	1261
464.096	1266
464.316	1251
464.536	1289
464.755	1309
464.975	1310
465.195	1307
465.414	1304
465.634	1296
465.854	1287
466.073	1384
466.293	1352
466.512	1203
466.732	1202
466.951	1232
467.171	1235
467.391	1208
467.61	1159
467.829	1225
468.049	1345
468.268	1454
468.488	1308
468.707	1252
468.927	1227
469.146	1190
469.365	1195
469.585	1210
469.804	1194
470.023	1229
470.243	1254
470.462	1227
470.681	1206
470.901	1208
471.12	1197
471.339	1221
471.558	1211
471.777	1236
471.997	1208
472.216	1188
472.435	1099
472.654	1144
472.873	1157
473.092	1243
473.311	1189
473.53	1122
473.749	1142
473.968	1173
474.187	1202
474.406	1275
474.625	1176
474.844	1196
475.063	1195
475.282	1206
475.501	1187
475.72	1204
475.939	1267
476.158	1249
476.377	1188
476.596	1214
476.814	1193
477.033	1204
477.252	1252
477.471	1285
477.69	1300
477.908	1302
478.127	1376
478.346	1462
478.564	1380
478.783	1430
479.002	1465
479.22	1414
479.439	1479
479.658	1589
479.876	1526
480.095	1371
480.313	1315
480.532	1289
480.751	1309
480.969	1310
481.188	1270
481.406	1274
481.624	1221
481.843	1222
482.061	1295
482.28	1308
482.498	1329
482.717	1298
482.935	1292
483.153	1329
483.372	1380
483.59	1377
483.808	1368
484.027	1362
484.245	1445
484.463	1696
484.681	1883
484.9	1467
485.118	1402
485.336	1301
485.554	1328
485.772	1394
485.99	1356
486.209	1400
486.427	1408
486.645	1422
486.863	1406
487.081	1458
487.299	1454
487.517	1425
487.735	1478
487.953	1492
488.171	1461
488.389	1464
488.607	1511
488.825	1621
489.043	1579
489.261	1379
489.479	1460
489.696	1464
489.914	1401
490.132	1439
490.35	1452
490.568	1545
490.786	1474
491.003	1451
491.221	1526
491.439	1573
491.657	1586
491.874	1634
492.092	1636
492.31	1712
492.527	1636
492.745	1607
492.963	1573
493.18	1612
493.398	1722
493.615	1665
493.833	1576
494.05	1561
494.268	1554
494.485	1544
494.703	1524
494.92	1539
495.138	1542
495.355	1540
495.573	1596
495.79	1630
496.008	1690
496.225	1602
496.442	1602
496.66	1611
496.877	1622
497.094	1643
497.312	1668
497.529	1636
497.746	1656
497.963	1820
498.181	1948
498.398	1924
498.615	1856
498.832	1795
499.049	1740
499.267	1780
499.484	1918
499.701	2032
499.918	2062
500.135	2226
500.352	2360
500.569	2329
500.786	2517
501.003	2328
501.22	2165
501.437	2077
501.654	2110
501.871	2001
502.088	1764
502.305	1787
502.522	1682
502.739	1632
502.956	1574
503.172	1544
503.389	1505
503.606	1480
503.823	1488
504.04	1512
504.256	1504
504.473	1485
504.69	1510
504.907	1451
505.123	1445
505.34	1554
505.557	2009
505.773	1624
505.99	1402
506.207	1294
506.423	1263
506.64	1260
506.856	1342
507.073	1488
507.289	1626
507.506	1485
507.722	1303
507.939	1242
508.155	1244
508.372	1270
508.588	1213
508.805	1190
509.021	1148
509.238	1155
509.454	1154
509.67	1124
509.887	1108
510.103	1158
510.319	1150
510.536	1178
510.752	1256
510.968	1190
511.184	1301
511.401	1242
511.617	1107
511.833	1089
512.049	1104
512.265	1102
512.481	1117
512.698	1176
512.914	1212
513.13	1152
513.346	1118
513.562	1086
513.778	1123
513.994	1160
514.21	1174
514.426	1194
514.642	1262
514.858	1231
515.074	1148
515.29	1109
515.506	1148
515.721	1165
515.937	1204
516.153	1287
516.369	1234
516.585	1166
516.801	1127
517.016	1176
517.232	1197
517.448	1216
517.664	1204
517.879	1227
518.095	1265
518.311	1228
518.527	1170
518.742	1172
518.958	1130
519.173	1141
519.389	1174
519.605	1168
519.82	1172
520.036	1194
520.251	1144
520.467	1174
520.682	1222
520.898	1265
521.113	1146
521.329	1128
521.544	1197
521.76	1124
521.975	1088
522.19	1093
522.406	1106
522.621	1365
522.836	1295
523.052	1131
523.267	1126
523.482	1122
523.698	1065
523.913	1068
524.128	1098
524.343	1140
524.559	1140
524.774	1073
524.989	1081
525.204	1061
525.419	1036
525.634	1050
525.849	1069
526.064	1083
526.28	1080
526.495	989
526.71	987
526.925	993
527.14	1002
527.355	970
527.57	980
527.785	1020
527.999	999
528.214	984
528.429	983
528.644	1038
528.859	1074
529.074	1061
529.289	1121
529.503	1119
529.718	1079
529.933	1072
530.148	978
530.363	966
530.577	966
530.792	990
531.007	963
531.221	952
531.436	978
531.651	1012
531.865	1028
532.08	1033
532.295	951
532.509	957
532.724	933
532.938	967
533.153	1036
533.367	1038
533.582	1007
533.796	1014
534.011	1031
534.225	1005
534.44	973
534.654	975
534.868	978
535.083	1025
535.297	1036
535.511	994
535.726	971
535.94	981
536.154	985
536.369	937
536.583	938
536.797	944
537.011	940
537.225	933
537.44	927
537.654	981
537.868	948
538.082	908
538.296	906
538.51	931
538.724	920
538.938	959
539.153	1004
539.367	999
539.581	972
539.795	985
540.009	952
540.222	946
540.436	995
540.65	1065
540.864	1084
541.078	1060
541.292	1030
541.506	1067
541.72	1112
541.934	1130
542.147	1170
542.361	1144
542.575	1073
542.789	1016
543.002	947
543.216	980
543.43	999
543.644	1043
543.857	1094
544.071	1102
544.285	1078
544.498	1128
544.712	1106
544.925	1089
545.139	1129
545.352	1044
545.566	1050
545.779	1065
545.993	1102
546.206	1076
546.42	1070
546.633	1075
546.847	1064
547.06	1065
547.274	1076
547.487	1095
547.7	1096
547.914	1050
548.127	1056
548.34	1102
548.554	1052
548.767	1042
548.98	1070
549.193	1060
549.407	1102
549.62	1116
549.833	1044
550.046	1021
550.259	1038
