Data from WStandard_LampEnergy10_LIBS07252019.E.O._I.C._HRD10591_15-54-43-928.txt Node
Date: Thu Jul 25 15:54:43 EDT 2019
User: cochatt
Spectrometer: HR+D1059
Trigger mode: 1
Integration Time (sec): 1.000000E-1
Scans to average: 1
Electric dark correction enabled: true
Nonlinearity correction enabled: false
Boxcar width: 0
XAxis mode: Wavelengths
Number of Pixels in Spectrum: 2048
>>>>>Begin Spectral Data<<<<<
223.165	-15.94
223.4	-15.94
223.635	-15.94
223.869	-19.94
224.104	-11.94
224.338	-14.94
224.573	-10.94
224.808	-12.94
225.042	4.06
225.277	-15.94
225.511	-3.94
225.746	25.06
225.98	3.06
226.215	10.06
226.449	2.06
226.683	7.06
226.918	22.06
227.152	33.06
227.387	32.06
227.621	40.06
227.856	48.06
228.09	49.06
228.324	47.06
228.559	47.06
228.793	94.06
229.027	137.06
229.262	133.06
229.496	145.06
229.73	157.06
229.964	160.06
230.199	167.06
230.433	184.06
230.667	184.06
230.901	203.06
231.136	168.06
231.37	164.06
231.604	172.06
231.838	187.06
232.072	183.06
232.306	169.06
232.541	177.06
232.775	199.06
233.009	220.06
233.243	223.06
233.477	196.06
233.711	193.06
233.945	197.06
234.179	200.06
234.413	187.06
234.647	205.06
234.881	184.06
235.115	198.06
235.349	195.06
235.583	199.06
235.817	205.06
236.051	195.06
236.285	202.06
236.519	199.06
236.753	215.06
236.987	217.06
237.221	219.06
237.455	245.06
237.689	223.06
237.922	203.06
238.156	223.06
238.39	215.06
238.624	221.06
238.858	255.06
239.091	261.06
239.325	274.06
239.559	288.06
239.793	301.06
240.027	290.06
240.26	289.06
240.494	260.06
240.728	234.06
240.961	218.06
241.195	232.06
241.429	262.06
241.662	266.06
241.896	250.06
242.13	255.06
242.363	262.06
242.597	283.06
242.83	269.06
243.064	277.06
243.298	284.06
243.531	278.06
243.765	289.06
243.998	289.06
244.232	258.06
244.465	251.06
244.699	261.06
244.932	302.06
245.166	305.06
245.399	295.06
245.633	282.06
245.866	276.06
246.099	301.06
246.333	285.06
246.566	301.06
246.8	313.06
247.033	344.06
247.266	327.06
247.5	312.06
247.733	309.06
247.966	331.06
248.2	382.06
248.433	368.06
248.666	370.06
248.899	397.06
249.133	433.06
249.366	475.06
249.599	406.06
249.832	340.06
250.066	359.06
250.299	369.06
250.532	345.06
250.765	298.06
250.998	325.06
251.231	364.06
251.465	362.06
251.698	340.06
251.931	344.06
252.164	339.06
252.397	369.06
252.63	342.06
252.863	326.06
253.096	342.06
253.329	355.06
253.562	353.06
253.795	343.06
254.028	340.06
254.261	338.06
254.494	315.06
254.727	337.06
254.96	347.06
255.193	376.06
255.426	417.06
255.659	452.06
255.892	460.06
256.124	372.06
256.357	388.06
256.59	400.06
256.823	396.06
257.056	413.06
257.289	481.06
257.521	502.06
257.754	453.06
257.987	446.06
258.22	475.06
258.452	457.06
258.685	384.06
258.918	392.06
259.151	403.06
259.383	383.06
259.616	331.06
259.849	377.06
260.081	403.06
260.314	443.06
260.547	464.06
260.779	477.06
261.012	437.06
261.244	401.06
261.477	385.06
261.71	405.06
261.942	408.06
262.175	387.06
262.407	402.06
262.64	397.06
262.872	372.06
263.105	385.06
263.337	384.06
263.57	379.06
263.802	368.06
264.035	360.06
264.267	354.06
264.499	350.06
264.732	358.06
264.964	385.06
265.197	381.06
265.429	423.06
265.661	455.06
265.894	476.06
266.126	491.06
266.358	460.06
266.591	472.06
266.823	475.06
267.055	450.06
267.287	447.06
267.52	451.06
267.752	449.06
267.984	441.06
268.216	466.06
268.448	473.06
268.681	444.06
268.913	409.06
269.145	398.06
269.377	396.06
269.609	457.06
269.841	526.06
270.073	561.06
270.306	610.06
270.538	619.06
270.77	545.06
271.002	475.06
271.234	468.06
271.466	470.06
271.698	521.06
271.93	601.06
272.162	607.06
272.394	553.06
272.626	505.06
272.858	442.06
273.09	419.06
273.322	411.06
273.553	380.06
273.785	424.06
274.017	433.06
274.249	418.06
274.481	431.06
274.713	422.06
274.945	397.06
275.176	404.06
275.408	408.06
275.64	410.06
275.872	395.06
276.104	445.06
276.335	495.06
276.567	524.06
276.799	505.06
277.031	483.06
277.262	469.06
277.494	498.06
277.726	530.06
277.957	505.06
278.189	464.06
278.421	433.06
278.652	435.06
278.884	433.06
279.115	420.06
279.347	441.06
279.579	429.06
279.81	425.06
280.042	499.06
280.273	502.06
280.505	496.06
280.736	482.06
280.968	463.06
281.199	444.06
281.431	407.06
281.662	440.06
281.894	437.06
282.125	435.06
282.356	456.06
282.588	458.06
282.819	440.06
283.051	473.06
283.282	525.06
283.513	519.06
283.745	451.06
283.976	418.06
284.207	425.06
284.439	433.06
284.67	447.06
284.901	433.06
285.132	437.06
285.364	464.06
285.595	455.06
285.826	456.06
286.057	450.06
286.288	437.06
286.52	483.06
286.751	469.06
286.982	501.06
287.213	447.06
287.444	423.06
287.675	447.06
287.906	473.06
288.138	500.06
288.369	460.06
288.6	452.06
288.831	441.06
289.062	443.06
289.293	448.06
289.524	456.06
289.755	479.06
289.986	452.06
290.217	455.06
290.448	431.06
290.679	474.06
290.91	453.06
291.141	468.06
291.371	479.06
291.602	475.06
291.833	470.06
292.064	484.06
292.295	500.06
292.526	513.06
292.757	490.06
292.987	484.06
293.218	479.06
293.449	533.06
293.68	575.06
293.91	599.06
294.141	538.06
294.372	537.06
294.603	547.06
294.833	557.06
295.064	541.06
295.295	501.06
295.525	455.06
295.756	457.06
295.987	449.06
296.217	432.06
296.448	453.06
296.679	469.06
296.909	445.06
297.14	457.06
297.37	477.06
297.601	514.06
297.831	519.06
298.062	529.06
298.292	484.06
298.523	484.06
298.753	488.06
298.984	491.06
299.214	462.06
299.445	489.06
299.675	521.06
299.905	497.06
300.136	485.06
300.366	451.06
300.597	453.06
300.827	480.06
301.057	465.06
301.288	496.06
301.518	509.06
301.748	524.06
301.979	513.06
302.209	557.06
302.439	574.06
302.669	593.06
302.9	553.06
303.13	541.06
303.36	506.06
303.59	500.06
303.82	498.06
304.051	516.06
304.281	538.06
304.511	542.06
304.741	546.06
304.971	616.06
305.201	623.06
305.431	561.06
305.661	513.06
305.891	482.06
306.121	446.06
306.352	485.06
306.582	500.06
306.812	542.06
307.042	565.06
307.272	586.06
307.502	581.06
307.731	631.06
307.961	635.06
308.191	607.06
308.421	539.06
308.651	495.06
308.881	500.06
309.111	495.06
309.341	504.06
309.571	511.06
309.8	496.06
310.03	468.06
310.26	482.06
310.49	468.06
310.72	506.06
310.949	529.06
311.179	530.06
311.409	500.06
311.639	491.06
311.868	520.06
312.098	499.06
312.328	512.06
312.557	483.06
312.787	505.06
313.017	518.06
313.246	537.06
313.476	502.06
313.706	522.06
313.935	543.06
314.165	531.06
314.394	564.06
314.624	576.06
314.853	597.06
315.083	641.06
315.312	605.06
315.542	571.06
315.771	549.06
316.001	556.06
316.23	599.06
316.46	562.06
316.689	580.06
316.919	527.06
317.148	528.06
317.377	561.06
317.607	567.06
317.836	628.06
318.065	643.06
318.295	625.06
318.524	579.06
318.753	586.06
318.983	579.06
319.212	573.06
319.441	575.06
319.67	557.06
319.9	561.06
320.129	588.06
320.358	609.06
320.587	624.06
320.816	579.06
321.046	593.06
321.275	581.06
321.504	583.06
321.733	651.06
321.962	615.06
322.191	556.06
322.42	558.06
322.649	550.06
322.878	556.06
323.108	549.06
323.337	573.06
323.566	574.06
323.795	554.06
324.024	581.06
324.253	565.06
324.482	548.06
324.71	537.06
324.939	534.06
325.168	545.06
325.397	573.06
325.626	571.06
325.855	576.06
326.084	549.06
326.313	577.06
326.542	587.06
326.77	570.06
326.999	577.06
327.228	537.06
327.457	526.06
327.686	519.06
327.914	545.06
328.143	557.06
328.372	562.06
328.6	567.06
328.829	547.06
329.058	523.06
329.287	541.06
329.515	568.06
329.744	603.06
329.972	613.06
330.201	596.06
330.43	578.06
330.658	596.06
330.887	601.06
331.115	597.06
331.344	594.06
331.572	583.06
331.801	585.06
332.03	592.06
332.258	592.06
332.486	609.06
332.715	597.06
332.943	605.06
333.172	594.06
333.4	603.06
333.629	601.06
333.857	665.06
334.085	721.06
334.314	815.06
334.542	827.06
334.771	771.06
334.999	679.06
335.227	664.06
335.455	618.06
335.684	649.06
335.912	662.06
336.14	639.06
336.369	616.06
336.597	612.06
336.825	606.06
337.053	642.06
337.281	662.06
337.51	715.06
337.738	721.06
337.966	652.06
338.194	601.06
338.422	584.06
338.65	584.06
338.878	577.06
339.106	564.06
339.334	574.06
339.562	554.06
339.79	586.06
340.018	605.06
340.246	624.06
340.474	635.06
340.702	637.06
340.93	618.06
341.158	615.06
341.386	602.06
341.614	595.06
341.842	589.06
342.07	596.06
342.298	609.06
342.526	597.06
342.754	604.06
342.981	589.06
343.209	611.06
343.437	581.06
343.665	600.06
343.893	615.06
344.12	612.06
344.348	610.06
344.576	617.06
344.804	599.06
345.031	589.06
345.259	601.06
345.487	563.06
345.714	559.06
345.942	555.06
346.17	555.06
346.397	568.06
346.625	560.06
346.853	548.06
347.08	546.06
347.308	574.06
347.535	569.06
347.763	593.06
347.99	563.06
348.218	541.06
348.445	576.06
348.673	559.06
348.9	579.06
349.128	621.06
349.355	591.06
349.583	600.06
349.81	579.06
350.037	535.06
350.265	517.06
350.492	551.06
350.72	544.06
350.947	563.06
351.174	533.06
351.402	564.06
351.629	529.06
351.856	514.06
352.083	521.06
352.311	539.06
352.538	566.06
352.765	569.06
352.992	573.06
353.22	549.06
353.447	548.06
353.674	568.06
353.901	567.06
354.128	569.06
354.355	580.06
354.583	579.06
354.81	571.06
355.037	602.06
355.264	576.06
355.491	567.06
355.718	572.06
355.945	552.06
356.172	525.06
356.399	556.06
356.626	536.06
356.853	590.06
357.08	630.06
357.307	649.06
357.534	651.06
357.761	591.06
357.988	552.06
358.215	539.06
358.441	545.06
358.668	534.06
358.895	550.06
359.122	611.06
359.349	631.06
359.576	618.06
359.802	571.06
360.029	552.06
360.256	535.06
360.483	565.06
360.709	598.06
360.936	603.06
361.163	626.06
361.39	689.06
361.616	689.06
361.843	687.06
362.07	627.06
362.296	574.06
362.523	582.06
362.749	548.06
362.976	578.06
363.203	601.06
363.429	569.06
363.656	537.06
363.882	589.06
364.109	671.06
364.335	654.06
364.562	602.06
364.788	605.06
365.015	579.06
365.241	580.06
365.468	571.06
365.694	609.06
365.92	598.06
366.147	580.06
366.373	572.06
366.599	548.06
366.826	561.06
367.052	546.06
367.278	580.06
367.505	580.06
367.731	620.06
367.957	596.06
368.184	637.06
368.41	667.06
368.636	684.06
368.862	674.06
369.089	647.06
369.315	645.06
369.541	603.06
369.767	611.06
369.993	609.06
370.219	596.06
370.445	618.06
370.672	651.06
370.898	684.06
371.124	646.06
371.35	617.06
371.576	655.06
371.802	640.06
372.028	611.06
372.254	619.06
372.48	574.06
372.706	599.06
372.932	597.06
373.158	619.06
373.384	628.06
373.61	641.06
373.835	670.06
374.061	619.06
374.287	608.06
374.513	609.06
374.739	637.06
374.965	645.06
375.191	632.06
375.416	638.06
375.642	661.06
375.868	699.06
376.094	711.06
376.319	669.06
376.545	653.06
376.771	671.06
376.997	674.06
377.222	684.06
377.448	676.06
377.674	662.06
377.899	671.06
378.125	720.06
378.35	700.06
378.576	620.06
378.802	629.06
379.027	625.06
379.253	620.06
379.478	611.06
379.704	651.06
379.929	634.06
380.155	673.06
380.38	610.06
380.606	653.06
380.831	643.06
381.057	676.06
381.282	687.06
381.507	671.06
381.733	752.06
381.958	730.06
382.184	675.06
382.409	668.06
382.634	650.06
382.86	671.06
383.085	667.06
383.31	714.06
383.535	775.06
383.761	793.06
383.986	761.06
384.211	724.06
384.436	729.06
384.662	790.06
384.887	767.06
385.112	737.06
385.337	721.06
385.562	745.06
385.787	759.06
386.013	763.06
386.238	737.06
386.463	778.06
386.688	839.06
386.913	841.06
387.138	792.06
387.363	788.06
387.588	760.06
387.813	783.06
388.038	794.06
388.263	789.06
388.488	746.06
388.713	721.06
388.938	727.06
389.163	737.06
389.387	741.06
389.612	731.06
389.837	744.06
390.062	741.06
390.287	752.06
390.512	757.06
390.736	736.06
390.961	735.06
391.186	704.06
391.411	721.06
391.636	740.06
391.86	762.06
392.085	735.06
392.31	734.06
392.534	736.06
392.759	781.06
392.984	747.06
393.208	769.06
393.433	781.06
393.658	857.06
393.882	791.06
394.107	781.06
394.331	753.06
394.556	780.06
394.78	761.06
395.005	803.06
395.229	824.06
395.454	863.06
395.678	854.06
395.903	818.06
396.127	824.06
396.352	849.06
396.576	855.06
396.801	864.06
397.025	837.06
397.249	839.06
397.474	833.06
397.698	839.06
397.922	872.06
398.147	871.06
398.371	927.06
398.595	915.06
398.82	843.06
399.044	885.06
399.268	935.06
399.492	969.06
399.717	961.06
399.941	968.06
400.165	983.06
400.389	946.06
400.613	981.06
400.837	1150.06
401.062	1235.06
401.286	1018.06
401.51	966.06
401.734	994.06
401.958	947.06
402.182	893.06
402.406	902.06
402.63	867.06
402.854	877.06
403.078	875.06
403.302	901.06
403.526	904.06
403.75	908.06
403.974	942.06
404.198	960.06
404.422	960.06
404.645	1001.06
404.869	960.06
405.093	950.06
405.317	904.06
405.541	905.06
405.765	907.06
405.988	931.06
406.212	951.06
406.436	935.06
406.66	989.06
406.883	1039.06
407.107	1139.06
407.331	1204.06
407.555	1275.06
407.778	1126.06
408.002	968.06
408.226	968.06
408.449	948.06
408.673	981.06
408.896	945.06
409.12	959.06
409.344	921.06
409.567	909.06
409.791	955.06
410.014	991.06
410.238	1047.06
410.461	1044.06
410.685	986.06
410.908	928.06
411.132	975.06
411.355	932.06
411.578	951.06
411.802	925.06
412.025	934.06
412.249	916.06
412.472	926.06
412.695	925.06
412.919	904.06
413.142	899.06
413.365	936.06
413.589	962.06
413.812	969.06
414.035	990.06
414.258	911.06
414.482	909.06
414.705	905.06
414.928	886.06
415.151	936.06
415.374	935.06
415.597	950.06
415.821	911.06
416.044	929.06
416.267	920.06
416.49	926.06
416.713	905.06
416.936	957.06
417.159	973.06
417.382	939.06
417.605	934.06
417.828	962.06
418.051	959.06
418.274	933.06
418.497	921.06
418.72	949.06
418.943	931.06
419.166	963.06
419.389	985.06
419.611	927.06
419.834	933.06
420.057	924.06
420.28	922.06
420.503	954.06
420.726	956.06
420.948	913.06
421.171	902.06
421.394	968.06
421.617	965.06
421.839	981.06
422.062	954.06
422.285	919.06
422.507	932.06
422.73	907.06
422.953	860.06
423.175	890.06
423.398	923.06
423.621	945.06
423.843	948.06
424.066	948.06
424.288	1009.06
424.511	1033.06
424.733	993.06
424.956	909.06
425.178	935.06
425.401	948.06
425.623	931.06
425.846	916.06
426.068	996.06
426.291	946.06
426.513	958.06
426.735	956.06
426.958	1038.06
427.18	1045.06
427.402	999.06
427.625	996.06
427.847	982.06
428.069	933.06
428.292	908.06
428.514	913.06
428.736	894.06
428.958	889.06
429.181	940.06
429.403	1076.06
429.625	1218.06
429.847	1045.06
430.069	911.06
430.292	1025.06
430.514	1012.06
430.736	968.06
430.958	983.06
431.18	927.06
431.402	879.06
431.624	831.06
431.846	789.06
432.068	730.06
432.29	746.06
432.512	795.06
432.734	886.06
432.956	923.06
433.178	963.06
433.4	971.06
433.622	949.06
433.844	939.06
434.066	849.06
434.287	792.06
434.509	787.06
434.731	852.06
434.953	925.06
435.175	904.06
435.397	896.06
435.618	850.06
435.84	856.06
436.062	837.06
436.284	905.06
436.505	945.06
436.727	919.06
436.949	910.06
437.17	893.06
437.392	883.06
437.614	845.06
437.835	810.06
438.057	839.06
438.278	830.06
438.5	882.06
438.721	873.06
438.943	917.06
439.165	895.06
439.386	906.06
439.608	951.06
439.829	895.06
440.05	939.06
440.272	933.06
440.493	964.06
440.715	967.06
440.936	1031.06
441.158	1073.06
441.379	1056.06
441.6	1014.06
441.822	1015.06
442.043	990.06
442.264	980.06
442.486	924.06
442.707	957.06
442.928	944.06
443.149	968.06
443.371	1011.06
443.592	1031.06
443.813	1020.06
444.034	1017.06
444.255	1019.06
444.476	1010.06
444.698	1040.06
444.919	1017.06
445.14	1184.06
445.361	1126.06
445.582	1072.06
445.803	1032.06
446.024	1007.06
446.245	1094.06
446.466	1072.06
446.687	1049.06
446.908	1062.06
447.129	1010.06
447.35	985.06
447.571	992.06
447.792	979.06
448.013	984.06
448.234	975.06
448.455	980.06
448.675	966.06
448.896	909.06
449.117	930.06
449.338	945.06
449.559	974.06
449.779	965.06
450	1003.06
450.221	1081.06
450.442	1012.06
450.662	948.06
450.883	855.06
451.104	884.06
451.324	877.06
451.545	879.06
451.766	875.06
451.986	826.06
452.207	837.06
452.428	769.06
452.648	777.06
452.869	810.06
453.089	783.06
453.31	763.06
453.53	758.06
453.751	725.06
453.971	715.06
454.192	711.06
454.412	764.06
454.633	787.06
454.853	797.06
455.073	762.06
455.294	756.06
455.514	769.06
455.734	749.06
455.955	749.06
456.175	720.06
456.395	723.06
456.616	731.06
456.836	733.06
457.056	743.06
457.276	717.06
457.497	706.06
457.717	686.06
457.937	716.06
458.157	724.06
458.377	709.06
458.598	660.06
458.818	669.06
459.038	693.06
459.258	719.06
459.478	723.06
459.698	706.06
459.918	756.06
460.138	815.06
460.358	835.06
460.578	836.06
460.798	850.06
461.018	888.06
461.238	861.06
461.458	857.06
461.678	848.06
461.898	788.06
462.118	812.06
462.338	843.06
462.558	843.06
462.777	855.06
462.997	876.06
463.217	900.06
463.437	884.06
463.657	840.06
463.876	839.06
464.096	825.06
464.316	836.06
464.536	888.06
464.755	871.06
464.975	872.06
465.195	852.06
465.414	872.06
465.634	863.06
465.854	880.06
466.073	966.06
466.293	927.06
466.512	854.06
466.732	877.06
466.951	910.06
467.171	867.06
467.391	877.06
467.61	899.06
467.829	893.06
468.049	979.06
468.268	1073.06
468.488	966.06
468.707	919.06
468.927	912.06
469.146	899.06
469.365	913.06
469.585	918.06
469.804	922.06
470.023	923.06
470.243	924.06
470.462	937.06
470.681	921.06
470.901	936.06
471.12	904.06
471.339	933.06
471.558	902.06
471.777	909.06
471.997	878.06
472.216	861.06
472.435	781.06
472.654	764.06
472.873	778.06
473.092	821.06
473.311	841.06
473.53	817.06
473.749	791.06
473.968	824.06
474.187	851.06
474.406	830.06
474.625	828.06
474.844	867.06
475.063	868.06
475.282	846.06
475.501	853.06
475.72	846.06
475.939	909.06
476.158	869.06
476.377	856.06
476.596	869.06
476.814	841.06
477.033	799.06
477.252	867.06
477.471	910.06
477.69	915.06
477.908	969.06
478.127	991.06
478.346	1007.06
478.564	990.06
478.783	981.06
479.002	1026.06
479.22	1022.06
479.439	1020.06
479.658	1063.06
479.876	991.06
480.095	917.06
480.313	906.06
480.532	902.06
480.751	846.06
480.969	850.06
481.188	779.06
481.406	786.06
481.624	762.06
481.843	800.06
482.061	828.06
482.28	872.06
482.498	884.06
482.717	859.06
482.935	897.06
483.153	977.06
483.372	1010.06
483.59	1001.06
483.808	977.06
484.027	944.06
484.245	987.06
484.463	1214.06
484.681	1263.06
484.9	1029.06
485.118	974.06
485.336	919.06
485.554	916.06
485.772	893.06
485.99	861.06
486.209	896.06
486.427	901.06
486.645	929.06
486.863	1005.06
487.081	1036.06
487.299	1021.06
487.517	1031.06
487.735	1107.06
487.953	1184.06
488.171	1166.06
488.389	1142.06
488.607	1089.06
488.825	1151.06
489.043	1063.06
489.261	989.06
489.479	1034.06
489.696	1051.06
489.914	1031.06
490.132	1034.06
490.35	1063.06
490.568	1161.06
490.786	1178.06
491.003	1180.06
491.221	1231.06
491.439	1305.06
491.657	1313.06
491.874	1338.06
492.092	1436.06
492.31	1521.06
492.527	1438.06
492.745	1371.06
492.963	1324.06
493.18	1305.06
493.398	1353.06
493.615	1323.06
493.833	1284.06
494.05	1227.06
494.268	1232.06
494.485	1201.06
494.703	1213.06
494.92	1213.06
495.138	1215.06
495.355	1237.06
495.573	1252.06
495.79	1280.06
496.008	1266.06
496.225	1210.06
496.442	1240.06
496.66	1215.06
496.877	1217.06
497.094	1223.06
497.312	1226.06
497.529	1178.06
497.746	1188.06
497.963	1283.06
498.181	1277.06
498.398	1263.06
498.615	1236.06
498.832	1145.06
499.049	1133.06
499.267	1156.06
499.484	1246.06
499.701	1339.06
499.918	1387.06
500.135	1439.06
500.352	1585.06
