Data from WStandard_LampEnergy5.5LIBS07252019.E.O._I.C._HRD10591_16-06-18-920.txt Node
Date: Thu Jul 25 16:06:18 EDT 2019
User: cochatt
Spectrometer: HR+D1059
Trigger mode: 1
Integration Time (sec): 1.000000E-1
Scans to average: 1
Electric dark correction enabled: true
Nonlinearity correction enabled: false
Boxcar width: 0
XAxis mode: Wavelengths
Number of Pixels in Spectrum: 2048
>>>>>Begin Spectral Data<<<<<
223.165	-28.06
223.4	-28.06
223.635	-28.06
223.869	-23.06
224.104	-26.06
224.338	-18.06
224.573	-13.06
224.808	4.94
225.042	4.94
225.277	-15.06
225.511	-8.06
225.746	17.94
225.98	-1.06
226.215	18.94
226.449	14.94
226.683	24.94
226.918	23.94
227.152	21.94
227.387	34.94
227.621	15.94
227.856	46.94
228.09	49.94
228.324	57.94
228.559	50.94
228.793	117.94
229.027	329.94
229.262	348.94
229.496	339.94
229.73	364.94
229.964	398.94
230.199	412.94
230.433	417.94
230.667	435.94
230.901	483.94
231.136	428.94
231.37	417.94
231.604	431.94
231.838	439.94
232.072	420.94
232.306	428.94
232.541	420.94
232.775	497.94
233.009	543.94
233.243	554.94
233.477	475.94
233.711	496.94
233.945	497.94
234.179	498.94
234.413	508.94
234.647	592.94
234.881	541.94
235.115	489.94
235.349	516.94
235.583	512.94
235.817	518.94
236.051	486.94
236.285	493.94
236.519	537.94
236.753	598.94
236.987	643.94
237.221	596.94
237.455	692.94
237.689	650.94
237.922	607.94
238.156	590.94
238.39	591.94
238.624	633.94
238.858	672.94
239.091	699.94
239.325	702.94
239.559	840.94
239.793	851.94
240.027	929.94
240.26	920.94
240.494	689.94
240.728	615.94
240.961	666.94
241.195	661.94
241.429	742.94
241.662	738.94
241.896	689.94
242.13	659.94
242.363	750.94
242.597	813.94
242.83	800.94
243.064	808.94
243.298	834.94
243.531	836.94
243.765	808.94
243.998	813.94
244.232	728.94
244.465	692.94
244.699	689.94
244.932	808.94
245.166	920.94
245.399	880.94
245.633	799.94
245.866	778.94
246.099	802.94
246.333	848.94
246.566	855.94
246.8	918.94
247.033	1061.94
247.266	937.94
247.5	944.94
247.733	935.94
247.966	969.94
248.2	1099.94
248.433	1015.94
248.666	1081.94
248.899	1171.94
249.133	1362.94
249.366	1575.94
249.599	1256.94
249.832	1107.94
250.066	1150.94
250.299	1134.94
250.532	1078.94
250.765	958.94
250.998	1003.94
251.231	1071.94
251.465	1102.94
251.698	1018.94
251.931	1053.94
252.164	1077.94
252.397	1122.94
252.63	1104.94
252.863	940.94
253.096	932.94
253.329	1034.94
253.562	1063.94
253.795	1154.94
254.028	1104.94
254.261	1016.94
254.494	1030.94
254.727	960.94
254.96	994.94
255.193	1092.94
255.426	1224.94
255.659	1430.94
255.892	1478.94
256.124	1209.94
256.357	1162.94
256.59	1250.94
256.823	1226.94
257.056	1235.94
257.289	1539.94
257.521	1703.94
257.754	1487.94
257.987	1408.94
258.22	1612.94
258.452	1535.94
258.685	1220.94
258.918	1185.94
259.151	1216.94
259.383	1149.94
259.616	1041.94
259.849	1093.94
260.081	1212.94
260.314	1354.94
260.547	1503.94
260.779	1522.94
261.012	1410.94
261.244	1216.94
261.477	1152.94
261.71	1242.94
261.942	1249.94
262.175	1206.94
262.407	1272.94
262.64	1208.94
262.872	1122.94
263.105	1094.94
263.337	1132.94
263.57	1148.94
263.802	1167.94
264.035	1095.94
264.267	1016.94
264.499	995.94
264.732	1062.94
264.964	1135.94
265.197	1161.94
265.429	1251.94
265.661	1346.94
265.894	1478.94
266.126	1560.94
266.358	1377.94
266.591	1400.94
266.823	1553.94
267.055	1418.94
267.287	1377.94
267.52	1378.94
267.752	1314.94
267.984	1309.94
268.216	1392.94
268.448	1447.94
268.681	1433.94
268.913	1320.94
269.145	1265.94
269.377	1192.94
269.609	1327.94
269.841	1509.94
270.073	1736.94
270.306	1980.94
270.538	2117.94
270.77	1775.94
271.002	1496.94
271.234	1442.94
271.466	1409.94
271.698	1581.94
271.93	1930.94
272.162	1888.94
272.394	1738.94
272.626	1648.94
272.858	1436.94
273.09	1266.94
273.322	1238.94
273.553	1200.94
273.785	1218.94
274.017	1267.94
274.249	1417.94
274.481	1374.94
274.713	1280.94
274.945	1252.94
275.176	1247.94
275.408	1248.94
275.64	1238.94
275.872	1169.94
276.104	1256.94
276.335	1446.94
276.567	1634.94
276.799	1683.94
277.031	1482.94
277.262	1394.94
277.494	1454.94
277.726	1647.94
277.957	1625.94
278.189	1469.94
278.421	1316.94
278.652	1268.94
278.884	1314.94
279.115	1310.94
279.347	1351.94
279.579	1362.94
279.81	1337.94
280.042	1444.94
280.273	1566.94
280.505	1573.94
280.736	1583.94
280.968	1521.94
281.199	1320.94
281.431	1266.94
281.662	1271.94
281.894	1226.94
282.125	1279.94
282.356	1334.94
282.588	1367.94
282.819	1385.94
283.051	1424.94
283.282	1568.94
283.513	1471.94
283.745	1320.94
283.976	1223.94
284.207	1220.94
284.439	1300.94
284.67	1290.94
284.901	1314.94
285.132	1319.94
285.364	1321.94
285.595	1344.94
285.826	1345.94
286.057	1327.94
286.288	1327.94
286.52	1367.94
286.751	1512.94
286.982	1548.94
287.213	1427.94
287.444	1316.94
287.675	1301.94
287.906	1331.94
288.138	1442.94
288.369	1390.94
288.6	1350.94
288.831	1295.94
289.062	1343.94
289.293	1346.94
289.524	1316.94
289.755	1366.94
289.986	1367.94
290.217	1258.94
290.448	1292.94
290.679	1348.94
290.91	1388.94
291.141	1401.94
291.371	1484.94
291.602	1420.94
291.833	1392.94
292.064	1464.94
292.295	1444.94
292.526	1495.94
292.757	1570.94
292.987	1438.94
293.218	1383.94
293.449	1472.94
293.68	1641.94
293.91	1759.94
294.141	1641.94
294.372	1543.94
294.603	1564.94
294.833	1589.94
295.064	1544.94
295.295	1436.94
295.525	1400.94
295.756	1319.94
295.987	1256.94
296.217	1284.94
296.448	1319.94
296.679	1326.94
296.909	1318.94
297.14	1312.94
297.37	1344.94
297.601	1438.94
297.831	1496.94
298.062	1496.94
298.292	1388.94
298.523	1332.94
298.753	1345.94
298.984	1367.94
299.214	1376.94
299.445	1395.94
299.675	1428.94
299.905	1392.94
300.136	1401.94
300.366	1378.94
300.597	1324.94
300.827	1312.94
301.057	1376.94
301.288	1450.94
301.518	1454.94
301.748	1416.94
301.979	1538.94
302.209	1555.94
302.439	1641.94
302.669	1741.94
302.9	1628.94
303.13	1472.94
303.36	1445.94
303.59	1492.94
303.82	1469.94
304.051	1454.94
304.281	1449.94
304.511	1461.94
304.741	1514.94
304.971	1656.94
305.201	1828.94
305.431	1671.94
305.661	1421.94
305.891	1276.94
306.121	1319.94
306.352	1337.94
306.582	1414.94
306.812	1540.94
307.042	1604.94
307.272	1625.94
307.502	1654.94
307.731	1757.94
307.961	1934.94
308.191	1760.94
308.421	1524.94
308.651	1450.94
308.881	1406.94
309.111	1401.94
309.341	1390.94
309.571	1424.94
309.8	1391.94
310.03	1368.94
310.26	1400.94
310.49	1372.94
310.72	1421.94
310.949	1505.94
311.179	1580.94
311.409	1508.94
311.639	1460.94
311.868	1395.94
312.098	1454.94
312.328	1458.94
312.557	1405.94
312.787	1459.94
313.017	1474.94
313.246	1502.94
313.476	1455.94
313.706	1511.94
313.935	1487.94
314.165	1493.94
314.394	1507.94
314.624	1619.94
314.853	1696.94
315.083	1793.94
315.312	1828.94
315.542	1736.94
315.771	1560.94
316.001	1540.94
316.23	1596.94
316.46	1624.94
316.689	1575.94
316.919	1480.94
317.148	1443.94
317.377	1477.94
317.607	1608.94
317.836	1751.94
318.065	1833.94
318.295	1791.94
318.524	1691.94
318.753	1623.94
318.983	1602.94
319.212	1561.94
319.441	1502.94
319.67	1548.94
319.9	1541.94
320.129	1653.94
320.358	1659.94
320.587	1739.94
320.816	1744.94
321.046	1649.94
321.275	1580.94
321.504	1599.94
321.733	1715.94
321.962	1676.94
322.191	1575.94
322.42	1577.94
322.649	1555.94
322.878	1549.94
323.108	1538.94
323.337	1601.94
323.566	1625.94
323.795	1621.94
324.024	1597.94
324.253	1555.94
324.482	1613.94
324.71	1596.94
324.939	1502.94
325.168	1482.94
325.397	1545.94
325.626	1587.94
325.855	1566.94
326.084	1556.94
326.313	1542.94
326.542	1592.94
326.77	1632.94
326.999	1653.94
327.228	1617.94
327.457	1550.94
327.686	1516.94
327.914	1535.94
328.143	1551.94
328.372	1544.94
328.6	1527.94
328.829	1585.94
329.058	1554.94
329.287	1526.94
329.515	1593.94
329.744	1571.94
329.972	1682.94
330.201	1720.94
330.43	1701.94
330.658	1658.94
330.887	1610.94
331.115	1678.94
331.344	1649.94
331.572	1646.94
331.801	1653.94
332.03	1618.94
332.258	1668.94
332.486	1715.94
332.715	1656.94
332.943	1693.94
333.172	1670.94
333.4	1722.94
333.629	1746.94
333.857	1837.94
334.085	1983.94
334.314	2188.94
334.542	2487.94
334.771	2258.94
334.999	2033.94
335.227	1948.94
335.455	1822.94
335.684	1766.94
335.912	1825.94
336.14	1905.94
336.369	1851.94
336.597	1746.94
336.825	1684.94
337.053	1746.94
337.281	1814.94
337.51	1923.94
337.738	1982.94
337.966	1940.94
338.194	1747.94
338.422	1682.94
338.65	1653.94
338.878	1659.94
339.106	1613.94
339.334	1614.94
339.562	1547.94
339.79	1609.94
340.018	1696.94
340.246	1768.94
340.474	1778.94
340.702	1712.94
340.93	1708.94
341.158	1672.94
341.386	1633.94
341.614	1641.94
341.842	1662.94
342.07	1652.94
342.298	1671.94
342.526	1675.94
342.754	1660.94
342.981	1631.94
343.209	1610.94
343.437	1624.94
343.665	1683.94
343.893	1718.94
344.12	1774.94
344.348	1828.94
344.576	1710.94
344.804	1645.94
345.031	1634.94
345.259	1672.94
345.487	1607.94
345.714	1558.94
345.942	1520.94
346.17	1533.94
346.397	1560.94
346.625	1605.94
346.853	1472.94
347.08	1461.94
347.308	1508.94
347.535	1524.94
347.763	1593.94
347.99	1535.94
348.218	1534.94
348.445	1525.94
348.673	1522.94
348.9	1564.94
349.128	1623.94
349.355	1666.94
349.583	1596.94
349.81	1567.94
350.037	1449.94
350.265	1406.94
350.492	1468.94
350.72	1499.94
350.947	1520.94
351.174	1597.94
351.402	1543.94
351.629	1477.94
351.856	1428.94
352.083	1415.94
352.311	1455.94
352.538	1469.94
352.765	1534.94
352.992	1589.94
353.22	1534.94
353.447	1452.94
353.674	1519.94
353.901	1520.94
354.128	1506.94
354.355	1508.94
354.583	1553.94
354.81	1557.94
355.037	1563.94
355.264	1566.94
355.491	1500.94
355.718	1552.94
355.945	1524.94
356.172	1476.94
356.399	1489.94
356.626	1479.94
356.853	1479.94
357.08	1588.94
357.307	1764.94
357.534	1815.94
357.761	1572.94
357.988	1494.94
358.215	1445.94
358.441	1474.94
358.668	1480.94
358.895	1483.94
359.122	1537.94
359.349	1703.94
359.576	1711.94
359.802	1548.94
360.029	1466.94
360.256	1458.94
360.483	1487.94
360.709	1502.94
360.936	1598.94
361.163	1640.94
361.39	1759.94
361.616	1848.94
361.843	1820.94
362.07	1756.94
362.296	1542.94
362.523	1508.94
362.749	1468.94
362.976	1546.94
363.203	1550.94
363.429	1507.94
363.656	1462.94
363.882	1514.94
364.109	1651.94
364.335	1862.94
364.562	1681.94
364.788	1598.94
365.015	1547.94
365.241	1507.94
365.468	1529.94
365.694	1585.94
365.92	1632.94
366.147	1588.94
366.373	1482.94
366.599	1449.94
366.826	1484.94
367.052	1476.94
367.278	1538.94
367.505	1498.94
367.731	1553.94
367.957	1568.94
368.184	1567.94
368.41	1657.94
368.636	1680.94
368.862	1677.94
369.089	1712.94
369.315	1638.94
369.541	1598.94
369.767	1574.94
369.993	1508.94
370.219	1514.94
370.445	1549.94
370.672	1614.94
370.898	1716.94
371.124	1676.94
371.35	1563.94
371.576	1650.94
371.802	1703.94
372.028	1665.94
372.254	1547.94
372.48	1546.94
372.706	1549.94
372.932	1549.94
373.158	1547.94
373.384	1601.94
373.61	1603.94
373.835	1703.94
374.061	1621.94
374.287	1601.94
374.513	1609.94
374.739	1630.94
374.965	1646.94
375.191	1675.94
375.416	1662.94
375.642	1653.94
375.868	1720.94
376.094	1755.94
376.319	1682.94
376.545	1597.94
376.771	1610.94
376.997	1679.94
377.222	1690.94
377.448	1622.94
377.674	1669.94
377.899	1646.94
378.125	1728.94
378.35	1754.94
378.576	1620.94
378.802	1565.94
379.027	1572.94
379.253	1587.94
379.478	1590.94
379.704	1559.94
379.929	1597.94
380.155	1605.94
380.38	1598.94
380.606	1662.94
380.831	1639.94
381.057	1656.94
381.282	1706.94
381.507	1669.94
381.733	1729.94
381.958	1817.94
382.184	1703.94
382.409	1666.94
382.634	1652.94
382.86	1690.94
383.085	1669.94
383.31	1712.94
383.535	1817.94
383.761	1893.94
383.986	1831.94
384.211	1769.94
384.436	1812.94
384.662	1879.94
384.887	1953.94
385.112	1850.94
385.337	1893.94
385.562	1853.94
385.787	1820.94
386.013	1903.94
386.238	1912.94
386.463	1904.94
386.688	1969.94
386.913	2060.94
387.138	2045.94
387.363	1908.94
387.588	1916.94
387.813	1889.94
388.038	1909.94
388.263	1956.94
388.488	1925.94
388.713	1806.94
388.938	1781.94
389.163	1810.94
389.387	1824.94
389.612	1831.94
389.837	1865.94
390.062	1900.94
390.287	1876.94
390.512	1904.94
390.736	1846.94
390.961	1792.94
391.186	1775.94
391.411	1785.94
391.636	1878.94
391.86	1911.94
392.085	1913.94
392.31	1843.94
392.534	1904.94
392.759	1982.94
392.984	1964.94
393.208	2133.94
393.433	2556.94
393.658	2662.94
393.882	2152.94
394.107	1936.94
394.331	1876.94
394.556	1844.94
394.78	1846.94
395.005	1925.94
395.229	1970.94
395.454	2090.94
395.678	2139.94
395.903	2069.94
396.127	1971.94
396.352	2015.94
396.576	2084.94
396.801	2237.94
397.025	2491.94
397.249	2254.94
397.474	2115.94
397.698	2055.94
397.922	2049.94
398.147	2131.94
398.371	2171.94
398.595	2158.94
398.82	2154.94
399.044	2221.94
399.268	2300.94
399.492	2422.94
399.717	2584.94
399.941	2564.94
400.165	2474.94
400.389	2393.94
400.613	2352.94
400.837	2523.94
401.062	2766.94
401.286	2485.94
401.51	2248.94
401.734	2386.94
401.958	2337.94
402.182	2166.94
402.406	2152.94
402.63	2133.94
402.854	2128.94
403.078	2121.94
403.302	2178.94
403.526	2226.94
403.75	2240.94
403.974	2239.94
404.198	2222.94
404.422	2244.94
404.645	2354.94
404.869	2390.94
405.093	2224.94
405.317	2179.94
405.541	2231.94
405.765	2258.94
405.988	2257.94
406.212	2274.94
406.436	2313.94
406.66	2320.94
406.883	2344.94
407.107	2613.94
407.331	2781.94
407.555	2979.94
407.778	2827.94
408.002	2498.94
408.226	2362.94
408.449	2337.94
408.673	2274.94
408.896	2282.94
409.12	2327.94
409.344	2271.94
409.567	2226.94
409.791	2292.94
410.014	2265.94
410.238	2358.94
410.461	2463.94
410.685	2266.94
410.908	2150.94
411.132	2231.94
411.355	2238.94
411.578	2194.94
411.802	2176.94
412.025	2197.94
412.249	2167.94
412.472	2089.94
412.695	2136.94
412.919	2076.94
413.142	2061.94
413.365	2145.94
413.589	2170.94
413.812	2213.94
414.035	2269.94
414.258	2135.94
414.482	2114.94
414.705	2149.94
414.928	2102.94
415.151	2107.94
415.374	2118.94
415.597	2167.94
415.821	2176.94
416.044	2240.94
416.267	2271.94
416.49	2059.94
416.713	2024.94
416.936	2076.94
417.159	2183.94
417.382	2196.94
417.605	2076.94
417.828	2131.94
418.051	2200.94
418.274	2115.94
418.497	2059.94
418.72	2087.94
418.943	2105.94
419.166	2241.94
419.389	2327.94
419.611	2187.94
419.834	2112.94
420.057	2148.94
420.28	2064.94
420.503	2005.94
420.726	2063.94
420.948	2064.94
421.171	2019.94
421.394	2040.94
421.617	2119.94
421.839	2125.94
422.062	2092.94
422.285	2014.94
422.507	2050.94
422.73	2070.94
422.953	2084.94
423.175	2039.94
423.398	2050.94
423.621	2034.94
423.843	2052.94
424.066	2102.94
424.288	2102.94
424.511	2096.94
424.733	2117.94
424.956	1957.94
425.178	1904.94
425.401	2010.94
425.623	2024.94
425.846	1956.94
426.068	2029.94
426.291	2094.94
426.513	2063.94
426.735	2057.94
426.958	2168.94
427.18	2261.94
427.402	2053.94
427.625	2127.94
427.847	2151.94
428.069	2054.94
428.292	2034.94
428.514	1928.94
428.736	1873.94
428.958	1932.94
429.181	2010.94
429.403	2152.94
429.625	2604.94
429.847	2320.94
430.069	1972.94
430.292	2133.94
430.514	2210.94
430.736	2102.94
430.958	2196.94
431.18	2084.94
431.402	1990.94
431.624	1946.94
431.846	1965.94
432.068	1944.94
432.29	1956.94
432.512	1936.94
432.734	1996.94
432.956	2082.94
433.178	2141.94
433.4	2066.94
433.622	2129.94
433.844	2029.94
434.066	1934.94
434.287	1957.94
434.509	1977.94
434.731	2108.94
434.953	2251.94
435.175	2248.94
435.397	2105.94
435.618	2083.94
435.84	2088.94
436.062	2037.94
436.284	2055.94
436.505	2110.94
436.727	2072.94
436.949	2021.94
437.17	2027.94
437.392	1980.94
437.614	2007.94
437.835	1948.94
438.057	2073.94
438.278	2132.94
438.5	1981.94
438.721	1972.94
438.943	2022.94
439.165	1986.94
439.386	1915.94
439.608	1919.94
439.829	1950.94
440.05	2005.94
440.272	1925.94
440.493	1908.94
440.715	1908.94
440.936	2047.94
441.158	2304.94
441.379	2260.94
441.6	2164.94
441.822	2122.94
442.043	2108.94
442.264	2021.94
442.486	1945.94
442.707	2000.94
442.928	1935.94
443.149	2028.94
443.371	2155.94
443.592	2204.94
443.813	2140.94
444.034	2158.94
444.255	2191.94
444.476	2227.94
444.698	2255.94
444.919	2239.94
445.14	2321.94
445.361	2277.94
445.582	2323.94
445.803	2214.94
446.024	2158.94
446.245	2232.94
446.466	2144.94
446.687	2017.94
446.908	2069.94
447.129	1959.94
447.35	2060.94
447.571	2046.94
447.792	1972.94
448.013	1903.94
448.234	1972.94
448.455	2055.94
448.675	2040.94
448.896	1874.94
449.117	1846.94
449.338	1884.94
449.559	1961.94
449.779	2105.94
450	2292.94
450.221	2482.94
450.442	2428.94
450.662	2083.94
450.883	1874.94
451.104	1825.94
451.324	1909.94
451.545	1942.94
451.766	1922.94
451.986	1819.94
452.207	1802.94
452.428	1759.94
452.648	1743.94
452.869	1792.94
453.089	1926.94
453.31	1856.94
453.53	1962.94
453.751	1862.94
453.971	1732.94
454.192	1826.94
454.412	1954.94
454.633	1878.94
454.853	1788.94
455.073	1718.94
455.294	1720.94
455.514	1706.94
455.734	1703.94
455.955	1768.94
456.175	1758.94
456.395	1793.94
456.616	1798.94
456.836	1849.94
457.056	1747.94
457.276	1777.94
457.497	1752.94
457.717	1679.94
457.937	1746.94
458.157	1789.94
458.377	1779.94
458.598	1747.94
458.818	1714.94
459.038	1860.94
459.258	1972.94
459.478	1952.94
459.698	1902.94
459.918	1985.94
460.138	2070.94
460.358	2081.94
460.578	2106.94
460.798	2186.94
461.018	2313.94
461.238	2206.94
461.458	2068.94
461.678	2094.94
461.898	2123.94
462.118	2020.94
462.338	2125.94
462.558	2141.94
462.777	2115.94
462.997	2227.94
463.217	2352.94
463.437	2366.94
463.657	2205.94
463.876	2153.94
464.096	2181.94
464.316	2157.94
464.536	2204.94
464.755	2211.94
464.975	2278.94
465.195	2163.94
465.414	2257.94
465.634	2198.94
465.854	2053.94
466.073	2112.94
466.293	2128.94
466.512	1920.94
466.732	1948.94
466.951	2022.94
467.171	2007.94
467.391	1901.94
467.61	1861.94
467.829	1883.94
468.049	1990.94
468.268	2208.94
468.488	2106.94
468.707	2000.94
468.927	1956.94
469.146	1907.94
469.365	1912.94
469.585	1889.94
469.804	1896.94
470.023	1913.94
470.243	1968.94
470.462	1912.94
470.681	1875.94
470.901	1954.94
471.12	1940.94
471.339	1890.94
471.558	1876.94
471.777	1823.94
471.997	1871.94
472.216	1864.94
472.435	1782.94
472.654	1832.94
472.873	1934.94
473.092	2012.94
473.311	1940.94
473.53	1827.94
473.749	1821.94
473.968	1905.94
474.187	1946.94
474.406	2108.94
474.625	1961.94
474.844	1945.94
475.063	1880.94
475.282	1944.94
475.501	1911.94
475.72	1884.94
475.939	2001.94
476.158	1950.94
476.377	1915.94
476.596	1944.94
476.814	1993.94
477.033	1999.94
477.252	2107.94
477.471	2135.94
477.69	2009.94
477.908	1991.94
478.127	2159.94
478.346	2321.94
478.564	2305.94
478.783	2250.94
479.002	2329.94
479.22	2279.94
479.439	2340.94
479.658	2665.94
479.876	2622.94
480.095	2298.94
480.313	2226.94
480.532	2094.94
480.751	2135.94
480.969	2223.94
481.188	2192.94
481.406	2135.94
481.624	2068.94
481.843	2102.94
482.061	2167.94
482.28	2138.94
482.498	2249.94
482.717	2196.94
482.935	2065.94
483.153	2128.94
483.372	2124.94
483.59	2084.94
483.808	2098.94
484.027	2187.94
484.245	2292.94
484.463	2593.94
484.681	2906.94
484.9	2324.94
485.118	2178.94
485.336	2151.94
485.554	2210.94
485.772	2274.94
485.99	2294.94
486.209	2313.94
486.427	2215.94
486.645	2242.94
486.863	2204.94
487.081	2258.94
487.299	2312.94
487.517	2227.94
