Data from WStandard_LampEnergy5.5LIBS07252019.E.O._I.C._HRD10591_16-07-46-919.txt Node
Date: Thu Jul 25 16:07:46 EDT 2019
User: cochatt
Spectrometer: HR+D1059
Trigger mode: 1
Integration Time (sec): 1.000000E-1
Scans to average: 1
Electric dark correction enabled: true
Nonlinearity correction enabled: false
Boxcar width: 0
XAxis mode: Wavelengths
Number of Pixels in Spectrum: 2048
>>>>>Begin Spectral Data<<<<<
223.165	-9.44
223.4	-9.44
223.635	-9.44
223.869	-28.44
224.104	-13.44
224.338	-23.44
224.573	-28.44
224.808	-16.44
225.042	0.56
225.277	-7.44
225.511	15.56
225.746	9.56
225.98	6.56
226.215	1.56
226.449	22.56
226.683	9.56
226.918	37.56
227.152	23.56
227.387	34.56
227.621	46.56
227.856	37.56
228.09	50.56
228.324	56.56
228.559	62.56
228.793	143.56
229.027	359.56
229.262	378.56
229.496	410.56
229.73	381.56
229.964	440.56
230.199	470.56
230.433	444.56
230.667	517.56
230.901	554.56
231.136	489.56
231.37	462.56
231.604	474.56
231.838	462.56
232.072	458.56
232.306	458.56
232.541	481.56
232.775	558.56
233.009	621.56
233.243	615.56
233.477	544.56
233.711	558.56
233.945	584.56
234.179	561.56
234.413	586.56
234.647	642.56
234.881	608.56
235.115	558.56
235.349	573.56
235.583	564.56
235.817	567.56
236.051	529.56
236.285	540.56
236.519	592.56
236.753	669.56
236.987	687.56
237.221	673.56
237.455	737.56
237.689	726.56
237.922	681.56
238.156	697.56
238.39	675.56
238.624	735.56
238.858	762.56
239.091	786.56
239.325	799.56
239.559	934.56
239.793	974.56
240.027	1086.56
240.26	1045.56
240.494	777.56
240.728	734.56
240.961	738.56
241.195	760.56
241.429	840.56
241.662	841.56
241.896	759.56
242.13	786.56
242.363	880.56
242.597	915.56
242.83	875.56
243.064	883.56
243.298	985.56
243.531	934.56
243.765	929.56
243.998	937.56
244.232	820.56
244.465	773.56
244.699	805.56
244.932	912.56
245.166	1058.56
245.399	1028.56
245.633	908.56
245.866	906.56
246.099	957.56
246.333	987.56
246.566	943.56
246.8	1055.56
247.033	1185.56
247.266	1096.56
247.5	1094.56
247.733	1046.56
247.966	1099.56
248.2	1252.56
248.433	1190.56
248.666	1222.56
248.899	1348.56
249.133	1548.56
249.366	1770.56
249.599	1439.56
249.832	1261.56
250.066	1304.56
250.299	1311.56
250.532	1226.56
250.765	1092.56
250.998	1160.56
251.231	1179.56
251.465	1253.56
251.698	1177.56
251.931	1175.56
252.164	1223.56
252.397	1281.56
252.63	1270.56
252.863	1096.56
253.096	1054.56
253.329	1174.56
253.562	1191.56
253.795	1315.56
254.028	1308.56
254.261	1192.56
254.494	1173.56
254.727	1163.56
254.96	1159.56
255.193	1234.56
255.426	1430.56
255.659	1625.56
255.892	1696.56
256.124	1395.56
256.357	1330.56
256.59	1443.56
256.823	1447.56
257.056	1408.56
257.289	1757.56
257.521	1943.56
257.754	1754.56
257.987	1623.56
258.22	1800.56
258.452	1750.56
258.685	1414.56
258.918	1386.56
259.151	1404.56
259.383	1326.56
259.616	1215.56
259.849	1232.56
260.081	1412.56
260.314	1569.56
260.547	1728.56
260.779	1736.56
261.012	1648.56
261.244	1456.56
261.477	1372.56
261.71	1432.56
261.942	1416.56
262.175	1381.56
262.407	1468.56
262.64	1392.56
262.872	1302.56
263.105	1257.56
263.337	1317.56
263.57	1306.56
263.802	1331.56
264.035	1227.56
264.267	1129.56
264.499	1145.56
264.732	1208.56
264.964	1354.56
265.197	1378.56
265.429	1407.56
265.661	1588.56
265.894	1794.56
266.126	1807.56
266.358	1621.56
266.591	1675.56
266.823	1842.56
267.055	1652.56
267.287	1619.56
267.52	1585.56
267.752	1569.56
267.984	1582.56
268.216	1641.56
268.448	1658.56
268.681	1677.56
268.913	1520.56
269.145	1451.56
269.377	1380.56
269.609	1517.56
269.841	1747.56
270.073	2065.56
270.306	2252.56
270.538	2489.56
270.77	2054.56
271.002	1719.56
271.234	1680.56
271.466	1641.56
271.698	1858.56
271.93	2248.56
272.162	2270.56
272.394	2017.56
272.626	1939.56
272.858	1729.56
273.09	1465.56
273.322	1467.56
273.553	1382.56
273.785	1428.56
274.017	1456.56
274.249	1565.56
274.481	1604.56
274.713	1459.56
274.945	1446.56
275.176	1454.56
275.408	1422.56
275.64	1371.56
275.872	1360.56
276.104	1428.56
276.335	1625.56
276.567	1896.56
276.799	1935.56
277.031	1733.56
277.262	1624.56
277.494	1686.56
277.726	1859.56
277.957	1867.56
278.189	1692.56
278.421	1572.56
278.652	1488.56
278.884	1481.56
279.115	1474.56
279.347	1516.56
279.579	1495.56
279.81	1495.56
280.042	1677.56
280.273	1790.56
280.505	1829.56
280.736	1848.56
280.968	1735.56
281.199	1536.56
281.431	1440.56
281.662	1455.56
281.894	1430.56
282.125	1475.56
282.356	1535.56
282.588	1572.56
282.819	1548.56
283.051	1644.56
283.282	1808.56
283.513	1756.56
283.745	1535.56
283.976	1388.56
284.207	1424.56
284.439	1465.56
284.67	1527.56
284.901	1556.56
285.132	1601.56
285.364	1544.56
285.595	1565.56
285.826	1501.56
286.057	1488.56
286.288	1502.56
286.52	1538.56
286.751	1682.56
286.982	1771.56
287.213	1641.56
287.444	1479.56
287.675	1458.56
287.906	1520.56
288.138	1638.56
288.369	1585.56
288.6	1510.56
288.831	1477.56
289.062	1464.56
289.293	1518.56
289.524	1525.56
289.755	1557.56
289.986	1609.56
290.217	1480.56
290.448	1493.56
290.679	1561.56
290.91	1522.56
291.141	1553.56
291.371	1638.56
291.602	1594.56
291.833	1606.56
292.064	1692.56
292.295	1650.56
292.526	1650.56
292.757	1766.56
292.987	1659.56
293.218	1545.56
293.449	1665.56
293.68	1912.56
293.91	2049.56
294.141	1926.56
294.372	1801.56
294.603	1846.56
294.833	1923.56
295.064	1780.56
295.295	1629.56
295.525	1561.56
295.756	1501.56
295.987	1380.56
296.217	1400.56
296.448	1492.56
296.679	1509.56
296.909	1507.56
297.14	1474.56
297.37	1471.56
297.601	1575.56
297.831	1708.56
298.062	1724.56
298.292	1592.56
298.523	1506.56
298.753	1473.56
298.984	1552.56
299.214	1537.56
299.445	1580.56
299.675	1633.56
299.905	1605.56
300.136	1576.56
300.366	1558.56
300.597	1465.56
300.827	1485.56
301.057	1517.56
301.288	1605.56
301.518	1600.56
301.748	1632.56
301.979	1736.56
302.209	1733.56
302.439	1900.56
302.669	1964.56
302.9	1858.56
303.13	1659.56
303.36	1666.56
303.59	1737.56
303.82	1640.56
304.051	1633.56
304.281	1666.56
304.511	1644.56
304.741	1718.56
304.971	1929.56
305.201	2109.56
305.431	1951.56
305.661	1600.56
305.891	1470.56
306.121	1446.56
306.352	1509.56
306.582	1549.56
306.812	1694.56
307.042	1843.56
307.272	1829.56
307.502	1852.56
307.731	2001.56
307.961	2186.56
308.191	2060.56
308.421	1714.56
308.651	1605.56
308.881	1572.56
309.111	1618.56
309.341	1536.56
309.571	1542.56
309.8	1597.56
310.03	1580.56
310.26	1559.56
310.49	1551.56
310.72	1600.56
310.949	1692.56
311.179	1690.56
311.409	1710.56
311.639	1641.56
311.868	1588.56
312.098	1604.56
312.328	1607.56
312.557	1577.56
312.787	1623.56
313.017	1643.56
313.246	1694.56
313.476	1636.56
313.706	1688.56
313.935	1696.56
314.165	1695.56
314.394	1732.56
314.624	1858.56
314.853	1940.56
315.083	1992.56
315.312	2109.56
315.542	1958.56
315.771	1702.56
316.001	1705.56
316.23	1789.56
316.46	1796.56
316.689	1774.56
316.919	1710.56
317.148	1616.56
317.377	1639.56
317.607	1709.56
317.836	1965.56
318.065	2055.56
318.295	1950.56
318.524	1870.56
318.753	1804.56
318.983	1792.56
319.212	1738.56
319.441	1722.56
319.67	1694.56
319.9	1733.56
320.129	1849.56
320.358	1916.56
320.587	1959.56
320.816	1967.56
321.046	1912.56
321.275	1773.56
321.504	1806.56
321.733	1937.56
321.962	1951.56
322.191	1729.56
322.42	1760.56
322.649	1705.56
322.878	1702.56
323.108	1748.56
323.337	1813.56
323.566	1799.56
323.795	1810.56
324.024	1802.56
324.253	1764.56
324.482	1761.56
324.71	1696.56
324.939	1649.56
325.168	1619.56
325.397	1710.56
325.626	1767.56
325.855	1772.56
326.084	1720.56
326.313	1716.56
326.542	1740.56
326.77	1806.56
326.999	1822.56
327.228	1728.56
327.457	1639.56
327.686	1615.56
327.914	1667.56
328.143	1743.56
328.372	1746.56
328.6	1759.56
328.829	1733.56
329.058	1677.56
329.287	1656.56
329.515	1729.56
329.744	1751.56
329.972	1857.56
330.201	1909.56
330.43	1908.56
330.658	1811.56
330.887	1816.56
331.115	1793.56
331.344	1852.56
331.572	1766.56
331.801	1814.56
332.03	1823.56
332.258	1818.56
332.486	1847.56
332.715	1852.56
332.943	1883.56
333.172	1790.56
333.4	1861.56
333.629	1873.56
333.857	1992.56
334.085	2182.56
334.314	2467.56
334.542	2780.56
334.771	2527.56
334.999	2208.56
335.227	2094.56
335.455	1955.56
335.684	1959.56
335.912	1984.56
336.14	2029.56
336.369	1966.56
336.597	1900.56
336.825	1831.56
337.053	1873.56
337.281	2028.56
337.51	2129.56
337.738	2213.56
337.966	2109.56
338.194	1895.56
338.422	1827.56
338.65	1827.56
338.878	1802.56
339.106	1756.56
339.334	1723.56
339.562	1687.56
339.79	1729.56
340.018	1837.56
340.246	1914.56
340.474	1925.56
340.702	1847.56
340.93	1916.56
341.158	1892.56
341.386	1812.56
341.614	1786.56
341.842	1800.56
342.07	1819.56
342.298	1796.56
342.526	1825.56
342.754	1798.56
342.981	1788.56
343.209	1745.56
343.437	1746.56
343.665	1791.56
343.893	1817.56
344.12	1960.56
344.348	1934.56
344.576	1877.56
344.804	1806.56
345.031	1826.56
345.259	1822.56
345.487	1747.56
345.714	1694.56
345.942	1657.56
346.17	1672.56
346.397	1700.56
346.625	1766.56
346.853	1630.56
347.08	1570.56
347.308	1617.56
347.535	1663.56
347.763	1722.56
347.99	1692.56
348.218	1628.56
348.445	1626.56
348.673	1683.56
348.9	1738.56
349.128	1757.56
349.355	1809.56
349.583	1788.56
349.81	1676.56
350.037	1558.56
350.265	1577.56
350.492	1620.56
350.72	1616.56
350.947	1670.56
351.174	1693.56
351.402	1635.56
351.629	1567.56
351.856	1557.56
352.083	1534.56
352.311	1566.56
352.538	1603.56
352.765	1665.56
352.992	1730.56
353.22	1630.56
353.447	1602.56
353.674	1605.56
353.901	1652.56
354.128	1621.56
354.355	1574.56
354.583	1683.56
354.81	1692.56
355.037	1730.56
355.264	1704.56
355.491	1631.56
355.718	1670.56
355.945	1672.56
356.172	1654.56
356.399	1603.56
356.626	1621.56
356.853	1647.56
357.08	1789.56
357.307	1982.56
357.534	1986.56
357.761	1734.56
357.988	1641.56
358.215	1546.56
358.441	1587.56
358.668	1580.56
358.895	1604.56
359.122	1660.56
359.349	1863.56
359.576	1839.56
359.802	1664.56
360.029	1609.56
360.256	1580.56
360.483	1644.56
360.709	1612.56
360.936	1719.56
361.163	1732.56
361.39	1902.56
361.616	2081.56
361.843	2036.56
362.07	1919.56
362.296	1711.56
362.523	1616.56
362.749	1631.56
362.976	1683.56
363.203	1725.56
363.429	1651.56
363.656	1596.56
363.882	1634.56
364.109	1800.56
364.335	1964.56
364.562	1847.56
364.788	1750.56
365.015	1662.56
365.241	1592.56
365.468	1664.56
365.694	1714.56
365.92	1841.56
366.147	1731.56
366.373	1638.56
366.599	1583.56
366.826	1582.56
367.052	1609.56
367.278	1620.56
367.505	1644.56
367.731	1645.56
367.957	1675.56
368.184	1720.56
368.41	1858.56
368.636	1858.56
368.862	1822.56
369.089	1848.56
369.315	1796.56
369.541	1720.56
369.767	1696.56
369.993	1626.56
370.219	1627.56
370.445	1660.56
370.672	1752.56
370.898	1863.56
371.124	1835.56
371.35	1726.56
371.576	1774.56
371.802	1873.56
372.028	1797.56
372.254	1728.56
372.48	1680.56
372.706	1639.56
372.932	1664.56
373.158	1633.56
373.384	1664.56
373.61	1749.56
373.835	1831.56
374.061	1754.56
374.287	1709.56
374.513	1716.56
374.739	1729.56
374.965	1760.56
375.191	1785.56
375.416	1788.56
375.642	1782.56
375.868	1863.56
376.094	1914.56
376.319	1858.56
376.545	1704.56
376.771	1737.56
376.997	1850.56
377.222	1825.56
377.448	1772.56
377.674	1846.56
377.899	1753.56
378.125	1903.56
378.35	1934.56
378.576	1740.56
378.802	1629.56
379.027	1659.56
379.253	1688.56
379.478	1699.56
379.704	1699.56
379.929	1674.56
380.155	1724.56
380.38	1763.56
380.606	1729.56
380.831	1721.56
381.057	1779.56
381.282	1827.56
381.507	1768.56
381.733	1907.56
381.958	2001.56
382.184	1846.56
382.409	1729.56
382.634	1781.56
382.86	1793.56
383.085	1811.56
383.31	1853.56
383.535	1999.56
383.761	2073.56
383.986	2031.56
384.211	1949.56
384.436	1892.56
384.662	1980.56
384.887	2120.56
385.112	2014.56
385.337	2011.56
385.562	1952.56
385.787	1989.56
386.013	2001.56
386.238	2036.56
386.463	1996.56
386.688	2103.56
386.913	2263.56
387.138	2172.56
387.363	2015.56
387.588	2058.56
387.813	2005.56
388.038	2050.56
388.263	2129.56
388.488	2039.56
388.713	1912.56
388.938	1887.56
389.163	1882.56
389.387	1973.56
389.612	1944.56
389.837	1971.56
390.062	1992.56
390.287	2026.56
390.512	1997.56
390.736	1961.56
390.961	1911.56
391.186	1877.56
391.411	1883.56
391.636	1943.56
391.86	1976.56
392.085	1994.56
392.31	1914.56
392.534	1924.56
392.759	1993.56
392.984	2020.56
393.208	1958.56
393.433	1997.56
393.658	2102.56
393.882	2125.56
394.107	2018.56
394.331	1990.56
394.556	1928.56
394.78	1903.56
395.005	2074.56
395.229	2118.56
395.454	2267.56
395.678	2305.56
395.903	2157.56
396.127	2113.56
396.352	2107.56
396.576	2177.56
396.801	2160.56
397.025	2139.56
397.249	2158.56
397.474	2123.56
397.698	2101.56
397.922	2148.56
398.147	2247.56
398.371	2350.56
398.595	2373.56
398.82	2247.56
399.044	2275.56
399.268	2338.56
399.492	2534.56
399.717	2649.56
399.941	2617.56
400.165	2565.56
400.389	2536.56
400.613	2528.56
400.837	2728.56
401.062	3133.56
401.286	2716.56
401.51	2435.56
401.734	2601.56
401.958	2520.56
402.182	2381.56
402.406	2241.56
402.63	2201.56
402.854	2250.56
403.078	2258.56
403.302	2303.56
403.526	2334.56
403.75	2335.56
403.974	2384.56
404.198	2302.56
404.422	2413.56
404.645	2532.56
404.869	2528.56
405.093	2300.56
405.317	2261.56
405.541	2360.56
405.765	2364.56
405.988	2339.56
406.212	2393.56
406.436	2402.56
406.66	2482.56
406.883	2516.56
407.107	2832.56
407.331	3061.56
407.555	3273.56
407.778	3066.56
408.002	2527.56
408.226	2451.56
408.449	2435.56
408.673	2386.56
408.896	2414.56
409.12	2488.56
409.344	2371.56
409.567	2333.56
409.791	2365.56
410.014	2434.56
410.238	2468.56
410.461	2674.56
410.685	2401.56
410.908	2272.56
411.132	2337.56
411.355	2321.56
411.578	2239.56
411.802	2264.56
412.025	2333.56
412.249	2312.56
412.472	2230.56
412.695	2191.56
412.919	2204.56
413.142	2196.56
413.365	2218.56
413.589	2292.56
413.812	2384.56
414.035	2502.56
414.258	2300.56
414.482	2273.56
414.705	2271.56
414.928	2218.56
415.151	2196.56
415.374	2221.56
415.597	2271.56
415.821	2275.56
416.044	2378.56
416.267	2380.56
416.49	2178.56
416.713	2160.56
416.936	2240.56
417.159	2313.56
417.382	2337.56
417.605	2164.56
417.828	2238.56
418.051	2263.56
418.274	2237.56
418.497	2149.56
418.72	2110.56
418.943	2119.56
419.166	2281.56
419.389	2413.56
419.611	2285.56
419.834	2181.56
420.057	2240.56
420.28	2150.56
420.503	2149.56
420.726	2234.56
420.948	2195.56
421.171	2133.56
421.394	2141.56
421.617	2213.56
421.839	2159.56
422.062	2176.56
422.285	2125.56
422.507	2143.56
422.73	2103.56
422.953	2056.56
423.175	2053.56
423.398	2092.56
423.621	2112.56
423.843	2126.56
424.066	2181.56
424.288	2246.56
424.511	2279.56
424.733	2247.56
424.956	2068.56
425.178	2035.56
425.401	2070.56
425.623	2062.56
425.846	2074.56
426.068	2160.56
426.291	2264.56
426.513	2197.56
426.735	2209.56
426.958	2308.56
427.18	2468.56
427.402	2276.56
427.625	2292.56
427.847	2336.56
428.069	2180.56
428.292	2114.56
428.514	2014.56
428.736	2055.56
428.958	2064.56
429.181	2070.56
429.403	2355.56
429.625	2915.56
429.847	2592.56
430.069	2151.56
430.292	2307.56
430.514	2437.56
430.736	2204.56
430.958	2294.56
431.18	2258.56
431.402	2087.56
431.624	2064.56
431.846	2084.56
432.068	2024.56
432.29	2039.56
432.512	2081.56
432.734	2133.56
432.956	2133.56
433.178	2275.56
433.4	2195.56
433.622	2240.56
433.844	2106.56
434.066	2067.56
434.287	2083.56
434.509	2129.56
434.731	2254.56
434.953	2390.56
435.175	2344.56
435.397	2182.56
435.618	2181.56
435.84	2199.56
436.062	2168.56
436.284	2146.56
436.505	2218.56
436.727	2230.56
436.949	2178.56
437.17	2077.56
437.392	2129.56
437.614	2119.56
437.835	2019.56
438.057	2172.56
438.278	2264.56
438.5	2157.56
438.721	2063.56
438.943	2049.56
439.165	2058.56
439.386	2020.56
439.608	2030.56
439.829	2028.56
440.05	2099.56
440.272	2065.56
440.493	1992.56
440.715	2091.56
440.936	2204.56
441.158	2433.56
441.379	2387.56
441.6	2309.56
441.822	2263.56
442.043	2246.56
442.264	2162.56
442.486	2053.56
442.707	2073.56
442.928	2064.56
443.149	2128.56
443.371	2263.56
443.592	2350.56
443.813	2250.56
444.034	2271.56
444.255	2277.56
444.476	2321.56
444.698	2392.56
444.919	2300.56
445.14	2367.56
445.361	2426.56
445.582	2493.56
445.803	2372.56
446.024	2286.56
446.245	2360.56
446.466	2316.56
446.687	2222.56
446.908	2136.56
447.129	2122.56
447.35	2169.56
447.571	2153.56
447.792	2057.56
448.013	2025.56
448.234	2056.56
448.455	2165.56
448.675	2210.56
448.896	2048.56
449.117	1933.56
449.338	2019.56
449.559	2099.56
449.779	2245.56
450	2478.56
450.221	2681.56
450.442	2599.56
450.662	2242.56
450.883	1999.56
451.104	1952.56
451.324	1991.56
451.545	2086.56
451.766	2035.56
451.986	1936.56
452.207	1913.56
452.428	1863.56
452.648	1865.56
452.869	1948.56
453.089	2046.56
453.31	2052.56
453.53	2083.56
453.751	1988.56
453.971	1913.56
454.192	1913.56
454.412	2089.56
454.633	2005.56
454.853	1982.56
455.073	1841.56
455.294	1801.56
455.514	1784.56
455.734	1833.56
455.955	1860.56
456.175	1855.56
456.395	1856.56
456.616	1948.56
456.836	1958.56
457.056	1929.56
457.276	1961.56
457.497	1863.56
457.717	1783.56
457.937	1824.56
458.157	1873.56
458.377	1880.56
458.598	1861.56
458.818	1872.56
459.038	2017.56
459.258	2133.56
459.478	2163.56
459.698	2033.56
459.918	2056.56
460.138	2213.56
460.358	2249.56
460.578	2238.56
460.798	2302.56
461.018	2446.56
461.238	2340.56
461.458	2236.56
461.678	2244.56
461.898	2177.56
462.118	2106.56
462.338	2212.56
462.558	2256.56
462.777	2230.56
462.997	2326.56
463.217	2477.56
463.437	2462.56
463.657	2268.56
463.876	2268.56
464.096	2240.56
464.316	2240.56
464.536	2337.56
464.755	2336.56
464.975	2378.56
465.195	2277.56
465.414	2383.56
465.634	2377.56
465.854	2212.56
466.073	2370.56
466.293	2333.56
466.512	2059.56
466.732	2021.56
466.951	2097.56
467.171	2118.56
467.391	2034.56
467.61	1991.56
467.829	1987.56
468.049	2167.56
468.268	2428.56
468.488	2287.56
468.707	2132.56
468.927	2100.56
469.146	2012.56
469.365	1990.56
469.585	2059.56
469.804	1986.56
470.023	2012.56
470.243	2103.56
470.462	2021.56
470.681	2001.56
470.901	2045.56
471.12	2061.56
471.339	2000.56
471.558	1984.56
471.777	1968.56
471.997	1965.56
472.216	1997.56
472.435	1920.56
472.654	1950.56
472.873	2074.56
473.092	2193.56
473.311	2072.56
473.53	1916.56
473.749	1912.56
473.968	1992.56
474.187	2108.56
474.406	2218.56
474.625	2117.56
474.844	2064.56
475.063	2001.56
475.282	2077.56
475.501	2081.56
475.72	2107.56
475.939	2168.56
476.158	2153.56
476.377	2042.56
476.596	2046.56
476.814	2144.56
477.033	2146.56
477.252	2250.56
477.471	2300.56
477.69	2127.56
477.908	2127.56
478.127	2261.56
478.346	2519.56
478.564	2452.56
478.783	2403.56
479.002	2493.56
479.22	2380.56
479.439	2529.56
479.658	2805.56
479.876	2806.56
480.095	2481.56
480.313	2373.56
480.532	2256.56
480.751	2277.56
480.969	2302.56
481.188	2341.56
481.406	2280.56
481.624	2258.56
481.843	2235.56
482.061	2321.56
482.28	2336.56
482.498	2375.56
482.717	2376.56
482.935	2285.56
483.153	2254.56
483.372	2278.56
483.59	2239.56
483.808	2312.56
484.027	2301.56
484.245	2436.56
484.463	2822.56
484.681	3271.56
484.9	2546.56
485.118	2350.56
485.336	2292.56
485.554	2341.56
485.772	2448.56
485.99	2401.56
486.209	2496.56
486.427	2494.56
486.645	2437.56
486.863	2407.56
487.081	2460.56
487.299	2529.56
487.517	2506.56
