Data from WStandard_LampEnergy5.5LIBS07252019.E.O._I.C._HRD10591_16-06-28-919.txt Node
Date: Thu Jul 25 16:06:28 EDT 2019
User: cochatt
Spectrometer: HR+D1059
Trigger mode: 1
Integration Time (sec): 1.000000E-1
Scans to average: 1
Electric dark correction enabled: true
Nonlinearity correction enabled: false
Boxcar width: 0
XAxis mode: Wavelengths
Number of Pixels in Spectrum: 2048
>>>>>Begin Spectral Data<<<<<
223.165	-20.31
223.4	-20.31
223.635	-20.31
223.869	-21.31
224.104	-10.31
224.338	-16.31
224.573	-18.31
224.808	-5.31
225.042	-8.31
225.277	-15.31
225.511	-4.31
225.746	8.69
225.98	6.69
226.215	6.69
226.449	12.69
226.683	15.69
226.918	31.69
227.152	37.69
227.387	38.69
227.621	29.69
227.856	29.69
228.09	44.69
228.324	42.69
228.559	57.69
228.793	135.69
229.027	353.69
229.262	364.69
229.496	377.69
229.73	386.69
229.964	408.69
230.199	424.69
230.433	434.69
230.667	461.69
230.901	490.69
231.136	453.69
231.37	447.69
231.604	445.69
231.838	430.69
232.072	426.69
232.306	428.69
232.541	458.69
232.775	527.69
233.009	585.69
233.243	566.69
233.477	493.69
233.711	514.69
233.945	542.69
234.179	525.69
234.413	548.69
234.647	626.69
234.881	597.69
235.115	539.69
235.349	520.69
235.583	532.69
235.817	518.69
236.051	501.69
236.285	538.69
236.519	549.69
236.753	640.69
236.987	666.69
237.221	650.69
237.455	721.69
237.689	696.69
237.922	656.69
238.156	612.69
238.39	638.69
238.624	654.69
238.858	730.69
239.091	732.69
239.325	748.69
239.559	866.69
239.793	918.69
240.027	1004.69
240.26	961.69
240.494	736.69
240.728	692.69
240.961	679.69
241.195	658.69
241.429	770.69
241.662	787.69
241.896	705.69
242.13	732.69
242.363	792.69
242.597	866.69
242.83	840.69
243.064	839.69
243.298	896.69
243.531	863.69
243.765	842.69
243.998	852.69
244.232	742.69
244.465	713.69
244.699	732.69
244.932	831.69
245.166	991.69
245.399	926.69
245.633	880.69
245.866	827.69
246.099	893.69
246.333	890.69
246.566	910.69
246.8	981.69
247.033	1111.69
247.266	1036.69
247.5	996.69
247.733	1001.69
247.966	1020.69
248.2	1143.69
248.433	1124.69
248.666	1149.69
248.899	1247.69
249.133	1436.69
249.366	1673.69
249.599	1346.69
249.832	1184.69
250.066	1186.69
250.299	1213.69
250.532	1126.69
250.765	1004.69
250.998	1105.69
251.231	1141.69
251.465	1194.69
251.698	1120.69
251.931	1130.69
252.164	1139.69
252.397	1228.69
252.63	1180.69
252.863	1072.69
253.096	1032.69
253.329	1074.69
253.562	1102.69
253.795	1245.69
254.028	1196.69
254.261	1122.69
254.494	1095.69
254.727	1056.69
254.96	1062.69
255.193	1145.69
255.426	1311.69
255.659	1515.69
255.892	1597.69
256.124	1288.69
256.357	1263.69
256.59	1349.69
256.823	1375.69
257.056	1362.69
257.289	1621.69
257.521	1803.69
257.754	1625.69
257.987	1489.69
258.22	1650.69
258.452	1648.69
258.685	1354.69
258.918	1260.69
259.151	1289.69
259.383	1270.69
259.616	1114.69
259.849	1160.69
260.081	1287.69
260.314	1429.69
260.547	1604.69
260.779	1656.69
261.012	1514.69
261.244	1347.69
261.477	1277.69
261.71	1327.69
261.942	1344.69
262.175	1310.69
262.407	1350.69
262.64	1286.69
262.872	1213.69
263.105	1162.69
263.337	1196.69
263.57	1229.69
263.802	1214.69
264.035	1130.69
264.267	1112.69
264.499	1061.69
264.732	1115.69
264.964	1238.69
265.197	1300.69
265.429	1325.69
265.661	1479.69
265.894	1642.69
266.126	1678.69
266.358	1482.69
266.591	1530.69
266.823	1709.69
267.055	1547.69
267.287	1505.69
267.52	1490.69
267.752	1461.69
267.984	1429.69
268.216	1522.69
268.448	1537.69
268.681	1519.69
268.913	1446.69
269.145	1342.69
269.377	1302.69
269.609	1402.69
269.841	1629.69
270.073	1892.69
270.306	2107.69
270.538	2259.69
270.77	1924.69
271.002	1588.69
271.234	1564.69
271.466	1556.69
271.698	1718.69
271.93	2082.69
272.162	2096.69
272.394	1798.69
272.626	1782.69
272.858	1551.69
273.09	1389.69
273.322	1385.69
273.553	1296.69
273.785	1322.69
274.017	1357.69
274.249	1479.69
274.481	1447.69
274.713	1357.69
274.945	1311.69
275.176	1328.69
275.408	1327.69
275.64	1294.69
275.872	1275.69
276.104	1373.69
276.335	1536.69
276.567	1790.69
276.799	1796.69
277.031	1590.69
277.262	1530.69
277.494	1555.69
277.726	1734.69
277.957	1738.69
278.189	1582.69
278.421	1443.69
278.652	1421.69
278.884	1406.69
279.115	1401.69
279.347	1397.69
279.579	1383.69
279.81	1379.69
280.042	1544.69
280.273	1671.69
280.505	1718.69
280.736	1717.69
280.968	1614.69
281.199	1402.69
281.431	1353.69
281.662	1372.69
281.894	1363.69
282.125	1370.69
282.356	1438.69
282.588	1451.69
282.819	1431.69
283.051	1582.69
283.282	1645.69
283.513	1628.69
283.745	1428.69
283.976	1302.69
284.207	1340.69
284.439	1354.69
284.67	1375.69
284.901	1412.69
285.132	1475.69
285.364	1444.69
285.595	1439.69
285.826	1408.69
286.057	1409.69
286.288	1412.69
286.52	1429.69
286.751	1578.69
286.982	1624.69
287.213	1483.69
287.444	1376.69
287.675	1383.69
287.906	1439.69
288.138	1556.69
288.369	1514.69
288.6	1417.69
288.831	1402.69
289.062	1393.69
289.293	1407.69
289.524	1416.69
289.755	1483.69
289.986	1471.69
290.217	1343.69
290.448	1367.69
290.679	1450.69
290.91	1454.69
291.141	1481.69
291.371	1538.69
291.602	1548.69
291.833	1490.69
292.064	1551.69
292.295	1515.69
292.526	1588.69
292.757	1615.69
292.987	1548.69
293.218	1462.69
293.449	1559.69
293.68	1731.69
293.91	1912.69
294.141	1771.69
294.372	1643.69
294.603	1690.69
294.833	1791.69
295.064	1697.69
295.295	1514.69
295.525	1542.69
295.756	1432.69
295.987	1339.69
296.217	1372.69
296.448	1411.69
296.679	1420.69
296.909	1395.69
297.14	1419.69
297.37	1397.69
297.601	1490.69
297.831	1628.69
298.062	1599.69
298.292	1484.69
298.523	1447.69
298.753	1442.69
298.984	1470.69
299.214	1488.69
299.445	1498.69
299.675	1530.69
299.905	1537.69
300.136	1483.69
300.366	1414.69
300.597	1394.69
300.827	1417.69
301.057	1453.69
301.288	1558.69
301.518	1505.69
301.748	1552.69
301.979	1593.69
302.209	1604.69
302.439	1753.69
302.669	1875.69
302.9	1679.69
303.13	1538.69
303.36	1534.69
303.59	1587.69
303.82	1565.69
304.051	1538.69
304.281	1550.69
304.511	1524.69
304.741	1596.69
304.971	1791.69
305.201	1968.69
305.431	1825.69
305.661	1524.69
305.891	1361.69
306.121	1370.69
306.352	1410.69
306.582	1527.69
306.812	1608.69
307.042	1701.69
307.272	1710.69
307.502	1724.69
307.731	1900.69
307.961	2054.69
308.191	1910.69
308.421	1598.69
308.651	1472.69
308.881	1485.69
309.111	1491.69
309.341	1458.69
309.571	1491.69
309.8	1511.69
310.03	1526.69
310.26	1461.69
310.49	1510.69
310.72	1525.69
310.949	1564.69
311.179	1642.69
311.409	1568.69
311.639	1517.69
311.868	1479.69
312.098	1539.69
312.328	1472.69
312.557	1491.69
312.787	1511.69
313.017	1592.69
313.246	1562.69
313.476	1578.69
313.706	1668.69
313.935	1588.69
314.165	1614.69
314.394	1656.69
314.624	1723.69
314.853	1848.69
315.083	1888.69
315.312	1964.69
315.542	1863.69
315.771	1639.69
316.001	1603.69
316.23	1703.69
316.46	1698.69
316.689	1672.69
316.919	1600.69
317.148	1494.69
317.377	1551.69
317.607	1635.69
317.836	1859.69
318.065	1946.69
318.295	1861.69
318.524	1762.69
318.753	1714.69
318.983	1703.69
319.212	1652.69
319.441	1660.69
319.67	1602.69
319.9	1673.69
320.129	1752.69
320.358	1788.69
320.587	1851.69
320.816	1820.69
321.046	1793.69
321.275	1669.69
321.504	1676.69
321.733	1813.69
321.962	1800.69
322.191	1685.69
322.42	1639.69
322.649	1595.69
322.878	1606.69
323.108	1621.69
323.337	1690.69
323.566	1683.69
323.795	1713.69
324.024	1692.69
324.253	1631.69
324.482	1658.69
324.71	1655.69
324.939	1549.69
325.168	1593.69
325.397	1630.69
325.626	1721.69
325.855	1714.69
326.084	1586.69
326.313	1613.69
326.542	1649.69
326.77	1716.69
326.999	1759.69
327.228	1656.69
327.457	1585.69
327.686	1553.69
327.914	1599.69
328.143	1669.69
328.372	1647.69
328.6	1631.69
328.829	1626.69
329.058	1646.69
329.287	1598.69
329.515	1616.69
329.744	1678.69
329.972	1749.69
330.201	1827.69
330.43	1793.69
330.658	1747.69
330.887	1765.69
331.115	1724.69
331.344	1766.69
331.572	1709.69
331.801	1747.69
332.03	1753.69
332.258	1748.69
332.486	1756.69
332.715	1762.69
332.943	1762.69
333.172	1781.69
333.4	1754.69
333.629	1813.69
333.857	1926.69
334.085	2122.69
334.314	2318.69
334.542	2573.69
334.771	2371.69
334.999	2068.69
335.227	1964.69
335.455	1842.69
335.684	1863.69
335.912	1928.69
336.14	1970.69
336.369	1914.69
336.597	1799.69
336.825	1771.69
337.053	1818.69
337.281	1904.69
337.51	1993.69
337.738	2078.69
337.966	1998.69
338.194	1822.69
338.422	1734.69
338.65	1769.69
338.878	1740.69
339.106	1699.69
339.334	1706.69
339.562	1634.69
339.79	1692.69
340.018	1761.69
340.246	1844.69
340.474	1870.69
340.702	1811.69
340.93	1839.69
341.158	1764.69
341.386	1749.69
341.614	1753.69
341.842	1727.69
342.07	1722.69
342.298	1735.69
342.526	1741.69
342.754	1736.69
342.981	1703.69
343.209	1696.69
343.437	1698.69
343.665	1743.69
343.893	1736.69
344.12	1836.69
344.348	1867.69
344.576	1770.69
344.804	1719.69
345.031	1719.69
345.259	1737.69
345.487	1658.69
345.714	1638.69
345.942	1594.69
346.17	1629.69
346.397	1681.69
346.625	1639.69
346.853	1599.69
347.08	1526.69
347.308	1595.69
347.535	1597.69
347.763	1646.69
347.99	1634.69
348.218	1557.69
348.445	1565.69
348.673	1644.69
348.9	1641.69
349.128	1692.69
349.355	1733.69
349.583	1722.69
349.81	1620.69
350.037	1478.69
350.265	1497.69
350.492	1484.69
350.72	1535.69
350.947	1616.69
351.174	1652.69
351.402	1591.69
351.629	1500.69
351.856	1510.69
352.083	1505.69
352.311	1524.69
352.538	1514.69
352.765	1571.69
352.992	1643.69
353.22	1566.69
353.447	1555.69
353.674	1545.69
353.901	1579.69
354.128	1596.69
354.355	1519.69
354.583	1596.69
354.81	1662.69
355.037	1630.69
355.264	1606.69
355.491	1594.69
355.718	1583.69
355.945	1569.69
356.172	1569.69
356.399	1531.69
356.626	1538.69
356.853	1546.69
357.08	1638.69
357.307	1884.69
357.534	1916.69
357.761	1638.69
357.988	1513.69
358.215	1437.69
358.441	1483.69
358.668	1514.69
358.895	1500.69
359.122	1619.69
359.349	1769.69
359.576	1756.69
359.802	1618.69
360.029	1510.69
360.256	1502.69
360.483	1549.69
360.709	1556.69
360.936	1654.69
361.163	1688.69
361.39	1831.69
361.616	1971.69
361.843	1887.69
362.07	1787.69
362.296	1621.69
362.523	1556.69
362.749	1575.69
362.976	1584.69
363.203	1626.69
363.429	1599.69
363.656	1561.69
363.882	1574.69
364.109	1688.69
364.335	1915.69
364.562	1764.69
364.788	1673.69
365.015	1627.69
365.241	1553.69
365.468	1568.69
365.694	1646.69
365.92	1690.69
366.147	1661.69
366.373	1543.69
366.599	1503.69
366.826	1512.69
367.052	1593.69
367.278	1570.69
367.505	1588.69
367.731	1578.69
367.957	1590.69
368.184	1639.69
368.41	1732.69
368.636	1763.69
368.862	1731.69
369.089	1797.69
369.315	1692.69
369.541	1676.69
369.767	1620.69
369.993	1562.69
370.219	1586.69
370.445	1639.69
370.672	1662.69
370.898	1736.69
371.124	1768.69
371.35	1656.69
371.576	1686.69
371.802	1795.69
372.028	1683.69
372.254	1614.69
372.48	1609.69
372.706	1584.69
372.932	1608.69
373.158	1616.69
373.384	1619.69
373.61	1652.69
373.835	1754.69
374.061	1695.69
374.287	1658.69
374.513	1691.69
374.739	1653.69
374.965	1670.69
375.191	1702.69
375.416	1703.69
375.642	1715.69
375.868	1824.69
376.094	1822.69
376.319	1766.69
376.545	1671.69
376.771	1665.69
376.997	1771.69
377.222	1768.69
377.448	1701.69
377.674	1748.69
377.899	1666.69
378.125	1794.69
378.35	1800.69
378.576	1682.69
378.802	1590.69
379.027	1631.69
379.253	1652.69
379.478	1650.69
379.704	1673.69
379.929	1655.69
380.155	1635.69
380.38	1699.69
380.606	1711.69
380.831	1700.69
381.057	1739.69
381.282	1748.69
381.507	1733.69
381.733	1795.69
381.958	1908.69
382.184	1757.69
382.409	1741.69
382.634	1724.69
382.86	1720.69
383.085	1697.69
383.31	1786.69
383.535	1884.69
383.761	2015.69
383.986	1948.69
384.211	1840.69
384.436	1853.69
384.662	1934.69
384.887	2015.69
385.112	1916.69
385.337	1956.69
385.562	1897.69
385.787	1890.69
386.013	1978.69
386.238	1966.69
386.463	1951.69
386.688	2062.69
386.913	2173.69
387.138	2121.69
387.363	1950.69
387.588	1992.69
387.813	1933.69
388.038	1966.69
388.263	2023.69
388.488	1948.69
388.713	1870.69
388.938	1810.69
389.163	1831.69
389.387	1858.69
389.612	1888.69
389.837	1922.69
390.062	1955.69
390.287	1894.69
390.512	1891.69
390.736	1920.69
390.961	1889.69
391.186	1863.69
391.411	1855.69
391.636	1889.69
391.86	1910.69
392.085	1869.69
392.31	1909.69
392.534	1906.69
392.759	1980.69
392.984	1918.69
393.208	1962.69
393.433	2060.69
393.658	2100.69
393.882	2154.69
394.107	2000.69
394.331	1888.69
394.556	1895.69
394.78	1942.69
395.005	1962.69
395.229	2026.69
395.454	2169.69
395.678	2218.69
395.903	2082.69
396.127	2010.69
396.352	2015.69
396.576	2086.69
396.801	2142.69
397.025	2140.69
397.249	2120.69
397.474	2082.69
397.698	2030.69
397.922	2114.69
398.147	2172.69
398.371	2264.69
398.595	2259.69
398.82	2202.69
399.044	2225.69
399.268	2332.69
399.492	2495.69
399.717	2638.69
399.941	2620.69
400.165	2528.69
400.389	2475.69
400.613	2429.69
400.837	2621.69
401.062	2938.69
401.286	2586.69
401.51	2359.69
401.734	2402.69
401.958	2410.69
402.182	2230.69
402.406	2196.69
402.63	2152.69
402.854	2202.69
403.078	2216.69
403.302	2259.69
403.526	2279.69
403.75	2311.69
403.974	2321.69
404.198	2271.69
404.422	2350.69
404.645	2440.69
404.869	2419.69
405.093	2263.69
405.317	2230.69
405.541	2297.69
405.765	2336.69
405.988	2336.69
406.212	2326.69
406.436	2423.69
406.66	2452.69
406.883	2453.69
407.107	2722.69
407.331	2925.69
407.555	3100.69
407.778	2947.69
408.002	2532.69
408.226	2456.69
408.449	2419.69
408.673	2361.69
408.896	2357.69
409.12	2423.69
409.344	2330.69
409.567	2271.69
409.791	2328.69
410.014	2351.69
410.238	2397.69
410.461	2554.69
410.685	2341.69
410.908	2238.69
411.132	2302.69
411.355	2229.69
411.578	2208.69
411.802	2226.69
412.025	2287.69
412.249	2263.69
412.472	2195.69
412.695	2165.69
412.919	2194.69
413.142	2170.69
413.365	2173.69
413.589	2251.69
413.812	2249.69
414.035	2396.69
414.258	2230.69
414.482	2205.69
414.705	2175.69
414.928	2176.69
415.151	2165.69
415.374	2207.69
415.597	2211.69
415.821	2300.69
416.044	2357.69
416.267	2343.69
416.49	2122.69
416.713	2066.69
416.936	2144.69
417.159	2227.69
417.382	2266.69
417.605	2126.69
417.828	2212.69
418.051	2226.69
418.274	2183.69
418.497	2109.69
418.72	2098.69
418.943	2092.69
419.166	2261.69
419.389	2356.69
419.611	2205.69
419.834	2172.69
420.057	2192.69
420.28	2137.69
420.503	2109.69
420.726	2126.69
420.948	2145.69
421.171	2102.69
421.394	2130.69
421.617	2209.69
421.839	2136.69
422.062	2135.69
422.285	2128.69
422.507	2124.69
422.73	2030.69
422.953	2033.69
423.175	2028.69
423.398	2081.69
423.621	2125.69
423.843	2133.69
424.066	2143.69
424.288	2189.69
424.511	2188.69
424.733	2173.69
424.956	1995.69
425.178	1959.69
425.401	2011.69
425.623	2049.69
425.846	2028.69
426.068	2132.69
426.291	2150.69
426.513	2162.69
426.735	2125.69
426.958	2274.69
427.18	2362.69
427.402	2165.69
427.625	2237.69
427.847	2230.69
428.069	2110.69
428.292	2040.69
428.514	2013.69
428.736	1987.69
428.958	2047.69
429.181	2076.69
429.403	2221.69
429.625	2746.69
429.847	2490.69
430.069	2098.69
430.292	2280.69
430.514	2364.69
430.736	2175.69
430.958	2226.69
431.18	2177.69
431.402	2030.69
431.624	1996.69
431.846	2012.69
432.068	2001.69
432.29	2023.69
432.512	2054.69
432.734	2141.69
432.956	2107.69
433.178	2175.69
433.4	2188.69
433.622	2156.69
433.844	2058.69
434.066	1999.69
434.287	2019.69
434.509	2057.69
434.731	2158.69
434.953	2363.69
435.175	2306.69
435.397	2159.69
435.618	2164.69
435.84	2152.69
436.062	2104.69
436.284	2095.69
436.505	2138.69
436.727	2156.69
436.949	2080.69
437.17	2109.69
437.392	2086.69
437.614	2089.69
437.835	1990.69
438.057	2125.69
438.278	2257.69
438.5	2055.69
438.721	1990.69
438.943	2057.69
439.165	1958.69
439.386	2041.69
439.608	2020.69
439.829	2012.69
440.05	2076.69
440.272	2001.69
440.493	1994.69
440.715	2034.69
440.936	2119.69
441.158	2374.69
441.379	2312.69
441.6	2256.69
441.822	2206.69
442.043	2200.69
442.264	2085.69
442.486	2049.69
442.707	2045.69
442.928	2023.69
443.149	2079.69
443.371	2213.69
443.592	2279.69
443.813	2239.69
444.034	2179.69
444.255	2218.69
444.476	2290.69
444.698	2315.69
444.919	2326.69
445.14	2376.69
445.361	2357.69
445.582	2437.69
445.803	2317.69
446.024	2238.69
446.245	2349.69
446.466	2276.69
446.687	2149.69
446.908	2138.69
447.129	2029.69
447.35	2140.69
447.571	2106.69
447.792	2005.69
448.013	2003.69
448.234	2025.69
448.455	2157.69
448.675	2128.69
448.896	1983.69
449.117	1930.69
449.338	2000.69
449.559	2079.69
449.779	2183.69
450	2387.69
450.221	2586.69
450.442	2488.69
450.662	2191.69
450.883	1943.69
451.104	1928.69
451.324	1954.69
451.545	2043.69
451.766	2016.69
451.986	1915.69
452.207	1867.69
452.428	1846.69
452.648	1788.69
452.869	1887.69
453.089	1976.69
453.31	1982.69
453.53	2028.69
453.751	1996.69
453.971	1824.69
454.192	1895.69
454.412	2015.69
454.633	1973.69
454.853	1863.69
455.073	1765.69
455.294	1747.69
455.514	1790.69
455.734	1822.69
455.955	1846.69
456.175	1819.69
456.395	1819.69
456.616	1848.69
456.836	1908.69
457.056	1880.69
457.276	1870.69
457.497	1814.69
457.717	1749.69
457.937	1804.69
458.157	1859.69
458.377	1813.69
458.598	1810.69
458.818	1818.69
459.038	1911.69
459.258	2069.69
459.478	2077.69
459.698	1991.69
459.918	2074.69
460.138	2106.69
460.358	2164.69
460.578	2198.69
460.798	2297.69
461.018	2381.69
461.238	2262.69
461.458	2191.69
461.678	2251.69
461.898	2180.69
462.118	2139.69
462.338	2198.69
462.558	2221.69
462.777	2192.69
462.997	2304.69
463.217	2470.69
463.437	2448.69
463.657	2231.69
463.876	2207.69
464.096	2192.69
464.316	2191.69
464.536	2237.69
464.755	2298.69
464.975	2321.69
465.195	2266.69
465.414	2311.69
465.634	2298.69
465.854	2165.69
466.073	2254.69
466.293	2242.69
466.512	1994.69
466.732	2014.69
466.951	2090.69
467.171	2081.69
467.391	1976.69
467.61	1936.69
467.829	1973.69
468.049	2101.69
468.268	2330.69
468.488	2231.69
468.707	2070.69
468.927	2050.69
469.146	1975.69
469.365	1953.69
469.585	2006.69
469.804	1957.69
470.023	2006.69
470.243	2048.69
470.462	2034.69
470.681	1996.69
470.901	2025.69
471.12	2014.69
471.339	1940.69
471.558	1949.69
471.777	1903.69
471.997	1998.69
472.216	1974.69
472.435	1879.69
472.654	1900.69
472.873	1998.69
473.092	2148.69
473.311	2050.69
473.53	1903.69
473.749	1916.69
473.968	1983.69
474.187	2099.69
474.406	2170.69
474.625	2028.69
474.844	2026.69
475.063	2017.69
475.282	2079.69
475.501	2013.69
475.72	2016.69
475.939	2109.69
476.158	2055.69
476.377	2034.69
476.596	2101.69
476.814	2110.69
477.033	2093.69
477.252	2215.69
477.471	2228.69
477.69	2160.69
477.908	2132.69
478.127	2212.69
478.346	2428.69
478.564	2433.69
478.783	2357.69
479.002	2514.69
479.22	2387.69
479.439	2458.69
479.658	2858.69
479.876	2825.69
480.095	2383.69
480.313	2335.69
480.532	2208.69
480.751	2247.69
480.969	2319.69
481.188	2231.69
481.406	2268.69
481.624	2187.69
481.843	2209.69
482.061	2254.69
482.28	2290.69
482.498	2341.69
482.717	2305.69
482.935	2180.69
483.153	2202.69
483.372	2224.69
483.59	2195.69
483.808	2249.69
484.027	2256.69
484.245	2408.69
484.463	2752.69
484.681	3112.69
484.9	2456.69
485.118	2300.69
485.336	2246.69
485.554	2311.69
485.772	2451.69
485.99	2394.69
486.209	2446.69
486.427	2330.69
486.645	2401.69
486.863	2350.69
487.081	2354.69
487.299	2465.69
487.517	2373.69
