Data from WStandard_LampEnergy5.5LIBS07252019.E.O._I.C._HRD10591_16-08-40-927.txt Node
Date: Thu Jul 25 16:08:40 EDT 2019
User: cochatt
Spectrometer: HR+D1059
Trigger mode: 1
Integration Time (sec): 1.000000E-1
Scans to average: 1
Electric dark correction enabled: true
Nonlinearity correction enabled: false
Boxcar width: 0
XAxis mode: Wavelengths
Number of Pixels in Spectrum: 2048
>>>>>Begin Spectral Data<<<<<
223.165	-19.69
223.4	-19.69
223.635	-19.69
223.869	-19.69
224.104	-18.69
224.338	-24.69
224.573	-17.69
224.808	-10.69
225.042	-3.69
225.277	-15.69
225.511	10.31
225.746	8.31
225.98	5.31
226.215	3.31
226.449	16.31
226.683	27.31
226.918	30.31
227.152	29.31
227.387	33.31
227.621	46.31
227.856	46.31
228.09	50.31
228.324	47.31
228.559	61.31
228.793	145.31
229.027	346.31
229.262	355.31
229.496	367.31
229.73	405.31
229.964	415.31
230.199	445.31
230.433	443.31
230.667	468.31
230.901	512.31
231.136	458.31
231.37	437.31
231.604	426.31
231.838	473.31
232.072	447.31
232.306	430.31
232.541	466.31
232.775	531.31
233.009	577.31
233.243	568.31
233.477	499.31
233.711	539.31
233.945	551.31
234.179	528.31
234.413	563.31
234.647	624.31
234.881	575.31
235.115	529.31
235.349	548.31
235.583	548.31
235.817	542.31
236.051	522.31
236.285	521.31
236.519	572.31
236.753	650.31
236.987	653.31
237.221	639.31
237.455	710.31
237.689	691.31
237.922	657.31
238.156	630.31
238.39	642.31
238.624	666.31
238.858	739.31
239.091	748.31
239.325	770.31
239.559	882.31
239.793	915.31
240.027	999.31
240.26	1003.31
240.494	712.31
240.728	696.31
240.961	701.31
241.195	711.31
241.429	772.31
241.662	811.31
241.896	749.31
242.13	735.31
242.363	817.31
242.597	856.31
242.83	861.31
243.064	861.31
243.298	925.31
243.531	901.31
243.765	874.31
243.998	889.31
244.232	770.31
244.465	762.31
244.699	779.31
244.932	863.31
245.166	1003.31
245.399	966.31
245.633	851.31
245.866	839.31
246.099	897.31
246.333	923.31
246.566	902.31
246.8	1029.31
247.033	1113.31
247.266	1009.31
247.5	1057.31
247.733	1044.31
247.966	1073.31
248.2	1178.31
248.433	1144.31
248.666	1169.31
248.899	1276.31
249.133	1433.31
249.366	1653.31
249.599	1387.31
249.832	1165.31
250.066	1229.31
250.299	1229.31
250.532	1174.31
250.765	1049.31
250.998	1101.31
251.231	1137.31
251.465	1167.31
251.698	1097.31
251.931	1088.31
252.164	1142.31
252.397	1211.31
252.63	1210.31
252.863	1047.31
253.096	1057.31
253.329	1121.31
253.562	1120.31
253.795	1223.31
254.028	1214.31
254.261	1122.31
254.494	1127.31
254.727	1060.31
254.96	1074.31
255.193	1207.31
255.426	1353.31
255.659	1585.31
255.892	1559.31
256.124	1338.31
256.357	1254.31
256.59	1335.31
256.823	1380.31
257.056	1303.31
257.289	1651.31
257.521	1833.31
257.754	1629.31
257.987	1532.31
258.22	1686.31
258.452	1661.31
258.685	1311.31
258.918	1335.31
259.151	1319.31
259.383	1285.31
259.616	1114.31
259.849	1179.31
260.081	1299.31
260.314	1499.31
260.547	1629.31
260.779	1693.31
261.012	1544.31
261.244	1357.31
261.477	1285.31
261.71	1371.31
261.942	1351.31
262.175	1301.31
262.407	1391.31
262.64	1302.31
262.872	1229.31
263.105	1197.31
263.337	1223.31
263.57	1192.31
263.802	1214.31
264.035	1168.31
264.267	1102.31
264.499	1066.31
264.732	1172.31
264.964	1239.31
265.197	1237.31
265.429	1332.31
265.661	1524.31
265.894	1670.31
266.126	1746.31
266.358	1491.31
266.591	1556.31
266.823	1728.31
267.055	1530.31
267.287	1548.31
267.52	1539.31
267.752	1461.31
267.984	1487.31
268.216	1555.31
268.448	1552.31
268.681	1551.31
268.913	1456.31
269.145	1365.31
269.377	1361.31
269.609	1426.31
269.841	1635.31
270.073	1945.31
270.306	2177.31
270.538	2312.31
270.77	1949.31
271.002	1669.31
271.234	1570.31
271.466	1566.31
271.698	1727.31
271.93	2070.31
272.162	2109.31
272.394	1884.31
272.626	1840.31
272.858	1595.31
273.09	1392.31
273.322	1403.31
273.553	1337.31
273.785	1350.31
274.017	1414.31
274.249	1490.31
274.481	1545.31
274.713	1398.31
274.945	1347.31
275.176	1369.31
275.408	1346.31
275.64	1314.31
275.872	1301.31
276.104	1396.31
276.335	1574.31
276.567	1844.31
276.799	1817.31
277.031	1603.31
277.262	1546.31
277.494	1562.31
277.726	1797.31
277.957	1765.31
278.189	1638.31
278.421	1477.31
278.652	1449.31
278.884	1368.31
279.115	1405.31
279.347	1455.31
279.579	1404.31
279.81	1384.31
280.042	1580.31
280.273	1721.31
280.505	1699.31
280.736	1731.31
280.968	1636.31
281.199	1435.31
281.431	1375.31
281.662	1359.31
281.894	1401.31
282.125	1423.31
282.356	1483.31
282.588	1501.31
282.819	1470.31
283.051	1586.31
283.282	1739.31
283.513	1654.31
283.745	1459.31
283.976	1348.31
284.207	1374.31
284.439	1403.31
284.67	1459.31
284.901	1451.31
285.132	1512.31
285.364	1489.31
285.595	1489.31
285.826	1451.31
286.057	1438.31
286.288	1428.31
286.52	1524.31
286.751	1618.31
286.982	1642.31
287.213	1491.31
287.444	1385.31
287.675	1407.31
287.906	1433.31
288.138	1550.31
288.369	1516.31
288.6	1454.31
288.831	1397.31
289.062	1412.31
289.293	1424.31
289.524	1444.31
289.755	1502.31
289.986	1513.31
290.217	1372.31
290.448	1436.31
290.679	1493.31
290.91	1449.31
291.141	1500.31
291.371	1545.31
291.602	1550.31
291.833	1530.31
292.064	1592.31
292.295	1551.31
292.526	1624.31
292.757	1633.31
292.987	1597.31
293.218	1518.31
293.449	1609.31
293.68	1799.31
293.91	1947.31
294.141	1810.31
294.372	1679.31
294.603	1755.31
294.833	1811.31
295.064	1734.31
295.295	1540.31
295.525	1536.31
295.756	1415.31
295.987	1368.31
296.217	1390.31
296.448	1409.31
296.679	1429.31
296.909	1449.31
297.14	1420.31
297.37	1430.31
297.601	1510.31
297.831	1653.31
298.062	1642.31
298.292	1505.31
298.523	1449.31
298.753	1442.31
298.984	1460.31
299.214	1458.31
299.445	1506.31
299.675	1537.31
299.905	1554.31
300.136	1533.31
300.366	1478.31
300.597	1418.31
300.827	1411.31
301.057	1462.31
301.288	1572.31
301.518	1501.31
301.748	1557.31
301.979	1647.31
302.209	1663.31
302.439	1793.31
302.669	1893.31
302.9	1753.31
303.13	1563.31
303.36	1579.31
303.59	1634.31
303.82	1545.31
304.051	1568.31
304.281	1565.31
304.511	1555.31
304.741	1647.31
304.971	1818.31
305.201	1961.31
305.431	1808.31
305.661	1516.31
305.891	1380.31
306.121	1345.31
306.352	1413.31
306.582	1479.31
306.812	1613.31
307.042	1748.31
307.272	1716.31
307.502	1757.31
307.731	1923.31
307.961	2034.31
308.191	1887.31
308.421	1629.31
308.651	1544.31
308.881	1546.31
309.111	1556.31
309.341	1508.31
309.571	1539.31
309.8	1472.31
310.03	1514.31
310.26	1471.31
310.49	1498.31
310.72	1548.31
310.949	1597.31
311.179	1629.31
311.409	1593.31
311.639	1564.31
311.868	1533.31
312.098	1561.31
312.328	1532.31
312.557	1499.31
312.787	1543.31
313.017	1571.31
313.246	1600.31
313.476	1557.31
313.706	1588.31
313.935	1602.31
314.165	1602.31
314.394	1612.31
314.624	1725.31
314.853	1843.31
315.083	1858.31
315.312	1943.31
315.542	1847.31
315.771	1649.31
316.001	1646.31
316.23	1709.31
316.46	1716.31
316.689	1689.31
316.919	1579.31
317.148	1548.31
317.377	1547.31
317.607	1653.31
317.836	1852.31
318.065	1919.31
318.295	1898.31
318.524	1831.31
318.753	1700.31
318.983	1710.31
319.212	1667.31
319.441	1650.31
319.67	1621.31
319.9	1675.31
320.129	1732.31
320.358	1813.31
320.587	1861.31
320.816	1849.31
321.046	1816.31
321.275	1683.31
321.504	1698.31
321.733	1878.31
321.962	1816.31
322.191	1641.31
322.42	1659.31
322.649	1625.31
322.878	1640.31
323.108	1669.31
323.337	1702.31
323.566	1711.31
323.795	1698.31
324.024	1721.31
324.253	1659.31
324.482	1718.31
324.71	1630.31
324.939	1559.31
325.168	1546.31
325.397	1646.31
325.626	1687.31
325.855	1734.31
326.084	1651.31
326.313	1645.31
326.542	1649.31
326.77	1731.31
326.999	1738.31
327.228	1649.31
327.457	1571.31
327.686	1569.31
327.914	1625.31
328.143	1642.31
328.372	1631.31
328.6	1663.31
328.829	1675.31
329.058	1622.31
329.287	1634.31
329.515	1670.31
329.744	1655.31
329.972	1743.31
330.201	1865.31
330.43	1841.31
330.658	1741.31
330.887	1733.31
331.115	1763.31
331.344	1783.31
331.572	1738.31
331.801	1719.31
332.03	1735.31
332.258	1767.31
332.486	1760.31
332.715	1781.31
332.943	1825.31
333.172	1747.31
333.4	1768.31
333.629	1795.31
333.857	1908.31
334.085	2079.31
334.314	2332.31
334.542	2611.31
334.771	2395.31
334.999	2124.31
335.227	2010.31
335.455	1907.31
335.684	1857.31
335.912	1885.31
336.14	1971.31
336.369	1915.31
336.597	1810.31
336.825	1755.31
337.053	1805.31
337.281	1849.31
337.51	1973.31
337.738	2078.31
337.966	1991.31
338.194	1807.31
338.422	1734.31
338.65	1761.31
338.878	1762.31
339.106	1706.31
339.334	1666.31
339.562	1636.31
339.79	1714.31
340.018	1797.31
340.246	1833.31
340.474	1865.31
340.702	1759.31
340.93	1781.31
341.158	1774.31
341.386	1709.31
341.614	1747.31
341.842	1737.31
342.07	1727.31
342.298	1749.31
342.526	1748.31
342.754	1725.31
342.981	1721.31
343.209	1717.31
343.437	1679.31
343.665	1669.31
343.893	1780.31
344.12	1874.31
344.348	1868.31
344.576	1758.31
344.804	1729.31
345.031	1710.31
345.259	1727.31
345.487	1676.31
345.714	1629.31
345.942	1597.31
346.17	1604.31
346.397	1634.31
346.625	1666.31
346.853	1555.31
347.08	1534.31
347.308	1562.31
347.535	1602.31
347.763	1649.31
347.99	1631.31
348.218	1521.31
348.445	1549.31
348.673	1606.31
348.9	1611.31
349.128	1655.31
349.355	1731.31
349.583	1710.31
349.81	1643.31
350.037	1512.31
350.265	1519.31
350.492	1545.31
350.72	1586.31
350.947	1600.31
351.174	1626.31
351.402	1545.31
351.629	1521.31
351.856	1492.31
352.083	1485.31
352.311	1484.31
352.538	1491.31
352.765	1625.31
352.992	1647.31
353.22	1567.31
353.447	1520.31
353.674	1563.31
353.901	1613.31
354.128	1566.31
354.355	1552.31
354.583	1573.31
354.81	1652.31
355.037	1674.31
355.264	1596.31
355.491	1621.31
355.718	1638.31
355.945	1611.31
356.172	1544.31
356.399	1553.31
356.626	1556.31
356.853	1564.31
357.08	1697.31
357.307	1834.31
357.534	1897.31
357.761	1663.31
357.988	1555.31
358.215	1467.31
358.441	1523.31
358.668	1475.31
358.895	1508.31
359.122	1614.31
359.349	1755.31
359.576	1768.31
359.802	1601.31
360.029	1550.31
360.256	1537.31
360.483	1526.31
360.709	1612.31
360.936	1630.31
361.163	1671.31
361.39	1824.31
361.616	1978.31
361.843	1943.31
362.07	1867.31
362.296	1574.31
362.523	1524.31
362.749	1569.31
362.976	1597.31
363.203	1615.31
363.429	1609.31
363.656	1541.31
363.882	1594.31
364.109	1729.31
364.335	1835.31
364.562	1754.31
364.788	1693.31
365.015	1595.31
365.241	1565.31
365.468	1578.31
365.694	1638.31
365.92	1690.31
366.147	1665.31
366.373	1573.31
366.599	1545.31
366.826	1549.31
367.052	1576.31
367.278	1566.31
367.505	1594.31
367.731	1590.31
367.957	1581.31
368.184	1630.31
368.41	1743.31
368.636	1780.31
368.862	1771.31
369.089	1805.31
369.315	1758.31
369.541	1695.31
369.767	1594.31
369.993	1555.31
370.219	1542.31
370.445	1587.31
370.672	1721.31
370.898	1768.31
371.124	1754.31
371.35	1647.31
371.576	1700.31
371.802	1779.31
372.028	1747.31
372.254	1642.31
372.48	1621.31
372.706	1560.31
372.932	1614.31
373.158	1643.31
373.384	1636.31
373.61	1681.31
373.835	1770.31
374.061	1684.31
374.287	1650.31
374.513	1699.31
374.739	1658.31
374.965	1685.31
375.191	1685.31
375.416	1717.31
375.642	1724.31
375.868	1781.31
376.094	1831.31
376.319	1750.31
376.545	1679.31
376.771	1660.31
376.997	1782.31
377.222	1763.31
377.448	1689.31
377.674	1738.31
377.899	1700.31
378.125	1807.31
378.35	1869.31
378.576	1682.31
378.802	1575.31
379.027	1590.31
379.253	1638.31
379.478	1611.31
379.704	1655.31
379.929	1649.31
380.155	1599.31
380.38	1668.31
380.606	1713.31
380.831	1657.31
381.057	1705.31
381.282	1797.31
381.507	1743.31
381.733	1824.31
381.958	1920.31
382.184	1771.31
382.409	1687.31
382.634	1752.31
382.86	1729.31
383.085	1723.31
383.31	1748.31
383.535	1905.31
383.761	1999.31
383.986	1984.31
384.211	1860.31
384.436	1819.31
384.662	1921.31
384.887	2006.31
385.112	1918.31
385.337	1954.31
385.562	1897.31
385.787	1901.31
386.013	1945.31
386.238	1949.31
386.463	1958.31
386.688	2036.31
386.913	2154.31
387.138	2116.31
387.363	1931.31
387.588	1956.31
387.813	1940.31
388.038	1973.31
388.263	2057.31
388.488	1970.31
388.713	1835.31
388.938	1792.31
389.163	1820.31
389.387	1854.31
389.612	1845.31
389.837	1893.31
390.062	1918.31
390.287	1921.31
390.512	1894.31
390.736	1874.31
390.961	1841.31
391.186	1785.31
391.411	1841.31
391.636	1883.31
391.86	1864.31
392.085	1868.31
392.31	1870.31
392.534	1932.31
392.759	1950.31
392.984	1901.31
393.208	1908.31
393.433	1947.31
393.658	2022.31
393.882	2081.31
394.107	1939.31
394.331	1862.31
394.556	1903.31
394.78	1916.31
395.005	1967.31
395.229	2058.31
395.454	2169.31
395.678	2144.31
395.903	2085.31
396.127	1989.31
396.352	2005.31
396.576	2086.31
396.801	2118.31
397.025	2054.31
397.249	2069.31
397.474	2037.31
397.698	2033.31
397.922	2051.31
398.147	2150.31
398.371	2242.31
398.595	2241.31
398.82	2153.31
399.044	2162.31
399.268	2339.31
399.492	2426.31
399.717	2570.31
399.941	2515.31
400.165	2482.31
400.389	2411.31
400.613	2396.31
400.837	2609.31
401.062	2989.31
401.286	2601.31
401.51	2315.31
401.734	2471.31
401.958	2403.31
402.182	2233.31
402.406	2108.31
402.63	2119.31
402.854	2170.31
403.078	2158.31
403.302	2191.31
403.526	2216.31
403.75	2266.31
403.974	2280.31
404.198	2223.31
404.422	2333.31
404.645	2415.31
404.869	2428.31
405.093	2243.31
405.317	2189.31
405.541	2281.31
405.765	2274.31
405.988	2238.31
406.212	2278.31
406.436	2360.31
406.66	2401.31
406.883	2409.31
407.107	2667.31
407.331	2906.31
407.555	3131.31
407.778	2914.31
408.002	2447.31
408.226	2369.31
408.449	2375.31
408.673	2309.31
408.896	2314.31
409.12	2332.31
409.344	2279.31
409.567	2252.31
409.791	2256.31
410.014	2341.31
410.238	2419.31
410.461	2505.31
410.685	2276.31
410.908	2222.31
411.132	2259.31
411.355	2262.31
411.578	2146.31
411.802	2172.31
412.025	2215.31
412.249	2183.31
412.472	2164.31
412.695	2144.31
412.919	2111.31
413.142	2126.31
413.365	2179.31
413.589	2210.31
413.812	2296.31
414.035	2387.31
414.258	2213.31
414.482	2119.31
414.705	2146.31
414.928	2144.31
415.151	2125.31
415.374	2173.31
415.597	2182.31
415.821	2168.31
416.044	2255.31
416.267	2271.31
416.49	2106.31
416.713	2057.31
416.936	2124.31
417.159	2214.31
417.382	2207.31
417.605	2094.31
417.828	2180.31
418.051	2195.31
418.274	2145.31
418.497	2063.31
418.72	2069.31
418.943	2088.31
419.166	2221.31
419.389	2267.31
419.611	2206.31
419.834	2106.31
420.057	2202.31
420.28	2083.31
420.503	2049.31
420.726	2106.31
420.948	2076.31
421.171	2039.31
421.394	2071.31
421.617	2094.31
421.839	2107.31
422.062	2108.31
422.285	2043.31
422.507	2063.31
422.73	2012.31
422.953	1977.31
423.175	1998.31
423.398	2073.31
423.621	2040.31
423.843	2086.31
424.066	2103.31
424.288	2178.31
424.511	2239.31
424.733	2185.31
424.956	1969.31
425.178	1951.31
425.401	1964.31
425.623	1993.31
425.846	2002.31
426.068	2117.31
426.291	2168.31
426.513	2134.31
426.735	2129.31
426.958	2246.31
427.18	2377.31
427.402	2175.31
427.625	2196.31
427.847	2214.31
428.069	2116.31
428.292	2052.31
428.514	1994.31
428.736	1978.31
428.958	1996.31
429.181	2022.31
429.403	2230.31
429.625	2800.31
429.847	2463.31
430.069	2051.31
430.292	2227.31
430.514	2314.31
430.736	2148.31
430.958	2241.31
431.18	2198.31
431.402	1999.31
431.624	1962.31
431.846	1992.31
432.068	1951.31
432.29	1996.31
432.512	1963.31
432.734	2093.31
432.956	2117.31
433.178	2177.31
433.4	2193.31
433.622	2155.31
433.844	2053.31
434.066	1943.31
434.287	1973.31
434.509	2057.31
434.731	2182.31
434.953	2296.31
435.175	2269.31
435.397	2134.31
435.618	2131.31
435.84	2115.31
436.062	2097.31
436.284	2071.31
436.505	2120.31
436.727	2147.31
436.949	2075.31
437.17	2030.31
437.392	2037.31
437.614	2048.31
437.835	1987.31
438.057	2086.31
438.278	2214.31
438.5	2018.31
438.721	2036.31
438.943	1991.31
439.165	1981.31
439.386	1926.31
439.608	1959.31
439.829	1979.31
440.05	2000.31
440.272	1947.31
440.493	1954.31
440.715	1996.31
440.936	2106.31
441.158	2310.31
441.379	2305.31
441.6	2201.31
441.822	2199.31
442.043	2186.31
442.264	2083.31
442.486	1995.31
442.707	1959.31
442.928	1975.31
443.149	2072.31
443.371	2180.31
443.592	2277.31
443.813	2245.31
444.034	2151.31
444.255	2147.31
444.476	2226.31
444.698	2253.31
444.919	2248.31
445.14	2386.31
445.361	2326.31
445.582	2385.31
445.803	2284.31
446.024	2283.31
446.245	2280.31
446.466	2232.31
446.687	2090.31
446.908	2065.31
447.129	2057.31
447.35	2081.31
447.571	2083.31
447.792	1977.31
448.013	1921.31
448.234	1979.31
448.455	2077.31
448.675	2110.31
448.896	1887.31
449.117	1876.31
449.338	1971.31
449.559	2023.31
449.779	2152.31
450	2378.31
450.221	2545.31
450.442	2501.31
450.662	2157.31
450.883	1916.31
451.104	1873.31
451.324	1912.31
451.545	1964.31
451.766	1937.31
451.986	1882.31
452.207	1857.31
452.428	1795.31
452.648	1727.31
452.869	1812.31
453.089	1944.31
453.31	1952.31
453.53	2006.31
453.751	1927.31
453.971	1787.31
454.192	1841.31
454.412	1979.31
454.633	1913.31
454.853	1874.31
455.073	1741.31
455.294	1727.31
455.514	1790.31
455.734	1754.31
455.955	1815.31
456.175	1841.31
456.395	1786.31
456.616	1838.31
456.836	1874.31
457.056	1829.31
457.276	1858.31
457.497	1796.31
457.717	1727.31
457.937	1755.31
458.157	1799.31
458.377	1757.31
458.598	1798.31
458.818	1803.31
459.038	1912.31
459.258	2035.31
459.478	1994.31
459.698	1998.31
459.918	2010.31
460.138	2083.31
460.358	2145.31
460.578	2175.31
460.798	2196.31
461.018	2350.31
461.238	2285.31
461.458	2151.31
461.678	2146.31
461.898	2099.31
462.118	2074.31
462.338	2150.31
462.558	2134.31
462.777	2134.31
462.997	2246.31
463.217	2337.31
463.437	2375.31
463.657	2204.31
463.876	2131.31
464.096	2161.31
464.316	2166.31
464.536	2225.31
464.755	2221.31
464.975	2280.31
465.195	2186.31
465.414	2267.31
465.634	2281.31
465.854	2146.31
466.073	2258.31
466.293	2242.31
466.512	1971.31
466.732	1942.31
466.951	2053.31
467.171	2049.31
467.391	1907.31
467.61	1913.31
467.829	1942.31
468.049	2072.31
468.268	2300.31
468.488	2166.31
468.707	2035.31
468.927	1977.31
469.146	1959.31
469.365	1908.31
469.585	1925.31
469.804	1920.31
470.023	1946.31
470.243	1983.31
470.462	1973.31
470.681	1919.31
470.901	1995.31
471.12	1965.31
471.339	1961.31
471.558	1878.31
471.777	1847.31
471.997	1930.31
472.216	1925.31
472.435	1852.31
472.654	1877.31
472.873	1975.31
473.092	2075.31
473.311	1956.31
473.53	1884.31
473.749	1859.31
473.968	1920.31
474.187	2052.31
474.406	2120.31
474.625	2048.31
474.844	1996.31
475.063	1961.31
475.282	2054.31
475.501	1976.31
475.72	1945.31
475.939	2131.31
476.158	2075.31
476.377	2027.31
476.596	2018.31
476.814	2025.31
477.033	2031.31
477.252	2175.31
477.471	2181.31
477.69	2088.31
477.908	2069.31
478.127	2194.31
478.346	2370.31
478.564	2323.31
478.783	2314.31
479.002	2422.31
479.22	2299.31
479.439	2419.31
479.658	2748.31
479.876	2760.31
480.095	2311.31
480.313	2282.31
480.532	2175.31
480.751	2247.31
480.969	2254.31
481.188	2238.31
481.406	2190.31
481.624	2168.31
481.843	2192.31
482.061	2209.31
482.28	2254.31
482.498	2298.31
482.717	2284.31
482.935	2154.31
483.153	2157.31
483.372	2226.31
483.59	2180.31
483.808	2168.31
484.027	2213.31
484.245	2388.31
484.463	2704.31
484.681	3101.31
484.9	2421.31
485.118	2277.31
485.336	2248.31
485.554	2298.31
485.772	2396.31
485.99	2370.31
486.209	2357.31
486.427	2295.31
486.645	2337.31
486.863	2285.31
487.081	2335.31
487.299	2410.31
