Data from WStandard_LampEnergy8_LIBS07252019.E.O._I.C._HRD10591_15-58-33-929.txt Node
Date: Thu Jul 25 15:58:33 EDT 2019
User: cochatt
Spectrometer: HR+D1059
Trigger mode: 1
Integration Time (sec): 1.000000E-1
Scans to average: 1
Electric dark correction enabled: true
Nonlinearity correction enabled: false
Boxcar width: 0
XAxis mode: Wavelengths
Number of Pixels in Spectrum: 2048
>>>>>Begin Spectral Data<<<<<
223.165	-10.25
223.4	-10.25
223.635	-10.25
223.869	-27.25
224.104	-19.25
224.338	-1.25
224.573	-13.25
224.808	-18.25
225.042	-21.25
225.277	-9.25
225.511	5.75
225.746	6.75
225.98	14.75
226.215	15.75
226.449	3.75
226.683	27.75
226.918	14.75
227.152	30.75
227.387	44.75
227.621	27.75
227.856	50.75
228.09	56.75
228.324	54.75
228.559	59.75
228.793	108.75
229.027	197.75
229.262	204.75
229.496	216.75
229.73	234.75
229.964	228.75
230.199	263.75
230.433	257.75
230.667	274.75
230.901	284.75
231.136	275.75
231.37	270.75
231.604	273.75
231.838	272.75
232.072	249.75
232.306	252.75
232.541	284.75
232.775	331.75
233.009	330.75
233.243	312.75
233.477	301.75
233.711	304.75
233.945	321.75
234.179	328.75
234.413	323.75
234.647	331.75
234.881	330.75
235.115	298.75
235.349	311.75
235.583	306.75
235.817	314.75
236.051	308.75
236.285	316.75
236.519	332.75
236.753	343.75
236.987	370.75
237.221	340.75
237.455	407.75
237.689	388.75
237.922	357.75
238.156	348.75
238.39	351.75
238.624	368.75
238.858	408.75
239.091	408.75
239.325	437.75
239.559	493.75
239.793	486.75
240.027	529.75
240.26	494.75
240.494	398.75
240.728	359.75
240.961	388.75
241.195	397.75
241.429	408.75
241.662	418.75
241.896	417.75
242.13	427.75
242.363	434.75
242.597	460.75
242.83	461.75
243.064	464.75
243.298	485.75
243.531	469.75
243.765	471.75
243.998	462.75
244.232	406.75
244.465	405.75
244.699	424.75
244.932	458.75
245.166	514.75
245.399	489.75
245.633	458.75
245.866	446.75
246.099	495.75
246.333	460.75
246.566	519.75
246.8	528.75
247.033	596.75
247.266	566.75
247.5	552.75
247.733	562.75
247.966	571.75
248.2	620.75
248.433	596.75
248.666	636.75
248.899	696.75
249.133	742.75
249.366	833.75
249.599	679.75
249.832	616.75
250.066	642.75
250.299	626.75
250.532	586.75
250.765	564.75
250.998	568.75
251.231	599.75
251.465	624.75
251.698	597.75
251.931	615.75
252.164	605.75
252.397	627.75
252.63	634.75
252.863	557.75
253.096	584.75
253.329	582.75
253.562	616.75
253.795	656.75
254.028	625.75
254.261	591.75
254.494	566.75
254.727	561.75
254.96	589.75
255.193	640.75
255.426	739.75
255.659	806.75
255.892	796.75
256.124	696.75
256.357	659.75
256.59	706.75
256.823	713.75
257.056	724.75
257.289	849.75
257.521	910.75
257.754	850.75
257.987	795.75
258.22	872.75
258.452	804.75
258.685	696.75
258.918	664.75
259.151	697.75
259.383	660.75
259.616	585.75
259.849	660.75
260.081	728.75
260.314	786.75
260.547	843.75
260.779	821.75
261.012	772.75
261.244	702.75
261.477	677.75
261.71	709.75
261.942	705.75
262.175	665.75
262.407	707.75
262.64	686.75
262.872	617.75
263.105	618.75
263.337	668.75
263.57	648.75
263.802	648.75
264.035	617.75
264.267	602.75
264.499	600.75
264.732	652.75
264.964	677.75
265.197	669.75
265.429	732.75
265.661	825.75
265.894	879.75
266.126	878.75
266.358	796.75
266.591	821.75
266.823	881.75
267.055	800.75
267.287	800.75
267.52	792.75
267.752	764.75
267.984	809.75
268.216	798.75
268.448	819.75
268.681	818.75
268.913	736.75
269.145	685.75
269.377	706.75
269.609	772.75
269.841	906.75
270.073	1039.75
270.306	1110.75
270.538	1136.75
270.77	966.75
271.002	842.75
271.234	832.75
271.466	830.75
271.698	947.75
271.93	1072.75
272.162	1080.75
272.394	956.75
272.626	917.75
272.858	808.75
273.09	722.75
273.322	718.75
273.553	703.75
273.785	721.75
274.017	728.75
274.249	774.75
274.481	796.75
274.713	715.75
274.945	724.75
275.176	716.75
275.408	709.75
275.64	707.75
275.872	684.75
276.104	744.75
276.335	867.75
276.567	961.75
276.799	920.75
277.031	848.75
277.262	828.75
277.494	844.75
277.726	917.75
277.957	882.75
278.189	807.75
278.421	761.75
278.652	772.75
278.884	757.75
279.115	744.75
279.347	740.75
279.579	751.75
279.81	756.75
280.042	849.75
280.273	916.75
280.505	886.75
280.736	892.75
280.968	842.75
281.199	745.75
281.431	745.75
281.662	736.75
281.894	733.75
282.125	779.75
282.356	760.75
282.588	794.75
282.819	793.75
283.051	868.75
283.282	910.75
283.513	826.75
283.745	749.75
283.976	739.75
284.207	747.75
284.439	780.75
284.67	784.75
284.901	802.75
285.132	803.75
285.364	813.75
285.595	793.75
285.826	771.75
286.057	767.75
286.288	774.75
286.52	820.75
286.751	867.75
286.982	876.75
287.213	805.75
287.444	753.75
287.675	758.75
287.906	799.75
288.138	866.75
288.369	808.75
288.6	769.75
288.831	740.75
289.062	752.75
289.293	778.75
289.524	798.75
289.755	807.75
289.986	818.75
290.217	750.75
290.448	758.75
290.679	803.75
290.91	807.75
291.141	814.75
291.371	830.75
291.602	812.75
291.833	826.75
292.064	861.75
292.295	880.75
292.526	866.75
292.757	892.75
292.987	858.75
293.218	823.75
293.449	896.75
293.68	988.75
293.91	1026.75
294.141	973.75
294.372	924.75
294.603	960.75
294.833	1003.75
295.064	952.75
295.295	832.75
295.525	816.75
295.756	763.75
295.987	745.75
296.217	761.75
296.448	777.75
296.679	821.75
296.909	804.75
297.14	787.75
297.37	809.75
297.601	853.75
297.831	916.75
298.062	894.75
298.292	837.75
298.523	806.75
298.753	816.75
298.984	806.75
299.214	805.75
299.445	838.75
299.675	829.75
299.905	859.75
300.136	827.75
300.366	771.75
300.597	774.75
300.827	810.75
301.057	825.75
301.288	880.75
301.518	881.75
301.748	919.75
301.979	937.75
302.209	973.75
302.439	992.75
302.669	999.75
302.9	950.75
303.13	882.75
303.36	871.75
303.59	890.75
303.82	866.75
304.051	873.75
304.281	908.75
304.511	913.75
304.741	986.75
304.971	1056.75
305.201	1084.75
305.431	961.75
305.661	813.75
305.891	753.75
306.121	768.75
306.352	821.75
306.582	861.75
306.812	950.75
307.042	966.75
307.272	966.75
307.502	1021.75
307.731	1083.75
307.961	1138.75
308.191	1017.75
308.421	898.75
308.651	842.75
308.881	818.75
309.111	852.75
309.341	834.75
309.571	871.75
309.8	832.75
310.03	826.75
310.26	859.75
310.49	842.75
310.72	867.75
310.949	905.75
311.179	909.75
311.409	871.75
311.639	866.75
311.868	853.75
312.098	859.75
312.328	846.75
312.557	868.75
312.787	888.75
313.017	890.75
313.246	866.75
313.476	877.75
313.706	924.75
313.935	916.75
314.165	905.75
314.394	943.75
314.624	996.75
314.853	1030.75
315.083	1095.75
315.312	1099.75
315.542	1009.75
315.771	922.75
316.001	936.75
316.23	998.75
316.46	968.75
316.689	937.75
316.919	890.75
317.148	892.75
317.377	937.75
317.607	984.75
317.836	1090.75
318.065	1121.75
318.295	1062.75
318.524	1014.75
318.753	993.75
318.983	953.75
319.212	946.75
319.441	945.75
319.67	946.75
319.9	964.75
320.129	1001.75
320.358	1048.75
320.587	1035.75
320.816	1068.75
321.046	1045.75
321.275	969.75
321.504	981.75
321.733	1077.75
321.962	987.75
322.191	952.75
322.42	938.75
322.649	939.75
322.878	929.75
323.108	960.75
323.337	989.75
323.566	1005.75
323.795	957.75
324.024	985.75
324.253	955.75
324.482	966.75
324.71	928.75
324.939	912.75
325.168	920.75
325.397	941.75
325.626	991.75
325.855	995.75
326.084	942.75
326.313	926.75
326.542	963.75
326.77	992.75
326.999	990.75
327.228	937.75
327.457	890.75
327.686	888.75
327.914	930.75
328.143	937.75
328.372	970.75
328.6	940.75
328.829	913.75
329.058	940.75
329.287	913.75
329.515	950.75
329.744	997.75
329.972	1049.75
330.201	1058.75
330.43	1043.75
330.658	1022.75
330.887	1012.75
331.115	987.75
331.344	994.75
331.572	1014.75
331.801	989.75
332.03	999.75
332.258	989.75
332.486	1008.75
332.715	1029.75
332.943	1016.75
333.172	1011.75
333.4	983.75
333.629	1036.75
333.857	1106.75
334.085	1254.75
334.314	1440.75
334.542	1452.75
334.771	1324.75
334.999	1198.75
335.227	1108.75
335.455	1065.75
335.684	1095.75
335.912	1125.75
336.14	1136.75
336.369	1023.75
336.597	1029.75
336.825	1024.75
337.053	1065.75
337.281	1091.75
337.51	1173.75
337.738	1211.75
337.966	1110.75
338.194	1031.75
338.422	1008.75
338.65	993.75
338.878	978.75
339.106	951.75
339.334	953.75
339.562	960.75
339.79	982.75
340.018	1044.75
340.246	1083.75
340.474	1029.75
340.702	1051.75
340.93	1010.75
341.158	1033.75
341.386	1044.75
341.614	1046.75
341.842	1013.75
342.07	998.75
342.298	1012.75
342.526	987.75
342.754	1003.75
342.981	1004.75
343.209	1005.75
343.437	987.75
343.665	996.75
343.893	1033.75
344.12	1082.75
344.348	1057.75
344.576	1038.75
344.804	982.75
345.031	1032.75
345.259	1012.75
345.487	998.75
345.714	904.75
345.942	901.75
346.17	931.75
346.397	958.75
346.625	969.75
346.853	888.75
347.08	868.75
347.308	908.75
347.535	983.75
347.763	954.75
347.99	930.75
348.218	894.75
348.445	901.75
348.673	965.75
348.9	980.75
349.128	997.75
349.355	1001.75
349.583	999.75
349.81	949.75
350.037	882.75
350.265	879.75
350.492	903.75
350.72	916.75
350.947	970.75
351.174	948.75
351.402	931.75
351.629	878.75
351.856	882.75
352.083	844.75
352.311	903.75
352.538	928.75
352.765	954.75
352.992	944.75
353.22	926.75
353.447	926.75
353.674	927.75
353.901	948.75
354.128	922.75
354.355	913.75
354.583	977.75
354.81	961.75
355.037	924.75
355.264	921.75
355.491	959.75
355.718	955.75
355.945	950.75
356.172	909.75
356.399	870.75
356.626	898.75
356.853	940.75
357.08	1048.75
357.307	1148.75
357.534	1112.75
357.761	935.75
357.988	897.75
358.215	898.75
358.441	917.75
358.668	847.75
358.895	907.75
359.122	974.75
359.349	1068.75
359.576	1069.75
359.802	950.75
360.029	914.75
360.256	927.75
360.483	926.75
360.709	942.75
360.936	993.75
361.163	1036.75
361.39	1134.75
361.616	1194.75
361.843	1160.75
362.07	1054.75
362.296	949.75
362.523	938.75
362.749	934.75
362.976	958.75
363.203	987.75
363.429	978.75
363.656	920.75
363.882	975.75
364.109	1080.75
364.335	1125.75
364.562	1056.75
364.788	968.75
365.015	968.75
365.241	920.75
365.468	960.75
365.694	998.75
365.92	1018.75
366.147	968.75
366.373	902.75
366.599	895.75
366.826	924.75
367.052	920.75
367.278	952.75
367.505	958.75
367.731	979.75
367.957	978.75
368.184	1000.75
368.41	1058.75
368.636	1065.75
368.862	1079.75
369.089	1076.75
369.315	1026.75
369.541	995.75
369.767	972.75
369.993	939.75
370.219	968.75
370.445	990.75
370.672	1062.75
370.898	1080.75
371.124	1068.75
371.35	1002.75
371.576	1056.75
371.802	1046.75
372.028	1000.75
372.254	978.75
372.48	953.75
372.706	930.75
372.932	976.75
373.158	988.75
373.384	950.75
373.61	1025.75
373.835	1060.75
374.061	1005.75
374.287	993.75
374.513	1001.75
374.739	1002.75
374.965	1030.75
375.191	1033.75
375.416	1017.75
375.642	1064.75
375.868	1106.75
376.094	1133.75
376.319	1088.75
376.545	1044.75
376.771	1081.75
376.997	1114.75
377.222	1111.75
377.448	1056.75
377.674	1053.75
377.899	1054.75
378.125	1152.75
378.35	1080.75
378.576	1024.75
378.802	992.75
379.027	1014.75
379.253	984.75
379.478	1012.75
379.704	1003.75
379.929	1013.75
380.155	1002.75
380.38	1040.75
380.606	1017.75
380.831	1042.75
381.057	1100.75
381.282	1096.75
381.507	1067.75
381.733	1145.75
381.958	1184.75
382.184	1092.75
382.409	1034.75
382.634	1056.75
382.86	1058.75
383.085	1064.75
383.31	1145.75
383.535	1222.75
383.761	1240.75
383.986	1198.75
384.211	1129.75
384.436	1163.75
384.662	1229.75
384.887	1207.75
385.112	1148.75
385.337	1169.75
385.562	1146.75
385.787	1151.75
386.013	1170.75
386.238	1171.75
386.463	1189.75
386.688	1287.75
386.913	1357.75
387.138	1284.75
387.363	1196.75
387.588	1175.75
387.813	1164.75
388.038	1202.75
388.263	1246.75
388.488	1147.75
388.713	1076.75
388.938	1092.75
389.163	1088.75
389.387	1139.75
389.612	1162.75
389.837	1165.75
390.062	1131.75
390.287	1121.75
390.512	1160.75
390.736	1125.75
390.961	1109.75
391.186	1075.75
391.411	1117.75
391.636	1145.75
391.86	1153.75
392.085	1149.75
392.31	1160.75
392.534	1181.75
392.759	1166.75
392.984	1158.75
393.208	1156.75
393.433	1194.75
393.658	1278.75
393.882	1284.75
394.107	1172.75
394.331	1144.75
394.556	1187.75
394.78	1197.75
395.005	1232.75
395.229	1265.75
395.454	1366.75
395.678	1346.75
395.903	1242.75
396.127	1238.75
396.352	1232.75
396.576	1261.75
396.801	1285.75
397.025	1286.75
397.249	1255.75
397.474	1229.75
397.698	1243.75
397.922	1301.75
398.147	1344.75
398.371	1401.75
398.595	1406.75
398.82	1357.75
399.044	1308.75
399.268	1408.75
399.492	1496.75
399.717	1508.75
399.941	1532.75
400.165	1506.75
400.389	1457.75
400.613	1495.75
400.837	1727.75
401.062	1817.75
401.286	1514.75
401.51	1434.75
401.734	1516.75
401.958	1427.75
402.182	1365.75
402.406	1289.75
402.63	1304.75
402.854	1312.75
403.078	1300.75
403.302	1340.75
403.526	1360.75
403.75	1389.75
403.974	1404.75
404.198	1401.75
404.422	1424.75
404.645	1499.75
404.869	1431.75
405.093	1338.75
405.317	1324.75
405.541	1349.75
405.765	1357.75
405.988	1367.75
406.212	1423.75
406.436	1417.75
406.66	1507.75
406.883	1520.75
407.107	1694.75
407.331	1852.75
407.555	1960.75
407.778	1707.75
408.002	1483.75
408.226	1435.75
408.449	1428.75
408.673	1412.75
408.896	1418.75
409.12	1441.75
409.344	1406.75
409.567	1370.75
409.791	1371.75
410.014	1414.75
410.238	1507.75
410.461	1564.75
410.685	1419.75
410.908	1373.75
411.132	1394.75
411.355	1358.75
411.578	1365.75
411.802	1338.75
412.025	1385.75
412.249	1353.75
412.472	1352.75
412.695	1352.75
412.919	1309.75
413.142	1313.75
413.365	1348.75
413.589	1400.75
413.812	1460.75
414.035	1484.75
414.258	1351.75
414.482	1325.75
414.705	1319.75
414.928	1342.75
415.151	1336.75
415.374	1321.75
415.597	1369.75
415.821	1341.75
416.044	1394.75
416.267	1347.75
416.49	1267.75
416.713	1303.75
416.936	1329.75
417.159	1396.75
417.382	1404.75
417.605	1301.75
417.828	1356.75
418.051	1365.75
418.274	1319.75
418.497	1332.75
418.72	1310.75
418.943	1293.75
419.166	1347.75
419.389	1413.75
419.611	1352.75
419.834	1313.75
420.057	1332.75
420.28	1334.75
420.503	1320.75
420.726	1353.75
420.948	1306.75
421.171	1282.75
421.394	1290.75
421.617	1346.75
421.839	1371.75
422.062	1345.75
422.285	1316.75
422.507	1339.75
422.73	1250.75
422.953	1239.75
423.175	1223.75
423.398	1288.75
423.621	1293.75
423.843	1329.75
424.066	1384.75
424.288	1404.75
424.511	1420.75
424.733	1410.75
424.956	1224.75
425.178	1260.75
425.401	1308.75
425.623	1256.75
425.846	1270.75
426.068	1364.75
426.291	1322.75
426.513	1355.75
426.735	1382.75
426.958	1445.75
427.18	1514.75
427.402	1400.75
427.625	1405.75
427.847	1427.75
428.069	1296.75
428.292	1280.75
428.514	1247.75
428.736	1264.75
428.958	1249.75
429.181	1294.75
429.403	1509.75
429.625	1776.75
429.847	1513.75
430.069	1355.75
430.292	1472.75
430.514	1462.75
430.736	1356.75
430.958	1402.75
431.18	1312.75
431.402	1224.75
431.624	1225.75
431.846	1198.75
432.068	1173.75
432.29	1185.75
432.512	1223.75
432.734	1250.75
432.956	1302.75
433.178	1375.75
433.4	1332.75
433.622	1349.75
433.844	1283.75
434.066	1211.75
434.287	1195.75
434.509	1202.75
434.731	1268.75
434.953	1385.75
435.175	1359.75
435.397	1323.75
435.618	1333.75
435.84	1248.75
436.062	1250.75
436.284	1303.75
436.505	1282.75
436.727	1318.75
436.949	1284.75
437.17	1248.75
437.392	1249.75
437.614	1254.75
437.835	1210.75
438.057	1249.75
438.278	1243.75
438.5	1214.75
438.721	1240.75
438.943	1257.75
439.165	1242.75
439.386	1237.75
439.608	1261.75
439.829	1242.75
440.05	1279.75
440.272	1262.75
440.493	1258.75
440.715	1287.75
440.936	1369.75
441.158	1460.75
441.379	1426.75
441.6	1421.75
441.822	1383.75
442.043	1383.75
442.264	1292.75
442.486	1288.75
442.707	1272.75
442.928	1254.75
443.149	1304.75
443.371	1389.75
443.592	1404.75
443.813	1402.75
444.034	1385.75
444.255	1380.75
444.476	1399.75
444.698	1436.75
444.919	1435.75
445.14	1510.75
445.361	1491.75
445.582	1470.75
445.803	1430.75
446.024	1426.75
446.245	1448.75
446.466	1380.75
446.687	1364.75
446.908	1375.75
447.129	1311.75
447.35	1348.75
447.571	1295.75
447.792	1233.75
448.013	1243.75
448.234	1285.75
448.455	1346.75
448.675	1328.75
448.896	1188.75
449.117	1207.75
449.338	1248.75
449.559	1311.75
449.779	1344.75
450	1463.75
450.221	1530.75
450.442	1477.75
450.662	1309.75
450.883	1226.75
451.104	1189.75
451.324	1233.75
451.545	1218.75
451.766	1240.75
451.986	1131.75
452.207	1140.75
452.428	1105.75
452.648	1114.75
452.869	1133.75
453.089	1155.75
453.31	1176.75
453.53	1153.75
453.751	1129.75
453.971	1086.75
454.192	1081.75
454.412	1186.75
454.633	1142.75
454.853	1145.75
455.073	1062.75
455.294	1100.75
455.514	1096.75
455.734	1095.75
455.955	1083.75
456.175	1060.75
456.395	1093.75
456.616	1117.75
456.836	1142.75
457.056	1106.75
457.276	1076.75
457.497	1081.75
457.717	1044.75
457.937	1093.75
458.157	1083.75
458.377	1077.75
458.598	1058.75
458.818	1044.75
459.038	1129.75
459.258	1164.75
459.478	1167.75
459.698	1131.75
459.918	1218.75
460.138	1254.75
460.358	1246.75
460.578	1280.75
460.798	1331.75
461.018	1343.75
461.238	1291.75
461.458	1284.75
461.678	1251.75
461.898	1275.75
462.118	1222.75
462.338	1293.75
462.558	1274.75
462.777	1264.75
462.997	1343.75
463.217	1360.75
463.437	1388.75
463.657	1334.75
463.876	1280.75
464.096	1279.75
464.316	1255.75
464.536	1296.75
464.755	1330.75
464.975	1321.75
465.195	1292.75
465.414	1318.75
465.634	1317.75
465.854	1353.75
466.073	1462.75
466.293	1390.75
466.512	1220.75
466.732	1226.75
466.951	1286.75
467.171	1271.75
467.391	1224.75
467.61	1242.75
467.829	1241.75
468.049	1349.75
468.268	1485.75
468.488	1326.75
468.707	1272.75
468.927	1271.75
469.146	1227.75
469.365	1216.75
469.585	1267.75
469.804	1239.75
470.023	1248.75
470.243	1294.75
470.462	1248.75
470.681	1231.75
470.901	1262.75
471.12	1226.75
471.339	1250.75
471.558	1235.75
471.777	1210.75
471.997	1218.75
472.216	1198.75
472.435	1127.75
472.654	1153.75
472.873	1184.75
473.092	1269.75
473.311	1164.75
473.53	1146.75
473.749	1190.75
473.968	1204.75
474.187	1244.75
474.406	1277.75
474.625	1210.75
474.844	1245.75
475.063	1221.75
475.282	1249.75
475.501	1206.75
475.72	1224.75
475.939	1328.75
476.158	1268.75
476.377	1223.75
476.596	1242.75
476.814	1243.75
477.033	1256.75
477.252	1309.75
477.471	1325.75
477.69	1295.75
477.908	1310.75
478.127	1364.75
478.346	1442.75
478.564	1438.75
478.783	1400.75
479.002	1450.75
479.22	1436.75
479.439	1469.75
479.658	1609.75
479.876	1541.75
480.095	1395.75
480.313	1378.75
480.532	1304.75
480.751	1311.75
480.969	1328.75
481.188	1295.75
481.406	1258.75
481.624	1210.75
481.843	1305.75
482.061	1335.75
482.28	1336.75
482.498	1379.75
482.717	1346.75
482.935	1318.75
483.153	1372.75
483.372	1402.75
483.59	1372.75
483.808	1388.75
484.027	1410.75
484.245	1452.75
484.463	1763.75
484.681	1922.75
484.9	1464.75
485.118	1398.75
485.336	1373.75
485.554	1420.75
485.772	1428.75
485.99	1395.75
486.209	1420.75
486.427	1378.75
486.645	1400.75
486.863	1449.75
487.081	1485.75
487.299	1512.75
487.517	1494.75
487.735	1524.75
487.953	1551.75
488.171	1505.75
488.389	1485.75
488.607	1490.75
488.825	1608.75
489.043	1576.75
489.261	1386.75
489.479	1481.75
489.696	1486.75
489.914	1485.75
490.132	1432.75
490.35	1496.75
490.568	1570.75
490.786	1521.75
491.003	1506.75
491.221	1575.75
491.439	1632.75
491.657	1650.75
491.874	1624.75
492.092	1655.75
492.31	1707.75
492.527	1665.75
492.745	1644.75
492.963	1630.75
493.18	1675.75
