Data from WStandard_LampEnergy5.5LIBS07252019.E.O._I.C._HRD10591_16-06-41-919.txt Node
Date: Thu Jul 25 16:06:41 EDT 2019
User: cochatt
Spectrometer: HR+D1059
Trigger mode: 1
Integration Time (sec): 1.000000E-1
Scans to average: 1
Electric dark correction enabled: true
Nonlinearity correction enabled: false
Boxcar width: 0
XAxis mode: Wavelengths
Number of Pixels in Spectrum: 2048
>>>>>Begin Spectral Data<<<<<
223.165	-25.06
223.4	-25.06
223.635	-25.06
223.869	-8.06
224.104	-15.06
224.338	-15.06
224.573	-0.06
224.808	-12.06
225.042	-11.06
225.277	-3.06
225.511	-4.06
225.746	6.94
225.98	5.94
226.215	-10.06
226.449	14.94
226.683	20.94
226.918	17.94
227.152	36.94
227.387	40.94
227.621	36.94
227.856	56.94
228.09	43.94
228.324	31.94
228.559	54.94
228.793	125.94
229.027	344.94
229.262	349.94
229.496	380.94
229.73	386.94
229.964	443.94
230.199	443.94
230.433	468.94
230.667	504.94
230.901	525.94
231.136	448.94
231.37	447.94
231.604	457.94
231.838	488.94
232.072	489.94
232.306	413.94
232.541	463.94
232.775	560.94
233.009	587.94
233.243	587.94
233.477	525.94
233.711	517.94
233.945	559.94
234.179	556.94
234.413	573.94
234.647	639.94
234.881	580.94
235.115	534.94
235.349	549.94
235.583	567.94
235.817	543.94
236.051	527.94
236.285	576.94
236.519	598.94
236.753	640.94
236.987	658.94
237.221	662.94
237.455	748.94
237.689	715.94
237.922	691.94
238.156	649.94
238.39	658.94
238.624	705.94
238.858	740.94
239.091	752.94
239.325	788.94
239.559	906.94
239.793	957.94
240.027	1042.94
240.26	1027.94
240.494	766.94
240.728	715.94
240.961	687.94
241.195	705.94
241.429	816.94
241.662	793.94
241.896	745.94
242.13	764.94
242.363	841.94
242.597	917.94
242.83	863.94
243.064	878.94
243.298	923.94
243.531	928.94
243.765	877.94
243.998	913.94
244.232	803.94
244.465	773.94
244.699	773.94
244.932	914.94
245.166	1049.94
245.399	970.94
245.633	921.94
245.866	864.94
246.099	934.94
246.333	955.94
246.566	943.94
246.8	1038.94
247.033	1179.94
247.266	1084.94
247.5	1057.94
247.733	1027.94
247.966	1075.94
248.2	1234.94
248.433	1170.94
248.666	1213.94
248.899	1320.94
249.133	1508.94
249.366	1742.94
249.599	1428.94
249.832	1222.94
250.066	1261.94
250.299	1271.94
250.532	1190.94
250.765	1075.94
250.998	1139.94
251.231	1174.94
251.465	1280.94
251.698	1179.94
251.931	1183.94
252.164	1219.94
252.397	1251.94
252.63	1245.94
252.863	1088.94
253.096	1067.94
253.329	1131.94
253.562	1176.94
253.795	1262.94
254.028	1261.94
254.261	1171.94
254.494	1183.94
254.727	1077.94
254.96	1111.94
255.193	1213.94
255.426	1401.94
255.659	1627.94
255.892	1679.94
256.124	1320.94
256.357	1298.94
256.59	1413.94
256.823	1417.94
257.056	1361.94
257.289	1704.94
257.521	1869.94
257.754	1691.94
257.987	1570.94
258.22	1793.94
258.452	1751.94
258.685	1387.94
258.918	1362.94
259.151	1367.94
259.383	1312.94
259.616	1146.94
259.849	1198.94
260.081	1382.94
260.314	1531.94
260.547	1689.94
260.779	1688.94
261.012	1599.94
261.244	1399.94
261.477	1370.94
261.71	1399.94
261.942	1387.94
262.175	1336.94
262.407	1494.94
262.64	1375.94
262.872	1277.94
263.105	1175.94
263.337	1236.94
263.57	1284.94
263.802	1297.94
264.035	1222.94
264.267	1143.94
264.499	1087.94
264.732	1197.94
264.964	1285.94
265.197	1329.94
265.429	1395.94
265.661	1560.94
265.894	1729.94
266.126	1767.94
266.358	1607.94
266.591	1646.94
266.823	1777.94
267.055	1586.94
267.287	1570.94
267.52	1535.94
267.752	1559.94
267.984	1521.94
268.216	1567.94
268.448	1651.94
268.681	1642.94
268.913	1492.94
269.145	1412.94
269.377	1364.94
269.609	1481.94
269.841	1715.94
270.073	2000.94
270.306	2241.94
270.538	2441.94
270.77	1999.94
271.002	1695.94
271.234	1648.94
271.466	1582.94
271.698	1802.94
271.93	2191.94
272.162	2207.94
272.394	1951.94
272.626	1891.94
272.858	1643.94
273.09	1419.94
273.322	1397.94
273.553	1344.94
273.785	1366.94
274.017	1397.94
274.249	1537.94
274.481	1520.94
274.713	1435.94
274.945	1382.94
275.176	1407.94
275.408	1362.94
275.64	1378.94
275.872	1333.94
276.104	1423.94
276.335	1608.94
276.567	1840.94
276.799	1878.94
277.031	1663.94
277.262	1537.94
277.494	1632.94
277.726	1860.94
277.957	1850.94
278.189	1702.94
278.421	1477.94
278.652	1477.94
278.884	1485.94
279.115	1449.94
279.347	1459.94
279.579	1449.94
279.81	1409.94
280.042	1579.94
280.273	1785.94
280.505	1763.94
280.736	1802.94
280.968	1674.94
281.199	1489.94
281.431	1424.94
281.662	1427.94
281.894	1407.94
282.125	1465.94
282.356	1497.94
282.588	1481.94
282.819	1523.94
283.051	1591.94
283.282	1774.94
283.513	1718.94
283.745	1485.94
283.976	1384.94
284.207	1401.94
284.439	1473.94
284.67	1443.94
284.901	1496.94
285.132	1545.94
285.364	1512.94
285.595	1481.94
285.826	1515.94
286.057	1484.94
286.288	1460.94
286.52	1509.94
286.751	1640.94
286.982	1727.94
287.213	1539.94
287.444	1439.94
287.675	1429.94
287.906	1489.94
288.138	1611.94
288.369	1556.94
288.6	1480.94
288.831	1439.94
289.062	1453.94
289.293	1468.94
289.524	1473.94
289.755	1531.94
289.986	1550.94
290.217	1379.94
290.448	1395.94
290.679	1497.94
290.91	1495.94
291.141	1501.94
291.371	1614.94
291.602	1569.94
291.833	1571.94
292.064	1579.94
292.295	1607.94
292.526	1635.94
292.757	1709.94
292.987	1604.94
293.218	1480.94
293.449	1623.94
293.68	1869.94
293.91	2005.94
294.141	1833.94
294.372	1664.94
294.603	1731.94
294.833	1824.94
295.064	1767.94
295.295	1599.94
295.525	1599.94
295.756	1471.94
295.987	1365.94
296.217	1393.94
296.448	1427.94
296.679	1459.94
296.909	1451.94
297.14	1468.94
297.37	1466.94
297.601	1512.94
297.831	1673.94
298.062	1675.94
298.292	1546.94
298.523	1485.94
298.753	1504.94
298.984	1492.94
299.214	1507.94
299.445	1511.94
299.675	1573.94
299.905	1587.94
300.136	1535.94
300.366	1497.94
300.597	1455.94
300.827	1460.94
301.057	1498.94
301.288	1582.94
301.518	1593.94
301.748	1593.94
301.979	1656.94
302.209	1680.94
302.439	1838.94
302.669	1940.94
302.9	1829.94
303.13	1617.94
303.36	1599.94
303.59	1669.94
303.82	1633.94
304.051	1584.94
304.281	1614.94
304.511	1575.94
304.741	1683.94
304.971	1895.94
305.201	2057.94
305.431	1910.94
305.661	1585.94
305.891	1413.94
306.121	1409.94
306.352	1481.94
306.582	1583.94
306.812	1643.94
307.042	1788.94
307.272	1761.94
307.502	1791.94
307.731	1940.94
307.961	2139.94
308.191	1979.94
308.421	1674.94
308.651	1587.94
308.881	1540.94
309.111	1515.94
309.341	1523.94
309.571	1511.94
309.8	1547.94
310.03	1509.94
310.26	1531.94
310.49	1509.94
310.72	1569.94
310.949	1602.94
311.179	1658.94
311.409	1657.94
311.639	1565.94
311.868	1574.94
312.098	1577.94
312.328	1557.94
312.557	1539.94
312.787	1548.94
313.017	1602.94
313.246	1597.94
313.476	1613.94
313.706	1633.94
313.935	1617.94
314.165	1601.94
314.394	1687.94
314.624	1739.94
314.853	1840.94
315.083	1982.94
315.312	2003.94
315.542	1888.94
315.771	1657.94
316.001	1685.94
316.23	1778.94
316.46	1727.94
316.689	1696.94
316.919	1626.94
317.148	1551.94
317.377	1610.94
317.607	1712.94
317.836	1910.94
318.065	2059.94
318.295	1912.94
318.524	1789.94
318.753	1799.94
318.983	1686.94
319.212	1717.94
319.441	1697.94
319.67	1664.94
319.9	1663.94
320.129	1793.94
320.358	1881.94
320.587	1888.94
320.816	1878.94
321.046	1839.94
321.275	1742.94
321.504	1757.94
321.733	1904.94
321.962	1816.94
322.191	1736.94
322.42	1703.94
322.649	1656.94
322.878	1676.94
323.108	1673.94
323.337	1780.94
323.566	1749.94
323.795	1749.94
324.024	1807.94
324.253	1671.94
324.482	1704.94
324.71	1660.94
324.939	1605.94
325.168	1629.94
325.397	1730.94
325.626	1716.94
325.855	1755.94
326.084	1689.94
326.313	1709.94
326.542	1701.94
326.77	1729.94
326.999	1747.94
327.228	1728.94
327.457	1619.94
327.686	1607.94
327.914	1616.94
328.143	1692.94
328.372	1672.94
328.6	1696.94
328.829	1683.94
329.058	1648.94
329.287	1625.94
329.515	1690.94
329.744	1709.94
329.972	1793.94
330.201	1859.94
330.43	1847.94
330.658	1758.94
330.887	1768.94
331.115	1776.94
331.344	1806.94
331.572	1762.94
331.801	1757.94
332.03	1760.94
332.258	1810.94
332.486	1817.94
332.715	1814.94
332.943	1838.94
333.172	1772.94
333.4	1794.94
333.629	1799.94
333.857	1903.94
334.085	2166.94
334.314	2374.94
334.542	2712.94
334.771	2479.94
334.999	2160.94
335.227	2024.94
335.455	1919.94
335.684	1926.94
335.912	1939.94
336.14	2031.94
336.369	1911.94
336.597	1859.94
336.825	1787.94
337.053	1844.94
337.281	1974.94
337.51	2071.94
337.738	2185.94
337.966	2040.94
338.194	1825.94
338.422	1795.94
338.65	1763.94
338.878	1746.94
339.106	1732.94
339.334	1660.94
339.562	1691.94
339.79	1680.94
340.018	1784.94
340.246	1839.94
340.474	1891.94
340.702	1815.94
340.93	1825.94
341.158	1797.94
341.386	1772.94
341.614	1773.94
341.842	1762.94
342.07	1741.94
342.298	1811.94
342.526	1771.94
342.754	1703.94
342.981	1719.94
343.209	1732.94
343.437	1721.94
343.665	1753.94
343.893	1785.94
344.12	1855.94
344.348	1905.94
344.576	1838.94
344.804	1769.94
345.031	1704.94
345.259	1783.94
345.487	1684.94
345.714	1650.94
345.942	1581.94
346.17	1647.94
346.397	1650.94
346.625	1703.94
346.853	1624.94
347.08	1579.94
347.308	1637.94
347.535	1616.94
347.763	1666.94
347.99	1671.94
348.218	1567.94
348.445	1600.94
348.673	1636.94
348.9	1673.94
349.128	1716.94
349.355	1794.94
349.583	1720.94
349.81	1658.94
350.037	1512.94
350.265	1537.94
350.492	1543.94
350.72	1560.94
350.947	1625.94
351.174	1721.94
351.402	1623.94
351.629	1545.94
351.856	1537.94
352.083	1504.94
352.311	1512.94
352.538	1582.94
352.765	1656.94
352.992	1674.94
353.22	1619.94
353.447	1570.94
353.674	1575.94
353.901	1636.94
354.128	1586.94
354.355	1575.94
354.583	1662.94
354.81	1677.94
355.037	1696.94
355.264	1694.94
355.491	1619.94
355.718	1687.94
355.945	1641.94
356.172	1553.94
356.399	1567.94
356.626	1593.94
356.853	1614.94
357.08	1735.94
357.307	1907.94
357.534	1970.94
357.761	1713.94
357.988	1617.94
358.215	1536.94
358.441	1570.94
358.668	1544.94
358.895	1549.94
359.122	1636.94
359.349	1826.94
359.576	1819.94
359.802	1631.94
360.029	1543.94
360.256	1500.94
360.483	1580.94
360.709	1608.94
360.936	1682.94
361.163	1724.94
361.39	1889.94
361.616	2027.94
361.843	1963.94
362.07	1911.94
362.296	1609.94
362.523	1590.94
362.749	1568.94
362.976	1647.94
363.203	1657.94
363.429	1619.94
363.656	1538.94
363.882	1599.94
364.109	1818.94
364.335	1944.94
364.562	1800.94
364.788	1711.94
365.015	1657.94
365.241	1559.94
365.468	1619.94
365.694	1684.94
365.92	1731.94
366.147	1704.94
366.373	1583.94
366.599	1554.94
366.826	1562.94
367.052	1552.94
367.278	1562.94
367.505	1602.94
367.731	1649.94
367.957	1643.94
368.184	1656.94
368.41	1767.94
368.636	1800.94
368.862	1835.94
369.089	1838.94
369.315	1752.94
369.541	1676.94
369.767	1644.94
369.993	1579.94
370.219	1589.94
370.445	1657.94
370.672	1716.94
370.898	1819.94
371.124	1794.94
371.35	1676.94
371.576	1728.94
371.802	1778.94
372.028	1747.94
372.254	1680.94
372.48	1597.94
372.706	1601.94
372.932	1606.94
373.158	1614.94
373.384	1672.94
373.61	1692.94
373.835	1825.94
374.061	1704.94
374.287	1681.94
374.513	1694.94
374.739	1688.94
374.965	1675.94
375.191	1725.94
375.416	1740.94
375.642	1705.94
375.868	1824.94
376.094	1850.94
376.319	1823.94
376.545	1672.94
376.771	1704.94
376.997	1791.94
377.222	1785.94
377.448	1716.94
377.674	1795.94
377.899	1766.94
378.125	1849.94
378.35	1886.94
378.576	1711.94
378.802	1616.94
379.027	1599.94
379.253	1636.94
379.478	1674.94
379.704	1659.94
379.929	1641.94
380.155	1653.94
380.38	1698.94
380.606	1672.94
380.831	1693.94
381.057	1776.94
381.282	1787.94
381.507	1747.94
381.733	1871.94
381.958	1965.94
382.184	1811.94
382.409	1718.94
382.634	1732.94
382.86	1757.94
383.085	1731.94
383.31	1764.94
383.535	1910.94
383.761	2071.94
383.986	1934.94
384.211	1885.94
384.436	1878.94
384.662	1931.94
384.887	2007.94
385.112	1958.94
385.337	1970.94
385.562	1933.94
385.787	1923.94
386.013	1944.94
386.238	1986.94
386.463	1960.94
386.688	2051.94
386.913	2191.94
387.138	2164.94
387.363	1950.94
387.588	1959.94
387.813	1937.94
388.038	1969.94
388.263	2036.94
388.488	1969.94
388.713	1839.94
388.938	1837.94
389.163	1873.94
389.387	1901.94
389.612	1896.94
389.837	1934.94
390.062	1963.94
390.287	1904.94
390.512	1921.94
390.736	1847.94
390.961	1851.94
391.186	1814.94
391.411	1895.94
391.636	1899.94
391.86	1911.94
392.085	1925.94
392.31	1895.94
392.534	1899.94
392.759	1943.94
392.984	1900.94
393.208	1973.94
393.433	2023.94
393.658	2088.94
393.882	2116.94
394.107	1999.94
394.331	1901.94
394.556	1873.94
394.78	1939.94
395.005	1963.94
395.229	2061.94
395.454	2187.94
395.678	2206.94
395.903	2176.94
396.127	2079.94
396.352	2063.94
396.576	2083.94
396.801	2123.94
397.025	2144.94
397.249	2119.94
397.474	2079.94
397.698	2074.94
397.922	2117.94
398.147	2192.94
398.371	2311.94
398.595	2290.94
398.82	2171.94
399.044	2239.94
399.268	2284.94
399.492	2440.94
399.717	2571.94
399.941	2610.94
400.165	2528.94
400.389	2467.94
400.613	2401.94
400.837	2596.94
401.062	2988.94
401.286	2639.94
401.51	2410.94
401.734	2518.94
401.958	2419.94
402.182	2265.94
402.406	2219.94
402.63	2135.94
402.854	2159.94
403.078	2201.94
403.302	2250.94
403.526	2263.94
403.75	2282.94
403.974	2292.94
404.198	2283.94
404.422	2380.94
404.645	2452.94
404.869	2420.94
405.093	2213.94
405.317	2183.94
405.541	2330.94
405.765	2312.94
405.988	2272.94
406.212	2351.94
406.436	2381.94
406.66	2436.94
406.883	2437.94
407.107	2678.94
407.331	2970.94
407.555	3187.94
407.778	2947.94
408.002	2471.94
408.226	2424.94
408.449	2402.94
408.673	2332.94
408.896	2307.94
409.12	2420.94
409.344	2315.94
409.567	2209.94
409.791	2249.94
410.014	2331.94
410.238	2377.94
410.461	2555.94
410.685	2336.94
410.908	2246.94
411.132	2271.94
411.355	2249.94
411.578	2159.94
411.802	2260.94
412.025	2295.94
412.249	2231.94
412.472	2182.94
412.695	2143.94
412.919	2162.94
413.142	2157.94
413.365	2204.94
413.589	2222.94
413.812	2266.94
414.035	2407.94
414.258	2212.94
414.482	2185.94
414.705	2196.94
414.928	2181.94
415.151	2152.94
415.374	2197.94
415.597	2212.94
415.821	2222.94
416.044	2351.94
416.267	2310.94
416.49	2086.94
416.713	2039.94
416.936	2186.94
417.159	2228.94
417.382	2234.94
417.605	2148.94
417.828	2187.94
418.051	2221.94
418.274	2165.94
418.497	2111.94
418.72	2081.94
418.943	2075.94
419.166	2244.94
419.389	2333.94
419.611	2247.94
419.834	2146.94
420.057	2148.94
420.28	2114.94
420.503	2126.94
420.726	2148.94
420.948	2151.94
421.171	2069.94
421.394	2134.94
421.617	2197.94
421.839	2144.94
422.062	2166.94
422.285	2061.94
422.507	2075.94
422.73	2045.94
422.953	2005.94
423.175	2011.94
423.398	2095.94
423.621	2092.94
423.843	2107.94
424.066	2119.94
424.288	2199.94
424.511	2238.94
424.733	2177.94
424.956	2009.94
425.178	1987.94
425.401	2030.94
425.623	2031.94
425.846	2050.94
426.068	2140.94
426.291	2186.94
426.513	2146.94
426.735	2133.94
426.958	2303.94
427.18	2403.94
427.402	2145.94
427.625	2258.94
427.847	2310.94
428.069	2131.94
428.292	2047.94
428.514	1977.94
428.736	1999.94
428.958	2050.94
429.181	2063.94
429.403	2248.94
429.625	2867.94
429.847	2484.94
430.069	2129.94
430.292	2246.94
430.514	2405.94
430.736	2189.94
430.958	2327.94
431.18	2160.94
431.402	2001.94
431.624	1956.94
431.846	2020.94
432.068	1976.94
432.29	2014.94
432.512	2005.94
432.734	2087.94
432.956	2107.94
433.178	2241.94
433.4	2171.94
433.622	2233.94
433.844	2093.94
434.066	1993.94
434.287	1982.94
434.509	2089.94
434.731	2204.94
434.953	2342.94
435.175	2290.94
435.397	2152.94
435.618	2121.94
435.84	2185.94
436.062	2136.94
436.284	2117.94
436.505	2102.94
436.727	2197.94
436.949	2109.94
437.17	2049.94
437.392	2033.94
437.614	2072.94
437.835	2013.94
438.057	2081.94
438.278	2221.94
438.5	2085.94
438.721	2000.94
438.943	2059.94
439.165	2017.94
439.386	1974.94
439.608	2003.94
439.829	2019.94
440.05	2044.94
440.272	1991.94
440.493	1963.94
440.715	2016.94
440.936	2137.94
441.158	2390.94
441.379	2317.94
441.6	2289.94
441.822	2199.94
442.043	2181.94
442.264	2137.94
442.486	2020.94
442.707	2001.94
442.928	2018.94
443.149	2084.94
443.371	2214.94
443.592	2286.94
443.813	2249.94
444.034	2203.94
444.255	2223.94
444.476	2263.94
444.698	2322.94
444.919	2317.94
445.14	2385.94
445.361	2332.94
445.582	2481.94
445.803	2352.94
446.024	2221.94
446.245	2317.94
446.466	2216.94
446.687	2143.94
446.908	2147.94
447.129	2076.94
447.35	2111.94
447.571	2115.94
447.792	1996.94
448.013	1959.94
448.234	2005.94
448.455	2132.94
448.675	2158.94
448.896	1965.94
449.117	1892.94
449.338	1960.94
449.559	2051.94
449.779	2202.94
450	2412.94
450.221	2581.94
450.442	2498.94
450.662	2204.94
450.883	1925.94
451.104	1891.94
451.324	1947.94
451.545	1990.94
451.766	1992.94
451.986	1902.94
452.207	1871.94
452.428	1809.94
452.648	1780.94
452.869	1859.94
453.089	1967.94
453.31	2023.94
453.53	2036.94
453.751	1961.94
453.971	1839.94
454.192	1897.94
454.412	2026.94
454.633	1967.94
454.853	1895.94
455.073	1741.94
455.294	1735.94
455.514	1793.94
455.734	1747.94
455.955	1817.94
456.175	1792.94
456.395	1803.94
456.616	1883.94
456.836	1895.94
457.056	1853.94
457.276	1904.94
457.497	1855.94
457.717	1741.94
457.937	1771.94
458.157	1877.94
458.377	1817.94
458.598	1784.94
458.818	1804.94
459.038	1944.94
459.258	2013.94
459.478	2072.94
459.698	2013.94
459.918	1984.94
460.138	2121.94
460.358	2148.94
460.578	2166.94
460.798	2287.94
461.018	2359.94
461.238	2264.94
461.458	2167.94
461.678	2159.94
461.898	2121.94
462.118	2062.94
462.338	2152.94
462.558	2174.94
462.777	2192.94
462.997	2264.94
463.217	2405.94
463.437	2372.94
463.657	2222.94
463.876	2140.94
464.096	2129.94
464.316	2155.94
464.536	2225.94
464.755	2286.94
464.975	2323.94
465.195	2198.94
465.414	2298.94
465.634	2276.94
465.854	2151.94
466.073	2297.94
466.293	2248.94
466.512	1959.94
466.732	2008.94
466.951	2065.94
467.171	2089.94
467.391	1973.94
467.61	1992.94
467.829	1944.94
468.049	2072.94
468.268	2333.94
468.488	2244.94
468.707	2123.94
468.927	2041.94
469.146	1997.94
469.365	1947.94
469.585	1998.94
469.804	1988.94
470.023	1976.94
470.243	2027.94
470.462	2014.94
470.681	1955.94
470.901	1958.94
471.12	2033.94
471.339	1957.94
471.558	1886.94
471.777	1898.94
471.997	1931.94
472.216	1948.94
472.435	1866.94
472.654	1974.94
472.873	2040.94
473.092	2107.94
473.311	2022.94
473.53	1889.94
473.749	1872.94
473.968	1963.94
474.187	2041.94
474.406	2149.94
474.625	2043.94
474.844	2005.94
475.063	1989.94
475.282	2028.94
475.501	2015.94
475.72	2019.94
475.939	2159.94
476.158	2050.94
476.377	1984.94
476.596	2084.94
476.814	2097.94
477.033	2069.94
477.252	2173.94
477.471	2254.94
477.69	2117.94
477.908	2095.94
478.127	2225.94
478.346	2376.94
478.564	2395.94
478.783	2338.94
479.002	2438.94
479.22	2418.94
479.439	2423.94
479.658	2780.94
479.876	2752.94
480.095	2449.94
480.313	2342.94
480.532	2200.94
480.751	2230.94
480.969	2319.94
481.188	2242.94
481.406	2197.94
481.624	2193.94
481.843	2170.94
482.061	2284.94
482.28	2264.94
482.498	2303.94
482.717	2327.94
482.935	2206.94
483.153	2179.94
483.372	2193.94
483.59	2175.94
483.808	2211.94
484.027	2242.94
484.245	2401.94
484.463	2758.94
484.681	3147.94
484.9	2404.94
485.118	2261.94
485.336	2207.94
485.554	2300.94
485.772	2431.94
485.99	2372.94
486.209	2423.94
486.427	2357.94
486.645	2353.94
486.863	2350.94
487.081	2363.94
487.299	2475.94
