Data from WStandard_LampEnergy10_LIBS07252019.E.O._I.C._HRD10591_15-55-43-928.txt Node
Date: Thu Jul 25 15:55:43 EDT 2019
User: cochatt
Spectrometer: HR+D1059
Trigger mode: 1
Integration Time (sec): 1.000000E-1
Scans to average: 1
Electric dark correction enabled: true
Nonlinearity correction enabled: false
Boxcar width: 0
XAxis mode: Wavelengths
Number of Pixels in Spectrum: 2048
>>>>>Begin Spectral Data<<<<<
223.165	-21.94
223.4	-21.94
223.635	-21.94
223.869	-10.94
224.104	-18.94
224.338	-15.94
224.573	-18.94
224.808	-3.94
225.042	-4.94
225.277	-11.94
225.511	4.06
225.746	2.06
225.98	5.06
226.215	3.06
226.449	21.06
226.683	13.06
226.918	34.06
227.152	25.06
227.387	29.06
227.621	38.06
227.856	55.06
228.09	34.06
228.324	32.06
228.559	57.06
228.793	72.06
229.027	123.06
229.262	129.06
229.496	146.06
229.73	150.06
229.964	155.06
230.199	144.06
230.433	163.06
230.667	175.06
230.901	184.06
231.136	155.06
231.37	172.06
231.604	168.06
231.838	180.06
232.072	160.06
232.306	168.06
232.541	190.06
232.775	195.06
233.009	212.06
233.243	193.06
233.477	194.06
233.711	202.06
233.945	204.06
234.179	195.06
234.413	207.06
234.647	211.06
234.881	202.06
235.115	180.06
235.349	200.06
235.583	193.06
235.817	194.06
236.051	187.06
236.285	211.06
236.519	202.06
236.753	220.06
236.987	240.06
237.221	235.06
237.455	235.06
237.689	217.06
237.922	220.06
238.156	220.06
238.39	219.06
238.624	215.06
238.858	236.06
239.091	256.06
239.325	263.06
239.559	265.06
239.793	280.06
240.027	316.06
240.26	289.06
240.494	252.06
240.728	230.06
240.961	217.06
241.195	234.06
241.429	252.06
241.662	229.06
241.896	248.06
242.13	252.06
242.363	263.06
242.597	287.06
242.83	264.06
243.064	276.06
243.298	286.06
243.531	282.06
243.765	273.06
243.998	290.06
244.232	256.06
244.465	252.06
244.699	256.06
244.932	280.06
245.166	291.06
245.399	290.06
245.633	263.06
245.866	273.06
246.099	286.06
246.333	288.06
246.566	305.06
246.8	312.06
247.033	335.06
247.266	338.06
247.5	298.06
247.733	311.06
247.966	329.06
248.2	347.06
248.433	371.06
248.666	364.06
248.899	373.06
249.133	418.06
249.366	454.06
249.599	376.06
249.832	360.06
250.066	361.06
250.299	361.06
250.532	357.06
250.765	328.06
250.998	335.06
251.231	360.06
251.465	343.06
251.698	324.06
251.931	327.06
252.164	354.06
252.397	348.06
252.63	357.06
252.863	323.06
253.096	313.06
253.329	331.06
253.562	344.06
253.795	359.06
254.028	345.06
254.261	328.06
254.494	333.06
254.727	339.06
254.96	340.06
255.193	370.06
255.426	418.06
255.659	440.06
255.892	458.06
256.124	360.06
256.357	372.06
256.59	404.06
256.823	385.06
257.056	408.06
257.289	482.06
257.521	499.06
257.754	461.06
257.987	435.06
258.22	491.06
258.452	446.06
258.685	373.06
258.918	361.06
259.151	388.06
259.383	382.06
259.616	342.06
259.849	368.06
260.081	386.06
260.314	442.06
260.547	473.06
260.779	447.06
261.012	440.06
261.244	396.06
261.477	375.06
261.71	397.06
261.942	394.06
262.175	384.06
262.407	394.06
262.64	389.06
262.872	374.06
263.105	362.06
263.337	372.06
263.57	368.06
263.802	365.06
264.035	352.06
264.267	353.06
264.499	341.06
264.732	366.06
264.964	396.06
265.197	426.06
265.429	414.06
265.661	459.06
265.894	481.06
266.126	514.06
266.358	475.06
266.591	458.06
266.823	480.06
267.055	447.06
267.287	436.06
267.52	433.06
267.752	454.06
267.984	441.06
268.216	469.06
268.448	467.06
268.681	456.06
268.913	425.06
269.145	418.06
269.377	407.06
269.609	441.06
269.841	501.06
270.073	578.06
270.306	618.06
270.538	600.06
270.77	541.06
271.002	493.06
271.234	471.06
271.466	466.06
271.698	517.06
271.93	584.06
272.162	570.06
272.394	550.06
272.626	504.06
272.858	456.06
273.09	396.06
273.322	410.06
273.553	404.06
273.785	409.06
274.017	421.06
274.249	427.06
274.481	432.06
274.713	408.06
274.945	396.06
275.176	399.06
275.408	410.06
275.64	399.06
275.872	386.06
276.104	448.06
276.335	488.06
276.567	535.06
276.799	494.06
277.031	480.06
277.262	455.06
277.494	493.06
277.726	522.06
277.957	492.06
278.189	460.06
278.421	428.06
278.652	436.06
278.884	427.06
279.115	445.06
279.347	426.06
279.579	443.06
279.81	416.06
280.042	466.06
280.273	499.06
280.505	497.06
280.736	493.06
280.968	476.06
281.199	434.06
281.431	425.06
281.662	419.06
281.894	434.06
282.125	427.06
282.356	427.06
282.588	451.06
282.819	450.06
283.051	498.06
283.282	512.06
283.513	486.06
283.745	442.06
283.976	430.06
284.207	413.06
284.439	438.06
284.67	441.06
284.901	449.06
285.132	468.06
285.364	468.06
285.595	458.06
285.826	447.06
286.057	451.06
286.288	436.06
286.52	411.06
286.751	487.06
286.982	504.06
287.213	441.06
287.444	438.06
287.675	441.06
287.906	459.06
288.138	457.06
288.369	457.06
288.6	445.06
288.831	439.06
289.062	453.06
289.293	440.06
289.524	459.06
289.755	445.06
289.986	447.06
290.217	418.06
290.448	451.06
290.679	452.06
290.91	472.06
291.141	456.06
291.371	489.06
291.602	491.06
291.833	467.06
292.064	491.06
292.295	475.06
292.526	477.06
292.757	515.06
292.987	463.06
293.218	469.06
293.449	532.06
293.68	570.06
293.91	581.06
294.141	555.06
294.372	538.06
294.603	556.06
294.833	553.06
295.064	521.06
295.295	465.06
295.525	475.06
295.756	452.06
295.987	421.06
296.217	441.06
296.448	459.06
296.679	452.06
296.909	462.06
297.14	452.06
297.37	480.06
297.601	509.06
297.831	520.06
298.062	494.06
298.292	491.06
298.523	445.06
298.753	459.06
298.984	467.06
299.214	461.06
299.445	487.06
299.675	491.06
299.905	478.06
300.136	475.06
300.366	451.06
300.597	438.06
300.827	440.06
301.057	493.06
301.288	483.06
301.518	526.06
301.748	522.06
301.979	538.06
302.209	554.06
302.439	575.06
302.669	582.06
302.9	533.06
303.13	482.06
303.36	510.06
303.59	502.06
303.82	474.06
304.051	514.06
304.281	509.06
304.511	514.06
304.741	578.06
304.971	601.06
305.201	594.06
305.431	573.06
305.661	476.06
305.891	474.06
306.121	472.06
306.352	458.06
306.582	501.06
306.812	526.06
307.042	556.06
307.272	586.06
307.502	583.06
307.731	628.06
307.961	615.06
308.191	571.06
308.421	526.06
308.651	505.06
308.881	521.06
309.111	485.06
309.341	495.06
309.571	502.06
309.8	500.06
310.03	483.06
310.26	469.06
310.49	492.06
310.72	487.06
310.949	509.06
311.179	509.06
311.409	522.06
311.639	501.06
311.868	492.06
312.098	504.06
312.328	487.06
312.557	493.06
312.787	504.06
313.017	497.06
313.246	521.06
313.476	508.06
313.706	526.06
313.935	505.06
314.165	554.06
314.394	568.06
314.624	572.06
314.853	637.06
315.083	596.06
315.312	605.06
315.542	578.06
315.771	548.06
316.001	536.06
316.23	572.06
316.46	562.06
316.689	540.06
316.919	525.06
317.148	545.06
317.377	522.06
317.607	599.06
317.836	620.06
318.065	637.06
318.295	607.06
318.524	564.06
318.753	566.06
318.983	535.06
319.212	553.06
319.441	526.06
319.67	545.06
319.9	561.06
320.129	605.06
320.358	607.06
320.587	598.06
320.816	603.06
321.046	600.06
321.275	589.06
321.504	592.06
321.733	596.06
321.962	595.06
322.191	576.06
322.42	581.06
322.649	564.06
322.878	561.06
323.108	570.06
323.337	570.06
323.566	557.06
323.795	563.06
324.024	557.06
324.253	566.06
324.482	550.06
324.71	541.06
324.939	519.06
325.168	531.06
325.397	561.06
325.626	571.06
325.855	573.06
326.084	555.06
326.313	559.06
326.542	561.06
326.77	575.06
326.999	579.06
327.228	501.06
327.457	533.06
327.686	528.06
327.914	535.06
328.143	554.06
328.372	557.06
328.6	567.06
328.829	539.06
329.058	543.06
329.287	551.06
329.515	554.06
329.744	601.06
329.972	601.06
330.201	611.06
330.43	572.06
330.658	589.06
330.887	568.06
331.115	578.06
331.344	578.06
331.572	572.06
331.801	558.06
332.03	583.06
332.258	590.06
332.486	606.06
332.715	584.06
332.943	602.06
333.172	605.06
333.4	605.06
333.629	626.06
333.857	635.06
334.085	761.06
334.314	813.06
334.542	835.06
334.771	740.06
334.999	678.06
335.227	648.06
335.455	625.06
335.684	643.06
335.912	627.06
336.14	637.06
336.369	619.06
336.597	601.06
336.825	616.06
337.053	641.06
337.281	657.06
337.51	678.06
337.738	704.06
337.966	620.06
338.194	581.06
338.422	579.06
338.65	583.06
338.878	568.06
339.106	536.06
339.334	553.06
339.562	522.06
339.79	586.06
340.018	607.06
340.246	640.06
340.474	619.06
340.702	615.06
340.93	609.06
341.158	606.06
341.386	562.06
341.614	615.06
341.842	582.06
342.07	572.06
342.298	589.06
342.526	590.06
342.754	597.06
342.981	588.06
343.209	592.06
343.437	588.06
343.665	586.06
343.893	602.06
344.12	616.06
344.348	627.06
344.576	596.06
344.804	595.06
345.031	605.06
345.259	597.06
345.487	552.06
345.714	541.06
345.942	542.06
346.17	534.06
346.397	571.06
346.625	546.06
346.853	524.06
347.08	518.06
347.308	555.06
347.535	568.06
347.763	592.06
347.99	565.06
348.218	553.06
348.445	556.06
348.673	533.06
348.9	598.06
349.128	587.06
349.355	580.06
349.583	582.06
349.81	553.06
350.037	530.06
350.265	518.06
350.492	514.06
350.72	551.06
350.947	574.06
351.174	560.06
351.402	534.06
351.629	535.06
351.856	511.06
352.083	520.06
352.311	525.06
352.538	533.06
352.765	567.06
352.992	595.06
353.22	554.06
353.447	542.06
353.674	567.06
353.901	568.06
354.128	550.06
354.355	538.06
354.583	550.06
354.81	607.06
355.037	599.06
355.264	574.06
355.491	568.06
355.718	575.06
355.945	549.06
356.172	550.06
356.399	522.06
356.626	564.06
356.853	573.06
357.08	625.06
357.307	688.06
357.534	649.06
357.761	568.06
357.988	527.06
358.215	530.06
358.441	540.06
358.668	527.06
358.895	548.06
359.122	590.06
359.349	633.06
359.576	617.06
359.802	574.06
360.029	562.06
360.256	549.06
360.483	580.06
360.709	576.06
360.936	618.06
361.163	605.06
361.39	667.06
361.616	699.06
361.843	699.06
362.07	648.06
362.296	566.06
362.523	581.06
362.749	535.06
362.976	596.06
363.203	577.06
363.429	554.06
363.656	542.06
363.882	593.06
364.109	628.06
364.335	644.06
364.562	604.06
364.788	600.06
365.015	562.06
365.241	571.06
365.468	593.06
365.694	599.06
365.92	608.06
366.147	575.06
366.373	566.06
366.599	577.06
366.826	540.06
367.052	562.06
367.278	570.06
367.505	578.06
367.731	606.06
367.957	579.06
368.184	633.06
368.41	666.06
368.636	654.06
368.862	680.06
369.089	656.06
369.315	623.06
369.541	622.06
369.767	584.06
369.993	578.06
370.219	565.06
370.445	616.06
370.672	657.06
370.898	668.06
371.124	623.06
371.35	644.06
371.576	640.06
371.802	646.06
372.028	633.06
372.254	603.06
372.48	603.06
372.706	605.06
372.932	596.06
373.158	606.06
373.384	618.06
373.61	661.06
373.835	638.06
374.061	630.06
374.287	615.06
374.513	632.06
374.739	624.06
374.965	640.06
375.191	630.06
375.416	625.06
375.642	652.06
375.868	684.06
376.094	673.06
376.319	669.06
376.545	637.06
376.771	657.06
376.997	667.06
377.222	666.06
377.448	638.06
377.674	647.06
377.899	678.06
378.125	712.06
378.35	686.06
378.576	635.06
378.802	604.06
379.027	594.06
379.253	615.06
379.478	636.06
379.704	662.06
379.929	648.06
380.155	616.06
380.38	654.06
380.606	639.06
380.831	679.06
381.057	690.06
381.282	690.06
381.507	691.06
381.733	740.06
381.958	726.06
382.184	695.06
382.409	678.06
382.634	677.06
382.86	675.06
383.085	668.06
383.31	712.06
383.535	784.06
383.761	807.06
383.986	741.06
384.211	722.06
384.436	710.06
384.662	762.06
384.887	770.06
385.112	741.06
385.337	738.06
385.562	707.06
385.787	743.06
386.013	766.06
386.238	754.06
386.463	755.06
386.688	821.06
386.913	859.06
387.138	816.06
387.363	778.06
387.588	757.06
387.813	756.06
388.038	795.06
388.263	775.06
388.488	712.06
388.713	724.06
388.938	721.06
389.163	721.06
389.387	729.06
389.612	740.06
389.837	754.06
390.062	738.06
390.287	729.06
390.512	723.06
390.736	727.06
390.961	756.06
391.186	692.06
391.411	742.06
391.636	748.06
391.86	726.06
392.085	742.06
392.31	752.06
392.534	753.06
392.759	753.06
392.984	737.06
393.208	775.06
393.433	773.06
393.658	829.06
393.882	783.06
394.107	756.06
394.331	761.06
394.556	754.06
394.78	764.06
395.005	770.06
395.229	830.06
395.454	896.06
395.678	881.06
395.903	820.06
396.127	790.06
396.352	800.06
396.576	852.06
396.801	851.06
397.025	850.06
397.249	828.06
397.474	828.06
397.698	826.06
397.922	831.06
398.147	871.06
398.371	888.06
398.595	896.06
398.82	853.06
399.044	876.06
399.268	881.06
399.492	954.06
399.717	978.06
399.941	949.06
400.165	962.06
400.389	940.06
400.613	958.06
400.837	1108.06
401.062	1188.06
401.286	997.06
401.51	962.06
401.734	982.06
401.958	928.06
402.182	906.06
402.406	848.06
402.63	864.06
402.854	869.06
403.078	866.06
403.302	877.06
403.526	892.06
403.75	911.06
403.974	904.06
404.198	893.06
404.422	985.06
404.645	1017.06
404.869	961.06
405.093	899.06
405.317	873.06
405.541	882.06
405.765	928.06
405.988	918.06
406.212	904.06
406.436	954.06
406.66	963.06
406.883	999.06
407.107	1108.06
407.331	1204.06
407.555	1230.06
407.778	1115.06
408.002	978.06
408.226	927.06
408.449	928.06
408.673	937.06
408.896	958.06
409.12	928.06
409.344	923.06
409.567	925.06
409.791	946.06
410.014	955.06
410.238	1018.06
410.461	1041.06
410.685	953.06
410.908	942.06
411.132	935.06
411.355	892.06
411.578	924.06
411.802	924.06
412.025	925.06
412.249	903.06
412.472	917.06
412.695	891.06
412.919	883.06
413.142	896.06
413.365	925.06
413.589	929.06
413.812	1021.06
414.035	1030.06
414.258	929.06
414.482	910.06
414.705	888.06
414.928	897.06
415.151	904.06
415.374	917.06
415.597	921.06
415.821	910.06
416.044	920.06
416.267	910.06
416.49	901.06
416.713	892.06
416.936	951.06
417.159	996.06
417.382	980.06
417.605	922.06
417.828	918.06
418.051	924.06
418.274	915.06
418.497	883.06
418.72	924.06
418.943	924.06
419.166	945.06
419.389	968.06
419.611	958.06
419.834	897.06
420.057	944.06
420.28	942.06
420.503	932.06
420.726	942.06
420.948	933.06
421.171	916.06
421.394	931.06
421.617	978.06
421.839	981.06
422.062	952.06
422.285	898.06
422.507	916.06
422.73	870.06
422.953	880.06
423.175	899.06
423.398	912.06
423.621	894.06
423.843	900.06
424.066	963.06
424.288	1015.06
424.511	1026.06
424.733	996.06
424.956	908.06
425.178	906.06
425.401	921.06
425.623	941.06
425.846	907.06
426.068	956.06
426.291	954.06
426.513	920.06
426.735	957.06
426.958	1058.06
427.18	1067.06
427.402	985.06
427.625	1002.06
427.847	973.06
428.069	926.06
428.292	917.06
428.514	922.06
428.736	886.06
428.958	884.06
429.181	901.06
429.403	1047.06
429.625	1237.06
429.847	1041.06
430.069	949.06
430.292	1049.06
430.514	990.06
430.736	937.06
430.958	966.06
431.18	910.06
431.402	886.06
431.624	839.06
431.846	794.06
432.068	712.06
432.29	722.06
432.512	779.06
432.734	855.06
432.956	898.06
433.178	933.06
433.4	918.06
433.622	918.06
433.844	876.06
434.066	846.06
434.287	790.06
434.509	765.06
434.731	835.06
434.953	902.06
435.175	916.06
435.397	910.06
435.618	878.06
435.84	828.06
436.062	819.06
436.284	879.06
436.505	877.06
436.727	933.06
436.949	884.06
437.17	876.06
437.392	874.06
437.614	857.06
437.835	798.06
438.057	789.06
438.278	827.06
438.5	861.06
438.721	870.06
438.943	883.06
439.165	926.06
439.386	937.06
439.608	918.06
439.829	941.06
440.05	914.06
440.272	937.06
440.493	951.06
440.715	963.06
440.936	1012.06
441.158	1006.06
441.379	1012.06
441.6	1008.06
441.822	982.06
442.043	1012.06
442.264	986.06
442.486	946.06
442.707	951.06
442.928	950.06
443.149	952.06
443.371	988.06
443.592	1026.06
443.813	1005.06
444.034	976.06
444.255	1013.06
444.476	1001.06
444.698	1014.06
444.919	1044.06
445.14	1132.06
445.361	1066.06
445.582	1049.06
445.803	1038.06
446.024	1034.06
446.245	1035.06
446.466	1009.06
446.687	1022.06
446.908	1033.06
447.129	1008.06
447.35	1022.06
447.571	960.06
447.792	933.06
448.013	949.06
448.234	948.06
448.455	978.06
448.675	1005.06
448.896	892.06
449.117	877.06
449.338	911.06
449.559	933.06
449.779	955.06
450	954.06
450.221	1051.06
450.442	1005.06
450.662	925.06
450.883	861.06
451.104	868.06
451.324	873.06
451.545	852.06
451.766	844.06
451.986	839.06
452.207	802.06
452.428	769.06
452.648	797.06
452.869	788.06
453.089	783.06
453.31	766.06
453.53	777.06
453.751	710.06
453.971	718.06
454.192	702.06
454.412	785.06
454.633	787.06
454.853	760.06
455.073	764.06
455.294	772.06
455.514	792.06
455.734	749.06
455.955	745.06
456.175	738.06
456.395	725.06
456.616	730.06
456.836	735.06
457.056	724.06
457.276	711.06
457.497	706.06
457.717	689.06
457.937	681.06
458.157	705.06
458.377	684.06
458.598	681.06
458.818	652.06
459.038	682.06
459.258	693.06
459.478	702.06
459.698	690.06
459.918	718.06
460.138	809.06
460.358	816.06
460.578	842.06
460.798	874.06
461.018	896.06
461.238	850.06
461.458	848.06
461.678	823.06
461.898	830.06
462.118	788.06
462.338	821.06
462.558	819.06
462.777	844.06
462.997	848.06
463.217	880.06
463.437	848.06
463.657	840.06
463.876	836.06
464.096	805.06
464.316	838.06
464.536	856.06
464.755	868.06
464.975	838.06
465.195	838.06
465.414	868.06
465.634	845.06
465.854	896.06
466.073	973.06
466.293	916.06
466.512	871.06
466.732	872.06
466.951	901.06
467.171	888.06
467.391	837.06
467.61	874.06
467.829	877.06
468.049	976.06
468.268	1058.06
468.488	947.06
468.707	914.06
468.927	896.06
469.146	853.06
469.365	889.06
469.585	935.06
469.804	899.06
470.023	900.06
470.243	944.06
470.462	932.06
470.681	920.06
470.901	908.06
471.12	910.06
471.339	930.06
471.558	901.06
471.777	918.06
471.997	889.06
472.216	835.06
472.435	784.06
472.654	762.06
472.873	750.06
473.092	807.06
473.311	828.06
473.53	820.06
473.749	829.06
473.968	820.06
474.187	832.06
474.406	806.06
474.625	838.06
474.844	853.06
475.063	866.06
475.282	832.06
475.501	835.06
475.72	843.06
475.939	885.06
476.158	885.06
476.377	856.06
476.596	834.06
476.814	811.06
477.033	802.06
477.252	845.06
477.471	862.06
477.69	903.06
477.908	909.06
478.127	985.06
478.346	1001.06
478.564	1035.06
478.783	988.06
479.002	1013.06
479.22	998.06
479.439	1004.06
479.658	1016.06
479.876	971.06
480.095	902.06
480.313	898.06
480.532	875.06
480.751	843.06
480.969	834.06
481.188	807.06
481.406	766.06
481.624	746.06
481.843	788.06
482.061	823.06
482.28	884.06
482.498	906.06
482.717	858.06
482.935	892.06
483.153	978.06
483.372	992.06
483.59	1006.06
483.808	982.06
484.027	942.06
484.245	978.06
484.463	1214.06
484.681	1303.06
484.9	1002.06
485.118	976.06
485.336	923.06
485.554	890.06
485.772	890.06
485.99	895.06
486.209	886.06
486.427	888.06
486.645	906.06
486.863	959.06
487.081	1021.06
487.299	976.06
487.517	1008.06
487.735	1110.06
487.953	1180.06
488.171	1125.06
488.389	1101.06
488.607	1068.06
488.825	1146.06
489.043	1016.06
489.261	972.06
489.479	1051.06
489.696	1057.06
489.914	1046.06
490.132	1041.06
490.35	1116.06
490.568	1162.06
490.786	1200.06
491.003	1190.06
491.221	1246.06
491.439	1286.06
491.657	1288.06
491.874	1341.06
492.092	1406.06
492.31	1485.06
492.527	1417.06
492.745	1382.06
492.963	1321.06
493.18	1290.06
493.398	1339.06
493.615	1338.06
493.833	1240.06
494.05	1213.06
494.268	1202.06
494.485	1202.06
494.703	1239.06
494.92	1201.06
495.138	1206.06
495.355	1206.06
495.573	1252.06
495.79	1235.06
496.008	1235.06
496.225	1226.06
496.442	1212.06
496.66	1226.06
496.877	1190.06
497.094	1196.06
497.312	1206.06
497.529	1193.06
497.746	1173.06
497.963	1276.06
498.181	1276.06
498.398	1249.06
498.615	1184.06
498.832	1142.06
499.049	1145.06
499.267	1156.06
499.484	1243.06
499.701	1340.06
499.918	1377.06
500.135	1439.06
500.352	1528.06
500.569	1536.06
