Data from WStandard_LampEnergy10_LIBS07252019.E.O._I.C._HRD10591_15-55-02-928.txt Node
Date: Thu Jul 25 15:55:02 EDT 2019
User: cochatt
Spectrometer: HR+D1059
Trigger mode: 1
Integration Time (sec): 1.000000E-1
Scans to average: 1
Electric dark correction enabled: true
Nonlinearity correction enabled: false
Boxcar width: 0
XAxis mode: Wavelengths
Number of Pixels in Spectrum: 2048
>>>>>Begin Spectral Data<<<<<
223.165	-15.94
223.4	-15.94
223.635	-15.94
223.869	-11.94
224.104	-22.94
224.338	-7.94
224.573	-11.94
224.808	2.06
225.042	5.06
225.277	-13.94
225.511	-7.94
225.746	12.06
225.98	7.06
226.215	9.06
226.449	11.06
226.683	18.06
226.918	7.06
227.152	21.06
227.387	25.06
227.621	35.06
227.856	49.06
228.09	45.06
228.324	44.06
228.559	54.06
228.793	79.06
229.027	147.06
229.262	130.06
229.496	146.06
229.73	154.06
229.964	158.06
230.199	168.06
230.433	186.06
230.667	197.06
230.901	181.06
231.136	163.06
231.37	188.06
231.604	179.06
231.838	187.06
232.072	169.06
232.306	166.06
232.541	189.06
232.775	209.06
233.009	211.06
233.243	206.06
233.477	196.06
233.711	192.06
233.945	186.06
234.179	197.06
234.413	208.06
234.647	210.06
234.881	192.06
235.115	199.06
235.349	187.06
235.583	184.06
235.817	200.06
236.051	193.06
236.285	202.06
236.519	200.06
236.753	213.06
236.987	185.06
237.221	210.06
237.455	237.06
237.689	219.06
237.922	217.06
238.156	207.06
238.39	216.06
238.624	237.06
238.858	223.06
239.091	243.06
239.325	265.06
239.559	298.06
239.793	307.06
240.027	307.06
240.26	293.06
240.494	243.06
240.728	242.06
240.961	245.06
241.195	248.06
241.429	260.06
241.662	243.06
241.896	244.06
242.13	241.06
242.363	279.06
242.597	276.06
242.83	280.06
243.064	278.06
243.298	272.06
243.531	269.06
243.765	288.06
243.998	305.06
244.232	236.06
244.465	247.06
244.699	269.06
244.932	283.06
245.166	299.06
245.399	280.06
245.633	278.06
245.866	281.06
246.099	267.06
246.333	296.06
246.566	319.06
246.8	320.06
247.033	329.06
247.266	344.06
247.5	312.06
247.733	320.06
247.966	348.06
248.2	375.06
248.433	363.06
248.666	363.06
248.899	406.06
249.133	457.06
249.366	471.06
249.599	400.06
249.832	338.06
250.066	373.06
250.299	378.06
250.532	364.06
250.765	323.06
250.998	328.06
251.231	346.06
251.465	352.06
251.698	345.06
251.931	357.06
252.164	354.06
252.397	369.06
252.63	335.06
252.863	331.06
253.096	331.06
253.329	356.06
253.562	340.06
253.795	368.06
254.028	367.06
254.261	345.06
254.494	356.06
254.727	332.06
254.96	339.06
255.193	392.06
255.426	403.06
255.659	452.06
255.892	467.06
256.124	388.06
256.357	379.06
256.59	405.06
256.823	406.06
257.056	400.06
257.289	465.06
257.521	520.06
257.754	488.06
257.987	450.06
258.22	468.06
258.452	472.06
258.685	384.06
258.918	388.06
259.151	393.06
259.383	371.06
259.616	352.06
259.849	377.06
260.081	419.06
260.314	444.06
260.547	499.06
260.779	474.06
261.012	429.06
261.244	407.06
261.477	396.06
261.71	400.06
261.942	408.06
262.175	405.06
262.407	422.06
262.64	389.06
262.872	375.06
263.105	357.06
263.337	379.06
263.57	388.06
263.802	379.06
264.035	343.06
264.267	325.06
264.499	338.06
264.732	352.06
264.964	395.06
265.197	417.06
265.429	413.06
265.661	468.06
265.894	490.06
266.126	485.06
266.358	455.06
266.591	470.06
266.823	481.06
267.055	451.06
267.287	445.06
267.52	439.06
267.752	439.06
267.984	455.06
268.216	461.06
268.448	465.06
268.681	458.06
268.913	429.06
269.145	410.06
269.377	410.06
269.609	448.06
269.841	540.06
270.073	609.06
270.306	625.06
270.538	626.06
270.77	541.06
271.002	509.06
271.234	468.06
271.466	487.06
271.698	541.06
271.93	615.06
272.162	596.06
272.394	531.06
272.626	513.06
272.858	464.06
273.09	423.06
273.322	415.06
273.553	398.06
273.785	418.06
274.017	454.06
274.249	435.06
274.481	449.06
274.713	427.06
274.945	412.06
275.176	435.06
275.408	411.06
275.64	402.06
275.872	413.06
276.104	459.06
276.335	486.06
276.567	541.06
276.799	539.06
277.031	495.06
277.262	480.06
277.494	507.06
277.726	522.06
277.957	485.06
278.189	475.06
278.421	441.06
278.652	419.06
278.884	442.06
279.115	427.06
279.347	455.06
279.579	406.06
279.81	436.06
280.042	494.06
280.273	495.06
280.505	524.06
280.736	489.06
280.968	471.06
281.199	428.06
281.431	420.06
281.662	442.06
281.894	446.06
282.125	443.06
282.356	438.06
282.588	477.06
282.819	459.06
283.051	476.06
283.282	522.06
283.513	484.06
283.745	430.06
283.976	434.06
284.207	415.06
284.439	447.06
284.67	473.06
284.901	450.06
285.132	455.06
285.364	445.06
285.595	482.06
285.826	455.06
286.057	454.06
286.288	466.06
286.52	476.06
286.751	487.06
286.982	500.06
287.213	464.06
287.444	442.06
287.675	457.06
287.906	463.06
288.138	492.06
288.369	478.06
288.6	446.06
288.831	438.06
289.062	440.06
289.293	461.06
289.524	456.06
289.755	453.06
289.986	452.06
290.217	451.06
290.448	438.06
290.679	479.06
290.91	445.06
291.141	468.06
291.371	483.06
291.602	491.06
291.833	489.06
292.064	496.06
292.295	519.06
292.526	482.06
292.757	494.06
292.987	491.06
293.218	475.06
293.449	518.06
293.68	575.06
293.91	591.06
294.141	554.06
294.372	523.06
294.603	573.06
294.833	576.06
295.064	548.06
295.295	488.06
295.525	468.06
295.756	446.06
295.987	439.06
296.217	429.06
296.448	465.06
296.679	468.06
296.909	466.06
297.14	461.06
297.37	490.06
297.601	502.06
297.831	541.06
298.062	539.06
298.292	474.06
298.523	468.06
298.753	485.06
298.984	475.06
299.214	492.06
299.445	485.06
299.675	486.06
299.905	515.06
300.136	481.06
300.366	461.06
300.597	450.06
300.827	465.06
301.057	469.06
301.288	491.06
301.518	522.06
301.748	525.06
301.979	563.06
302.209	569.06
302.439	581.06
302.669	613.06
302.9	560.06
303.13	533.06
303.36	535.06
303.59	537.06
303.82	512.06
304.051	512.06
304.281	519.06
304.511	546.06
304.741	562.06
304.971	636.06
305.201	609.06
305.431	571.06
305.661	472.06
305.891	441.06
306.121	479.06
306.352	501.06
306.582	513.06
306.812	543.06
307.042	568.06
307.272	579.06
307.502	613.06
307.731	624.06
307.961	628.06
308.191	595.06
308.421	540.06
308.651	514.06
308.881	522.06
309.111	500.06
309.341	497.06
309.571	511.06
309.8	486.06
310.03	491.06
310.26	507.06
310.49	490.06
310.72	524.06
310.949	490.06
311.179	509.06
311.409	523.06
311.639	522.06
311.868	507.06
312.098	495.06
312.328	521.06
312.557	499.06
312.787	522.06
313.017	538.06
313.246	523.06
313.476	528.06
313.706	533.06
313.935	517.06
314.165	536.06
314.394	575.06
314.624	607.06
314.853	644.06
315.083	625.06
315.312	637.06
315.542	568.06
315.771	552.06
316.001	551.06
316.23	578.06
316.46	554.06
316.689	550.06
316.919	539.06
317.148	516.06
317.377	568.06
317.607	594.06
317.836	633.06
318.065	639.06
318.295	619.06
318.524	584.06
318.753	575.06
318.983	580.06
319.212	563.06
319.441	568.06
319.67	559.06
319.9	570.06
320.129	590.06
320.358	625.06
320.587	638.06
320.816	625.06
321.046	586.06
321.275	599.06
321.504	602.06
321.733	642.06
321.962	608.06
322.191	565.06
322.42	556.06
322.649	526.06
322.878	569.06
323.108	569.06
323.337	583.06
323.566	568.06
323.795	565.06
324.024	588.06
324.253	557.06
324.482	560.06
324.71	548.06
324.939	500.06
325.168	539.06
325.397	575.06
325.626	583.06
325.855	573.06
326.084	579.06
326.313	559.06
326.542	553.06
326.77	573.06
326.999	576.06
327.228	568.06
327.457	522.06
327.686	532.06
327.914	562.06
328.143	595.06
328.372	565.06
328.6	548.06
328.829	538.06
329.058	551.06
329.287	544.06
329.515	552.06
329.744	588.06
329.972	619.06
330.201	633.06
330.43	589.06
330.658	566.06
330.887	589.06
331.115	604.06
331.344	600.06
331.572	592.06
331.801	601.06
332.03	587.06
332.258	619.06
332.486	633.06
332.715	627.06
332.943	616.06
333.172	609.06
333.4	598.06
333.629	641.06
333.857	672.06
334.085	737.06
334.314	824.06
334.542	839.06
334.771	738.06
334.999	672.06
335.227	647.06
335.455	657.06
335.684	631.06
335.912	651.06
336.14	663.06
336.369	634.06
336.597	618.06
336.825	610.06
337.053	624.06
337.281	675.06
337.51	687.06
337.738	696.06
337.966	654.06
338.194	603.06
338.422	584.06
338.65	589.06
338.878	583.06
339.106	556.06
339.334	577.06
339.562	575.06
339.79	594.06
340.018	626.06
340.246	634.06
340.474	636.06
340.702	642.06
340.93	628.06
341.158	595.06
341.386	607.06
341.614	611.06
341.842	610.06
342.07	593.06
342.298	610.06
342.526	594.06
342.754	626.06
342.981	594.06
343.209	588.06
343.437	583.06
343.665	589.06
343.893	629.06
344.12	643.06
344.348	647.06
344.576	607.06
344.804	614.06
345.031	599.06
345.259	601.06
345.487	580.06
345.714	569.06
345.942	568.06
346.17	560.06
346.397	579.06
346.625	568.06
346.853	540.06
347.08	543.06
347.308	547.06
347.535	562.06
347.763	588.06
347.99	575.06
348.218	552.06
348.445	582.06
348.673	576.06
348.9	592.06
349.128	615.06
349.355	623.06
349.583	581.06
349.81	561.06
350.037	537.06
350.265	528.06
350.492	529.06
350.72	558.06
350.947	559.06
351.174	567.06
351.402	563.06
351.629	513.06
351.856	518.06
352.083	522.06
352.311	556.06
352.538	537.06
352.765	581.06
352.992	593.06
353.22	563.06
353.447	549.06
353.674	555.06
353.901	546.06
354.128	566.06
354.355	554.06
354.583	575.06
354.81	594.06
355.037	608.06
355.264	591.06
355.491	566.06
355.718	591.06
355.945	549.06
356.172	543.06
356.399	553.06
356.626	542.06
356.853	594.06
357.08	648.06
357.307	664.06
357.534	658.06
357.761	589.06
357.988	561.06
358.215	563.06
358.441	556.06
358.668	539.06
358.895	553.06
359.122	602.06
359.349	611.06
359.576	605.06
359.802	554.06
360.029	532.06
360.256	560.06
360.483	546.06
360.709	563.06
360.936	637.06
361.163	628.06
361.39	687.06
361.616	700.06
361.843	694.06
362.07	645.06
362.296	581.06
362.523	570.06
362.749	573.06
362.976	594.06
363.203	587.06
363.429	584.06
363.656	552.06
363.882	607.06
364.109	649.06
364.335	666.06
364.562	617.06
364.788	602.06
365.015	559.06
365.241	552.06
365.468	575.06
365.694	629.06
365.92	622.06
366.147	582.06
366.373	570.06
366.599	564.06
366.826	569.06
367.052	593.06
367.278	589.06
367.505	597.06
367.731	603.06
367.957	597.06
368.184	642.06
368.41	674.06
368.636	654.06
368.862	688.06
369.089	669.06
369.315	627.06
369.541	630.06
369.767	597.06
369.993	600.06
370.219	593.06
370.445	619.06
370.672	671.06
370.898	675.06
371.124	655.06
371.35	627.06
371.576	667.06
371.802	659.06
372.028	625.06
372.254	608.06
372.48	606.06
372.706	601.06
372.932	596.06
373.158	612.06
373.384	644.06
373.61	679.06
373.835	663.06
374.061	627.06
374.287	612.06
374.513	617.06
374.739	656.06
374.965	627.06
375.191	652.06
375.416	648.06
375.642	681.06
375.868	705.06
376.094	714.06
376.319	674.06
376.545	633.06
376.771	676.06
376.997	704.06
377.222	696.06
377.448	666.06
377.674	686.06
377.899	685.06
378.125	698.06
378.35	677.06
378.576	653.06
378.802	627.06
379.027	610.06
379.253	636.06
379.478	660.06
379.704	654.06
379.929	647.06
380.155	663.06
380.38	671.06
380.606	659.06
380.831	681.06
381.057	701.06
381.282	696.06
381.507	691.06
381.733	741.06
381.958	730.06
382.184	723.06
382.409	667.06
382.634	698.06
382.86	665.06
383.085	705.06
383.31	732.06
383.535	793.06
383.761	794.06
383.986	740.06
384.211	727.06
384.436	723.06
384.662	784.06
384.887	777.06
385.112	740.06
385.337	735.06
385.562	738.06
385.787	757.06
386.013	778.06
386.238	756.06
386.463	776.06
386.688	836.06
386.913	879.06
387.138	855.06
387.363	783.06
387.588	755.06
387.813	741.06
388.038	772.06
388.263	787.06
388.488	734.06
388.713	727.06
388.938	727.06
389.163	748.06
389.387	742.06
389.612	753.06
389.837	740.06
390.062	757.06
390.287	801.06
390.512	758.06
390.736	730.06
390.961	747.06
391.186	720.06
391.411	732.06
391.636	751.06
391.86	755.06
392.085	767.06
392.31	761.06
392.534	735.06
392.759	773.06
392.984	735.06
393.208	769.06
393.433	801.06
393.658	849.06
393.882	820.06
394.107	785.06
394.331	743.06
394.556	769.06
394.78	797.06
395.005	825.06
395.229	810.06
395.454	877.06
395.678	845.06
395.903	832.06
396.127	821.06
396.352	837.06
396.576	844.06
396.801	864.06
397.025	827.06
397.249	825.06
397.474	831.06
397.698	818.06
397.922	873.06
398.147	891.06
398.371	933.06
398.595	897.06
398.82	879.06
399.044	891.06
399.268	901.06
399.492	960.06
399.717	1003.06
399.941	997.06
400.165	960.06
400.389	964.06
400.613	997.06
400.837	1121.06
401.062	1183.06
401.286	1008.06
401.51	974.06
401.734	1000.06
401.958	950.06
402.182	901.06
402.406	853.06
402.63	875.06
402.854	885.06
403.078	891.06
403.302	909.06
403.526	927.06
403.75	917.06
403.974	928.06
404.198	964.06
404.422	999.06
404.645	1013.06
404.869	955.06
405.093	884.06
405.317	897.06
405.541	915.06
405.765	929.06
405.988	925.06
406.212	954.06
406.436	973.06
406.66	1004.06
406.883	1012.06
407.107	1143.06
407.331	1205.06
407.555	1271.06
407.778	1132.06
408.002	981.06
408.226	1020.06
408.449	979.06
408.673	934.06
408.896	961.06
409.12	971.06
409.344	960.06
409.567	945.06
409.791	960.06
410.014	970.06
410.238	1022.06
410.461	1027.06
410.685	979.06
410.908	950.06
411.132	955.06
411.355	946.06
411.578	948.06
411.802	954.06
412.025	953.06
412.249	900.06
412.472	913.06
412.695	914.06
412.919	913.06
413.142	918.06
413.365	921.06
413.589	967.06
413.812	992.06
414.035	1018.06
414.258	924.06
414.482	917.06
414.705	908.06
414.928	936.06
415.151	915.06
415.374	950.06
415.597	937.06
415.821	927.06
416.044	924.06
416.267	928.06
416.49	903.06
416.713	921.06
416.936	945.06
417.159	993.06
417.382	961.06
417.605	936.06
417.828	940.06
418.051	960.06
418.274	917.06
418.497	929.06
418.72	927.06
418.943	912.06
419.166	953.06
419.389	963.06
419.611	934.06
419.834	933.06
420.057	945.06
420.28	935.06
420.503	943.06
420.726	973.06
420.948	953.06
421.171	905.06
421.394	962.06
421.617	986.06
421.839	992.06
422.062	965.06
422.285	937.06
422.507	940.06
422.73	908.06
422.953	865.06
423.175	887.06
423.398	906.06
423.621	923.06
423.843	927.06
424.066	972.06
424.288	1009.06
424.511	1035.06
424.733	986.06
424.956	918.06
425.178	927.06
425.401	914.06
425.623	941.06
425.846	927.06
426.068	952.06
426.291	994.06
426.513	945.06
426.735	959.06
426.958	1061.06
427.18	1063.06
427.402	975.06
427.625	1014.06
427.847	988.06
428.069	935.06
428.292	929.06
428.514	920.06
428.736	890.06
428.958	913.06
429.181	910.06
429.403	1061.06
429.625	1229.06
429.847	1043.06
430.069	943.06
430.292	1075.06
430.514	1039.06
430.736	965.06
430.958	972.06
431.18	960.06
431.402	857.06
431.624	860.06
431.846	790.06
432.068	723.06
432.29	730.06
432.512	802.06
432.734	885.06
432.956	921.06
433.178	975.06
433.4	971.06
433.622	959.06
433.844	929.06
434.066	857.06
434.287	794.06
434.509	784.06
434.731	829.06
434.953	934.06
435.175	929.06
435.397	906.06
435.618	914.06
435.84	856.06
436.062	839.06
436.284	885.06
436.505	961.06
436.727	976.06
436.949	912.06
437.17	921.06
437.392	892.06
437.614	835.06
437.835	810.06
438.057	831.06
438.278	869.06
438.5	884.06
438.721	872.06
438.943	905.06
439.165	940.06
439.386	903.06
439.608	960.06
439.829	967.06
440.05	932.06
440.272	958.06
440.493	943.06
440.715	988.06
440.936	1029.06
441.158	1082.06
441.379	1037.06
441.6	1035.06
441.822	1025.06
442.043	1008.06
442.264	969.06
442.486	959.06
442.707	947.06
442.928	938.06
443.149	992.06
443.371	1009.06
443.592	990.06
443.813	997.06
444.034	1015.06
444.255	997.06
444.476	1036.06
444.698	1048.06
444.919	1042.06
445.14	1154.06
445.361	1089.06
445.582	1085.06
445.803	1057.06
446.024	1060.06
446.245	1074.06
446.466	1064.06
446.687	1054.06
446.908	1037.06
447.129	1027.06
447.35	1031.06
447.571	986.06
447.792	961.06
448.013	961.06
448.234	946.06
448.455	1008.06
448.675	975.06
448.896	920.06
449.117	903.06
449.338	915.06
449.559	959.06
449.779	994.06
450	1037.06
450.221	1009.06
450.442	996.06
450.662	935.06
450.883	876.06
451.104	872.06
451.324	900.06
451.545	893.06
451.766	864.06
451.986	823.06
452.207	819.06
452.428	802.06
452.648	778.06
452.869	793.06
453.089	780.06
453.31	756.06
453.53	792.06
453.751	769.06
453.971	713.06
454.192	725.06
454.412	778.06
454.633	772.06
454.853	796.06
455.073	773.06
455.294	792.06
455.514	755.06
455.734	773.06
455.955	742.06
456.175	742.06
456.395	734.06
456.616	727.06
456.836	735.06
457.056	735.06
457.276	712.06
457.497	685.06
457.717	705.06
457.937	723.06
458.157	699.06
458.377	691.06
458.598	659.06
458.818	679.06
459.038	695.06
459.258	723.06
459.478	705.06
459.698	735.06
459.918	771.06
460.138	781.06
460.358	880.06
460.578	832.06
460.798	862.06
461.018	887.06
461.238	891.06
461.458	866.06
461.678	863.06
461.898	829.06
462.118	817.06
462.338	831.06
462.558	867.06
462.777	866.06
462.997	868.06
463.217	889.06
463.437	881.06
463.657	860.06
463.876	827.06
464.096	834.06
464.316	854.06
464.536	898.06
464.755	879.06
464.975	871.06
465.195	861.06
465.414	886.06
465.634	889.06
465.854	896.06
466.073	964.06
466.293	924.06
466.512	840.06
466.732	879.06
466.951	915.06
467.171	903.06
467.391	897.06
467.61	872.06
467.829	935.06
468.049	957.06
468.268	1036.06
468.488	971.06
468.707	912.06
468.927	904.06
469.146	932.06
469.365	913.06
469.585	943.06
469.804	920.06
470.023	918.06
470.243	937.06
470.462	949.06
470.681	919.06
470.901	943.06
471.12	943.06
471.339	945.06
471.558	929.06
471.777	888.06
471.997	887.06
472.216	859.06
472.435	785.06
472.654	765.06
472.873	785.06
473.092	829.06
473.311	830.06
473.53	829.06
473.749	845.06
473.968	843.06
474.187	837.06
474.406	847.06
474.625	852.06
474.844	875.06
475.063	874.06
475.282	866.06
475.501	824.06
475.72	835.06
475.939	901.06
476.158	867.06
476.377	875.06
476.596	864.06
476.814	861.06
477.033	808.06
477.252	838.06
477.471	882.06
477.69	891.06
477.908	928.06
478.127	1001.06
478.346	1013.06
478.564	1011.06
478.783	1001.06
479.002	1040.06
479.22	1023.06
479.439	1031.06
479.658	1024.06
479.876	970.06
480.095	912.06
480.313	897.06
480.532	895.06
480.751	865.06
480.969	815.06
481.188	768.06
481.406	770.06
481.624	801.06
481.843	797.06
482.061	841.06
482.28	858.06
482.498	892.06
482.717	854.06
482.935	900.06
483.153	993.06
483.372	1039.06
483.59	1044.06
483.808	963.06
484.027	940.06
484.245	1008.06
484.463	1220.06
484.681	1277.06
484.9	1034.06
485.118	955.06
485.336	946.06
485.554	906.06
485.772	888.06
485.99	888.06
486.209	907.06
486.427	879.06
486.645	934.06
486.863	985.06
487.081	1057.06
487.299	994.06
487.517	1026.06
487.735	1105.06
487.953	1181.06
488.171	1173.06
488.389	1139.06
488.607	1093.06
488.825	1144.06
489.043	1087.06
489.261	1002.06
489.479	1036.06
489.696	1056.06
489.914	1038.06
490.132	1029.06
490.35	1077.06
490.568	1171.06
490.786	1174.06
491.003	1216.06
491.221	1253.06
491.439	1257.06
491.657	1299.06
491.874	1331.06
492.092	1419.06
492.31	1489.06
492.527	1459.06
492.745	1370.06
492.963	1315.06
493.18	1346.06
493.398	1349.06
493.615	1343.06
493.833	1263.06
494.05	1237.06
494.268	1269.06
494.485	1210.06
494.703	1218.06
494.92	1233.06
495.138	1205.06
495.355	1236.06
495.573	1243.06
495.79	1299.06
496.008	1313.06
496.225	1259.06
496.442	1264.06
496.66	1227.06
496.877	1202.06
497.094	1233.06
497.312	1232.06
497.529	1218.06
497.746	1193.06
497.963	1269.06
498.181	1293.06
498.398	1257.06
498.615	1219.06
498.832	1135.06
499.049	1166.06
499.267	1181.06
499.484	1260.06
499.701	1350.06
499.918	1370.06
500.135	1456.06
500.352	1576.06
