Data from WStandard_LampEnergy5.5LIBS07252019.E.O._I.C._HRD10591_16-07-18-920.txt Node
Date: Thu Jul 25 16:07:18 EDT 2019
User: cochatt
Spectrometer: HR+D1059
Trigger mode: 1
Integration Time (sec): 1.000000E-1
Scans to average: 1
Electric dark correction enabled: true
Nonlinearity correction enabled: false
Boxcar width: 0
XAxis mode: Wavelengths
Number of Pixels in Spectrum: 2048
>>>>>Begin Spectral Data<<<<<
223.165	-13.06
223.4	-13.06
223.635	-13.06
223.869	-14.06
224.104	-7.06
224.338	-4.06
224.573	-29.06
224.808	-18.06
225.042	-9.06
225.277	-2.06
225.511	-8.06
225.746	-3.06
225.98	13.94
226.215	-1.06
226.449	22.94
226.683	30.94
226.918	19.94
227.152	20.94
227.387	45.94
227.621	39.94
227.856	55.94
228.09	46.94
228.324	52.94
228.559	58.94
228.793	155.94
229.027	371.94
229.262	372.94
229.496	402.94
229.73	413.94
229.964	457.94
230.199	486.94
230.433	483.94
230.667	519.94
230.901	540.94
231.136	492.94
231.37	485.94
231.604	474.94
231.838	477.94
232.072	487.94
232.306	461.94
232.541	487.94
232.775	583.94
233.009	596.94
233.243	592.94
233.477	552.94
233.711	573.94
233.945	602.94
234.179	564.94
234.413	611.94
234.647	635.94
234.881	645.94
235.115	566.94
235.349	583.94
235.583	572.94
235.817	558.94
236.051	560.94
236.285	574.94
236.519	599.94
236.753	679.94
236.987	699.94
237.221	726.94
237.455	770.94
237.689	736.94
237.922	709.94
238.156	674.94
238.39	683.94
238.624	734.94
238.858	777.94
239.091	806.94
239.325	835.94
239.559	969.94
239.793	1006.94
240.027	1097.94
240.26	1067.94
240.494	779.94
240.728	742.94
240.961	748.94
241.195	771.94
241.429	839.94
241.662	876.94
241.896	783.94
242.13	813.94
242.363	893.94
242.597	955.94
242.83	887.94
243.064	923.94
243.298	991.94
243.531	947.94
243.765	964.94
243.998	987.94
244.232	842.94
244.465	842.94
244.699	804.94
244.932	934.94
245.166	1071.94
245.399	985.94
245.633	910.94
245.866	910.94
246.099	956.94
246.333	979.94
246.566	1027.94
246.8	1119.94
247.033	1201.94
247.266	1141.94
247.5	1097.94
247.733	1091.94
247.966	1160.94
248.2	1308.94
248.433	1248.94
248.666	1264.94
248.899	1401.94
249.133	1596.94
249.366	1848.94
249.599	1480.94
249.832	1290.94
250.066	1306.94
250.299	1367.94
250.532	1234.94
250.765	1109.94
250.998	1178.94
251.231	1223.94
251.465	1290.94
251.698	1235.94
251.931	1215.94
252.164	1266.94
252.397	1320.94
252.63	1297.94
252.863	1116.94
253.096	1094.94
253.329	1184.94
253.562	1240.94
253.795	1363.94
254.028	1312.94
254.261	1209.94
254.494	1211.94
254.727	1144.94
254.96	1183.94
255.193	1327.94
255.426	1446.94
255.659	1685.94
255.892	1755.94
256.124	1441.94
256.357	1383.94
256.59	1487.94
256.823	1496.94
257.056	1496.94
257.289	1760.94
257.521	1977.94
257.754	1793.94
257.987	1631.94
258.22	1858.94
258.452	1831.94
258.685	1472.94
258.918	1429.94
259.151	1455.94
259.383	1398.94
259.616	1225.94
259.849	1269.94
260.081	1437.94
260.314	1625.94
260.547	1780.94
260.779	1772.94
261.012	1674.94
261.244	1509.94
261.477	1395.94
261.71	1484.94
261.942	1471.94
262.175	1439.94
262.407	1522.94
262.64	1444.94
262.872	1342.94
263.105	1298.94
263.337	1329.94
263.57	1320.94
263.802	1336.94
264.035	1281.94
264.267	1200.94
264.499	1160.94
264.732	1253.94
264.964	1348.94
265.197	1346.94
265.429	1449.94
265.661	1631.94
265.894	1807.94
266.126	1861.94
266.358	1660.94
266.591	1695.94
266.823	1859.94
267.055	1701.94
267.287	1679.94
267.52	1661.94
267.752	1640.94
267.984	1603.94
268.216	1702.94
268.448	1780.94
268.681	1726.94
268.913	1596.94
269.145	1462.94
269.377	1443.94
269.609	1544.94
269.841	1783.94
270.073	2121.94
270.306	2348.94
270.538	2534.94
270.77	2164.94
271.002	1799.94
271.234	1723.94
271.466	1691.94
271.698	1881.94
271.93	2312.94
272.162	2349.94
272.394	2057.94
272.626	1967.94
272.858	1746.94
273.09	1521.94
273.322	1507.94
273.553	1408.94
273.785	1443.94
274.017	1515.94
274.249	1603.94
274.481	1648.94
274.713	1527.94
274.945	1425.94
275.176	1469.94
275.408	1410.94
275.64	1395.94
275.872	1404.94
276.104	1497.94
276.335	1692.94
276.567	1960.94
276.799	2017.94
277.031	1791.94
277.262	1673.94
277.494	1746.94
277.726	1939.94
277.957	1929.94
278.189	1742.94
278.421	1589.94
278.652	1528.94
278.884	1534.94
279.115	1519.94
279.347	1575.94
279.579	1489.94
279.81	1508.94
280.042	1653.94
280.273	1876.94
280.505	1879.94
280.736	1856.94
280.968	1779.94
281.199	1579.94
281.431	1507.94
281.662	1479.94
281.894	1490.94
282.125	1529.94
282.356	1611.94
282.588	1624.94
282.819	1596.94
283.051	1723.94
283.282	1863.94
283.513	1823.94
283.745	1589.94
283.976	1441.94
284.207	1464.94
284.439	1505.94
284.67	1511.94
284.901	1580.94
285.132	1603.94
285.364	1559.94
285.595	1567.94
285.826	1553.94
286.057	1541.94
286.288	1541.94
286.52	1588.94
286.751	1711.94
286.982	1775.94
287.213	1683.94
287.444	1523.94
287.675	1464.94
287.906	1567.94
288.138	1728.94
288.369	1686.94
288.6	1603.94
288.831	1515.94
289.062	1550.94
289.293	1570.94
289.524	1538.94
289.755	1636.94
289.986	1628.94
290.217	1516.94
290.448	1501.94
290.679	1609.94
290.91	1589.94
291.141	1592.94
291.371	1649.94
291.602	1638.94
291.833	1637.94
292.064	1710.94
292.295	1647.94
292.526	1704.94
292.757	1805.94
292.987	1707.94
293.218	1614.94
293.449	1744.94
293.68	1975.94
293.91	2121.94
294.141	1967.94
294.372	1811.94
294.603	1881.94
294.833	1981.94
295.064	1883.94
295.295	1685.94
295.525	1671.94
295.756	1555.94
295.987	1473.94
296.217	1475.94
296.448	1535.94
296.679	1539.94
296.909	1561.94
297.14	1517.94
297.37	1522.94
297.601	1645.94
297.831	1776.94
298.062	1823.94
298.292	1663.94
298.523	1529.94
298.753	1575.94
298.984	1583.94
299.214	1561.94
299.445	1645.94
299.675	1688.94
299.905	1663.94
300.136	1656.94
300.366	1574.94
300.597	1519.94
300.827	1504.94
301.057	1592.94
301.288	1680.94
301.518	1674.94
301.748	1718.94
301.979	1828.94
302.209	1769.94
302.439	1916.94
302.669	1996.94
302.9	1876.94
303.13	1708.94
303.36	1705.94
303.59	1736.94
303.82	1719.94
304.051	1696.94
304.281	1695.94
304.511	1679.94
304.741	1783.94
304.971	1948.94
305.201	2166.94
305.431	1985.94
305.661	1659.94
305.891	1498.94
306.121	1476.94
306.352	1556.94
306.582	1604.94
306.812	1768.94
307.042	1857.94
307.272	1867.94
307.502	1929.94
307.731	2061.94
307.961	2251.94
308.191	2093.94
308.421	1794.94
308.651	1679.94
308.881	1611.94
309.111	1604.94
309.341	1604.94
309.571	1588.94
309.8	1622.94
310.03	1608.94
310.26	1612.94
310.49	1598.94
310.72	1615.94
310.949	1713.94
311.179	1729.94
311.409	1691.94
311.639	1661.94
311.868	1643.94
312.098	1657.94
312.328	1630.94
312.557	1623.94
312.787	1640.94
313.017	1691.94
313.246	1709.94
313.476	1694.94
313.706	1725.94
313.935	1733.94
314.165	1750.94
314.394	1793.94
314.624	1867.94
314.853	1966.94
315.083	2032.94
315.312	2118.94
315.542	1996.94
315.771	1788.94
316.001	1749.94
316.23	1823.94
316.46	1810.94
316.689	1806.94
316.919	1699.94
317.148	1646.94
317.377	1684.94
317.607	1829.94
317.836	2019.94
318.065	2122.94
318.295	2008.94
318.524	1929.94
318.753	1846.94
318.983	1809.94
319.212	1806.94
319.441	1728.94
319.67	1743.94
319.9	1734.94
320.129	1869.94
320.358	1981.94
320.587	1971.94
320.816	1993.94
321.046	1957.94
321.275	1799.94
321.504	1852.94
321.733	2013.94
321.962	1971.94
322.191	1805.94
322.42	1810.94
322.649	1805.94
322.878	1759.94
323.108	1801.94
323.337	1857.94
323.566	1853.94
323.795	1816.94
324.024	1835.94
324.253	1807.94
324.482	1865.94
324.71	1775.94
324.939	1660.94
325.168	1701.94
325.397	1756.94
325.626	1835.94
325.855	1843.94
326.084	1812.94
326.313	1755.94
326.542	1795.94
326.77	1879.94
326.999	1876.94
327.228	1787.94
327.457	1717.94
327.686	1677.94
327.914	1733.94
328.143	1774.94
328.372	1778.94
328.6	1791.94
328.829	1776.94
329.058	1709.94
329.287	1730.94
329.515	1756.94
329.744	1800.94
329.972	1875.94
330.201	1997.94
330.43	1917.94
330.658	1899.94
330.887	1840.94
331.115	1889.94
331.344	1939.94
331.572	1845.94
331.801	1879.94
332.03	1860.94
332.258	1884.94
332.486	1884.94
332.715	1917.94
332.943	1904.94
333.172	1826.94
333.4	1880.94
333.629	1938.94
333.857	2027.94
334.085	2241.94
334.314	2544.94
334.542	2845.94
334.771	2589.94
334.999	2266.94
335.227	2112.94
335.455	2027.94
335.684	1980.94
335.912	2041.94
336.14	2106.94
336.369	2063.94
336.597	1916.94
336.825	1923.94
337.053	1947.94
337.281	2068.94
337.51	2156.94
337.738	2274.94
337.966	2191.94
338.194	1975.94
338.422	1892.94
338.65	1847.94
338.878	1835.94
339.106	1763.94
339.334	1752.94
339.562	1732.94
339.79	1783.94
340.018	1877.94
340.246	1971.94
340.474	1981.94
340.702	1906.94
340.93	1925.94
341.158	1945.94
341.386	1881.94
341.614	1884.94
341.842	1847.94
342.07	1855.94
342.298	1884.94
342.526	1896.94
342.754	1848.94
342.981	1810.94
343.209	1878.94
343.437	1799.94
343.665	1816.94
343.893	1880.94
344.12	1975.94
344.348	2013.94
344.576	1899.94
344.804	1843.94
345.031	1847.94
345.259	1856.94
345.487	1779.94
345.714	1762.94
345.942	1689.94
346.17	1698.94
346.397	1765.94
346.625	1815.94
346.853	1701.94
347.08	1673.94
347.308	1666.94
347.535	1691.94
347.763	1740.94
347.99	1758.94
348.218	1663.94
348.445	1655.94
348.673	1728.94
348.9	1770.94
349.128	1779.94
349.355	1880.94
349.583	1864.94
349.81	1750.94
350.037	1577.94
350.265	1566.94
350.492	1653.94
350.72	1672.94
350.947	1750.94
351.174	1763.94
351.402	1691.94
351.629	1622.94
351.856	1586.94
352.083	1589.94
352.311	1595.94
352.538	1638.94
352.765	1716.94
352.992	1762.94
353.22	1678.94
353.447	1617.94
353.674	1670.94
353.901	1735.94
354.128	1684.94
354.355	1616.94
354.583	1713.94
354.81	1767.94
355.037	1746.94
355.264	1731.94
355.491	1719.94
355.718	1773.94
355.945	1717.94
356.172	1698.94
356.399	1658.94
356.626	1682.94
356.853	1714.94
357.08	1814.94
357.307	2023.94
357.534	2062.94
357.761	1781.94
357.988	1663.94
358.215	1605.94
358.441	1611.94
358.668	1595.94
358.895	1613.94
359.122	1670.94
359.349	1918.94
359.576	1926.94
359.802	1694.94
360.029	1635.94
360.256	1618.94
360.483	1674.94
360.709	1680.94
360.936	1758.94
361.163	1785.94
361.39	1975.94
361.616	2132.94
361.843	2143.94
362.07	1963.94
362.296	1737.94
362.523	1663.94
362.749	1664.94
362.976	1708.94
363.203	1740.94
363.429	1709.94
363.656	1684.94
363.882	1663.94
364.109	1829.94
364.335	2053.94
364.562	1894.94
364.788	1822.94
365.015	1718.94
365.241	1672.94
365.468	1689.94
365.694	1758.94
365.92	1862.94
366.147	1792.94
366.373	1641.94
366.599	1607.94
366.826	1604.94
367.052	1614.94
367.278	1683.94
367.505	1693.94
367.731	1743.94
367.957	1742.94
368.184	1785.94
368.41	1898.94
368.636	1892.94
368.862	1895.94
369.089	1925.94
369.315	1871.94
369.541	1743.94
369.767	1703.94
369.993	1681.94
370.219	1671.94
370.445	1692.94
370.672	1799.94
370.898	1916.94
371.124	1892.94
371.35	1771.94
371.576	1805.94
371.802	1923.94
372.028	1809.94
372.254	1737.94
372.48	1717.94
372.706	1685.94
372.932	1725.94
373.158	1721.94
373.384	1704.94
373.61	1764.94
373.835	1873.94
374.061	1832.94
374.287	1805.94
374.513	1767.94
374.739	1789.94
374.965	1791.94
375.191	1794.94
375.416	1812.94
375.642	1831.94
375.868	1924.94
376.094	1963.94
376.319	1872.94
376.545	1734.94
376.771	1788.94
376.997	1894.94
377.222	1860.94
377.448	1862.94
377.674	1877.94
377.899	1797.94
378.125	1941.94
378.35	1986.94
378.576	1771.94
378.802	1722.94
379.027	1702.94
379.253	1736.94
379.478	1774.94
379.704	1755.94
379.929	1747.94
380.155	1772.94
380.38	1749.94
380.606	1782.94
380.831	1760.94
381.057	1882.94
381.282	1903.94
381.507	1805.94
381.733	1970.94
381.958	2047.94
382.184	1880.94
382.409	1845.94
382.634	1859.94
382.86	1846.94
383.085	1861.94
383.31	1883.94
383.535	2017.94
383.761	2125.94
383.986	2104.94
384.211	2023.94
384.436	1964.94
384.662	2027.94
384.887	2143.94
385.112	2013.94
385.337	2067.94
385.562	2010.94
385.787	2035.94
386.013	2077.94
386.238	2108.94
386.463	2046.94
386.688	2126.94
386.913	2352.94
387.138	2314.94
387.363	2070.94
387.588	2088.94
387.813	2104.94
388.038	2092.94
388.263	2160.94
388.488	2063.94
388.713	1942.94
388.938	1911.94
389.163	1909.94
389.387	1966.94
389.612	1995.94
389.837	2044.94
390.062	2047.94
390.287	1991.94
390.512	1978.94
390.736	2007.94
390.961	1950.94
391.186	1947.94
391.411	1954.94
391.636	2001.94
391.86	2011.94
392.085	2003.94
392.31	1977.94
392.534	2036.94
392.759	2073.94
392.984	2015.94
393.208	2073.94
393.433	2080.94
393.658	2181.94
393.882	2231.94
394.107	2041.94
394.331	1996.94
394.556	1969.94
394.78	2039.94
395.005	2113.94
395.229	2174.94
395.454	2324.94
395.678	2376.94
395.903	2291.94
396.127	2109.94
396.352	2132.94
396.576	2250.94
396.801	2238.94
397.025	2242.94
397.249	2265.94
397.474	2182.94
397.698	2149.94
397.922	2219.94
398.147	2291.94
398.371	2458.94
398.595	2430.94
398.82	2272.94
399.044	2356.94
399.268	2398.94
399.492	2611.94
399.717	2661.94
399.941	2711.94
400.165	2626.94
400.389	2591.94
400.613	2551.94
400.837	2826.94
401.062	3234.94
401.286	2799.94
401.51	2547.94
401.734	2658.94
401.958	2585.94
402.182	2391.94
402.406	2326.94
402.63	2272.94
402.854	2263.94
403.078	2309.94
403.302	2378.94
403.526	2429.94
403.75	2400.94
403.974	2391.94
404.198	2398.94
404.422	2457.94
404.645	2614.94
404.869	2563.94
405.093	2413.94
405.317	2323.94
405.541	2416.94
405.765	2446.94
405.988	2358.94
406.212	2467.94
406.436	2488.94
406.66	2572.94
406.883	2521.94
407.107	2916.94
407.331	3130.94
407.555	3343.94
407.778	3190.94
408.002	2637.94
408.226	2548.94
408.449	2502.94
408.673	2473.94
408.896	2475.94
409.12	2500.94
409.344	2437.94
409.567	2349.94
409.791	2417.94
410.014	2445.94
410.238	2510.94
410.461	2655.94
410.685	2470.94
410.908	2312.94
411.132	2445.94
411.355	2366.94
411.578	2323.94
411.802	2355.94
412.025	2405.94
412.249	2334.94
412.472	2250.94
412.695	2276.94
412.919	2317.94
413.142	2228.94
413.365	2303.94
413.589	2352.94
413.812	2449.94
414.035	2562.94
414.258	2345.94
414.482	2299.94
414.705	2305.94
414.928	2263.94
415.151	2287.94
415.374	2267.94
415.597	2359.94
415.821	2407.94
416.044	2424.94
416.267	2497.94
416.49	2226.94
416.713	2171.94
416.936	2240.94
417.159	2314.94
417.382	2379.94
417.605	2209.94
417.828	2306.94
418.051	2356.94
418.274	2276.94
418.497	2171.94
418.72	2197.94
418.943	2210.94
419.166	2339.94
419.389	2472.94
419.611	2269.94
419.834	2300.94
420.057	2300.94
420.28	2174.94
420.503	2160.94
420.726	2237.94
420.948	2273.94
421.171	2175.94
421.394	2204.94
421.617	2291.94
421.839	2271.94
422.062	2228.94
422.285	2182.94
422.507	2195.94
422.73	2099.94
422.953	2095.94
423.175	2111.94
423.398	2185.94
423.621	2187.94
423.843	2203.94
424.066	2233.94
424.288	2341.94
424.511	2342.94
424.733	2321.94
424.956	2070.94
425.178	2076.94
425.401	2137.94
425.623	2144.94
425.846	2149.94
426.068	2228.94
426.291	2297.94
426.513	2259.94
426.735	2256.94
426.958	2415.94
427.18	2592.94
427.402	2356.94
427.625	2386.94
427.847	2446.94
428.069	2309.94
428.292	2183.94
428.514	2113.94
428.736	2091.94
428.958	2159.94
429.181	2137.94
429.403	2413.94
429.625	2987.94
429.847	2648.94
430.069	2215.94
430.292	2416.94
430.514	2573.94
430.736	2357.94
430.958	2471.94
431.18	2323.94
431.402	2152.94
431.624	2141.94
431.846	2113.94
432.068	2060.94
432.29	2109.94
432.512	2170.94
432.734	2232.94
432.956	2230.94
433.178	2317.94
433.4	2299.94
433.622	2302.94
433.844	2189.94
434.066	2113.94
434.287	2122.94
434.509	2221.94
434.731	2311.94
434.953	2444.94
435.175	2474.94
435.397	2293.94
435.618	2249.94
435.84	2273.94
436.062	2248.94
436.284	2269.94
436.505	2266.94
436.727	2305.94
436.949	2219.94
437.17	2183.94
437.392	2192.94
437.614	2189.94
437.835	2069.94
438.057	2259.94
438.278	2343.94
438.5	2149.94
438.721	2147.94
438.943	2160.94
439.165	2119.94
439.386	2056.94
439.608	2135.94
439.829	2144.94
440.05	2157.94
440.272	2068.94
440.493	2070.94
440.715	2097.94
440.936	2255.94
441.158	2468.94
441.379	2457.94
441.6	2412.94
441.822	2261.94
442.043	2311.94
442.264	2265.94
442.486	2140.94
442.707	2095.94
442.928	2069.94
443.149	2211.94
443.371	2303.94
443.592	2419.94
443.813	2329.94
444.034	2333.94
444.255	2322.94
444.476	2359.94
444.698	2440.94
444.919	2429.94
445.14	2440.94
445.361	2487.94
445.582	2581.94
445.803	2431.94
446.024	2360.94
446.245	2463.94
446.466	2355.94
446.687	2209.94
446.908	2256.94
447.129	2161.94
447.35	2209.94
447.571	2170.94
447.792	2118.94
448.013	2037.94
448.234	2126.94
448.455	2239.94
448.675	2224.94
448.896	2078.94
449.117	2087.94
449.338	2106.94
449.559	2158.94
449.779	2344.94
450	2576.94
450.221	2776.94
450.442	2641.94
450.662	2352.94
450.883	2046.94
451.104	1975.94
451.324	2059.94
451.545	2097.94
451.766	2136.94
451.986	1996.94
452.207	1987.94
452.428	1902.94
452.648	1925.94
452.869	1981.94
453.089	2075.94
453.31	2077.94
453.53	2148.94
453.751	2075.94
453.971	1929.94
454.192	2015.94
454.412	2140.94
454.633	2051.94
454.853	1987.94
455.073	1876.94
455.294	1864.94
455.514	1819.94
455.734	1884.94
455.955	1936.94
456.175	1910.94
456.395	1942.94
456.616	1985.94
456.836	2055.94
457.056	1981.94
457.276	1965.94
457.497	1918.94
457.717	1875.94
457.937	1891.94
458.157	1937.94
458.377	1925.94
458.598	1884.94
458.818	1900.94
459.038	2063.94
459.258	2208.94
459.478	2143.94
459.698	2089.94
459.918	2115.94
460.138	2231.94
460.358	2254.94
460.578	2289.94
460.798	2396.94
461.018	2503.94
461.238	2407.94
461.458	2262.94
461.678	2321.94
461.898	2231.94
462.118	2170.94
462.338	2325.94
462.558	2299.94
462.777	2325.94
462.997	2418.94
463.217	2559.94
463.437	2521.94
463.657	2339.94
463.876	2263.94
464.096	2277.94
464.316	2252.94
464.536	2382.94
464.755	2420.94
464.975	2474.94
465.195	2319.94
465.414	2449.94
465.634	2448.94
465.854	2262.94
466.073	2448.94
466.293	2399.94
466.512	2149.94
466.732	2120.94
466.951	2227.94
467.171	2186.94
467.391	2060.94
467.61	2041.94
467.829	2038.94
468.049	2215.94
468.268	2511.94
468.488	2343.94
468.707	2176.94
468.927	2146.94
469.146	2070.94
469.365	2058.94
469.585	2109.94
469.804	2081.94
470.023	2066.94
470.243	2149.94
470.462	2080.94
470.681	2057.94
470.901	2093.94
471.12	2127.94
471.339	2047.94
471.558	2012.94
471.777	2035.94
471.997	2019.94
472.216	2083.94
472.435	1980.94
472.654	2002.94
472.873	2124.94
473.092	2231.94
473.311	2129.94
473.53	2020.94
473.749	1994.94
473.968	2075.94
474.187	2143.94
474.406	2275.94
474.625	2153.94
474.844	2069.94
475.063	2053.94
475.282	2221.94
475.501	2142.94
475.72	2149.94
475.939	2262.94
476.158	2171.94
476.377	2084.94
476.596	2146.94
476.814	2168.94
477.033	2198.94
477.252	2300.94
477.471	2306.94
477.69	2215.94
477.908	2206.94
478.127	2311.94
478.346	2510.94
478.564	2555.94
478.783	2496.94
479.002	2585.94
479.22	2528.94
479.439	2589.94
479.658	2947.94
479.876	2973.94
480.095	2540.94
480.313	2429.94
480.532	2320.94
480.751	2351.94
480.969	2404.94
481.188	2367.94
481.406	2373.94
481.624	2280.94
481.843	2340.94
482.061	2351.94
482.28	2418.94
482.498	2499.94
482.717	2422.94
482.935	2299.94
483.153	2323.94
483.372	2336.94
483.59	2332.94
483.808	2297.94
484.027	2365.94
484.245	2534.94
484.463	2930.94
484.681	3342.94
484.9	2592.94
485.118	2429.94
485.336	2392.94
485.554	2413.94
485.772	2579.94
485.99	2478.94
486.209	2548.94
486.427	2530.94
486.645	2475.94
486.863	2415.94
487.081	2499.94
487.299	2625.94
