Data from WStandard_LampEnergy5.5LIBS07252019.E.O._I.C._HRD10591_16-09-17-921.txt Node
Date: Thu Jul 25 16:09:17 EDT 2019
User: cochatt
Spectrometer: HR+D1059
Trigger mode: 1
Integration Time (sec): 1.000000E-1
Scans to average: 1
Electric dark correction enabled: true
Nonlinearity correction enabled: false
Boxcar width: 0
XAxis mode: Wavelengths
Number of Pixels in Spectrum: 2048
>>>>>Begin Spectral Data<<<<<
223.165	-16.44
223.4	-16.44
223.635	-16.44
223.869	-19.44
224.104	-17.44
224.338	-14.44
224.573	-10.44
224.808	-20.44
225.042	1.56
225.277	1.56
225.511	-5.44
225.746	5.56
225.98	-4.44
226.215	15.56
226.449	13.56
226.683	20.56
226.918	9.56
227.152	40.56
227.387	28.56
227.621	43.56
227.856	41.56
228.09	50.56
228.324	61.56
228.559	47.56
228.793	128.56
229.027	341.56
229.262	356.56
229.496	360.56
229.73	369.56
229.964	418.56
230.199	420.56
230.433	415.56
230.667	447.56
230.901	488.56
231.136	443.56
231.37	437.56
231.604	444.56
231.838	440.56
232.072	444.56
232.306	442.56
232.541	442.56
232.775	510.56
233.009	576.56
233.243	549.56
233.477	492.56
233.711	516.56
233.945	523.56
234.179	546.56
234.413	561.56
234.647	585.56
234.881	573.56
235.115	533.56
235.349	498.56
235.583	519.56
235.817	541.56
236.051	516.56
236.285	506.56
236.519	555.56
236.753	633.56
236.987	653.56
237.221	633.56
237.455	717.56
237.689	697.56
237.922	633.56
238.156	601.56
238.39	605.56
238.624	661.56
238.858	684.56
239.091	730.56
239.325	756.56
239.559	880.56
239.793	911.56
240.027	990.56
240.26	1004.56
240.494	712.56
240.728	693.56
240.961	699.56
241.195	695.56
241.429	801.56
241.662	771.56
241.896	703.56
242.13	743.56
242.363	792.56
242.597	863.56
242.83	819.56
243.064	809.56
243.298	926.56
243.531	885.56
243.765	890.56
243.998	890.56
244.232	776.56
244.465	735.56
244.699	730.56
244.932	838.56
245.166	973.56
245.399	913.56
245.633	863.56
245.866	823.56
246.099	858.56
246.333	890.56
246.566	907.56
246.8	993.56
247.033	1100.56
247.266	1007.56
247.5	1009.56
247.733	986.56
247.966	1036.56
248.2	1155.56
248.433	1142.56
248.666	1124.56
248.899	1271.56
249.133	1440.56
249.366	1627.56
249.599	1329.56
249.832	1183.56
250.066	1203.56
250.299	1223.56
250.532	1129.56
250.765	1016.56
250.998	1069.56
251.231	1139.56
251.465	1155.56
251.698	1116.56
251.931	1109.56
252.164	1122.56
252.397	1189.56
252.63	1159.56
252.863	1039.56
253.096	998.56
253.329	1092.56
253.562	1099.56
253.795	1179.56
254.028	1193.56
254.261	1116.56
254.494	1076.56
254.727	1027.56
254.96	1059.56
255.193	1169.56
255.426	1307.56
255.659	1554.56
255.892	1606.56
256.124	1281.56
256.357	1245.56
256.59	1351.56
256.823	1337.56
257.056	1322.56
257.289	1587.56
257.521	1775.56
257.754	1588.56
257.987	1491.56
258.22	1682.56
258.452	1620.56
258.685	1270.56
258.918	1311.56
259.151	1287.56
259.383	1235.56
259.616	1079.56
259.849	1167.56
260.081	1291.56
260.314	1453.56
260.547	1595.56
260.779	1612.56
261.012	1512.56
261.244	1352.56
261.477	1284.56
261.71	1335.56
261.942	1318.56
262.175	1256.56
262.407	1360.56
262.64	1311.56
262.872	1207.56
263.105	1143.56
263.337	1194.56
263.57	1194.56
263.802	1220.56
264.035	1187.56
264.267	1089.56
264.499	1049.56
264.732	1126.56
264.964	1219.56
265.197	1274.56
265.429	1329.56
265.661	1460.56
265.894	1633.56
266.126	1693.56
266.358	1490.56
266.591	1547.56
266.823	1683.56
267.055	1544.56
267.287	1499.56
267.52	1492.56
267.752	1464.56
267.984	1471.56
268.216	1555.56
268.448	1587.56
268.681	1551.56
268.913	1439.56
269.145	1303.56
269.377	1311.56
269.609	1407.56
269.841	1653.56
270.073	1894.56
270.306	2060.56
270.538	2268.56
270.77	1933.56
271.002	1591.56
271.234	1553.56
271.466	1533.56
271.698	1716.56
271.93	2041.56
272.162	2039.56
272.394	1841.56
272.626	1781.56
272.858	1602.56
273.09	1353.56
273.322	1356.56
273.553	1287.56
273.785	1306.56
274.017	1388.56
274.249	1442.56
274.481	1481.56
274.713	1368.56
274.945	1342.56
275.176	1347.56
275.408	1318.56
275.64	1274.56
275.872	1266.56
276.104	1368.56
276.335	1547.56
276.567	1763.56
276.799	1797.56
277.031	1610.56
277.262	1517.56
277.494	1553.56
277.726	1740.56
277.957	1694.56
278.189	1574.56
278.421	1427.56
278.652	1373.56
278.884	1402.56
279.115	1389.56
279.347	1425.56
279.579	1384.56
279.81	1379.56
280.042	1492.56
280.273	1675.56
280.505	1652.56
280.736	1692.56
280.968	1645.56
281.199	1458.56
281.431	1332.56
281.662	1347.56
281.894	1339.56
282.125	1373.56
282.356	1440.56
282.588	1455.56
282.819	1435.56
283.051	1588.56
283.282	1689.56
283.513	1627.56
283.745	1393.56
283.976	1355.56
284.207	1353.56
284.439	1439.56
284.67	1399.56
284.901	1461.56
285.132	1475.56
285.364	1424.56
285.595	1452.56
285.826	1427.56
286.057	1435.56
286.288	1412.56
286.52	1487.56
286.751	1580.56
286.982	1668.56
287.213	1546.56
287.444	1375.56
287.675	1380.56
287.906	1451.56
288.138	1549.56
288.369	1528.56
288.6	1456.56
288.831	1381.56
289.062	1407.56
289.293	1415.56
289.524	1415.56
289.755	1480.56
289.986	1506.56
290.217	1338.56
290.448	1421.56
290.679	1462.56
290.91	1462.56
291.141	1501.56
291.371	1519.56
291.602	1549.56
291.833	1538.56
292.064	1585.56
292.295	1521.56
292.526	1534.56
292.757	1650.56
292.987	1559.56
293.218	1474.56
293.449	1595.56
293.68	1778.56
293.91	1917.56
294.141	1761.56
294.372	1665.56
294.603	1713.56
294.833	1830.56
295.064	1711.56
295.295	1539.56
295.525	1548.56
295.756	1406.56
295.987	1355.56
296.217	1363.56
296.448	1407.56
296.679	1427.56
296.909	1433.56
297.14	1403.56
297.37	1429.56
297.601	1478.56
297.831	1620.56
298.062	1641.56
298.292	1500.56
298.523	1451.56
298.753	1453.56
298.984	1491.56
299.214	1452.56
299.445	1483.56
299.675	1513.56
299.905	1532.56
300.136	1472.56
300.366	1473.56
300.597	1385.56
300.827	1392.56
301.057	1457.56
301.288	1511.56
301.518	1516.56
301.748	1589.56
301.979	1641.56
302.209	1676.56
302.439	1768.56
302.669	1839.56
302.9	1728.56
303.13	1567.56
303.36	1527.56
303.59	1575.56
303.82	1562.56
304.051	1541.56
304.281	1570.56
304.511	1560.56
304.741	1609.56
304.971	1833.56
305.201	1928.56
305.431	1802.56
305.661	1523.56
305.891	1383.56
306.121	1361.56
306.352	1419.56
306.582	1475.56
306.812	1559.56
307.042	1706.56
307.272	1678.56
307.502	1767.56
307.731	1874.56
307.961	1968.56
308.191	1841.56
308.421	1605.56
308.651	1511.56
308.881	1482.56
309.111	1495.56
309.341	1471.56
309.571	1482.56
309.8	1505.56
310.03	1507.56
310.26	1483.56
310.49	1477.56
310.72	1501.56
310.949	1551.56
311.179	1614.56
311.409	1567.56
311.639	1528.56
311.868	1495.56
312.098	1510.56
312.328	1503.56
312.557	1500.56
312.787	1519.56
313.017	1547.56
313.246	1558.56
313.476	1543.56
313.706	1599.56
313.935	1555.56
314.165	1577.56
314.394	1616.56
314.624	1685.56
314.853	1798.56
315.083	1901.56
315.312	1933.56
315.542	1783.56
315.771	1612.56
316.001	1647.56
316.23	1706.56
316.46	1657.56
316.689	1669.56
316.919	1612.56
317.148	1515.56
317.377	1550.56
317.607	1636.56
317.836	1779.56
318.065	1916.56
318.295	1835.56
318.524	1760.56
318.753	1659.56
318.983	1683.56
319.212	1661.56
319.441	1627.56
319.67	1587.56
319.9	1632.56
320.129	1718.56
320.358	1768.56
320.587	1821.56
320.816	1821.56
321.046	1780.56
321.275	1653.56
321.504	1719.56
321.733	1828.56
321.962	1802.56
322.191	1651.56
322.42	1625.56
322.649	1647.56
322.878	1592.56
323.108	1634.56
323.337	1690.56
323.566	1690.56
323.795	1685.56
324.024	1667.56
324.253	1651.56
324.482	1687.56
324.71	1639.56
324.939	1514.56
325.168	1580.56
325.397	1621.56
325.626	1688.56
325.855	1731.56
326.084	1608.56
326.313	1601.56
326.542	1667.56
326.77	1705.56
326.999	1716.56
327.228	1636.56
327.457	1578.56
327.686	1573.56
327.914	1602.56
328.143	1634.56
328.372	1634.56
328.6	1625.56
328.829	1597.56
329.058	1593.56
329.287	1632.56
329.515	1639.56
329.744	1664.56
329.972	1779.56
330.201	1778.56
330.43	1780.56
330.658	1733.56
330.887	1733.56
331.115	1715.56
331.344	1787.56
331.572	1706.56
331.801	1712.56
332.03	1704.56
332.258	1711.56
332.486	1718.56
332.715	1791.56
332.943	1798.56
333.172	1742.56
333.4	1735.56
333.629	1777.56
333.857	1864.56
334.085	2042.56
334.314	2312.56
334.542	2545.56
334.771	2346.56
334.999	2050.56
335.227	1957.56
335.455	1851.56
335.684	1847.56
335.912	1856.56
336.14	1913.56
336.369	1894.56
336.597	1821.56
336.825	1698.56
337.053	1801.56
337.281	1915.56
337.51	1989.56
337.738	2041.56
337.966	1985.56
338.194	1802.56
338.422	1750.56
338.65	1723.56
338.878	1695.56
339.106	1653.56
339.334	1633.56
339.562	1591.56
339.79	1659.56
340.018	1773.56
340.246	1815.56
340.474	1824.56
340.702	1759.56
340.93	1790.56
341.158	1749.56
341.386	1744.56
341.614	1684.56
341.842	1720.56
342.07	1700.56
342.298	1733.56
342.526	1731.56
342.754	1666.56
342.981	1672.56
343.209	1669.56
343.437	1674.56
343.665	1658.56
343.893	1691.56
344.12	1826.56
344.348	1868.56
344.576	1786.56
344.804	1712.56
345.031	1713.56
345.259	1728.56
345.487	1689.56
345.714	1613.56
345.942	1575.56
346.17	1570.56
346.397	1616.56
346.625	1637.56
346.853	1565.56
347.08	1558.56
347.308	1530.56
347.535	1576.56
347.763	1655.56
347.99	1602.56
348.218	1570.56
348.445	1553.56
348.673	1596.56
348.9	1617.56
349.128	1661.56
349.355	1719.56
349.583	1683.56
349.81	1635.56
350.037	1528.56
350.265	1506.56
350.492	1526.56
350.72	1555.56
350.947	1594.56
351.174	1640.56
351.402	1546.56
351.629	1474.56
351.856	1443.56
352.083	1476.56
352.311	1491.56
352.538	1529.56
352.765	1583.56
352.992	1653.56
353.22	1593.56
353.447	1517.56
353.674	1544.56
353.901	1567.56
354.128	1537.56
354.355	1519.56
354.583	1590.56
354.81	1664.56
355.037	1635.56
355.264	1635.56
355.491	1603.56
355.718	1612.56
355.945	1621.56
356.172	1563.56
356.399	1527.56
356.626	1520.56
356.853	1573.56
357.08	1687.56
357.307	1817.56
357.534	1863.56
357.761	1620.56
357.988	1503.56
358.215	1506.56
358.441	1481.56
358.668	1485.56
358.895	1466.56
359.122	1560.56
359.349	1700.56
359.576	1743.56
359.802	1596.56
360.029	1531.56
360.256	1513.56
360.483	1532.56
360.709	1555.56
360.936	1594.56
361.163	1670.56
361.39	1824.56
361.616	1989.56
361.843	1898.56
362.07	1865.56
362.296	1580.56
362.523	1527.56
362.749	1514.56
362.976	1577.56
363.203	1632.56
363.429	1594.56
363.656	1513.56
363.882	1580.56
364.109	1667.56
364.335	1858.56
364.562	1742.56
364.788	1659.56
365.015	1592.56
365.241	1517.56
365.468	1582.56
365.694	1621.56
365.92	1699.56
366.147	1654.56
366.373	1547.56
366.599	1513.56
366.826	1513.56
367.052	1533.56
367.278	1555.56
367.505	1576.56
367.731	1566.56
367.957	1641.56
368.184	1646.56
368.41	1734.56
368.636	1735.56
368.862	1709.56
369.089	1806.56
369.315	1663.56
369.541	1642.56
369.767	1599.56
369.993	1549.56
370.219	1580.56
370.445	1573.56
370.672	1719.56
370.898	1728.56
371.124	1755.56
371.35	1688.56
371.576	1695.56
371.802	1747.56
372.028	1694.56
372.254	1625.56
372.48	1610.56
372.706	1570.56
372.932	1579.56
373.158	1611.56
373.384	1607.56
373.61	1643.56
373.835	1732.56
374.061	1686.56
374.287	1620.56
374.513	1599.56
374.739	1656.56
374.965	1659.56
375.191	1721.56
375.416	1677.56
375.642	1703.56
375.868	1775.56
376.094	1816.56
376.319	1753.56
376.545	1627.56
376.771	1635.56
376.997	1751.56
377.222	1731.56
377.448	1704.56
377.674	1674.56
377.899	1713.56
378.125	1806.56
378.35	1833.56
378.576	1663.56
378.802	1575.56
379.027	1591.56
379.253	1613.56
379.478	1642.56
379.704	1640.56
379.929	1650.56
380.155	1663.56
380.38	1695.56
380.606	1660.56
380.831	1673.56
381.057	1732.56
381.282	1704.56
381.507	1691.56
381.733	1791.56
381.958	1934.56
382.184	1751.56
382.409	1683.56
382.634	1715.56
382.86	1727.56
383.085	1725.56
383.31	1737.56
383.535	1831.56
383.761	1944.56
383.986	1900.56
384.211	1856.56
384.436	1833.56
384.662	1919.56
384.887	1994.56
385.112	1857.56
385.337	1885.56
385.562	1878.56
385.787	1912.56
386.013	1937.56
386.238	1929.56
386.463	1935.56
386.688	1999.56
386.913	2141.56
387.138	2125.56
387.363	1969.56
387.588	1951.56
387.813	1933.56
388.038	1944.56
388.263	1999.56
388.488	1924.56
388.713	1819.56
388.938	1792.56
389.163	1778.56
389.387	1876.56
389.612	1829.56
389.837	1920.56
390.062	1875.56
390.287	1895.56
390.512	1882.56
390.736	1882.56
390.961	1842.56
391.186	1823.56
391.411	1812.56
391.636	1815.56
391.86	1874.56
392.085	1871.56
392.31	1854.56
392.534	1857.56
392.759	1913.56
392.984	1875.56
393.208	1941.56
393.433	1930.56
393.658	1986.56
393.882	1991.56
394.107	1940.56
394.331	1891.56
394.556	1873.56
394.78	1893.56
395.005	1929.56
395.229	1974.56
395.454	2151.56
395.678	2227.56
395.903	2112.56
396.127	2022.56
396.352	1959.56
396.576	2031.56
396.801	2049.56
397.025	2023.56
397.249	2036.56
397.474	2049.56
397.698	2005.56
397.922	2054.56
398.147	2150.56
398.371	2198.56
398.595	2239.56
398.82	2131.56
399.044	2157.56
399.268	2253.56
399.492	2477.56
399.717	2552.56
399.941	2495.56
400.165	2473.56
400.389	2399.56
400.613	2367.56
400.837	2590.56
401.062	3023.56
401.286	2596.56
401.51	2341.56
401.734	2418.56
401.958	2331.56
402.182	2258.56
402.406	2131.56
402.63	2107.56
402.854	2103.56
403.078	2136.56
403.302	2207.56
403.526	2249.56
403.75	2262.56
403.974	2191.56
404.198	2214.56
404.422	2321.56
404.645	2355.56
404.869	2352.56
405.093	2179.56
405.317	2165.56
405.541	2242.56
405.765	2258.56
405.988	2245.56
406.212	2285.56
406.436	2384.56
406.66	2396.56
406.883	2369.56
407.107	2630.56
407.331	2893.56
407.555	3106.56
407.778	2906.56
408.002	2418.56
408.226	2389.56
408.449	2343.56
408.673	2285.56
408.896	2296.56
409.12	2307.56
409.344	2326.56
409.567	2213.56
409.791	2252.56
410.014	2263.56
410.238	2386.56
410.461	2512.56
410.685	2280.56
410.908	2189.56
411.132	2214.56
411.355	2220.56
411.578	2183.56
411.802	2215.56
412.025	2258.56
412.249	2211.56
412.472	2135.56
412.695	2076.56
412.919	2144.56
413.142	2107.56
413.365	2171.56
413.589	2205.56
413.812	2228.56
414.035	2383.56
414.258	2150.56
414.482	2136.56
414.705	2175.56
414.928	2149.56
415.151	2142.56
415.374	2164.56
415.597	2125.56
415.821	2166.56
416.044	2252.56
416.267	2235.56
416.49	2085.56
416.713	2037.56
416.936	2118.56
417.159	2161.56
417.382	2256.56
417.605	2053.56
417.828	2174.56
418.051	2166.56
418.274	2089.56
418.497	2061.56
418.72	2050.56
418.943	2054.56
419.166	2225.56
419.389	2243.56
419.611	2140.56
419.834	2099.56
420.057	2125.56
420.28	2124.56
420.503	2088.56
420.726	2110.56
420.948	2043.56
421.171	1992.56
421.394	2066.56
421.617	2083.56
421.839	2095.56
422.062	2056.56
422.285	2004.56
422.507	2099.56
422.73	1927.56
422.953	1947.56
423.175	1985.56
423.398	2054.56
423.621	2059.56
423.843	2056.56
424.066	2072.56
424.288	2157.56
424.511	2172.56
424.733	2127.56
424.956	1937.56
425.178	1945.56
425.401	1951.56
425.623	1975.56
425.846	1963.56
426.068	2095.56
426.291	2109.56
426.513	2105.56
426.735	2059.56
426.958	2182.56
427.18	2344.56
427.402	2124.56
427.625	2184.56
427.847	2218.56
428.069	2051.56
428.292	2024.56
428.514	1996.56
428.736	1978.56
428.958	2025.56
429.181	2011.56
429.403	2191.56
429.625	2786.56
429.847	2438.56
430.069	2053.56
430.292	2247.56
430.514	2282.56
430.736	2154.56
430.958	2240.56
431.18	2120.56
431.402	1977.56
431.624	1973.56
431.846	1997.56
432.068	1977.56
432.29	1990.56
432.512	2016.56
432.734	2059.56
432.956	2103.56
433.178	2111.56
433.4	2134.56
433.622	2132.56
433.844	2045.56
434.066	1977.56
434.287	1980.56
434.509	2060.56
434.731	2146.56
434.953	2264.56
435.175	2202.56
435.397	2108.56
435.618	2100.56
435.84	2124.56
436.062	2076.56
436.284	2088.56
436.505	2097.56
436.727	2137.56
436.949	2057.56
437.17	2019.56
437.392	1972.56
437.614	2000.56
437.835	1947.56
438.057	2061.56
438.278	2198.56
438.5	2029.56
438.721	1976.56
438.943	1992.56
439.165	1988.56
439.386	1939.56
439.608	1978.56
439.829	1978.56
440.05	2009.56
440.272	1975.56
440.493	1922.56
440.715	1999.56
440.936	2128.56
441.158	2328.56
441.379	2248.56
441.6	2187.56
441.822	2137.56
442.043	2162.56
442.264	2089.56
442.486	1969.56
442.707	1997.56
442.928	1971.56
443.149	2016.56
443.371	2171.56
443.592	2252.56
443.813	2184.56
444.034	2135.56
444.255	2151.56
444.476	2247.56
444.698	2289.56
444.919	2247.56
445.14	2316.56
445.361	2323.56
445.582	2406.56
445.803	2239.56
446.024	2186.56
446.245	2283.56
446.466	2122.56
446.687	2053.56
446.908	2090.56
447.129	1986.56
447.35	2037.56
447.571	2021.56
447.792	1944.56
448.013	1935.56
448.234	1975.56
448.455	2063.56
448.675	2093.56
448.896	1891.56
449.117	1883.56
449.338	1963.56
449.559	2004.56
449.779	2146.56
450	2368.56
450.221	2506.56
450.442	2379.56
450.662	2140.56
450.883	1919.56
451.104	1868.56
451.324	1928.56
451.545	1969.56
451.766	1899.56
451.986	1849.56
452.207	1782.56
452.428	1790.56
452.648	1755.56
452.869	1826.56
453.089	1929.56
453.31	1925.56
453.53	1991.56
453.751	1894.56
453.971	1789.56
454.192	1831.56
454.412	1932.56
454.633	1885.56
454.853	1841.56
455.073	1741.56
455.294	1701.56
455.514	1729.56
455.734	1740.56
455.955	1810.56
456.175	1763.56
456.395	1796.56
456.616	1827.56
456.836	1877.56
457.056	1861.56
457.276	1808.56
457.497	1760.56
457.717	1712.56
457.937	1741.56
458.157	1818.56
458.377	1742.56
458.598	1757.56
458.818	1812.56
459.038	1898.56
459.258	2022.56
459.478	1991.56
459.698	1916.56
459.918	2000.56
460.138	2084.56
460.358	2097.56
460.578	2132.56
460.798	2198.56
461.018	2375.56
461.238	2215.56
461.458	2088.56
461.678	2112.56
461.898	2108.56
462.118	2003.56
462.338	2171.56
462.558	2137.56
462.777	2104.56
462.997	2235.56
463.217	2372.56
463.437	2341.56
463.657	2161.56
463.876	2145.56
464.096	2147.56
464.316	2098.56
464.536	2195.56
464.755	2161.56
464.975	2239.56
465.195	2146.56
465.414	2236.56
465.634	2246.56
465.854	2121.56
466.073	2225.56
466.293	2171.56
466.512	1948.56
466.732	1951.56
466.951	2019.56
467.171	2042.56
467.391	1906.56
467.61	1901.56
467.829	1923.56
468.049	2049.56
468.268	2287.56
468.488	2114.56
468.707	2040.56
468.927	1951.56
469.146	1948.56
469.365	1905.56
469.585	1958.56
469.804	1942.56
470.023	1913.56
470.243	1942.56
470.462	1955.56
470.681	1915.56
470.901	1973.56
471.12	1934.56
471.339	1909.56
471.558	1886.56
471.777	1878.56
471.997	1896.56
472.216	1910.56
472.435	1831.56
472.654	1894.56
472.873	1980.56
473.092	2103.56
473.311	1986.56
473.53	1867.56
473.749	1866.56
473.968	1938.56
474.187	2013.56
474.406	2142.56
474.625	1990.56
474.844	1964.56
475.063	1923.56
475.282	2000.56
475.501	1940.56
475.72	1944.56
475.939	2059.56
476.158	1983.56
476.377	1952.56
476.596	2024.56
476.814	2039.56
477.033	2026.56
477.252	2117.56
477.471	2136.56
477.69	2082.56
477.908	2033.56
478.127	2177.56
478.346	2351.56
478.564	2358.56
478.783	2273.56
479.002	2390.56
479.22	2307.56
479.439	2363.56
479.658	2751.56
479.876	2699.56
480.095	2368.56
480.313	2268.56
480.532	2170.56
480.751	2180.56
480.969	2241.56
481.188	2213.56
481.406	2176.56
481.624	2104.56
481.843	2130.56
482.061	2221.56
482.28	2246.56
482.498	2294.56
482.717	2236.56
482.935	2154.56
483.153	2175.56
483.372	2197.56
483.59	2155.56
483.808	2153.56
484.027	2194.56
484.245	2386.56
484.463	2658.56
484.681	3076.56
484.9	2401.56
485.118	2258.56
485.336	2185.56
485.554	2268.56
485.772	2404.56
485.99	2375.56
486.209	2371.56
486.427	2346.56
486.645	2325.56
486.863	2288.56
487.081	2389.56
487.299	2417.56
487.517	2333.56
