Data from WStandard_LampEnergy8_LIBS07252019.E.O._I.C._HRD10591_15-59-46-930.txt Node
Date: Thu Jul 25 15:59:46 EDT 2019
User: cochatt
Spectrometer: HR+D1059
Trigger mode: 1
Integration Time (sec): 1.000000E-1
Scans to average: 1
Electric dark correction enabled: true
Nonlinearity correction enabled: false
Boxcar width: 0
XAxis mode: Wavelengths
Number of Pixels in Spectrum: 2048
>>>>>Begin Spectral Data<<<<<
223.165	-12.19
223.4	-12.19
223.635	-12.19
223.869	-22.19
224.104	-14.19
224.338	-19.19
224.573	-11.19
224.808	-7.19
225.042	-7.19
225.277	1.81
225.511	-3.19
225.746	1.81
225.98	-0.19
226.215	2.81
226.449	21.81
226.683	27.81
226.918	24.81
227.152	15.81
227.387	34.81
227.621	43.81
227.856	31.81
228.09	41.81
228.324	36.81
228.559	69.81
228.793	92.81
229.027	211.81
229.262	215.81
229.496	226.81
229.73	236.81
229.964	264.81
230.199	267.81
230.433	268.81
230.667	291.81
230.901	282.81
231.136	268.81
231.37	255.81
231.604	282.81
231.838	266.81
232.072	261.81
232.306	267.81
232.541	268.81
232.775	298.81
233.009	344.81
233.243	317.81
233.477	295.81
233.711	316.81
233.945	324.81
234.179	311.81
234.413	347.81
234.647	350.81
234.881	314.81
235.115	300.81
235.349	309.81
235.583	321.81
235.817	308.81
236.051	297.81
236.285	320.81
236.519	332.81
236.753	353.81
236.987	351.81
237.221	377.81
237.455	385.81
237.689	366.81
237.922	353.81
238.156	356.81
238.39	372.81
238.624	376.81
238.858	380.81
239.091	423.81
239.325	414.81
239.559	476.81
239.793	501.81
240.027	517.81
240.26	511.81
240.494	397.81
240.728	371.81
240.961	379.81
241.195	405.81
241.429	409.81
241.662	422.81
241.896	385.81
242.13	400.81
242.363	449.81
242.597	460.81
242.83	461.81
243.064	476.81
243.298	477.81
243.531	481.81
243.765	477.81
243.998	462.81
244.232	426.81
244.465	398.81
244.699	413.81
244.932	477.81
245.166	524.81
245.399	495.81
245.633	437.81
245.866	461.81
246.099	499.81
246.333	499.81
246.566	508.81
246.8	551.81
247.033	603.81
247.266	559.81
247.5	529.81
247.733	537.81
247.966	550.81
248.2	629.81
248.433	609.81
248.666	641.81
248.899	684.81
249.133	748.81
249.366	825.81
249.599	710.81
249.832	610.81
250.066	645.81
250.299	645.81
250.532	616.81
250.765	555.81
250.998	563.81
251.231	600.81
251.465	593.81
251.698	587.81
251.931	591.81
252.164	611.81
252.397	626.81
252.63	597.81
252.863	542.81
253.096	554.81
253.329	575.81
253.562	581.81
253.795	640.81
254.028	617.81
254.261	584.81
254.494	565.81
254.727	565.81
254.96	589.81
255.193	641.81
255.426	703.81
255.659	798.81
255.892	785.81
256.124	689.81
256.357	671.81
256.59	719.81
256.823	697.81
257.056	720.81
257.289	825.81
257.521	909.81
257.754	805.81
257.987	777.81
258.22	852.81
258.452	842.81
258.685	693.81
258.918	674.81
259.151	679.81
259.383	632.81
259.616	601.81
259.849	643.81
260.081	720.81
260.314	775.81
260.547	823.81
260.779	795.81
261.012	765.81
261.244	725.81
261.477	685.81
261.71	690.81
261.942	694.81
262.175	695.81
262.407	706.81
262.64	666.81
262.872	635.81
263.105	625.81
263.337	629.81
263.57	668.81
263.802	662.81
264.035	600.81
264.267	586.81
264.499	575.81
264.732	625.81
264.964	673.81
265.197	682.81
265.429	717.81
265.661	769.81
265.894	849.81
266.126	874.81
266.358	813.81
266.591	816.81
266.823	861.81
267.055	793.81
267.287	803.81
267.52	758.81
267.752	761.81
267.984	771.81
268.216	809.81
268.448	825.81
268.681	803.81
268.913	746.81
269.145	711.81
269.377	690.81
269.609	786.81
269.841	915.81
270.073	1004.81
270.306	1117.81
270.538	1143.81
270.77	955.81
271.002	860.81
271.234	828.81
271.466	832.81
271.698	939.81
271.93	1041.81
272.162	1033.81
272.394	964.81
272.626	915.81
272.858	797.81
273.09	713.81
273.322	721.81
273.553	700.81
273.785	693.81
274.017	723.81
274.249	774.81
274.481	757.81
274.713	716.81
274.945	709.81
275.176	703.81
275.408	719.81
275.64	711.81
275.872	694.81
276.104	752.81
276.335	849.81
276.567	943.81
276.799	924.81
277.031	859.81
277.262	809.81
277.494	840.81
277.726	923.81
277.957	917.81
278.189	826.81
278.421	748.81
278.652	740.81
278.884	732.81
279.115	755.81
279.347	779.81
279.579	752.81
279.81	733.81
280.042	844.81
280.273	868.81
280.505	885.81
280.736	903.81
280.968	839.81
281.199	751.81
281.431	722.81
281.662	729.81
281.894	745.81
282.125	763.81
282.356	763.81
282.588	792.81
282.819	819.81
283.051	865.81
283.282	921.81
283.513	892.81
283.745	765.81
283.976	713.81
284.207	747.81
284.439	762.81
284.67	748.81
284.901	789.81
285.132	819.81
285.364	793.81
285.595	803.81
285.826	773.81
286.057	784.81
286.288	753.81
286.52	803.81
286.751	850.81
286.982	874.81
287.213	795.81
287.444	753.81
287.675	738.81
287.906	804.81
288.138	857.81
288.369	813.81
288.6	771.81
288.831	746.81
289.062	763.81
289.293	782.81
289.524	797.81
289.755	793.81
289.986	812.81
290.217	753.81
290.448	735.81
290.679	789.81
290.91	795.81
291.141	826.81
291.371	852.81
291.602	830.81
291.833	835.81
292.064	844.81
292.295	832.81
292.526	869.81
292.757	879.81
292.987	845.81
293.218	807.81
293.449	867.81
293.68	1016.81
293.91	1043.81
294.141	956.81
294.372	922.81
294.603	948.81
294.833	983.81
295.064	930.81
295.295	825.81
295.525	828.81
295.756	772.81
295.987	744.81
296.217	756.81
296.448	785.81
296.679	795.81
296.909	808.81
297.14	779.81
297.37	808.81
297.601	846.81
297.831	915.81
298.062	875.81
298.292	840.81
298.523	806.81
298.753	786.81
298.984	808.81
299.214	826.81
299.445	829.81
299.675	882.81
299.905	877.81
300.136	825.81
300.366	789.81
300.597	785.81
300.827	796.81
301.057	821.81
301.288	863.81
301.518	871.81
301.748	908.81
301.979	914.81
302.209	933.81
302.439	1025.81
302.669	1019.81
302.9	931.81
303.13	858.81
303.36	881.81
303.59	876.81
303.82	867.81
304.051	881.81
304.281	881.81
304.511	878.81
304.741	929.81
304.971	1051.81
305.201	1084.81
305.431	976.81
305.661	825.81
305.891	753.81
306.121	811.81
306.352	823.81
306.582	857.81
306.812	908.81
307.042	980.81
307.272	980.81
307.502	992.81
307.731	1092.81
307.961	1132.81
308.191	1002.81
308.421	881.81
308.651	857.81
308.881	858.81
309.111	845.81
309.341	827.81
309.571	864.81
309.8	819.81
310.03	819.81
310.26	837.81
310.49	853.81
310.72	861.81
310.949	900.81
311.179	929.81
311.409	895.81
311.639	872.81
311.868	859.81
312.098	897.81
312.328	888.81
312.557	854.81
312.787	861.81
313.017	885.81
313.246	889.81
313.476	861.81
313.706	898.81
313.935	891.81
314.165	927.81
314.394	952.81
314.624	1000.81
314.853	1041.81
315.083	1078.81
315.312	1084.81
315.542	1004.81
315.771	903.81
316.001	944.81
316.23	982.81
316.46	966.81
316.689	926.81
316.919	886.81
317.148	888.81
317.377	901.81
317.607	986.81
317.836	1071.81
318.065	1084.81
318.295	1052.81
318.524	1033.81
318.753	986.81
318.983	975.81
319.212	936.81
319.441	917.81
319.67	931.81
319.9	973.81
320.129	1019.81
320.358	1046.81
320.587	1045.81
320.816	1038.81
321.046	999.81
321.275	986.81
321.504	1008.81
321.733	1040.81
321.962	1032.81
322.191	953.81
322.42	941.81
322.649	918.81
322.878	897.81
323.108	948.81
323.337	982.81
323.566	959.81
323.795	968.81
324.024	990.81
324.253	953.81
324.482	943.81
324.71	923.81
324.939	899.81
325.168	929.81
325.397	959.81
325.626	986.81
325.855	968.81
326.084	921.81
326.313	933.81
326.542	964.81
326.77	1001.81
326.999	952.81
327.228	946.81
327.457	907.81
327.686	891.81
327.914	921.81
328.143	945.81
328.372	952.81
328.6	949.81
328.829	930.81
329.058	919.81
329.287	936.81
329.515	950.81
329.744	961.81
329.972	1024.81
330.201	1059.81
330.43	1055.81
330.658	995.81
330.887	1026.81
331.115	998.81
331.344	1005.81
331.572	1007.81
331.801	981.81
332.03	997.81
332.258	1007.81
332.486	1028.81
332.715	1036.81
332.943	1030.81
333.172	1007.81
333.4	1008.81
333.629	1052.81
333.857	1120.81
334.085	1256.81
334.314	1364.81
334.542	1448.81
334.771	1315.81
334.999	1205.81
335.227	1129.81
335.455	1037.81
335.684	1077.81
335.912	1105.81
336.14	1128.81
336.369	1073.81
336.597	1019.81
336.825	1028.81
337.053	1073.81
337.281	1137.81
337.51	1176.81
337.738	1185.81
337.966	1110.81
338.194	1003.81
338.422	968.81
338.65	995.81
338.878	991.81
339.106	986.81
339.334	938.81
339.562	952.81
339.79	972.81
340.018	1047.81
340.246	1047.81
340.474	1071.81
340.702	1086.81
340.93	1042.81
341.158	1032.81
341.386	1004.81
341.614	1003.81
341.842	1015.81
342.07	1014.81
342.298	1047.81
342.526	991.81
342.754	979.81
342.981	1013.81
343.209	991.81
343.437	957.81
343.665	964.81
343.893	1021.81
344.12	1059.81
344.348	1080.81
344.576	1043.81
344.804	992.81
345.031	996.81
345.259	972.81
345.487	954.81
345.714	928.81
345.942	934.81
346.17	949.81
346.397	949.81
346.625	962.81
346.853	908.81
347.08	909.81
347.308	909.81
347.535	975.81
347.763	965.81
347.99	920.81
348.218	931.81
348.445	926.81
348.673	948.81
348.9	984.81
349.128	1000.81
349.355	1055.81
349.583	989.81
349.81	940.81
350.037	891.81
350.265	879.81
350.492	933.81
350.72	954.81
350.947	968.81
351.174	947.81
351.402	895.81
351.629	860.81
351.856	891.81
352.083	854.81
352.311	848.81
352.538	898.81
352.765	949.81
352.992	961.81
353.22	913.81
353.447	879.81
353.674	903.81
353.901	937.81
354.128	900.81
354.355	923.81
354.583	966.81
354.81	985.81
355.037	959.81
355.264	940.81
355.491	968.81
355.718	921.81
355.945	923.81
356.172	927.81
356.399	885.81
356.626	913.81
356.853	993.81
357.08	1053.81
357.307	1106.81
357.534	1070.81
357.761	951.81
357.988	897.81
358.215	897.81
358.441	919.81
358.668	886.81
358.895	912.81
359.122	953.81
359.349	1068.81
359.576	1025.81
359.802	949.81
360.029	920.81
360.256	909.81
360.483	909.81
360.709	955.81
360.936	972.81
361.163	1058.81
361.39	1137.81
361.616	1205.81
361.843	1161.81
362.07	1070.81
362.296	961.81
362.523	920.81
362.749	943.81
362.976	956.81
363.203	997.81
363.429	940.81
363.656	933.81
363.882	963.81
364.109	1067.81
364.335	1112.81
364.562	1005.81
364.788	993.81
365.015	953.81
365.241	950.81
365.468	952.81
365.694	984.81
365.92	1011.81
366.147	953.81
366.373	924.81
366.599	899.81
366.826	913.81
367.052	917.81
367.278	949.81
367.505	953.81
367.731	975.81
367.957	973.81
368.184	1013.81
368.41	1038.81
368.636	1065.81
368.862	1085.81
369.089	1079.81
369.315	1047.81
369.541	1009.81
369.767	955.81
369.993	936.81
370.219	944.81
370.445	1018.81
370.672	1059.81
370.898	1082.81
371.124	1054.81
371.35	1015.81
371.576	1040.81
371.802	1060.81
372.028	1003.81
372.254	981.81
372.48	951.81
372.706	966.81
372.932	932.81
373.158	993.81
373.384	1010.81
373.61	1033.81
373.835	1055.81
374.061	1011.81
374.287	1002.81
374.513	1003.81
374.739	999.81
374.965	997.81
375.191	1025.81
375.416	1017.81
375.642	1054.81
375.868	1114.81
376.094	1133.81
376.319	1071.81
376.545	1018.81
376.771	1049.81
376.997	1083.81
377.222	1091.81
377.448	1042.81
377.674	1061.81
377.899	1080.81
378.125	1137.81
378.35	1105.81
378.576	1000.81
378.802	947.81
379.027	964.81
379.253	1004.81
379.478	981.81
379.704	1001.81
379.929	1013.81
380.155	1008.81
380.38	1027.81
380.606	1028.81
380.831	1043.81
381.057	1071.81
381.282	1081.81
381.507	1071.81
381.733	1153.81
381.958	1154.81
382.184	1068.81
382.409	1047.81
382.634	1049.81
382.86	1059.81
383.085	1059.81
383.31	1111.81
383.535	1239.81
383.761	1268.81
383.986	1185.81
384.211	1119.81
384.436	1129.81
384.662	1178.81
384.887	1211.81
385.112	1176.81
385.337	1155.81
385.562	1185.81
385.787	1171.81
386.013	1180.81
386.238	1180.81
386.463	1194.81
386.688	1282.81
386.913	1338.81
387.138	1258.81
387.363	1209.81
387.588	1180.81
387.813	1165.81
388.038	1191.81
388.263	1236.81
388.488	1171.81
388.713	1099.81
388.938	1079.81
389.163	1101.81
389.387	1147.81
389.612	1114.81
389.837	1155.81
390.062	1151.81
390.287	1173.81
390.512	1159.81
390.736	1107.81
390.961	1127.81
391.186	1135.81
391.411	1116.81
391.636	1140.81
391.86	1139.81
392.085	1145.81
392.31	1121.81
392.534	1135.81
392.759	1167.81
392.984	1150.81
393.208	1169.81
393.433	1182.81
393.658	1225.81
393.882	1214.81
394.107	1161.81
394.331	1128.81
394.556	1142.81
394.78	1150.81
395.005	1181.81
395.229	1244.81
395.454	1345.81
395.678	1331.81
395.903	1292.81
396.127	1215.81
396.352	1216.81
396.576	1267.81
396.801	1272.81
397.025	1247.81
397.249	1237.81
397.474	1205.81
397.698	1233.81
397.922	1277.81
398.147	1360.81
398.371	1407.81
398.595	1392.81
398.82	1280.81
399.044	1364.81
399.268	1373.81
399.492	1468.81
399.717	1512.81
399.941	1518.81
400.165	1469.81
400.389	1439.81
400.613	1473.81
400.837	1685.81
401.062	1815.81
401.286	1554.81
401.51	1475.81
401.734	1500.81
401.958	1450.81
402.182	1336.81
402.406	1301.81
402.63	1290.81
402.854	1275.81
403.078	1329.81
403.302	1332.81
403.526	1366.81
403.75	1371.81
403.974	1391.81
404.198	1379.81
404.422	1461.81
404.645	1527.81
404.869	1473.81
405.093	1362.81
405.317	1339.81
405.541	1352.81
405.765	1369.81
405.988	1395.81
406.212	1420.81
406.436	1456.81
406.66	1467.81
406.883	1508.81
407.107	1702.81
407.331	1839.81
407.555	1973.81
407.778	1723.81
408.002	1469.81
408.226	1435.81
408.449	1431.81
408.673	1393.81
408.896	1384.81
409.12	1435.81
409.344	1407.81
409.567	1351.81
409.791	1365.81
410.014	1436.81
410.238	1495.81
410.461	1569.81
410.685	1411.81
410.908	1343.81
411.132	1393.81
411.355	1351.81
411.578	1378.81
411.802	1364.81
412.025	1375.81
412.249	1334.81
412.472	1296.81
412.695	1316.81
412.919	1299.81
413.142	1329.81
413.365	1343.81
413.589	1353.81
413.812	1415.81
414.035	1455.81
414.258	1378.81
414.482	1364.81
414.705	1354.81
414.928	1303.81
415.151	1308.81
415.374	1302.81
415.597	1338.81
415.821	1352.81
416.044	1358.81
416.267	1375.81
416.49	1314.81
416.713	1288.81
416.936	1340.81
417.159	1391.81
417.382	1391.81
417.605	1335.81
417.828	1333.81
418.051	1389.81
418.274	1321.81
418.497	1293.81
418.72	1297.81
418.943	1301.81
419.166	1325.81
419.389	1401.81
419.611	1353.81
419.834	1302.81
420.057	1335.81
420.28	1299.81
420.503	1306.81
420.726	1347.81
420.948	1342.81
421.171	1293.81
421.394	1309.81
421.617	1369.81
421.839	1363.81
422.062	1314.81
422.285	1283.81
422.507	1300.81
422.73	1272.81
422.953	1208.81
423.175	1244.81
423.398	1271.81
423.621	1300.81
423.843	1288.81
424.066	1337.81
424.288	1410.81
424.511	1452.81
424.733	1377.81
424.956	1255.81
425.178	1268.81
425.401	1281.81
425.623	1287.81
425.846	1313.81
426.068	1335.81
426.291	1323.81
426.513	1318.81
426.735	1312.81
426.958	1471.81
427.18	1492.81
427.402	1414.81
427.625	1447.81
427.847	1415.81
428.069	1310.81
428.292	1295.81
428.514	1264.81
428.736	1250.81
428.958	1255.81
429.181	1328.81
429.403	1494.81
429.625	1775.81
429.847	1476.81
430.069	1311.81
430.292	1487.81
430.514	1506.81
430.736	1376.81
430.958	1385.81
431.18	1340.81
431.402	1216.81
431.624	1237.81
431.846	1201.81
432.068	1135.81
432.29	1162.81
432.512	1206.81
432.734	1238.81
432.956	1299.81
433.178	1391.81
433.4	1333.81
433.622	1313.81
433.844	1255.81
434.066	1227.81
434.287	1213.81
434.509	1242.81
434.731	1300.81
434.953	1394.81
435.175	1354.81
435.397	1320.81
435.618	1316.81
435.84	1245.81
436.062	1247.81
436.284	1331.81
436.505	1301.81
436.727	1308.81
436.949	1290.81
437.17	1260.81
437.392	1246.81
437.614	1215.81
437.835	1197.81
438.057	1249.81
438.278	1257.81
438.5	1220.81
438.721	1209.81
438.943	1263.81
439.165	1255.81
439.386	1257.81
439.608	1254.81
439.829	1275.81
440.05	1285.81
440.272	1275.81
440.493	1228.81
440.715	1291.81
440.936	1385.81
441.158	1439.81
441.379	1399.81
441.6	1418.81
441.822	1398.81
442.043	1367.81
442.264	1324.81
442.486	1299.81
442.707	1252.81
442.928	1284.81
443.149	1332.81
443.371	1372.81
443.592	1419.81
443.813	1394.81
444.034	1359.81
444.255	1363.81
444.476	1428.81
444.698	1441.81
444.919	1383.81
445.14	1583.81
445.361	1500.81
445.582	1467.81
445.803	1405.81
446.024	1372.81
446.245	1439.81
446.466	1393.81
446.687	1344.81
446.908	1382.81
447.129	1335.81
447.35	1324.81
447.571	1311.81
447.792	1253.81
448.013	1247.81
448.234	1298.81
448.455	1321.81
448.675	1339.81
448.896	1209.81
449.117	1199.81
449.338	1236.81
449.559	1278.81
449.779	1342.81
450	1458.81
450.221	1508.81
450.442	1459.81
450.662	1287.81
450.883	1203.81
451.104	1179.81
451.324	1227.81
451.545	1227.81
451.766	1192.81
451.986	1178.81
452.207	1168.81
452.428	1123.81
452.648	1119.81
452.869	1145.81
453.089	1153.81
453.31	1180.81
453.53	1171.81
453.751	1152.81
453.971	1085.81
454.192	1114.81
454.412	1160.81
454.633	1140.81
454.853	1108.81
455.073	1084.81
455.294	1096.81
455.514	1045.81
455.734	1073.81
455.955	1085.81
456.175	1068.81
456.395	1073.81
456.616	1071.81
456.836	1123.81
457.056	1066.81
457.276	1083.81
457.497	1038.81
457.717	1021.81
457.937	1009.81
458.157	1087.81
458.377	1080.81
458.598	1059.81
458.818	1095.81
459.038	1151.81
459.258	1144.81
459.478	1141.81
459.698	1120.81
459.918	1175.81
460.138	1265.81
460.358	1259.81
460.578	1256.81
460.798	1363.81
461.018	1365.81
461.238	1343.81
461.458	1282.81
461.678	1287.81
461.898	1291.81
462.118	1225.81
462.338	1290.81
462.558	1277.81
462.777	1277.81
462.997	1359.81
463.217	1399.81
463.437	1354.81
463.657	1299.81
463.876	1281.81
464.096	1261.81
464.316	1276.81
464.536	1334.81
464.755	1362.81
464.975	1309.81
465.195	1306.81
465.414	1348.81
465.634	1304.81
465.854	1303.81
466.073	1389.81
466.293	1391.81
466.512	1224.81
466.732	1227.81
466.951	1289.81
467.171	1219.81
467.391	1232.81
467.61	1220.81
467.829	1234.81
468.049	1339.81
468.268	1469.81
468.488	1342.81
468.707	1295.81
468.927	1267.81
469.146	1208.81
469.365	1237.81
469.585	1262.81
469.804	1215.81
470.023	1252.81
470.243	1282.81
470.462	1251.81
470.681	1201.81
470.901	1248.81
471.12	1257.81
471.339	1253.81
471.558	1212.81
471.777	1219.81
471.997	1219.81
472.216	1181.81
472.435	1153.81
472.654	1157.81
472.873	1175.81
473.092	1227.81
473.311	1195.81
473.53	1153.81
473.749	1145.81
473.968	1197.81
474.187	1233.81
474.406	1263.81
474.625	1239.81
474.844	1215.81
475.063	1251.81
475.282	1209.81
475.501	1206.81
475.72	1250.81
475.939	1298.81
476.158	1230.81
476.377	1204.81
476.596	1268.81
476.814	1250.81
477.033	1257.81
477.252	1296.81
477.471	1348.81
477.69	1293.81
477.908	1299.81
478.127	1385.81
478.346	1441.81
478.564	1439.81
478.783	1410.81
479.002	1473.81
479.22	1436.81
479.439	1501.81
479.658	1610.81
479.876	1543.81
480.095	1421.81
480.313	1329.81
480.532	1333.81
480.751	1339.81
480.969	1317.81
481.188	1301.81
481.406	1263.81
481.624	1245.81
481.843	1265.81
482.061	1333.81
482.28	1336.81
482.498	1374.81
482.717	1349.81
482.935	1317.81
483.153	1376.81
483.372	1386.81
483.59	1385.81
483.808	1349.81
484.027	1365.81
484.245	1493.81
484.463	1755.81
484.681	1928.81
484.9	1501.81
485.118	1403.81
485.336	1373.81
485.554	1386.81
485.772	1425.81
485.99	1384.81
486.209	1417.81
486.427	1366.81
486.645	1424.81
486.863	1460.81
487.081	1475.81
487.299	1538.81
487.517	1438.81
487.735	1486.81
487.953	1540.81
488.171	1521.81
488.389	1473.81
488.607	1503.81
488.825	1631.81
489.043	1583.81
489.261	1411.81
489.479	1482.81
489.696	1511.81
489.914	1482.81
490.132	1442.81
490.35	1467.81
490.568	1549.81
490.786	1513.81
491.003	1490.81
491.221	1580.81
491.439	1637.81
491.657	1628.81
491.874	1632.81
492.092	1708.81
492.31	1729.81
492.527	1691.81
492.745	1609.81
492.963	1622.81
493.18	1631.81
