Data from WStandard_LampEnergy10_LIBS07252019.E.O._I.C._HRD10591_15-54-55-928.txt Node
Date: Thu Jul 25 15:54:55 EDT 2019
User: cochatt
Spectrometer: HR+D1059
Trigger mode: 1
Integration Time (sec): 1.000000E-1
Scans to average: 1
Electric dark correction enabled: true
Nonlinearity correction enabled: false
Boxcar width: 0
XAxis mode: Wavelengths
Number of Pixels in Spectrum: 2048
>>>>>Begin Spectral Data<<<<<
223.165	-19.31
223.4	-19.31
223.635	-19.31
223.869	-12.31
224.104	-16.31
224.338	-12.31
224.573	-14.31
224.808	-8.31
225.042	-6.31
225.277	-3.31
225.511	7.69
225.746	6.69
225.98	-9.31
226.215	-2.31
226.449	19.69
226.683	14.69
226.918	28.69
227.152	26.69
227.387	36.69
227.621	33.69
227.856	30.69
228.09	48.69
228.324	48.69
228.559	64.69
228.793	80.69
229.027	132.69
229.262	142.69
229.496	129.69
229.73	150.69
229.964	167.69
230.199	180.69
230.433	164.69
230.667	176.69
230.901	189.69
231.136	165.69
231.37	178.69
231.604	170.69
231.838	184.69
232.072	174.69
232.306	167.69
232.541	175.69
232.775	200.69
233.009	204.69
233.243	201.69
233.477	188.69
233.711	194.69
233.945	198.69
234.179	186.69
234.413	209.69
234.647	217.69
234.881	199.69
235.115	208.69
235.349	205.69
235.583	206.69
235.817	202.69
236.051	192.69
236.285	185.69
236.519	207.69
236.753	210.69
236.987	224.69
237.221	228.69
237.455	229.69
237.689	230.69
237.922	232.69
238.156	236.69
238.39	212.69
238.624	240.69
238.858	232.69
239.091	243.69
239.325	254.69
239.559	289.69
239.793	301.69
240.027	311.69
240.26	304.69
240.494	238.69
240.728	252.69
240.961	241.69
241.195	253.69
241.429	270.69
241.662	247.69
241.896	233.69
242.13	238.69
242.363	256.69
242.597	284.69
242.83	270.69
243.064	273.69
243.298	281.69
243.531	284.69
243.765	282.69
243.998	276.69
244.232	257.69
244.465	234.69
244.699	255.69
244.932	289.69
245.166	302.69
245.399	304.69
245.633	283.69
245.866	300.69
246.099	289.69
246.333	284.69
246.566	300.69
246.8	321.69
247.033	335.69
247.266	329.69
247.5	307.69
247.733	317.69
247.966	324.69
248.2	352.69
248.433	341.69
248.666	364.69
248.899	398.69
249.133	435.69
249.366	466.69
249.599	373.69
249.832	358.69
250.066	370.69
250.299	372.69
250.532	333.69
250.765	334.69
250.998	346.69
251.231	351.69
251.465	348.69
251.698	334.69
251.931	330.69
252.164	348.69
252.397	364.69
252.63	349.69
252.863	324.69
253.096	340.69
253.329	318.69
253.562	353.69
253.795	369.69
254.028	353.69
254.261	330.69
254.494	349.69
254.727	350.69
254.96	344.69
255.193	376.69
255.426	402.69
255.659	443.69
255.892	458.69
256.124	397.69
256.357	389.69
256.59	389.69
256.823	405.69
257.056	405.69
257.289	468.69
257.521	516.69
257.754	439.69
257.987	450.69
258.22	469.69
258.452	452.69
258.685	403.69
258.918	388.69
259.151	386.69
259.383	395.69
259.616	340.69
259.849	372.69
260.081	413.69
260.314	425.69
260.547	472.69
260.779	457.69
261.012	447.69
261.244	432.69
261.477	391.69
261.71	385.69
261.942	380.69
262.175	370.69
262.407	398.69
262.64	382.69
262.872	361.69
263.105	372.69
263.337	382.69
263.57	374.69
263.802	370.69
264.035	356.69
264.267	334.69
264.499	338.69
264.732	371.69
264.964	388.69
265.197	395.69
265.429	445.69
265.661	437.69
265.894	476.69
266.126	502.69
266.358	457.69
266.591	490.69
266.823	479.69
267.055	444.69
267.287	452.69
267.52	439.69
267.752	447.69
267.984	437.69
268.216	484.69
268.448	473.69
268.681	462.69
268.913	410.69
269.145	425.69
269.377	425.69
269.609	444.69
269.841	497.69
270.073	585.69
270.306	606.69
270.538	608.69
270.77	544.69
271.002	500.69
271.234	460.69
271.466	468.69
271.698	525.69
271.93	568.69
272.162	590.69
272.394	533.69
272.626	500.69
272.858	445.69
273.09	425.69
273.322	398.69
273.553	392.69
273.785	395.69
274.017	426.69
274.249	442.69
274.481	465.69
274.713	436.69
274.945	401.69
275.176	397.69
275.408	414.69
275.64	390.69
275.872	422.69
276.104	444.69
276.335	471.69
276.567	516.69
276.799	512.69
277.031	473.69
277.262	489.69
277.494	502.69
277.726	522.69
277.957	481.69
278.189	460.69
278.421	441.69
278.652	437.69
278.884	415.69
279.115	427.69
279.347	438.69
279.579	432.69
279.81	430.69
280.042	471.69
280.273	503.69
280.505	472.69
280.736	506.69
280.968	462.69
281.199	444.69
281.431	424.69
281.662	432.69
281.894	428.69
282.125	444.69
282.356	455.69
282.588	425.69
282.819	453.69
283.051	481.69
283.282	503.69
283.513	512.69
283.745	437.69
283.976	424.69
284.207	450.69
284.439	439.69
284.67	453.69
284.901	451.69
285.132	442.69
285.364	455.69
285.595	469.69
285.826	453.69
286.057	433.69
286.288	442.69
286.52	464.69
286.751	508.69
286.982	490.69
287.213	460.69
287.444	428.69
287.675	452.69
287.906	464.69
288.138	462.69
288.369	468.69
288.6	450.69
288.831	441.69
289.062	434.69
289.293	457.69
289.524	457.69
289.755	477.69
289.986	450.69
290.217	432.69
290.448	450.69
290.679	458.69
290.91	468.69
291.141	479.69
291.371	500.69
291.602	485.69
291.833	474.69
292.064	497.69
292.295	481.69
292.526	503.69
292.757	518.69
292.987	496.69
293.218	470.69
293.449	526.69
293.68	588.69
293.91	583.69
294.141	560.69
294.372	541.69
294.603	566.69
294.833	553.69
295.064	532.69
295.295	486.69
295.525	462.69
295.756	446.69
295.987	409.69
296.217	454.69
296.448	447.69
296.679	480.69
296.909	460.69
297.14	452.69
297.37	478.69
297.601	511.69
297.831	536.69
298.062	514.69
298.292	471.69
298.523	468.69
298.753	468.69
298.984	467.69
299.214	487.69
299.445	497.69
299.675	500.69
299.905	487.69
300.136	464.69
300.366	464.69
300.597	447.69
300.827	461.69
301.057	486.69
301.288	520.69
301.518	514.69
301.748	512.69
301.979	574.69
302.209	550.69
302.439	575.69
302.669	591.69
302.9	549.69
303.13	502.69
303.36	501.69
303.59	515.69
303.82	529.69
304.051	527.69
304.281	509.69
304.511	537.69
304.741	581.69
304.971	596.69
305.201	622.69
305.431	576.69
305.661	476.69
305.891	456.69
306.121	450.69
306.352	475.69
306.582	512.69
306.812	534.69
307.042	558.69
307.272	575.69
307.502	573.69
307.731	593.69
307.961	648.69
308.191	584.69
308.421	518.69
308.651	485.69
308.881	496.69
309.111	504.69
309.341	486.69
309.571	474.69
309.8	486.69
310.03	500.69
310.26	494.69
310.49	504.69
310.72	528.69
310.949	535.69
311.179	532.69
311.409	514.69
311.639	516.69
311.868	522.69
312.098	527.69
312.328	514.69
312.557	506.69
312.787	512.69
313.017	521.69
313.246	515.69
313.476	521.69
313.706	509.69
313.935	551.69
314.165	564.69
314.394	569.69
314.624	599.69
314.853	611.69
315.083	607.69
315.312	607.69
315.542	595.69
315.771	537.69
316.001	559.69
316.23	584.69
316.46	561.69
316.689	553.69
316.919	529.69
317.148	512.69
317.377	550.69
317.607	595.69
317.836	620.69
318.065	634.69
318.295	632.69
318.524	581.69
318.753	561.69
318.983	574.69
319.212	570.69
319.441	546.69
319.67	572.69
319.9	556.69
320.129	608.69
320.358	608.69
320.587	631.69
320.816	617.69
321.046	595.69
321.275	569.69
321.504	608.69
321.733	624.69
321.962	575.69
322.191	578.69
322.42	564.69
322.649	572.69
322.878	590.69
323.108	579.69
323.337	598.69
323.566	572.69
323.795	544.69
324.024	566.69
324.253	564.69
324.482	564.69
324.71	564.69
324.939	535.69
325.168	549.69
325.397	588.69
325.626	568.69
325.855	566.69
326.084	536.69
326.313	554.69
326.542	578.69
326.77	584.69
326.999	572.69
327.228	546.69
327.457	546.69
327.686	522.69
327.914	548.69
328.143	557.69
328.372	573.69
328.6	560.69
328.829	537.69
329.058	550.69
329.287	536.69
329.515	567.69
329.744	558.69
329.972	609.69
330.201	632.69
330.43	622.69
330.658	604.69
330.887	600.69
331.115	608.69
331.344	613.69
331.572	594.69
331.801	572.69
332.03	598.69
332.258	625.69
332.486	624.69
332.715	616.69
332.943	599.69
333.172	591.69
333.4	607.69
333.629	643.69
333.857	671.69
334.085	750.69
334.314	828.69
334.542	822.69
334.771	756.69
334.999	688.69
335.227	676.69
335.455	639.69
335.684	658.69
335.912	664.69
336.14	664.69
336.369	642.69
336.597	590.69
336.825	596.69
337.053	620.69
337.281	680.69
337.51	696.69
337.738	712.69
337.966	629.69
338.194	608.69
338.422	596.69
338.65	625.69
338.878	569.69
339.106	569.69
339.334	560.69
339.562	565.69
339.79	576.69
340.018	619.69
340.246	647.69
340.474	648.69
340.702	603.69
340.93	634.69
341.158	614.69
341.386	611.69
341.614	600.69
341.842	581.69
342.07	601.69
342.298	611.69
342.526	596.69
342.754	598.69
342.981	610.69
343.209	589.69
343.437	600.69
343.665	595.69
343.893	620.69
344.12	626.69
344.348	638.69
344.576	605.69
344.804	600.69
345.031	609.69
345.259	556.69
345.487	602.69
345.714	559.69
345.942	548.69
346.17	585.69
346.397	565.69
346.625	572.69
346.853	549.69
347.08	570.69
347.308	582.69
347.535	553.69
347.763	591.69
347.99	560.69
348.218	552.69
348.445	553.69
348.673	548.69
348.9	569.69
349.128	580.69
349.355	607.69
349.583	600.69
349.81	561.69
350.037	516.69
350.265	513.69
350.492	544.69
350.72	548.69
350.947	581.69
351.174	582.69
351.402	541.69
351.629	542.69
351.856	525.69
352.083	529.69
352.311	556.69
352.538	572.69
352.765	571.69
352.992	572.69
353.22	559.69
353.447	576.69
353.674	565.69
353.901	566.69
354.128	541.69
354.355	573.69
354.583	606.69
354.81	616.69
355.037	585.69
355.264	574.69
355.491	590.69
355.718	581.69
355.945	559.69
356.172	546.69
356.399	560.69
356.626	548.69
356.853	614.69
357.08	659.69
357.307	665.69
357.534	638.69
357.761	592.69
357.988	551.69
358.215	530.69
358.441	546.69
358.668	543.69
358.895	564.69
359.122	599.69
359.349	624.69
359.576	607.69
359.802	565.69
360.029	532.69
360.256	537.69
360.483	561.69
360.709	595.69
360.936	599.69
361.163	626.69
361.39	686.69
361.616	714.69
361.843	674.69
362.07	641.69
362.296	592.69
362.523	575.69
362.749	558.69
362.976	597.69
363.203	586.69
363.429	538.69
363.656	548.69
363.882	594.69
364.109	671.69
364.335	680.69
364.562	640.69
364.788	593.69
365.015	594.69
365.241	564.69
365.468	583.69
365.694	609.69
365.92	621.69
366.147	587.69
366.373	563.69
366.599	558.69
366.826	562.69
367.052	560.69
367.278	583.69
367.505	580.69
367.731	610.69
367.957	632.69
368.184	647.69
368.41	691.69
368.636	661.69
368.862	656.69
369.089	677.69
369.315	644.69
369.541	632.69
369.767	592.69
369.993	590.69
370.219	589.69
370.445	618.69
370.672	649.69
370.898	681.69
371.124	643.69
371.35	656.69
371.576	655.69
371.802	647.69
372.028	630.69
372.254	610.69
372.48	591.69
372.706	592.69
372.932	609.69
373.158	598.69
373.384	629.69
373.61	629.69
373.835	673.69
374.061	652.69
374.287	631.69
374.513	626.69
374.739	654.69
374.965	651.69
375.191	642.69
375.416	636.69
375.642	679.69
375.868	705.69
376.094	714.69
376.319	666.69
376.545	635.69
376.771	657.69
376.997	684.69
377.222	670.69
377.448	648.69
377.674	647.69
377.899	687.69
378.125	721.69
378.35	677.69
378.576	620.69
378.802	616.69
379.027	598.69
379.253	637.69
379.478	654.69
379.704	611.69
379.929	630.69
380.155	642.69
380.38	644.69
380.606	649.69
380.831	646.69
381.057	731.69
381.282	688.69
381.507	700.69
381.733	734.69
381.958	733.69
382.184	683.69
382.409	680.69
382.634	699.69
382.86	678.69
383.085	680.69
383.31	707.69
383.535	773.69
383.761	786.69
383.986	759.69
384.211	716.69
384.436	737.69
384.662	774.69
384.887	764.69
385.112	709.69
385.337	756.69
385.562	740.69
385.787	745.69
386.013	771.69
386.238	759.69
386.463	771.69
386.688	826.69
386.913	872.69
387.138	834.69
387.363	794.69
387.588	791.69
387.813	756.69
388.038	764.69
388.263	805.69
388.488	782.69
388.713	748.69
388.938	708.69
389.163	734.69
389.387	737.69
389.612	732.69
389.837	753.69
390.062	774.69
390.287	762.69
390.512	742.69
390.736	751.69
390.961	728.69
391.186	721.69
391.411	731.69
391.636	780.69
391.86	743.69
392.085	766.69
392.31	737.69
392.534	758.69
392.759	742.69
392.984	756.69
393.208	778.69
393.433	793.69
393.658	826.69
393.882	794.69
394.107	778.69
394.331	780.69
394.556	785.69
394.78	766.69
395.005	816.69
395.229	838.69
395.454	889.69
395.678	873.69
395.903	821.69
396.127	792.69
396.352	806.69
396.576	836.69
396.801	863.69
397.025	841.69
397.249	813.69
397.474	803.69
397.698	825.69
397.922	859.69
398.147	855.69
398.371	917.69
398.595	891.69
398.82	887.69
399.044	888.69
399.268	935.69
399.492	935.69
399.717	989.69
399.941	975.69
400.165	988.69
400.389	956.69
400.613	973.69
400.837	1151.69
401.062	1214.69
401.286	1033.69
401.51	991.69
401.734	993.69
401.958	952.69
402.182	895.69
402.406	861.69
402.63	847.69
402.854	864.69
403.078	914.69
403.302	894.69
403.526	920.69
403.75	945.69
403.974	919.69
404.198	916.69
404.422	988.69
404.645	1013.69
404.869	982.69
405.093	925.69
405.317	893.69
405.541	911.69
405.765	917.69
405.988	902.69
406.212	960.69
406.436	970.69
406.66	991.69
406.883	1044.69
407.107	1141.69
407.331	1220.69
407.555	1295.69
407.778	1132.69
408.002	1022.69
408.226	988.69
408.449	993.69
408.673	921.69
408.896	950.69
409.12	947.69
409.344	962.69
409.567	927.69
409.791	942.69
410.014	977.69
410.238	1035.69
410.461	1056.69
410.685	924.69
410.908	947.69
411.132	949.69
411.355	923.69
411.578	929.69
411.802	938.69
412.025	954.69
412.249	951.69
412.472	900.69
412.695	889.69
412.919	919.69
413.142	914.69
413.365	922.69
413.589	954.69
413.812	1001.69
414.035	1020.69
414.258	948.69
414.482	887.69
414.705	946.69
414.928	914.69
415.151	913.69
415.374	928.69
415.597	920.69
415.821	936.69
416.044	958.69
416.267	930.69
416.49	915.69
416.713	926.69
416.936	929.69
417.159	988.69
417.382	972.69
417.605	930.69
417.828	932.69
418.051	931.69
418.274	951.69
418.497	919.69
418.72	929.69
418.943	920.69
419.166	967.69
419.389	994.69
419.611	972.69
419.834	956.69
420.057	924.69
420.28	953.69
420.503	931.69
420.726	948.69
420.948	950.69
421.171	915.69
421.394	913.69
421.617	985.69
421.839	990.69
422.062	981.69
422.285	927.69
422.507	936.69
422.73	913.69
422.953	884.69
423.175	903.69
423.398	936.69
423.621	949.69
423.843	932.69
424.066	992.69
424.288	1012.69
424.511	1043.69
424.733	1018.69
424.956	917.69
425.178	904.69
425.401	930.69
425.623	971.69
425.846	932.69
426.068	997.69
426.291	988.69
426.513	945.69
426.735	961.69
426.958	1048.69
427.18	1052.69
427.402	975.69
427.625	1023.69
427.847	985.69
428.069	920.69
428.292	925.69
428.514	926.69
428.736	903.69
428.958	898.69
429.181	932.69
429.403	1086.69
429.625	1244.69
429.847	1050.69
430.069	970.69
430.292	1030.69
430.514	1032.69
430.736	968.69
430.958	957.69
431.18	913.69
431.402	858.69
431.624	832.69
431.846	802.69
432.068	729.69
432.29	742.69
432.512	807.69
432.734	874.69
432.956	928.69
433.178	1000.69
433.4	980.69
433.622	977.69
433.844	893.69
434.066	854.69
434.287	824.69
434.509	784.69
434.731	847.69
434.953	933.69
435.175	926.69
435.397	905.69
435.618	881.69
435.84	858.69
436.062	862.69
436.284	902.69
436.505	933.69
436.727	974.69
436.949	934.69
437.17	920.69
437.392	902.69
437.614	876.69
437.835	777.69
438.057	828.69
438.278	863.69
438.5	874.69
438.721	890.69
438.943	952.69
439.165	933.69
439.386	896.69
439.608	938.69
439.829	944.69
440.05	976.69
440.272	937.69
440.493	955.69
440.715	980.69
440.936	1021.69
441.158	1077.69
441.379	1044.69
441.6	1051.69
441.822	1042.69
442.043	1000.69
442.264	980.69
442.486	926.69
442.707	975.69
442.928	943.69
443.149	984.69
443.371	986.69
443.592	997.69
443.813	991.69
444.034	1007.69
444.255	996.69
444.476	1028.69
444.698	1006.69
444.919	1042.69
445.14	1148.69
445.361	1113.69
445.582	1091.69
445.803	1068.69
446.024	1062.69
446.245	1066.69
446.466	1059.69
446.687	1028.69
446.908	1017.69
447.129	1029.69
447.35	1053.69
447.571	1002.69
447.792	961.69
448.013	976.69
448.234	954.69
448.455	1027.69
448.675	1020.69
448.896	917.69
449.117	900.69
449.338	944.69
449.559	948.69
449.779	952.69
450	1030.69
450.221	1042.69
450.442	1005.69
450.662	950.69
450.883	877.69
451.104	878.69
451.324	884.69
451.545	887.69
451.766	871.69
451.986	852.69
452.207	840.69
452.428	800.69
452.648	783.69
452.869	771.69
453.089	815.69
453.31	782.69
453.53	797.69
453.751	742.69
453.971	693.69
454.192	722.69
454.412	777.69
454.633	825.69
454.853	805.69
455.073	765.69
455.294	791.69
455.514	784.69
455.734	768.69
455.955	777.69
456.175	764.69
456.395	730.69
456.616	756.69
456.836	748.69
457.056	726.69
457.276	730.69
457.497	698.69
457.717	680.69
457.937	717.69
458.157	710.69
458.377	709.69
458.598	685.69
458.818	657.69
459.038	710.69
459.258	742.69
459.478	711.69
459.698	712.69
459.918	738.69
460.138	796.69
460.358	812.69
460.578	834.69
460.798	856.69
461.018	880.69
461.238	856.69
461.458	849.69
461.678	841.69
461.898	807.69
462.118	797.69
462.338	856.69
462.558	879.69
462.777	840.69
462.997	877.69
463.217	909.69
463.437	908.69
463.657	840.69
463.876	840.69
464.096	845.69
464.316	855.69
464.536	856.69
464.755	870.69
464.975	881.69
465.195	851.69
465.414	885.69
465.634	860.69
465.854	869.69
466.073	973.69
466.293	955.69
466.512	862.69
466.732	886.69
466.951	896.69
467.171	879.69
467.391	868.69
467.61	886.69
467.829	916.69
468.049	1012.69
468.268	1068.69
468.488	961.69
468.707	920.69
468.927	905.69
469.146	924.69
469.365	915.69
469.585	922.69
469.804	925.69
470.023	942.69
470.243	940.69
470.462	908.69
470.681	943.69
470.901	887.69
471.12	924.69
471.339	922.69
471.558	886.69
471.777	884.69
471.997	911.69
472.216	872.69
472.435	764.69
472.654	769.69
472.873	808.69
473.092	827.69
473.311	832.69
473.53	833.69
473.749	806.69
473.968	853.69
474.187	835.69
474.406	857.69
474.625	862.69
474.844	886.69
475.063	873.69
475.282	896.69
475.501	845.69
475.72	873.69
475.939	917.69
476.158	895.69
476.377	877.69
476.596	859.69
476.814	842.69
477.033	811.69
477.252	848.69
477.471	893.69
477.69	907.69
477.908	934.69
478.127	969.69
478.346	1039.69
478.564	993.69
478.783	1020.69
479.002	1028.69
479.22	956.69
479.439	1013.69
479.658	1050.69
479.876	966.69
480.095	912.69
480.313	896.69
480.532	878.69
480.751	881.69
480.969	846.69
481.188	800.69
481.406	816.69
481.624	750.69
481.843	786.69
482.061	812.69
482.28	872.69
482.498	898.69
482.717	865.69
482.935	912.69
483.153	992.69
483.372	1028.69
483.59	1038.69
483.808	970.69
484.027	945.69
484.245	1017.69
484.463	1251.69
484.681	1308.69
484.9	1058.69
485.118	990.69
485.336	920.69
485.554	916.69
485.772	892.69
485.99	891.69
486.209	904.69
486.427	919.69
486.645	955.69
486.863	992.69
487.081	1028.69
487.299	990.69
487.517	1038.69
487.735	1103.69
487.953	1182.69
488.171	1188.69
488.389	1166.69
488.607	1097.69
488.825	1167.69
489.043	1047.69
489.261	996.69
489.479	1040.69
489.696	1074.69
489.914	1032.69
490.132	1055.69
490.35	1061.69
490.568	1152.69
490.786	1168.69
491.003	1192.69
491.221	1256.69
491.439	1312.69
491.657	1322.69
491.874	1399.69
492.092	1449.69
492.31	1536.69
492.527	1466.69
492.745	1356.69
492.963	1356.69
493.18	1309.69
493.398	1361.69
493.615	1331.69
493.833	1272.69
494.05	1247.69
494.268	1282.69
494.485	1246.69
494.703	1237.69
494.92	1211.69
495.138	1220.69
495.355	1217.69
495.573	1262.69
495.79	1296.69
496.008	1320.69
496.225	1267.69
496.442	1252.69
496.66	1264.69
496.877	1218.69
497.094	1246.69
497.312	1218.69
497.529	1200.69
497.746	1213.69
497.963	1262.69
498.181	1319.69
498.398	1265.69
498.615	1223.69
498.832	1135.69
499.049	1147.69
499.267	1187.69
499.484	1237.69
499.701	1357.69
499.918	1385.69
500.135	1478.69
500.352	1560.69
