Data from WStandard_LampEnergy8_LIBS07252019.E.O._I.C._HRD10591_15-59-15-929.txt Node
Date: Thu Jul 25 15:59:15 EDT 2019
User: cochatt
Spectrometer: HR+D1059
Trigger mode: 1
Integration Time (sec): 1.000000E-1
Scans to average: 1
Electric dark correction enabled: true
Nonlinearity correction enabled: false
Boxcar width: 0
XAxis mode: Wavelengths
Number of Pixels in Spectrum: 2048
>>>>>Begin Spectral Data<<<<<
223.165	-6.88
223.4	-6.88
223.635	-6.88
223.869	-18.88
224.104	-19.88
224.338	-9.88
224.573	-20.88
224.808	-12.88
225.042	-8.88
225.277	-14.88
225.511	7.12
225.746	5.12
225.98	5.12
226.215	4.12
226.449	12.12
226.683	11.12
226.918	31.12
227.152	37.12
227.387	40.12
227.621	47.12
227.856	51.12
228.09	52.12
228.324	36.12
228.559	47.12
228.793	92.12
229.027	212.12
229.262	220.12
229.496	222.12
229.73	216.12
229.964	250.12
230.199	245.12
230.433	243.12
230.667	279.12
230.901	309.12
231.136	265.12
231.37	281.12
231.604	275.12
231.838	259.12
232.072	283.12
232.306	266.12
232.541	260.12
232.775	309.12
233.009	343.12
233.243	319.12
233.477	295.12
233.711	301.12
233.945	323.12
234.179	287.12
234.413	300.12
234.647	319.12
234.881	298.12
235.115	297.12
235.349	300.12
235.583	306.12
235.817	287.12
236.051	297.12
236.285	305.12
236.519	337.12
236.753	357.12
236.987	371.12
237.221	337.12
237.455	377.12
237.689	364.12
237.922	351.12
238.156	360.12
238.39	345.12
238.624	377.12
238.858	387.12
239.091	402.12
239.325	426.12
239.559	457.12
239.793	493.12
240.027	518.12
240.26	482.12
240.494	395.12
240.728	370.12
240.961	376.12
241.195	379.12
241.429	407.12
241.662	406.12
241.896	368.12
242.13	387.12
242.363	450.12
242.597	461.12
242.83	452.12
243.064	457.12
243.298	481.12
243.531	461.12
243.765	456.12
243.998	481.12
244.232	402.12
244.465	391.12
244.699	425.12
244.932	467.12
245.166	533.12
245.399	493.12
245.633	443.12
245.866	447.12
246.099	482.12
246.333	496.12
246.566	500.12
246.8	518.12
247.033	567.12
247.266	534.12
247.5	529.12
247.733	542.12
247.966	565.12
248.2	608.12
248.433	595.12
248.666	610.12
248.899	688.12
249.133	771.12
249.366	815.12
249.599	671.12
249.832	648.12
250.066	604.12
250.299	625.12
250.532	608.12
250.765	545.12
250.998	572.12
251.231	616.12
251.465	624.12
251.698	598.12
251.931	593.12
252.164	587.12
252.397	621.12
252.63	635.12
252.863	553.12
253.096	556.12
253.329	584.12
253.562	600.12
253.795	627.12
254.028	618.12
254.261	586.12
254.494	585.12
254.727	564.12
254.96	589.12
255.193	639.12
255.426	694.12
255.659	810.12
255.892	781.12
256.124	688.12
256.357	654.12
256.59	697.12
256.823	721.12
257.056	725.12
257.289	845.12
257.521	893.12
257.754	788.12
257.987	779.12
258.22	841.12
258.452	817.12
258.685	683.12
258.918	671.12
259.151	663.12
259.383	636.12
259.616	597.12
259.849	634.12
260.081	711.12
260.314	757.12
260.547	819.12
260.779	861.12
261.012	782.12
261.244	709.12
261.477	699.12
261.71	696.12
261.942	690.12
262.175	659.12
262.407	709.12
262.64	650.12
262.872	641.12
263.105	620.12
263.337	646.12
263.57	643.12
263.802	644.12
264.035	603.12
264.267	559.12
264.499	577.12
264.732	595.12
264.964	659.12
265.197	678.12
265.429	699.12
265.661	795.12
265.894	863.12
266.126	851.12
266.358	784.12
266.591	824.12
266.823	861.12
267.055	789.12
267.287	777.12
267.52	747.12
267.752	763.12
267.984	729.12
268.216	807.12
268.448	827.12
268.681	791.12
268.913	733.12
269.145	704.12
269.377	689.12
269.609	793.12
269.841	869.12
270.073	1003.12
270.306	1074.12
270.538	1115.12
270.77	982.12
271.002	852.12
271.234	796.12
271.466	833.12
271.698	919.12
271.93	1037.12
272.162	1047.12
272.394	954.12
272.626	901.12
272.858	806.12
273.09	707.12
273.322	714.12
273.553	664.12
273.785	698.12
274.017	743.12
274.249	759.12
274.481	767.12
274.713	717.12
274.945	702.12
275.176	699.12
275.408	725.12
275.64	682.12
275.872	690.12
276.104	757.12
276.335	827.12
276.567	934.12
276.799	913.12
277.031	833.12
277.262	803.12
277.494	847.12
277.726	915.12
277.957	880.12
278.189	782.12
278.421	737.12
278.652	733.12
278.884	746.12
279.115	721.12
279.347	747.12
279.579	728.12
279.81	731.12
280.042	838.12
280.273	885.12
280.505	871.12
280.736	889.12
280.968	829.12
281.199	741.12
281.431	709.12
281.662	722.12
281.894	715.12
282.125	751.12
282.356	771.12
282.588	781.12
282.819	784.12
283.051	879.12
283.282	887.12
283.513	865.12
283.745	753.12
283.976	718.12
284.207	737.12
284.439	748.12
284.67	744.12
284.901	780.12
285.132	767.12
285.364	783.12
285.595	771.12
285.826	777.12
286.057	775.12
286.288	781.12
286.52	792.12
286.751	857.12
286.982	873.12
287.213	791.12
287.444	750.12
287.675	748.12
287.906	809.12
288.138	822.12
288.369	835.12
288.6	775.12
288.831	738.12
289.062	780.12
289.293	752.12
289.524	770.12
289.755	785.12
289.986	763.12
290.217	738.12
290.448	762.12
290.679	767.12
290.91	774.12
291.141	794.12
291.371	830.12
291.602	839.12
291.833	795.12
292.064	819.12
292.295	842.12
292.526	834.12
292.757	852.12
292.987	825.12
293.218	804.12
293.449	858.12
293.68	945.12
293.91	1019.12
294.141	959.12
294.372	923.12
294.603	938.12
294.833	984.12
295.064	902.12
295.295	820.12
295.525	800.12
295.756	775.12
295.987	749.12
296.217	757.12
296.448	750.12
296.679	740.12
296.909	785.12
297.14	764.12
297.37	815.12
297.601	802.12
297.831	873.12
298.062	890.12
298.292	795.12
298.523	778.12
298.753	790.12
298.984	799.12
299.214	816.12
299.445	803.12
299.675	828.12
299.905	841.12
300.136	808.12
300.366	805.12
300.597	759.12
300.827	749.12
301.057	817.12
301.288	856.12
301.518	860.12
301.748	849.12
301.979	930.12
302.209	958.12
302.439	997.12
302.669	1019.12
302.9	954.12
303.13	854.12
303.36	874.12
303.59	891.12
303.82	857.12
304.051	861.12
304.281	875.12
304.511	894.12
304.741	924.12
304.971	1063.12
305.201	1100.12
305.431	969.12
305.661	818.12
305.891	751.12
306.121	746.12
306.352	818.12
306.582	858.12
306.812	896.12
307.042	970.12
307.272	971.12
307.502	966.12
307.731	1059.12
307.961	1087.12
308.191	1012.12
308.421	887.12
308.651	856.12
308.881	817.12
309.111	836.12
309.341	807.12
309.571	853.12
309.8	840.12
310.03	824.12
310.26	812.12
310.49	845.12
310.72	836.12
310.949	881.12
311.179	930.12
311.409	858.12
311.639	851.12
311.868	838.12
312.098	847.12
312.328	870.12
312.557	833.12
312.787	832.12
313.017	899.12
313.246	843.12
313.476	876.12
313.706	876.12
313.935	901.12
314.165	906.12
314.394	949.12
314.624	967.12
314.853	1051.12
315.083	1036.12
315.312	1093.12
315.542	991.12
315.771	905.12
316.001	918.12
316.23	961.12
316.46	947.12
316.689	932.12
316.919	885.12
317.148	867.12
317.377	908.12
317.607	985.12
317.836	1077.12
318.065	1100.12
318.295	1043.12
318.524	997.12
318.753	948.12
318.983	944.12
319.212	917.12
319.441	933.12
319.67	922.12
319.9	960.12
320.129	993.12
320.358	1007.12
320.587	1034.12
320.816	996.12
321.046	1008.12
321.275	964.12
321.504	995.12
321.733	1033.12
321.962	1009.12
322.191	963.12
322.42	947.12
322.649	935.12
322.878	893.12
323.108	941.12
323.337	977.12
323.566	954.12
323.795	977.12
324.024	941.12
324.253	946.12
324.482	913.12
324.71	886.12
324.939	874.12
325.168	926.12
325.397	947.12
325.626	971.12
325.855	951.12
326.084	899.12
326.313	956.12
326.542	951.12
326.77	979.12
326.999	964.12
327.228	917.12
327.457	875.12
327.686	885.12
327.914	919.12
328.143	945.12
328.372	931.12
328.6	925.12
328.829	940.12
329.058	890.12
329.287	917.12
329.515	943.12
329.744	1000.12
329.972	1000.12
330.201	1030.12
330.43	1024.12
330.658	998.12
330.887	1012.12
331.115	982.12
331.344	989.12
331.572	989.12
331.801	953.12
332.03	975.12
332.258	963.12
332.486	995.12
332.715	1002.12
332.943	995.12
333.172	993.12
333.4	1015.12
333.629	1054.12
333.857	1108.12
334.085	1236.12
334.314	1366.12
334.542	1461.12
334.771	1305.12
334.999	1146.12
335.227	1099.12
335.455	1047.12
335.684	1044.12
335.912	1096.12
336.14	1100.12
336.369	1084.12
336.597	1036.12
336.825	972.12
337.053	1076.12
337.281	1119.12
337.51	1160.12
337.738	1179.12
337.966	1111.12
338.194	997.12
338.422	972.12
338.65	971.12
338.878	947.12
339.106	958.12
339.334	940.12
339.562	929.12
339.79	989.12
340.018	1044.12
340.246	1042.12
340.474	1015.12
340.702	1025.12
340.93	1025.12
341.158	1002.12
341.386	1007.12
341.614	1000.12
341.842	963.12
342.07	998.12
342.298	1012.12
342.526	991.12
342.754	971.12
342.981	969.12
343.209	967.12
343.437	968.12
343.665	968.12
343.893	1034.12
344.12	1057.12
344.348	1049.12
344.576	960.12
344.804	993.12
345.031	973.12
345.259	992.12
345.487	961.12
345.714	917.12
345.942	907.12
346.17	918.12
346.397	923.12
346.625	953.12
346.853	888.12
347.08	870.12
347.308	908.12
347.535	951.12
347.763	940.12
347.99	917.12
348.218	919.12
348.445	890.12
348.673	919.12
348.9	982.12
349.128	1012.12
349.355	988.12
349.583	980.12
349.81	950.12
350.037	900.12
350.265	867.12
350.492	845.12
350.72	903.12
350.947	929.12
351.174	959.12
351.402	883.12
351.629	854.12
351.856	882.12
352.083	864.12
352.311	881.12
352.538	915.12
352.765	951.12
352.992	940.12
353.22	914.12
353.447	884.12
353.674	917.12
353.901	927.12
354.128	902.12
354.355	931.12
354.583	961.12
354.81	964.12
355.037	969.12
355.264	955.12
355.491	927.12
355.718	952.12
355.945	930.12
356.172	871.12
356.399	888.12
356.626	868.12
356.853	961.12
357.08	1065.12
357.307	1129.12
357.534	1098.12
357.761	952.12
357.988	900.12
358.215	881.12
358.441	882.12
358.668	907.12
358.895	895.12
359.122	986.12
359.349	1031.12
359.576	1037.12
359.802	948.12
360.029	865.12
360.256	883.12
360.483	903.12
360.709	933.12
360.936	945.12
361.163	1049.12
361.39	1100.12
361.616	1162.12
361.843	1112.12
362.07	1030.12
362.296	929.12
362.523	938.12
362.749	912.12
362.976	925.12
363.203	975.12
363.429	913.12
363.656	854.12
363.882	980.12
364.109	1065.12
364.335	1102.12
364.562	1016.12
364.788	997.12
365.015	927.12
365.241	912.12
365.468	965.12
365.694	996.12
365.92	1007.12
366.147	952.12
366.373	930.12
366.599	893.12
366.826	913.12
367.052	898.12
367.278	914.12
367.505	950.12
367.731	953.12
367.957	956.12
368.184	1004.12
368.41	1058.12
368.636	1052.12
368.862	1030.12
369.089	1064.12
369.315	1005.12
369.541	975.12
369.767	967.12
369.993	920.12
370.219	909.12
370.445	969.12
370.672	1016.12
370.898	1059.12
371.124	1059.12
371.35	1009.12
371.576	1037.12
371.802	1056.12
372.028	1012.12
372.254	976.12
372.48	923.12
372.706	939.12
372.932	954.12
373.158	920.12
373.384	972.12
373.61	1003.12
373.835	1013.12
374.061	978.12
374.287	988.12
374.513	990.12
374.739	988.12
374.965	986.12
375.191	1033.12
375.416	1037.12
375.642	1032.12
375.868	1100.12
376.094	1122.12
376.319	1052.12
376.545	978.12
376.771	1025.12
376.997	1106.12
377.222	1067.12
377.448	1021.12
377.674	1016.12
377.899	1047.12
378.125	1091.12
378.35	1086.12
378.576	996.12
378.802	952.12
379.027	1002.12
379.253	999.12
379.478	1003.12
379.704	1006.12
379.929	973.12
380.155	994.12
380.38	1034.12
380.606	994.12
380.831	1014.12
381.057	1060.12
381.282	1094.12
381.507	1043.12
381.733	1130.12
381.958	1124.12
382.184	1060.12
382.409	1045.12
382.634	1042.12
382.86	1036.12
383.085	1065.12
383.31	1100.12
383.535	1187.12
383.761	1230.12
383.986	1166.12
384.211	1125.12
384.436	1144.12
384.662	1165.12
384.887	1232.12
385.112	1138.12
385.337	1127.12
385.562	1145.12
385.787	1107.12
386.013	1169.12
386.238	1186.12
386.463	1177.12
386.688	1274.12
386.913	1311.12
387.138	1256.12
387.363	1165.12
387.588	1173.12
387.813	1138.12
388.038	1212.12
388.263	1227.12
388.488	1174.12
388.713	1106.12
388.938	1069.12
389.163	1092.12
389.387	1128.12
389.612	1120.12
389.837	1151.12
390.062	1153.12
390.287	1148.12
390.512	1137.12
390.736	1112.12
390.961	1113.12
391.186	1037.12
391.411	1112.12
391.636	1108.12
391.86	1116.12
392.085	1122.12
392.31	1113.12
392.534	1111.12
392.759	1135.12
392.984	1132.12
393.208	1156.12
393.433	1192.12
393.658	1243.12
393.882	1220.12
394.107	1159.12
394.331	1145.12
394.556	1111.12
394.78	1155.12
395.005	1210.12
395.229	1252.12
395.454	1315.12
395.678	1294.12
395.903	1249.12
396.127	1210.12
396.352	1223.12
396.576	1243.12
396.801	1279.12
397.025	1233.12
397.249	1226.12
397.474	1228.12
397.698	1227.12
397.922	1278.12
398.147	1313.12
398.371	1365.12
398.595	1329.12
398.82	1294.12
399.044	1304.12
399.268	1392.12
399.492	1409.12
399.717	1508.12
399.941	1524.12
400.165	1465.12
400.389	1434.12
400.613	1446.12
400.837	1659.12
401.062	1822.12
401.286	1508.12
401.51	1412.12
401.734	1429.12
401.958	1426.12
402.182	1359.12
402.406	1286.12
402.63	1316.12
402.854	1277.12
403.078	1303.12
403.302	1333.12
403.526	1368.12
403.75	1380.12
403.974	1364.12
404.198	1370.12
404.422	1418.12
404.645	1506.12
404.869	1423.12
405.093	1308.12
405.317	1283.12
405.541	1320.12
405.765	1344.12
405.988	1350.12
406.212	1386.12
406.436	1412.12
406.66	1439.12
406.883	1501.12
407.107	1659.12
407.331	1825.12
407.555	1921.12
407.778	1709.12
408.002	1439.12
408.226	1443.12
408.449	1418.12
408.673	1346.12
408.896	1391.12
409.12	1411.12
409.344	1407.12
409.567	1313.12
409.791	1374.12
410.014	1414.12
410.238	1506.12
410.461	1566.12
410.685	1379.12
410.908	1341.12
411.132	1360.12
411.355	1338.12
411.578	1314.12
411.802	1321.12
412.025	1345.12
412.249	1335.12
412.472	1287.12
412.695	1297.12
412.919	1299.12
413.142	1308.12
413.365	1307.12
413.589	1394.12
413.812	1434.12
414.035	1451.12
414.258	1359.12
414.482	1295.12
414.705	1322.12
414.928	1322.12
415.151	1281.12
415.374	1312.12
415.597	1328.12
415.821	1341.12
416.044	1349.12
416.267	1346.12
416.49	1251.12
416.713	1260.12
416.936	1323.12
417.159	1388.12
417.382	1362.12
417.605	1288.12
417.828	1336.12
418.051	1345.12
418.274	1322.12
418.497	1231.12
418.72	1284.12
418.943	1279.12
419.166	1325.12
419.389	1425.12
419.611	1314.12
419.834	1307.12
420.057	1300.12
420.28	1312.12
420.503	1315.12
420.726	1339.12
420.948	1320.12
421.171	1269.12
421.394	1330.12
421.617	1372.12
421.839	1355.12
422.062	1365.12
422.285	1289.12
422.507	1275.12
422.73	1264.12
422.953	1229.12
423.175	1232.12
423.398	1260.12
423.621	1234.12
423.843	1288.12
424.066	1324.12
424.288	1373.12
424.511	1405.12
424.733	1357.12
424.956	1242.12
425.178	1227.12
425.401	1263.12
425.623	1235.12
425.846	1265.12
426.068	1361.12
426.291	1337.12
426.513	1295.12
426.735	1358.12
426.958	1433.12
427.18	1497.12
427.402	1393.12
427.625	1408.12
427.847	1376.12
428.069	1260.12
428.292	1250.12
428.514	1249.12
428.736	1231.12
428.958	1239.12
429.181	1285.12
429.403	1451.12
429.625	1796.12
429.847	1481.12
430.069	1295.12
430.292	1459.12
430.514	1447.12
430.736	1357.12
430.958	1361.12
431.18	1304.12
431.402	1231.12
431.624	1192.12
431.846	1193.12
432.068	1132.12
432.29	1153.12
432.512	1177.12
432.734	1264.12
432.956	1290.12
433.178	1307.12
433.4	1319.12
433.622	1304.12
433.844	1213.12
434.066	1215.12
434.287	1201.12
434.509	1223.12
434.731	1256.12
434.953	1394.12
435.175	1320.12
435.397	1267.12
435.618	1272.12
435.84	1245.12
436.062	1199.12
436.284	1293.12
436.505	1279.12
436.727	1298.12
436.949	1254.12
437.17	1227.12
437.392	1214.12
437.614	1221.12
437.835	1203.12
438.057	1215.12
438.278	1260.12
438.5	1204.12
438.721	1235.12
438.943	1243.12
439.165	1239.12
439.386	1229.12
439.608	1270.12
439.829	1234.12
440.05	1220.12
440.272	1212.12
440.493	1270.12
440.715	1305.12
440.936	1324.12
441.158	1447.12
441.379	1416.12
441.6	1368.12
441.822	1356.12
442.043	1363.12
442.264	1327.12
442.486	1260.12
442.707	1259.12
442.928	1260.12
443.149	1323.12
443.371	1361.12
443.592	1415.12
443.813	1373.12
444.034	1349.12
444.255	1375.12
444.476	1383.12
444.698	1397.12
444.919	1421.12
445.14	1496.12
445.361	1410.12
445.582	1438.12
445.803	1392.12
446.024	1365.12
446.245	1392.12
446.466	1374.12
446.687	1331.12
446.908	1348.12
447.129	1289.12
447.35	1326.12
447.571	1294.12
447.792	1214.12
448.013	1225.12
448.234	1247.12
448.455	1321.12
448.675	1285.12
448.896	1232.12
449.117	1191.12
449.338	1220.12
449.559	1279.12
449.779	1341.12
450	1416.12
450.221	1494.12
450.442	1445.12
450.662	1285.12
450.883	1183.12
451.104	1153.12
451.324	1180.12
451.545	1209.12
451.766	1180.12
451.986	1132.12
452.207	1150.12
452.428	1113.12
452.648	1109.12
452.869	1144.12
453.089	1142.12
453.31	1154.12
453.53	1162.12
453.751	1111.12
453.971	1062.12
454.192	1101.12
454.412	1139.12
454.633	1130.12
454.853	1133.12
455.073	1041.12
455.294	1052.12
455.514	1053.12
455.734	1047.12
455.955	1074.12
456.175	1089.12
456.395	1063.12
456.616	1093.12
456.836	1127.12
457.056	1085.12
457.276	1086.12
457.497	1053.12
457.717	1034.12
457.937	1045.12
458.157	1047.12
458.377	1062.12
458.598	1034.12
458.818	1101.12
459.038	1094.12
459.258	1144.12
459.478	1144.12
459.698	1115.12
459.918	1176.12
460.138	1248.12
460.358	1231.12
460.578	1228.12
460.798	1312.12
461.018	1318.12
461.238	1273.12
461.458	1249.12
461.678	1272.12
461.898	1223.12
462.118	1172.12
462.338	1267.12
462.558	1248.12
462.777	1243.12
462.997	1299.12
463.217	1380.12
463.437	1321.12
463.657	1273.12
463.876	1249.12
464.096	1270.12
464.316	1266.12
464.536	1325.12
464.755	1308.12
464.975	1305.12
465.195	1271.12
465.414	1291.12
465.634	1332.12
465.854	1277.12
466.073	1388.12
466.293	1361.12
466.512	1205.12
466.732	1184.12
466.951	1253.12
467.171	1216.12
467.391	1202.12
467.61	1204.12
467.829	1224.12
468.049	1356.12
468.268	1451.12
468.488	1343.12
468.707	1261.12
468.927	1254.12
469.146	1204.12
469.365	1209.12
469.585	1253.12
469.804	1229.12
470.023	1241.12
470.243	1266.12
470.462	1253.12
470.681	1215.12
470.901	1250.12
471.12	1238.12
471.339	1244.12
471.558	1185.12
471.777	1172.12
471.997	1206.12
472.216	1185.12
472.435	1083.12
472.654	1115.12
472.873	1129.12
473.092	1206.12
473.311	1211.12
473.53	1144.12
473.749	1132.12
473.968	1171.12
474.187	1235.12
474.406	1217.12
474.625	1238.12
474.844	1241.12
475.063	1220.12
475.282	1205.12
475.501	1204.12
475.72	1224.12
475.939	1297.12
476.158	1231.12
476.377	1205.12
476.596	1175.12
476.814	1209.12
477.033	1197.12
477.252	1291.12
477.471	1304.12
477.69	1266.12
477.908	1269.12
478.127	1329.12
478.346	1407.12
478.564	1401.12
478.783	1391.12
479.002	1421.12
479.22	1399.12
479.439	1474.12
479.658	1577.12
479.876	1543.12
480.095	1394.12
480.313	1300.12
480.532	1285.12
480.751	1291.12
480.969	1289.12
481.188	1274.12
481.406	1252.12
481.624	1215.12
481.843	1261.12
482.061	1272.12
482.28	1327.12
482.498	1365.12
482.717	1314.12
482.935	1308.12
483.153	1310.12
483.372	1359.12
483.59	1353.12
483.808	1339.12
484.027	1383.12
484.245	1443.12
484.463	1753.12
484.681	1928.12
484.9	1493.12
485.118	1377.12
485.336	1357.12
485.554	1361.12
485.772	1383.12
485.99	1355.12
486.209	1369.12
486.427	1383.12
486.645	1425.12
486.863	1423.12
487.081	1460.12
487.299	1450.12
487.517	1432.12
487.735	1464.12
487.953	1485.12
488.171	1503.12
488.389	1472.12
488.607	1452.12
488.825	1650.12
489.043	1526.12
489.261	1417.12
489.479	1453.12
489.696	1465.12
489.914	1465.12
490.132	1447.12
490.35	1451.12
490.568	1513.12
490.786	1476.12
491.003	1476.12
491.221	1524.12
491.439	1585.12
491.657	1583.12
491.874	1643.12
492.092	1704.12
492.31	1681.12
492.527	1659.12
492.745	1620.12
492.963	1573.12
493.18	1612.12
493.398	1743.12
493.615	1674.12
