Data from WStandard_LampEnergy5.5LIBS07252019.E.O._I.C._HRD10591_16-09-00-921.txt Node
Date: Thu Jul 25 16:09:00 EDT 2019
User: cochatt
Spectrometer: HR+D1059
Trigger mode: 1
Integration Time (sec): 1.000000E-1
Scans to average: 1
Electric dark correction enabled: true
Nonlinearity correction enabled: false
Boxcar width: 0
XAxis mode: Wavelengths
Number of Pixels in Spectrum: 2048
>>>>>Begin Spectral Data<<<<<
223.165	-20.81
223.4	-20.81
223.635	-20.81
223.869	-34.81
224.104	-22.81
224.338	-4.81
224.573	-1.81
224.808	-5.81
225.042	-8.81
225.277	0.19
225.511	-0.81
225.746	-11.81
225.98	4.19
226.215	23.19
226.449	20.19
226.683	18.19
226.918	31.19
227.152	15.19
227.387	27.19
227.621	37.19
227.856	48.19
228.09	49.19
228.324	66.19
228.559	53.19
228.793	154.19
229.027	374.19
229.262	349.19
229.496	378.19
229.73	382.19
229.964	420.19
230.199	455.19
230.433	450.19
230.667	477.19
230.901	530.19
231.136	481.19
231.37	468.19
231.604	443.19
231.838	462.19
232.072	456.19
232.306	440.19
232.541	500.19
232.775	555.19
233.009	589.19
233.243	587.19
233.477	522.19
233.711	541.19
233.945	552.19
234.179	518.19
234.413	582.19
234.647	609.19
234.881	598.19
235.115	532.19
235.349	532.19
235.583	551.19
235.817	555.19
236.051	534.19
236.285	565.19
236.519	561.19
236.753	673.19
236.987	680.19
237.221	661.19
237.455	717.19
237.689	710.19
237.922	674.19
238.156	636.19
238.39	655.19
238.624	684.19
238.858	733.19
239.091	735.19
239.325	798.19
239.559	889.19
239.793	914.19
240.027	1043.19
240.26	1059.19
240.494	742.19
240.728	711.19
240.961	720.19
241.195	706.19
241.429	782.19
241.662	800.19
241.896	745.19
242.13	760.19
242.363	828.19
242.597	897.19
242.83	852.19
243.064	859.19
243.298	930.19
243.531	911.19
243.765	903.19
243.998	885.19
244.232	807.19
244.465	748.19
244.699	780.19
244.932	874.19
245.166	1022.19
245.399	950.19
245.633	876.19
245.866	892.19
246.099	893.19
246.333	927.19
246.566	943.19
246.8	1010.19
247.033	1157.19
247.266	1069.19
247.5	1054.19
247.733	1037.19
247.966	1070.19
248.2	1189.19
248.433	1159.19
248.666	1190.19
248.899	1274.19
249.133	1474.19
249.366	1682.19
249.599	1377.19
249.832	1192.19
250.066	1235.19
250.299	1254.19
250.532	1188.19
250.765	1050.19
250.998	1133.19
251.231	1141.19
251.465	1204.19
251.698	1168.19
251.931	1156.19
252.164	1190.19
252.397	1206.19
252.63	1219.19
252.863	1080.19
253.096	1076.19
253.329	1121.19
253.562	1169.19
253.795	1240.19
254.028	1223.19
254.261	1176.19
254.494	1150.19
254.727	1103.19
254.96	1133.19
255.193	1232.19
255.426	1402.19
255.659	1622.19
255.892	1643.19
256.124	1326.19
256.357	1310.19
256.59	1408.19
256.823	1397.19
257.056	1416.19
257.289	1655.19
257.521	1838.19
257.754	1651.19
257.987	1547.19
258.22	1737.19
258.452	1704.19
258.685	1344.19
258.918	1347.19
259.151	1362.19
259.383	1249.19
259.616	1139.19
259.849	1207.19
260.081	1343.19
260.314	1491.19
260.547	1610.19
260.779	1694.19
261.012	1571.19
261.244	1430.19
261.477	1330.19
261.71	1424.19
261.942	1395.19
262.175	1337.19
262.407	1443.19
262.64	1364.19
262.872	1270.19
263.105	1203.19
263.337	1239.19
263.57	1258.19
263.802	1259.19
264.035	1208.19
264.267	1154.19
264.499	1132.19
264.732	1231.19
264.964	1305.19
265.197	1322.19
265.429	1369.19
265.661	1538.19
265.894	1677.19
266.126	1805.19
266.358	1565.19
266.591	1602.19
266.823	1757.19
267.055	1588.19
267.287	1557.19
267.52	1533.19
267.752	1499.19
267.984	1524.19
268.216	1564.19
268.448	1644.19
268.681	1629.19
268.913	1503.19
269.145	1390.19
269.377	1354.19
269.609	1453.19
269.841	1738.19
270.073	2023.19
270.306	2204.19
270.538	2362.19
270.77	2007.19
271.002	1695.19
271.234	1603.19
271.466	1603.19
271.698	1794.19
271.93	2159.19
272.162	2103.19
272.394	1929.19
272.626	1864.19
272.858	1659.19
273.09	1426.19
273.322	1443.19
273.553	1351.19
273.785	1375.19
274.017	1419.19
274.249	1512.19
274.481	1543.19
274.713	1421.19
274.945	1372.19
275.176	1380.19
275.408	1371.19
275.64	1355.19
275.872	1365.19
276.104	1436.19
276.335	1604.19
276.567	1835.19
276.799	1890.19
277.031	1667.19
277.262	1604.19
277.494	1655.19
277.726	1833.19
277.957	1772.19
278.189	1595.19
278.421	1523.19
278.652	1440.19
278.884	1436.19
279.115	1463.19
279.347	1500.19
279.579	1421.19
279.81	1451.19
280.042	1567.19
280.273	1753.19
280.505	1723.19
280.736	1795.19
280.968	1684.19
281.199	1480.19
281.431	1432.19
281.662	1407.19
281.894	1445.19
282.125	1463.19
282.356	1527.19
282.588	1552.19
282.819	1519.19
283.051	1640.19
283.282	1763.19
283.513	1707.19
283.745	1521.19
283.976	1425.19
284.207	1436.19
284.439	1421.19
284.67	1451.19
284.901	1493.19
285.132	1546.19
285.364	1519.19
285.595	1538.19
285.826	1488.19
286.057	1528.19
286.288	1466.19
286.52	1548.19
286.751	1658.19
286.982	1731.19
287.213	1608.19
287.444	1488.19
287.675	1431.19
287.906	1530.19
288.138	1678.19
288.369	1595.19
288.6	1504.19
288.831	1451.19
289.062	1449.19
289.293	1508.19
289.524	1520.19
289.755	1575.19
289.986	1571.19
290.217	1415.19
290.448	1449.19
290.679	1501.19
290.91	1516.19
291.141	1544.19
291.371	1636.19
291.602	1613.19
291.833	1568.19
292.064	1645.19
292.295	1624.19
292.526	1617.19
292.757	1724.19
292.987	1665.19
293.218	1532.19
293.449	1643.19
293.68	1826.19
293.91	2019.19
294.141	1883.19
294.372	1756.19
294.603	1787.19
294.833	1930.19
295.064	1821.19
295.295	1653.19
295.525	1586.19
295.756	1515.19
295.987	1406.19
296.217	1442.19
296.448	1476.19
296.679	1483.19
296.909	1527.19
297.14	1467.19
297.37	1487.19
297.601	1597.19
297.831	1729.19
298.062	1727.19
298.292	1569.19
298.523	1512.19
298.753	1500.19
298.984	1541.19
299.214	1567.19
299.445	1581.19
299.675	1638.19
299.905	1594.19
300.136	1562.19
300.366	1514.19
300.597	1445.19
300.827	1476.19
301.057	1517.19
301.288	1602.19
301.518	1598.19
301.748	1670.19
301.979	1739.19
302.209	1724.19
302.439	1821.19
302.669	1959.19
302.9	1848.19
303.13	1610.19
303.36	1597.19
303.59	1654.19
303.82	1627.19
304.051	1596.19
304.281	1613.19
304.511	1625.19
304.741	1707.19
304.971	1891.19
305.201	2058.19
305.431	1902.19
305.661	1568.19
305.891	1450.19
306.121	1447.19
306.352	1486.19
306.582	1592.19
306.812	1679.19
307.042	1799.19
307.272	1779.19
307.502	1816.19
307.731	1993.19
307.961	2148.19
308.191	1969.19
308.421	1664.19
308.651	1598.19
308.881	1565.19
309.111	1578.19
309.341	1559.19
309.571	1538.19
309.8	1567.19
310.03	1584.19
310.26	1588.19
310.49	1546.19
310.72	1577.19
310.949	1632.19
311.179	1670.19
311.409	1690.19
311.639	1651.19
311.868	1604.19
312.098	1590.19
312.328	1583.19
312.557	1563.19
312.787	1608.19
313.017	1648.19
313.246	1640.19
313.476	1636.19
313.706	1698.19
313.935	1685.19
314.165	1687.19
314.394	1744.19
314.624	1810.19
314.853	1902.19
315.083	1981.19
315.312	2064.19
315.542	1885.19
315.771	1724.19
316.001	1663.19
316.23	1808.19
316.46	1786.19
316.689	1784.19
316.919	1668.19
317.148	1642.19
317.377	1634.19
317.607	1702.19
317.836	1959.19
318.065	2010.19
318.295	1963.19
318.524	1816.19
318.753	1806.19
318.983	1767.19
319.212	1732.19
319.441	1684.19
319.67	1663.19
319.9	1724.19
320.129	1823.19
320.358	1854.19
320.587	1915.19
320.816	1924.19
321.046	1894.19
321.275	1787.19
321.504	1770.19
321.733	1944.19
321.962	1908.19
322.191	1718.19
322.42	1730.19
322.649	1724.19
322.878	1686.19
323.108	1722.19
323.337	1771.19
323.566	1800.19
323.795	1746.19
324.024	1781.19
324.253	1755.19
324.482	1731.19
324.71	1678.19
324.939	1590.19
325.168	1646.19
325.397	1734.19
325.626	1813.19
325.855	1803.19
326.084	1680.19
326.313	1712.19
326.542	1712.19
326.77	1832.19
326.999	1811.19
327.228	1762.19
327.457	1642.19
327.686	1612.19
327.914	1692.19
328.143	1764.19
328.372	1708.19
328.6	1747.19
328.829	1731.19
329.058	1695.19
329.287	1670.19
329.515	1752.19
329.744	1740.19
329.972	1806.19
330.201	1918.19
330.43	1863.19
330.658	1787.19
330.887	1819.19
331.115	1863.19
331.344	1820.19
331.572	1811.19
331.801	1823.19
332.03	1811.19
332.258	1869.19
332.486	1890.19
332.715	1844.19
332.943	1867.19
333.172	1847.19
333.4	1838.19
333.629	1884.19
333.857	1996.19
334.085	2175.19
334.314	2414.19
334.542	2639.19
334.771	2448.19
334.999	2225.19
335.227	2094.19
335.455	1967.19
335.684	1951.19
335.912	2014.19
336.14	2060.19
336.369	1991.19
336.597	1900.19
336.825	1838.19
337.053	1912.19
337.281	2001.19
337.51	2089.19
337.738	2175.19
337.966	2121.19
338.194	1909.19
338.422	1783.19
338.65	1855.19
338.878	1819.19
339.106	1756.19
339.334	1758.19
339.562	1717.19
339.79	1742.19
340.018	1852.19
340.246	1898.19
340.474	1917.19
340.702	1881.19
340.93	1869.19
341.158	1851.19
341.386	1835.19
341.614	1822.19
341.842	1812.19
342.07	1802.19
342.298	1855.19
342.526	1769.19
342.754	1780.19
342.981	1813.19
343.209	1750.19
343.437	1779.19
343.665	1763.19
343.893	1832.19
344.12	1904.19
344.348	1950.19
344.576	1884.19
344.804	1821.19
345.031	1815.19
345.259	1778.19
345.487	1737.19
345.714	1652.19
345.942	1670.19
346.17	1663.19
346.397	1695.19
346.625	1735.19
346.853	1622.19
347.08	1597.19
347.308	1620.19
347.535	1664.19
347.763	1716.19
347.99	1726.19
348.218	1610.19
348.445	1638.19
348.673	1703.19
348.9	1734.19
349.128	1802.19
349.355	1809.19
349.583	1797.19
349.81	1690.19
350.037	1597.19
350.265	1568.19
350.492	1596.19
350.72	1615.19
350.947	1684.19
351.174	1709.19
351.402	1657.19
351.629	1604.19
351.856	1536.19
352.083	1540.19
352.311	1546.19
352.538	1597.19
352.765	1670.19
352.992	1732.19
353.22	1676.19
353.447	1601.19
353.674	1658.19
353.901	1674.19
354.128	1622.19
354.355	1614.19
354.583	1698.19
354.81	1732.19
355.037	1729.19
355.264	1694.19
355.491	1670.19
355.718	1705.19
355.945	1644.19
356.172	1629.19
356.399	1655.19
356.626	1596.19
356.853	1648.19
357.08	1764.19
357.307	1957.19
357.534	1924.19
357.761	1735.19
357.988	1631.19
358.215	1542.19
358.441	1609.19
358.668	1594.19
358.895	1604.19
359.122	1711.19
359.349	1870.19
359.576	1880.19
359.802	1674.19
360.029	1653.19
360.256	1581.19
360.483	1581.19
360.709	1670.19
360.936	1718.19
361.163	1745.19
361.39	1911.19
361.616	2023.19
361.843	2018.19
362.07	1959.19
362.296	1695.19
362.523	1631.19
362.749	1656.19
362.976	1690.19
363.203	1704.19
363.429	1670.19
363.656	1576.19
363.882	1652.19
364.109	1846.19
364.335	1959.19
364.562	1810.19
364.788	1747.19
365.015	1683.19
365.241	1627.19
365.468	1651.19
365.694	1718.19
365.92	1800.19
366.147	1716.19
366.373	1620.19
366.599	1615.19
366.826	1623.19
367.052	1608.19
367.278	1672.19
367.505	1677.19
367.731	1655.19
367.957	1670.19
368.184	1739.19
368.41	1818.19
368.636	1816.19
368.862	1863.19
369.089	1879.19
369.315	1756.19
369.541	1747.19
369.767	1695.19
369.993	1662.19
370.219	1659.19
370.445	1694.19
370.672	1783.19
370.898	1828.19
371.124	1860.19
371.35	1764.19
371.576	1803.19
371.802	1855.19
372.028	1743.19
372.254	1706.19
372.48	1695.19
372.706	1645.19
372.932	1690.19
373.158	1670.19
373.384	1729.19
373.61	1764.19
373.835	1867.19
374.061	1761.19
374.287	1727.19
374.513	1710.19
374.739	1774.19
374.965	1748.19
375.191	1794.19
375.416	1782.19
375.642	1769.19
375.868	1856.19
376.094	1919.19
376.319	1860.19
376.545	1711.19
376.771	1800.19
376.997	1830.19
377.222	1857.19
377.448	1808.19
377.674	1818.19
377.899	1820.19
378.125	1924.19
378.35	1961.19
378.576	1777.19
378.802	1669.19
379.027	1702.19
379.253	1718.19
379.478	1725.19
379.704	1732.19
379.929	1749.19
380.155	1738.19
380.38	1727.19
380.606	1754.19
380.831	1757.19
381.057	1826.19
381.282	1919.19
381.507	1794.19
381.733	1897.19
381.958	1990.19
382.184	1860.19
382.409	1784.19
382.634	1830.19
382.86	1805.19
383.085	1812.19
383.31	1876.19
383.535	2012.19
383.761	2101.19
383.986	2038.19
384.211	1954.19
384.436	1955.19
384.662	2024.19
384.887	2094.19
385.112	1960.19
385.337	1980.19
385.562	1986.19
385.787	1993.19
386.013	2063.19
386.238	2038.19
386.463	2017.19
386.688	2172.19
386.913	2292.19
387.138	2236.19
387.363	2071.19
387.588	2095.19
387.813	2014.19
388.038	2047.19
388.263	2151.19
388.488	2087.19
388.713	1936.19
388.938	1899.19
389.163	1942.19
389.387	1987.19
389.612	1924.19
389.837	1949.19
390.062	1998.19
390.287	1981.19
390.512	1974.19
390.736	1915.19
390.961	1928.19
391.186	1901.19
391.411	1959.19
391.636	1945.19
391.86	1974.19
392.085	1999.19
392.31	1976.19
392.534	2004.19
392.759	1983.19
392.984	1990.19
393.208	2008.19
393.433	2068.19
393.658	2104.19
393.882	2130.19
394.107	1986.19
394.331	1984.19
394.556	2017.19
394.78	2018.19
395.005	2074.19
395.229	2098.19
395.454	2263.19
395.678	2285.19
395.903	2219.19
396.127	2056.19
396.352	2084.19
396.576	2189.19
396.801	2180.19
397.025	2155.19
397.249	2190.19
397.474	2176.19
397.698	2120.19
397.922	2167.19
398.147	2266.19
398.371	2342.19
398.595	2361.19
398.82	2261.19
399.044	2300.19
399.268	2442.19
399.492	2556.19
399.717	2704.19
399.941	2700.19
400.165	2652.19
400.389	2544.19
400.613	2529.19
400.837	2762.19
401.062	3236.19
401.286	2725.19
401.51	2520.19
401.734	2594.19
401.958	2506.19
402.182	2321.19
402.406	2218.19
402.63	2228.19
402.854	2233.19
403.078	2304.19
403.302	2350.19
403.526	2399.19
403.75	2375.19
403.974	2342.19
404.198	2368.19
404.422	2411.19
404.645	2553.19
404.869	2514.19
405.093	2339.19
405.317	2338.19
405.541	2389.19
405.765	2381.19
405.988	2367.19
406.212	2472.19
406.436	2482.19
406.66	2572.19
406.883	2572.19
407.107	2847.19
407.331	3079.19
407.555	3386.19
407.778	3110.19
408.002	2590.19
408.226	2501.19
408.449	2467.19
408.673	2407.19
408.896	2466.19
409.12	2474.19
409.344	2394.19
409.567	2350.19
409.791	2408.19
410.014	2441.19
410.238	2512.19
410.461	2675.19
410.685	2407.19
410.908	2306.19
411.132	2352.19
411.355	2340.19
411.578	2286.19
411.802	2322.19
412.025	2350.19
412.249	2276.19
412.472	2228.19
412.695	2179.19
412.919	2281.19
413.142	2246.19
413.365	2262.19
413.589	2330.19
413.812	2387.19
414.035	2484.19
414.258	2262.19
414.482	2236.19
414.705	2251.19
414.928	2239.19
415.151	2237.19
415.374	2243.19
415.597	2310.19
415.821	2285.19
416.044	2400.19
416.267	2406.19
416.49	2206.19
416.713	2158.19
416.936	2194.19
417.159	2304.19
417.382	2346.19
417.605	2202.19
417.828	2218.19
418.051	2314.19
418.274	2271.19
418.497	2164.19
418.72	2166.19
418.943	2169.19
419.166	2286.19
419.389	2427.19
419.611	2267.19
419.834	2189.19
420.057	2248.19
420.28	2214.19
420.503	2148.19
420.726	2210.19
420.948	2192.19
421.171	2139.19
421.394	2176.19
421.617	2238.19
421.839	2231.19
422.062	2164.19
422.285	2151.19
422.507	2159.19
422.73	2111.19
422.953	2038.19
423.175	2103.19
423.398	2175.19
423.621	2182.19
423.843	2198.19
424.066	2222.19
424.288	2279.19
424.511	2332.19
424.733	2298.19
424.956	2058.19
425.178	2110.19
425.401	2087.19
425.623	2135.19
425.846	2101.19
426.068	2212.19
426.291	2230.19
426.513	2210.19
426.735	2229.19
426.958	2323.19
427.18	2494.19
427.402	2318.19
427.625	2332.19
427.847	2399.19
428.069	2199.19
428.292	2152.19
428.514	2136.19
428.736	2063.19
428.958	2124.19
429.181	2121.19
429.403	2366.19
429.625	2952.19
429.847	2623.19
430.069	2169.19
430.292	2367.19
430.514	2461.19
430.736	2246.19
430.958	2376.19
431.18	2244.19
431.402	2095.19
431.624	2099.19
431.846	2090.19
432.068	2102.19
432.29	2087.19
432.512	2092.19
432.734	2158.19
432.956	2192.19
433.178	2288.19
433.4	2253.19
433.622	2270.19
433.844	2188.19
434.066	2105.19
434.287	2106.19
434.509	2188.19
434.731	2246.19
434.953	2414.19
435.175	2359.19
435.397	2183.19
435.618	2225.19
435.84	2236.19
436.062	2202.19
436.284	2246.19
436.505	2224.19
436.727	2248.19
436.949	2197.19
437.17	2102.19
437.392	2100.19
437.614	2087.19
437.835	2056.19
438.057	2186.19
438.278	2316.19
438.5	2155.19
438.721	2110.19
438.943	2107.19
439.165	2127.19
439.386	2017.19
439.608	2041.19
439.829	2128.19
440.05	2099.19
440.272	2073.19
440.493	2048.19
440.715	2084.19
440.936	2224.19
441.158	2454.19
441.379	2381.19
441.6	2331.19
441.822	2306.19
442.043	2272.19
442.264	2237.19
442.486	2101.19
442.707	2075.19
442.928	2074.19
443.149	2164.19
443.371	2293.19
443.592	2371.19
443.813	2330.19
444.034	2280.19
444.255	2275.19
444.476	2283.19
444.698	2379.19
444.919	2397.19
445.14	2434.19
445.361	2415.19
445.582	2484.19
445.803	2403.19
446.024	2278.19
446.245	2391.19
446.466	2292.19
446.687	2217.19
446.908	2171.19
447.129	2137.19
447.35	2169.19
447.571	2108.19
447.792	2070.19
448.013	2025.19
448.234	2085.19
448.455	2202.19
448.675	2182.19
448.896	1991.19
449.117	1996.19
449.338	2038.19
449.559	2125.19
449.779	2252.19
450	2462.19
450.221	2686.19
450.442	2580.19
450.662	2281.19
450.883	1992.19
451.104	1954.19
451.324	2010.19
451.545	2102.19
451.766	2013.19
451.986	1932.19
452.207	1925.19
452.428	1878.19
452.648	1848.19
452.869	1899.19
453.089	2018.19
453.31	2056.19
453.53	2098.19
453.751	2053.19
453.971	1925.19
454.192	1916.19
454.412	2072.19
454.633	2023.19
454.853	1959.19
455.073	1825.19
455.294	1812.19
455.514	1878.19
455.734	1864.19
455.955	1889.19
456.175	1869.19
456.395	1866.19
456.616	1934.19
456.836	1979.19
457.056	1896.19
457.276	1902.19
457.497	1914.19
457.717	1813.19
457.937	1838.19
458.157	1871.19
458.377	1848.19
458.598	1898.19
458.818	1845.19
459.038	2010.19
459.258	2163.19
459.478	2118.19
459.698	2042.19
459.918	2102.19
460.138	2230.19
460.358	2238.19
460.578	2221.19
460.798	2335.19
461.018	2468.19
461.238	2358.19
461.458	2222.19
461.678	2247.19
461.898	2197.19
462.118	2186.19
462.338	2278.19
462.558	2258.19
462.777	2261.19
462.997	2415.19
463.217	2448.19
463.437	2468.19
463.657	2317.19
463.876	2314.19
464.096	2243.19
464.316	2223.19
464.536	2364.19
464.755	2351.19
464.975	2401.19
465.195	2301.19
465.414	2389.19
465.634	2366.19
465.854	2170.19
466.073	2383.19
466.293	2341.19
466.512	2070.19
466.732	2085.19
466.951	2125.19
467.171	2100.19
467.391	2051.19
467.61	1966.19
467.829	1997.19
468.049	2157.19
468.268	2434.19
468.488	2259.19
468.707	2151.19
468.927	2100.19
469.146	2041.19
469.365	1994.19
469.585	2050.19
469.804	2021.19
470.023	2056.19
470.243	2088.19
470.462	2042.19
470.681	2021.19
470.901	2058.19
471.12	2052.19
471.339	2018.19
471.558	1977.19
471.777	1949.19
471.997	1998.19
472.216	1994.19
472.435	1963.19
472.654	1992.19
472.873	2086.19
473.092	2159.19
473.311	2054.19
473.53	1966.19
473.749	1944.19
473.968	2040.19
474.187	2182.19
474.406	2242.19
474.625	2114.19
474.844	2020.19
475.063	2023.19
475.282	2122.19
475.501	2127.19
475.72	2054.19
475.939	2177.19
476.158	2128.19
476.377	2055.19
476.596	2135.19
476.814	2164.19
477.033	2110.19
477.252	2204.19
477.471	2266.19
477.69	2175.19
477.908	2176.19
478.127	2300.19
478.346	2431.19
478.564	2503.19
478.783	2450.19
479.002	2520.19
479.22	2458.19
479.439	2542.19
479.658	2858.19
479.876	2883.19
480.095	2482.19
480.313	2373.19
480.532	2324.19
480.751	2347.19
480.969	2388.19
481.188	2321.19
481.406	2273.19
481.624	2249.19
481.843	2274.19
482.061	2330.19
482.28	2346.19
482.498	2416.19
482.717	2392.19
482.935	2272.19
483.153	2294.19
483.372	2277.19
483.59	2267.19
483.808	2290.19
484.027	2323.19
484.245	2482.19
484.463	2846.19
484.681	3234.19
484.9	2560.19
485.118	2344.19
485.336	2354.19
485.554	2422.19
485.772	2536.19
485.99	2476.19
486.209	2458.19
486.427	2475.19
486.645	2513.19
486.863	2383.19
487.081	2488.19
487.299	2536.19
487.517	2490.19
