Data from WStandard_LampEnergy5.5LIBS07252019.E.O._I.C._HRD10591_16-08-06-920.txt Node
Date: Thu Jul 25 16:08:06 EDT 2019
User: cochatt
Spectrometer: HR+D1059
Trigger mode: 1
Integration Time (sec): 1.000000E-1
Scans to average: 1
Electric dark correction enabled: true
Nonlinearity correction enabled: false
Boxcar width: 0
XAxis mode: Wavelengths
Number of Pixels in Spectrum: 2048
>>>>>Begin Spectral Data<<<<<
223.165	2.12
223.4	2.12
223.635	2.12
223.869	-19.88
224.104	-23.88
224.338	-11.88
224.573	-14.88
224.808	-19.88
225.042	-1.88
225.277	-9.88
225.511	-6.88
225.746	5.12
225.98	5.12
226.215	25.12
226.449	14.12
226.683	16.12
226.918	28.12
227.152	13.12
227.387	48.12
227.621	46.12
227.856	38.12
228.09	50.12
228.324	57.12
228.559	67.12
228.793	134.12
229.027	375.12
229.262	349.12
229.496	388.12
229.73	402.12
229.964	439.12
230.199	461.12
230.433	471.12
230.667	505.12
230.901	537.12
231.136	473.12
231.37	486.12
231.604	466.12
231.838	488.12
232.072	487.12
232.306	453.12
232.541	454.12
232.775	563.12
233.009	618.12
233.243	575.12
233.477	533.12
233.711	549.12
233.945	567.12
234.179	547.12
234.413	568.12
234.647	618.12
234.881	596.12
235.115	541.12
235.349	564.12
235.583	579.12
235.817	564.12
236.051	540.12
236.285	534.12
236.519	583.12
236.753	661.12
236.987	702.12
237.221	659.12
237.455	761.12
237.689	703.12
237.922	651.12
238.156	666.12
238.39	671.12
238.624	708.12
238.858	749.12
239.091	786.12
239.325	807.12
239.559	933.12
239.793	982.12
240.027	1074.12
240.26	1042.12
240.494	763.12
240.728	741.12
240.961	715.12
241.195	737.12
241.429	811.12
241.662	827.12
241.896	758.12
242.13	785.12
242.363	839.12
242.597	919.12
242.83	899.12
243.064	892.12
243.298	946.12
243.531	920.12
243.765	915.12
243.998	948.12
244.232	811.12
244.465	789.12
244.699	805.12
244.932	908.12
245.166	1030.12
245.399	979.12
245.633	927.12
245.866	902.12
246.099	937.12
246.333	929.12
246.566	986.12
246.8	1057.12
247.033	1174.12
247.266	1103.12
247.5	1080.12
247.733	1038.12
247.966	1107.12
248.2	1269.12
248.433	1181.12
248.666	1215.12
248.899	1316.12
249.133	1533.12
249.366	1741.12
249.599	1441.12
249.832	1283.12
250.066	1265.12
250.299	1320.12
250.532	1212.12
250.765	1058.12
250.998	1157.12
251.231	1213.12
251.465	1236.12
251.698	1182.12
251.931	1167.12
252.164	1215.12
252.397	1271.12
252.63	1239.12
252.863	1090.12
253.096	1071.12
253.329	1139.12
253.562	1184.12
253.795	1298.12
254.028	1260.12
254.261	1176.12
254.494	1177.12
254.727	1104.12
254.96	1144.12
255.193	1233.12
255.426	1393.12
255.659	1631.12
255.892	1667.12
256.124	1380.12
256.357	1333.12
256.59	1421.12
256.823	1438.12
257.056	1418.12
257.289	1718.12
257.521	1939.12
257.754	1724.12
257.987	1577.12
258.22	1801.12
258.452	1780.12
258.685	1404.12
258.918	1389.12
259.151	1413.12
259.383	1357.12
259.616	1191.12
259.849	1266.12
260.081	1378.12
260.314	1564.12
260.547	1692.12
260.779	1717.12
261.012	1595.12
261.244	1445.12
261.477	1378.12
261.71	1444.12
261.942	1404.12
262.175	1345.12
262.407	1441.12
262.64	1401.12
262.872	1301.12
263.105	1223.12
263.337	1302.12
263.57	1320.12
263.802	1300.12
264.035	1235.12
264.267	1165.12
264.499	1128.12
264.732	1221.12
264.964	1319.12
265.197	1355.12
265.429	1387.12
265.661	1590.12
265.894	1761.12
266.126	1817.12
266.358	1605.12
266.591	1642.12
266.823	1830.12
267.055	1653.12
267.287	1594.12
267.52	1585.12
267.752	1522.12
267.984	1566.12
268.216	1639.12
268.448	1652.12
268.681	1652.12
268.913	1510.12
269.145	1435.12
269.377	1362.12
269.609	1507.12
269.841	1716.12
270.073	2035.12
270.306	2269.12
270.538	2468.12
270.77	2026.12
271.002	1747.12
271.234	1631.12
271.466	1638.12
271.698	1882.12
271.93	2198.12
272.162	2214.12
272.394	1986.12
272.626	1908.12
272.858	1671.12
273.09	1442.12
273.322	1428.12
273.553	1386.12
273.785	1405.12
274.017	1473.12
274.249	1569.12
274.481	1588.12
274.713	1459.12
274.945	1419.12
275.176	1429.12
275.408	1427.12
275.64	1366.12
275.872	1357.12
276.104	1455.12
276.335	1652.12
276.567	1880.12
276.799	1977.12
277.031	1701.12
277.262	1611.12
277.494	1651.12
277.726	1871.12
277.957	1889.12
278.189	1665.12
278.421	1558.12
278.652	1489.12
278.884	1466.12
279.115	1461.12
279.347	1551.12
279.579	1505.12
279.81	1457.12
280.042	1615.12
280.273	1791.12
280.505	1806.12
280.736	1798.12
280.968	1715.12
281.199	1512.12
281.431	1441.12
281.662	1444.12
281.894	1436.12
282.125	1467.12
282.356	1535.12
282.588	1530.12
282.819	1522.12
283.051	1640.12
283.282	1777.12
283.513	1772.12
283.745	1529.12
283.976	1413.12
284.207	1436.12
284.439	1468.12
284.67	1481.12
284.901	1485.12
285.132	1531.12
285.364	1561.12
285.595	1547.12
285.826	1491.12
286.057	1478.12
286.288	1511.12
286.52	1549.12
286.751	1684.12
286.982	1763.12
287.213	1602.12
287.444	1444.12
287.675	1467.12
287.906	1533.12
288.138	1637.12
288.369	1611.12
288.6	1505.12
288.831	1458.12
289.062	1444.12
289.293	1510.12
289.524	1501.12
289.755	1562.12
289.986	1588.12
290.217	1458.12
290.448	1476.12
290.679	1533.12
290.91	1510.12
291.141	1565.12
291.371	1615.12
291.602	1651.12
291.833	1533.12
292.064	1623.12
292.295	1637.12
292.526	1645.12
292.757	1781.12
292.987	1643.12
293.218	1549.12
293.449	1640.12
293.68	1831.12
293.91	2042.12
294.141	1869.12
294.372	1757.12
294.603	1829.12
294.833	1913.12
295.064	1847.12
295.295	1627.12
295.525	1611.12
295.756	1459.12
295.987	1414.12
296.217	1461.12
296.448	1480.12
296.679	1515.12
296.909	1507.12
297.14	1486.12
297.37	1477.12
297.601	1586.12
297.831	1713.12
298.062	1752.12
298.292	1556.12
298.523	1500.12
298.753	1529.12
298.984	1540.12
299.214	1549.12
299.445	1572.12
299.675	1592.12
299.905	1633.12
300.136	1572.12
300.366	1544.12
300.597	1493.12
300.827	1477.12
301.057	1550.12
301.288	1600.12
301.518	1639.12
301.748	1633.12
301.979	1705.12
302.209	1740.12
302.439	1859.12
302.669	1989.12
302.9	1821.12
303.13	1630.12
303.36	1647.12
303.59	1664.12
303.82	1659.12
304.051	1659.12
304.281	1681.12
304.511	1625.12
304.741	1677.12
304.971	1931.12
305.201	2077.12
305.431	1919.12
305.661	1605.12
305.891	1453.12
306.121	1415.12
306.352	1501.12
306.582	1563.12
306.812	1670.12
307.042	1845.12
307.272	1802.12
307.502	1872.12
307.731	2035.12
307.961	2135.12
308.191	1970.12
308.421	1705.12
308.651	1587.12
308.881	1631.12
309.111	1586.12
309.341	1524.12
309.571	1569.12
309.8	1589.12
310.03	1592.12
310.26	1562.12
310.49	1537.12
310.72	1587.12
310.949	1666.12
311.179	1676.12
311.409	1666.12
311.639	1625.12
311.868	1597.12
312.098	1586.12
312.328	1593.12
312.557	1577.12
312.787	1616.12
313.017	1665.12
313.246	1645.12
313.476	1681.12
313.706	1673.12
313.935	1696.12
314.165	1677.12
314.394	1739.12
314.624	1811.12
314.853	1894.12
315.083	1994.12
315.312	2079.12
315.542	1910.12
315.771	1705.12
316.001	1684.12
316.23	1818.12
316.46	1805.12
316.689	1765.12
316.919	1664.12
317.148	1644.12
317.377	1593.12
317.607	1731.12
317.836	1961.12
318.065	2010.12
318.295	1922.12
318.524	1863.12
318.753	1807.12
318.983	1782.12
319.212	1789.12
319.441	1708.12
319.67	1697.12
319.9	1717.12
320.129	1801.12
320.358	1893.12
320.587	1959.12
320.816	1921.12
321.046	1907.12
321.275	1771.12
321.504	1787.12
321.733	1949.12
321.962	1923.12
322.191	1747.12
322.42	1735.12
322.649	1688.12
322.878	1675.12
323.108	1727.12
323.337	1809.12
323.566	1825.12
323.795	1806.12
324.024	1787.12
324.253	1753.12
324.482	1753.12
324.71	1750.12
324.939	1636.12
325.168	1606.12
325.397	1693.12
325.626	1770.12
325.855	1770.12
326.084	1749.12
326.313	1708.12
326.542	1729.12
326.77	1793.12
326.999	1825.12
327.228	1735.12
327.457	1640.12
327.686	1653.12
327.914	1677.12
328.143	1749.12
328.372	1711.12
328.6	1704.12
328.829	1714.12
329.058	1672.12
329.287	1639.12
329.515	1741.12
329.744	1762.12
329.972	1836.12
330.201	1911.12
330.43	1876.12
330.658	1801.12
330.887	1801.12
331.115	1812.12
331.344	1867.12
331.572	1784.12
331.801	1760.12
332.03	1810.12
332.258	1820.12
332.486	1828.12
332.715	1841.12
332.943	1829.12
333.172	1785.12
333.4	1841.12
333.629	1883.12
333.857	1954.12
334.085	2187.12
334.314	2448.12
334.542	2721.12
334.771	2500.12
334.999	2180.12
335.227	2073.12
335.455	1995.12
335.684	1929.12
335.912	1988.12
336.14	2083.12
336.369	1979.12
336.597	1898.12
336.825	1847.12
337.053	1909.12
337.281	2006.12
337.51	2050.12
337.738	2158.12
337.966	2091.12
338.194	1901.12
338.422	1793.12
338.65	1787.12
338.878	1765.12
339.106	1765.12
339.334	1730.12
339.562	1717.12
339.79	1731.12
340.018	1822.12
340.246	1943.12
340.474	1961.12
340.702	1849.12
340.93	1862.12
341.158	1833.12
341.386	1827.12
341.614	1812.12
341.842	1773.12
342.07	1822.12
342.298	1807.12
342.526	1802.12
342.754	1768.12
342.981	1775.12
343.209	1797.12
343.437	1780.12
343.665	1794.12
343.893	1859.12
344.12	1901.12
344.348	1959.12
344.576	1893.12
344.804	1775.12
345.031	1769.12
345.259	1793.12
345.487	1753.12
345.714	1680.12
345.942	1637.12
346.17	1661.12
346.397	1695.12
346.625	1726.12
346.853	1637.12
347.08	1611.12
347.308	1604.12
347.535	1657.12
347.763	1733.12
347.99	1706.12
348.218	1633.12
348.445	1625.12
348.673	1661.12
348.9	1741.12
349.128	1726.12
349.355	1828.12
349.583	1813.12
349.81	1672.12
350.037	1586.12
350.265	1545.12
350.492	1579.12
350.72	1624.12
350.947	1687.12
351.174	1678.12
351.402	1659.12
351.629	1573.12
351.856	1549.12
352.083	1516.12
352.311	1562.12
352.538	1580.12
352.765	1658.12
352.992	1709.12
353.22	1667.12
353.447	1613.12
353.674	1630.12
353.901	1697.12
354.128	1618.12
354.355	1587.12
354.583	1684.12
354.81	1730.12
355.037	1733.12
355.264	1704.12
355.491	1706.12
355.718	1681.12
355.945	1663.12
356.172	1621.12
356.399	1591.12
356.626	1594.12
356.853	1629.12
357.08	1751.12
357.307	1962.12
357.534	1988.12
357.761	1769.12
357.988	1601.12
358.215	1550.12
358.441	1565.12
358.668	1614.12
358.895	1598.12
359.122	1672.12
359.349	1885.12
359.576	1864.12
359.802	1657.12
360.029	1579.12
360.256	1581.12
360.483	1618.12
360.709	1661.12
360.936	1692.12
361.163	1744.12
361.39	1879.12
361.616	2131.12
361.843	2047.12
362.07	1906.12
362.296	1656.12
362.523	1612.12
362.749	1658.12
362.976	1661.12
363.203	1709.12
363.429	1650.12
363.656	1598.12
363.882	1641.12
364.109	1793.12
364.335	1952.12
364.562	1855.12
364.788	1721.12
365.015	1685.12
365.241	1647.12
365.468	1679.12
365.694	1736.12
365.92	1800.12
366.147	1693.12
366.373	1615.12
366.599	1590.12
366.826	1589.12
367.052	1626.12
367.278	1640.12
367.505	1652.12
367.731	1678.12
367.957	1665.12
368.184	1729.12
368.41	1852.12
368.636	1845.12
368.862	1834.12
369.089	1887.12
369.315	1809.12
369.541	1753.12
369.767	1676.12
369.993	1621.12
370.219	1620.12
370.445	1656.12
370.672	1729.12
370.898	1837.12
371.124	1867.12
371.35	1723.12
371.576	1781.12
371.802	1855.12
372.028	1799.12
372.254	1723.12
372.48	1654.12
372.706	1642.12
372.932	1657.12
373.158	1679.12
373.384	1724.12
373.61	1742.12
373.835	1807.12
374.061	1751.12
374.287	1731.12
374.513	1747.12
374.739	1744.12
374.965	1738.12
375.191	1777.12
375.416	1785.12
375.642	1796.12
375.868	1876.12
376.094	1931.12
376.319	1865.12
376.545	1719.12
376.771	1744.12
376.997	1855.12
377.222	1849.12
377.448	1770.12
377.674	1775.12
377.899	1790.12
378.125	1863.12
378.35	1913.12
378.576	1756.12
378.802	1652.12
379.027	1679.12
379.253	1688.12
379.478	1764.12
379.704	1707.12
379.929	1692.12
380.155	1756.12
380.38	1777.12
380.606	1726.12
380.831	1707.12
381.057	1792.12
381.282	1844.12
381.507	1782.12
381.733	1875.12
381.958	2010.12
382.184	1846.12
382.409	1797.12
382.634	1820.12
382.86	1795.12
383.085	1786.12
383.31	1859.12
383.535	2012.12
383.761	2101.12
383.986	1992.12
384.211	1975.12
384.436	1917.12
384.662	2008.12
384.887	2090.12
385.112	1991.12
385.337	2009.12
385.562	1975.12
385.787	1985.12
386.013	2039.12
386.238	2030.12
386.463	1998.12
386.688	2097.12
386.913	2217.12
387.138	2213.12
387.363	2038.12
387.588	2021.12
387.813	2022.12
388.038	2074.12
388.263	2124.12
388.488	2023.12
388.713	1826.12
388.938	1845.12
389.163	1845.12
389.387	1933.12
389.612	1919.12
389.837	1980.12
390.062	2009.12
390.287	2006.12
390.512	1985.12
390.736	1939.12
390.961	1913.12
391.186	1851.12
391.411	1885.12
391.636	1923.12
391.86	1945.12
392.085	1986.12
392.31	1949.12
392.534	1992.12
392.759	2021.12
392.984	1949.12
393.208	1959.12
393.433	1998.12
393.658	2092.12
393.882	2147.12
394.107	1979.12
394.331	1989.12
394.556	1916.12
394.78	1979.12
395.005	2036.12
395.229	2084.12
395.454	2266.12
395.678	2286.12
395.903	2203.12
396.127	2044.12
396.352	2049.12
396.576	2160.12
396.801	2137.12
397.025	2135.12
397.249	2153.12
397.474	2099.12
397.698	2056.12
397.922	2156.12
398.147	2274.12
398.371	2367.12
398.595	2345.12
398.82	2254.12
399.044	2284.12
399.268	2421.12
399.492	2571.12
399.717	2662.12
399.941	2653.12
400.165	2617.12
400.389	2547.12
400.613	2497.12
400.837	2683.12
401.062	3164.12
401.286	2723.12
401.51	2478.12
401.734	2528.12
401.958	2486.12
402.182	2333.12
402.406	2251.12
402.63	2231.12
402.854	2236.12
403.078	2272.12
403.302	2315.12
403.526	2313.12
403.75	2378.12
403.974	2399.12
404.198	2311.12
404.422	2405.12
404.645	2530.12
404.869	2500.12
405.093	2287.12
405.317	2265.12
405.541	2338.12
405.765	2376.12
405.988	2360.12
406.212	2378.12
406.436	2446.12
406.66	2537.12
406.883	2506.12
407.107	2803.12
407.331	3026.12
407.555	3286.12
407.778	3068.12
408.002	2501.12
408.226	2441.12
408.449	2477.12
408.673	2404.12
408.896	2417.12
409.12	2453.12
409.344	2363.12
409.567	2311.12
409.791	2382.12
410.014	2406.12
410.238	2493.12
410.461	2645.12
410.685	2401.12
410.908	2267.12
411.132	2367.12
411.355	2348.12
411.578	2268.12
411.802	2289.12
412.025	2329.12
412.249	2301.12
412.472	2189.12
412.695	2189.12
412.919	2217.12
413.142	2181.12
413.365	2231.12
413.589	2342.12
413.812	2360.12
414.035	2461.12
414.258	2269.12
414.482	2251.12
414.705	2230.12
414.928	2212.12
415.151	2229.12
415.374	2250.12
415.597	2252.12
415.821	2316.12
416.044	2359.12
416.267	2383.12
416.49	2190.12
416.713	2113.12
416.936	2227.12
417.159	2313.12
417.382	2307.12
417.605	2204.12
417.828	2230.12
418.051	2280.12
418.274	2237.12
418.497	2170.12
418.72	2191.12
418.943	2135.12
419.166	2311.12
419.389	2423.12
419.611	2272.12
419.834	2196.12
420.057	2304.12
420.28	2123.12
420.503	2154.12
420.726	2201.12
420.948	2185.12
421.171	2132.12
421.394	2137.12
421.617	2222.12
421.839	2211.12
422.062	2132.12
422.285	2122.12
422.507	2149.12
422.73	2064.12
422.953	2067.12
423.175	2056.12
423.398	2170.12
423.621	2174.12
423.843	2194.12
424.066	2214.12
424.288	2220.12
424.511	2311.12
424.733	2234.12
424.956	2061.12
425.178	2038.12
425.401	2058.12
425.623	2102.12
425.846	2115.12
426.068	2141.12
426.291	2217.12
426.513	2173.12
426.735	2215.12
426.958	2334.12
427.18	2484.12
427.402	2245.12
427.625	2332.12
427.847	2340.12
428.069	2221.12
428.292	2127.12
428.514	2094.12
428.736	2049.12
428.958	2119.12
429.181	2089.12
429.403	2328.12
429.625	2876.12
429.847	2567.12
430.069	2099.12
430.292	2323.12
430.514	2465.12
430.736	2271.12
430.958	2353.12
431.18	2257.12
431.402	2082.12
431.624	2075.12
431.846	2121.12
432.068	2071.12
432.29	2081.12
432.512	2106.12
432.734	2111.12
432.956	2166.12
433.178	2292.12
433.4	2261.12
433.622	2293.12
433.844	2155.12
434.066	2053.12
434.287	2063.12
434.509	2136.12
434.731	2275.12
434.953	2353.12
435.175	2303.12
435.397	2187.12
435.618	2178.12
435.84	2209.12
436.062	2161.12
436.284	2170.12
436.505	2196.12
436.727	2225.12
436.949	2187.12
437.17	2095.12
437.392	2120.12
437.614	2137.12
437.835	2036.12
438.057	2211.12
438.278	2274.12
438.5	2142.12
438.721	2027.12
438.943	2039.12
439.165	2103.12
439.386	2068.12
439.608	2036.12
439.829	2059.12
440.05	2095.12
440.272	2065.12
440.493	2027.12
440.715	2063.12
440.936	2185.12
441.158	2409.12
441.379	2355.12
441.6	2300.12
441.822	2248.12
442.043	2215.12
442.264	2154.12
442.486	2094.12
442.707	2115.12
442.928	2066.12
443.149	2168.12
443.371	2301.12
443.592	2361.12
443.813	2318.12
444.034	2241.12
444.255	2276.12
444.476	2361.12
444.698	2414.12
444.919	2346.12
445.14	2376.12
445.361	2413.12
445.582	2527.12
445.803	2433.12
446.024	2298.12
446.245	2383.12
446.466	2270.12
446.687	2163.12
446.908	2161.12
447.129	2114.12
447.35	2158.12
447.571	2135.12
447.792	2083.12
448.013	2064.12
448.234	2087.12
448.455	2141.12
448.675	2161.12
448.896	2021.12
449.117	1957.12
449.338	2025.12
449.559	2129.12
449.779	2291.12
450	2471.12
450.221	2618.12
450.442	2539.12
450.662	2256.12
450.883	1999.12
451.104	1954.12
451.324	1997.12
451.545	2038.12
451.766	2041.12
451.986	1924.12
452.207	1939.12
452.428	1873.12
452.648	1859.12
452.869	1928.12
453.089	2016.12
453.31	2006.12
453.53	2102.12
453.751	1991.12
453.971	1891.12
454.192	1933.12
454.412	2073.12
454.633	1986.12
454.853	1923.12
455.073	1827.12
455.294	1809.12
455.514	1811.12
455.734	1839.12
455.955	1874.12
456.175	1858.12
456.395	1851.12
456.616	1906.12
456.836	1930.12
457.056	1880.12
457.276	1933.12
457.497	1852.12
457.717	1815.12
457.937	1835.12
458.157	1908.12
458.377	1872.12
458.598	1844.12
458.818	1893.12
459.038	1995.12
459.258	2123.12
459.478	2084.12
459.698	2048.12
459.918	2092.12
460.138	2207.12
460.358	2205.12
460.578	2255.12
460.798	2297.12
461.018	2441.12
461.238	2330.12
461.458	2188.12
461.678	2248.12
461.898	2201.12
462.118	2113.12
462.338	2233.12
462.558	2241.12
462.777	2268.12
462.997	2320.12
463.217	2491.12
463.437	2435.12
463.657	2276.12
463.876	2231.12
464.096	2253.12
464.316	2252.12
464.536	2318.12
464.755	2314.12
464.975	2343.12
465.195	2245.12
465.414	2320.12
465.634	2389.12
465.854	2244.12
466.073	2397.12
466.293	2310.12
466.512	2043.12
466.732	2059.12
466.951	2140.12
467.171	2164.12
467.391	2005.12
467.61	1969.12
467.829	1997.12
468.049	2166.12
468.268	2428.12
468.488	2260.12
468.707	2138.12
468.927	2099.12
469.146	2060.12
469.365	2009.12
469.585	2025.12
469.804	2001.12
470.023	1997.12
470.243	2048.12
470.462	2061.12
470.681	1991.12
470.901	2054.12
471.12	2074.12
471.339	2068.12
471.558	1981.12
471.777	1958.12
471.997	1985.12
472.216	2023.12
472.435	1934.12
472.654	1948.12
472.873	2063.12
473.092	2225.12
473.311	2063.12
473.53	1948.12
473.749	1935.12
473.968	2015.12
474.187	2142.12
474.406	2270.12
474.625	2092.12
474.844	2041.12
475.063	2051.12
475.282	2131.12
475.501	2085.12
475.72	2014.12
475.939	2181.12
476.158	2131.12
476.377	2085.12
476.596	2086.12
476.814	2115.12
477.033	2154.12
477.252	2261.12
477.471	2287.12
477.69	2175.12
477.908	2153.12
478.127	2254.12
478.346	2394.12
478.564	2463.12
478.783	2400.12
479.002	2521.12
479.22	2437.12
479.439	2520.12
479.658	2858.12
479.876	2859.12
480.095	2487.12
480.313	2375.12
480.532	2300.12
480.751	2331.12
480.969	2379.12
481.188	2378.12
481.406	2271.12
481.624	2214.12
481.843	2276.12
482.061	2284.12
482.28	2354.12
482.498	2417.12
482.717	2352.12
482.935	2249.12
483.153	2260.12
483.372	2296.12
483.59	2285.12
483.808	2249.12
484.027	2282.12
484.245	2473.12
484.463	2854.12
484.681	3247.12
484.9	2552.12
485.118	2369.12
485.336	2270.12
485.554	2364.12
485.772	2510.12
485.99	2443.12
486.209	2490.12
486.427	2473.12
486.645	2473.12
486.863	2398.12
487.081	2475.12
487.299	2547.12
487.517	2489.12
