Data from WStandard_LampEnergy5.5LIBS07252019.E.O._I.C._HRD10591_16-07-53-921.txt Node
Date: Thu Jul 25 16:07:53 EDT 2019
User: cochatt
Spectrometer: HR+D1059
Trigger mode: 1
Integration Time (sec): 1.000000E-1
Scans to average: 1
Electric dark correction enabled: true
Nonlinearity correction enabled: false
Boxcar width: 0
XAxis mode: Wavelengths
Number of Pixels in Spectrum: 2048
>>>>>Begin Spectral Data<<<<<
223.165	-11.94
223.4	-11.94
223.635	-11.94
223.869	-9.94
224.104	-2.94
224.338	-6.94
224.573	-9.94
224.808	-18.94
225.042	-12.94
225.277	-21.94
225.511	-19.94
225.746	4.06
225.98	9.06
226.215	12.06
226.449	14.06
226.683	26.06
226.918	21.06
227.152	29.06
227.387	30.06
227.621	51.06
227.856	44.06
228.09	60.06
228.324	48.06
228.559	60.06
228.793	148.06
229.027	350.06
229.262	393.06
229.496	384.06
229.73	389.06
229.964	444.06
230.199	456.06
230.433	462.06
230.667	486.06
230.901	548.06
231.136	454.06
231.37	488.06
231.604	452.06
231.838	485.06
232.072	467.06
232.306	459.06
232.541	469.06
232.775	577.06
233.009	606.06
233.243	588.06
233.477	529.06
233.711	563.06
233.945	587.06
234.179	551.06
234.413	587.06
234.647	653.06
234.881	588.06
235.115	539.06
235.349	570.06
235.583	582.06
235.817	553.06
236.051	514.06
236.285	546.06
236.519	572.06
236.753	666.06
236.987	704.06
237.221	666.06
237.455	747.06
237.689	718.06
237.922	671.06
238.156	638.06
238.39	675.06
238.624	701.06
238.858	740.06
239.091	764.06
239.325	814.06
239.559	930.06
239.793	953.06
240.027	1066.06
240.26	1078.06
240.494	780.06
240.728	721.06
240.961	741.06
241.195	734.06
241.429	821.06
241.662	830.06
241.896	777.06
242.13	770.06
242.363	854.06
242.597	928.06
242.83	883.06
243.064	891.06
243.298	964.06
243.531	947.06
243.765	948.06
243.998	944.06
244.232	801.06
244.465	788.06
244.699	801.06
244.932	910.06
245.166	1020.06
245.399	969.06
245.633	906.06
245.866	908.06
246.099	948.06
246.333	962.06
246.566	967.06
246.8	1064.06
247.033	1183.06
247.266	1085.06
247.5	1069.06
247.733	1045.06
247.966	1094.06
248.2	1243.06
248.433	1219.06
248.666	1244.06
248.899	1347.06
249.133	1546.06
249.366	1746.06
249.599	1458.06
249.832	1263.06
250.066	1264.06
250.299	1314.06
250.532	1213.06
250.765	1093.06
250.998	1177.06
251.231	1194.06
251.465	1257.06
251.698	1216.06
251.931	1177.06
252.164	1206.06
252.397	1257.06
252.63	1268.06
252.863	1098.06
253.096	1100.06
253.329	1148.06
253.562	1181.06
253.795	1272.06
254.028	1290.06
254.261	1166.06
254.494	1206.06
254.727	1133.06
254.96	1150.06
255.193	1244.06
255.426	1449.06
255.659	1662.06
255.892	1671.06
256.124	1356.06
256.357	1366.06
256.59	1430.06
256.823	1461.06
257.056	1423.06
257.289	1693.06
257.521	1950.06
257.754	1717.06
257.987	1625.06
258.22	1803.06
258.452	1742.06
258.685	1374.06
258.918	1359.06
259.151	1385.06
259.383	1322.06
259.616	1156.06
259.849	1204.06
260.081	1408.06
260.314	1516.06
260.547	1722.06
260.779	1723.06
261.012	1627.06
261.244	1432.06
261.477	1383.06
261.71	1471.06
261.942	1432.06
262.175	1368.06
262.407	1461.06
262.64	1380.06
262.872	1318.06
263.105	1222.06
263.337	1280.06
263.57	1288.06
263.802	1317.06
264.035	1228.06
264.267	1174.06
264.499	1118.06
264.732	1230.06
264.964	1276.06
265.197	1370.06
265.429	1429.06
265.661	1590.06
265.894	1731.06
266.126	1837.06
266.358	1618.06
266.591	1641.06
266.823	1838.06
267.055	1643.06
267.287	1616.06
267.52	1568.06
267.752	1542.06
267.984	1548.06
268.216	1620.06
268.448	1652.06
268.681	1685.06
268.913	1505.06
269.145	1438.06
269.377	1363.06
269.609	1536.06
269.841	1720.06
270.073	2072.06
270.306	2264.06
270.538	2478.06
270.77	2061.06
271.002	1720.06
271.234	1677.06
271.466	1659.06
271.698	1834.06
271.93	2270.06
272.162	2267.06
272.394	2008.06
272.626	1916.06
272.858	1698.06
273.09	1497.06
273.322	1476.06
273.553	1410.06
273.785	1367.06
274.017	1442.06
274.249	1572.06
274.481	1645.06
274.713	1479.06
274.945	1410.06
275.176	1419.06
275.408	1416.06
275.64	1393.06
275.872	1362.06
276.104	1456.06
276.335	1658.06
276.567	1870.06
276.799	1959.06
277.031	1741.06
277.262	1614.06
277.494	1657.06
277.726	1876.06
277.957	1818.06
278.189	1678.06
278.421	1568.06
278.652	1497.06
278.884	1488.06
279.115	1477.06
279.347	1538.06
279.579	1436.06
279.81	1486.06
280.042	1612.06
280.273	1793.06
280.505	1791.06
280.736	1879.06
280.968	1752.06
281.199	1542.06
281.431	1422.06
281.662	1407.06
281.894	1451.06
282.125	1457.06
282.356	1548.06
282.588	1597.06
282.819	1545.06
283.051	1684.06
283.282	1806.06
283.513	1790.06
283.745	1518.06
283.976	1464.06
284.207	1440.06
284.439	1479.06
284.67	1514.06
284.901	1545.06
285.132	1594.06
285.364	1534.06
285.595	1584.06
285.826	1558.06
286.057	1517.06
286.288	1510.06
286.52	1569.06
286.751	1724.06
286.982	1757.06
287.213	1641.06
287.444	1485.06
287.675	1464.06
287.906	1516.06
288.138	1654.06
288.369	1610.06
288.6	1539.06
288.831	1456.06
289.062	1500.06
289.293	1553.06
289.524	1511.06
289.755	1588.06
289.986	1614.06
290.217	1454.06
290.448	1462.06
290.679	1549.06
290.91	1540.06
291.141	1591.06
291.371	1644.06
291.602	1610.06
291.833	1601.06
292.064	1662.06
292.295	1643.06
292.526	1676.06
292.757	1760.06
292.987	1673.06
293.218	1548.06
293.449	1651.06
293.68	1838.06
293.91	2081.06
294.141	1889.06
294.372	1796.06
294.603	1885.06
294.833	1982.06
295.064	1792.06
295.295	1644.06
295.525	1623.06
295.756	1529.06
295.987	1417.06
296.217	1437.06
296.448	1466.06
296.679	1535.06
296.909	1534.06
297.14	1530.06
297.37	1508.06
297.601	1591.06
297.831	1707.06
298.062	1768.06
298.292	1592.06
298.523	1541.06
298.753	1538.06
298.984	1561.06
299.214	1562.06
299.445	1571.06
299.675	1614.06
299.905	1620.06
300.136	1608.06
300.366	1501.06
300.597	1498.06
300.827	1453.06
301.057	1595.06
301.288	1610.06
301.518	1597.06
301.748	1637.06
301.979	1730.06
302.209	1732.06
302.439	1912.06
302.669	1979.06
302.9	1862.06
303.13	1634.06
303.36	1637.06
303.59	1682.06
303.82	1659.06
304.051	1641.06
304.281	1682.06
304.511	1668.06
304.741	1742.06
304.971	1906.06
305.201	2154.06
305.431	1900.06
305.661	1599.06
305.891	1418.06
306.121	1392.06
306.352	1440.06
306.582	1594.06
306.812	1691.06
307.042	1810.06
307.272	1825.06
307.502	1831.06
307.731	2021.06
307.961	2150.06
308.191	2053.06
308.421	1742.06
308.651	1618.06
308.881	1573.06
309.111	1628.06
309.341	1542.06
309.571	1601.06
309.8	1599.06
310.03	1565.06
310.26	1557.06
310.49	1515.06
310.72	1634.06
310.949	1687.06
311.179	1721.06
311.409	1695.06
311.639	1656.06
311.868	1572.06
312.098	1636.06
312.328	1612.06
312.557	1596.06
312.787	1662.06
313.017	1671.06
313.246	1642.06
313.476	1682.06
313.706	1732.06
313.935	1690.06
314.165	1681.06
314.394	1761.06
314.624	1842.06
314.853	1930.06
315.083	2027.06
315.312	2040.06
315.542	1932.06
315.771	1681.06
316.001	1685.06
316.23	1816.06
316.46	1785.06
316.689	1796.06
316.919	1660.06
317.148	1623.06
317.377	1653.06
317.607	1767.06
317.836	1983.06
318.065	2052.06
318.295	1946.06
318.524	1887.06
318.753	1796.06
318.983	1805.06
319.212	1772.06
319.441	1703.06
319.67	1691.06
319.9	1743.06
320.129	1810.06
320.358	1884.06
320.587	1935.06
320.816	1922.06
321.046	1879.06
321.275	1773.06
321.504	1795.06
321.733	1934.06
321.962	1950.06
322.191	1778.06
322.42	1715.06
322.649	1702.06
322.878	1728.06
323.108	1742.06
323.337	1834.06
323.566	1803.06
323.795	1818.06
324.024	1797.06
324.253	1737.06
324.482	1764.06
324.71	1706.06
324.939	1623.06
325.168	1650.06
325.397	1767.06
325.626	1768.06
325.855	1790.06
326.084	1726.06
326.313	1778.06
326.542	1753.06
326.77	1824.06
326.999	1822.06
327.228	1744.06
327.457	1644.06
327.686	1665.06
327.914	1692.06
328.143	1748.06
328.372	1734.06
328.6	1718.06
328.829	1716.06
329.058	1692.06
329.287	1704.06
329.515	1766.06
329.744	1747.06
329.972	1818.06
330.201	1948.06
330.43	1915.06
330.658	1796.06
330.887	1841.06
331.115	1844.06
331.344	1860.06
331.572	1841.06
331.801	1824.06
332.03	1798.06
332.258	1837.06
332.486	1866.06
332.715	1864.06
332.943	1860.06
333.172	1853.06
333.4	1836.06
333.629	1876.06
333.857	1965.06
334.085	2163.06
334.314	2458.06
334.542	2709.06
334.771	2530.06
334.999	2233.06
335.227	2065.06
335.455	1987.06
335.684	1926.06
335.912	2000.06
336.14	2064.06
336.369	2036.06
336.597	1900.06
336.825	1855.06
337.053	1878.06
337.281	2010.06
337.51	2103.06
337.738	2205.06
337.966	2044.06
338.194	1896.06
338.422	1848.06
338.65	1850.06
338.878	1781.06
339.106	1768.06
339.334	1723.06
339.562	1696.06
339.79	1747.06
340.018	1840.06
340.246	1952.06
340.474	1924.06
340.702	1843.06
340.93	1907.06
341.158	1866.06
341.386	1802.06
341.614	1802.06
341.842	1770.06
342.07	1802.06
342.298	1815.06
342.526	1850.06
342.754	1765.06
342.981	1806.06
343.209	1788.06
343.437	1798.06
343.665	1818.06
343.893	1844.06
344.12	1924.06
344.348	1975.06
344.576	1864.06
344.804	1760.06
345.031	1809.06
345.259	1802.06
345.487	1792.06
345.714	1718.06
345.942	1622.06
346.17	1640.06
346.397	1702.06
346.625	1736.06
346.853	1651.06
347.08	1619.06
347.308	1623.06
347.535	1670.06
347.763	1742.06
347.99	1679.06
348.218	1654.06
348.445	1674.06
348.673	1676.06
348.9	1717.06
349.128	1732.06
349.355	1846.06
349.583	1803.06
349.81	1716.06
350.037	1568.06
350.265	1574.06
350.492	1596.06
350.72	1620.06
350.947	1676.06
351.174	1752.06
351.402	1629.06
351.629	1580.06
351.856	1577.06
352.083	1522.06
352.311	1574.06
352.538	1578.06
352.765	1706.06
352.992	1738.06
353.22	1681.06
353.447	1615.06
353.674	1655.06
353.901	1642.06
354.128	1658.06
354.355	1573.06
354.583	1653.06
354.81	1737.06
355.037	1705.06
355.264	1749.06
355.491	1653.06
355.718	1705.06
355.945	1657.06
356.172	1619.06
356.399	1613.06
356.626	1612.06
356.853	1644.06
357.08	1803.06
357.307	1981.06
357.534	2007.06
357.761	1716.06
357.988	1606.06
358.215	1561.06
358.441	1579.06
358.668	1575.06
358.895	1620.06
359.122	1693.06
359.349	1850.06
359.576	1855.06
359.802	1679.06
360.029	1580.06
360.256	1569.06
360.483	1588.06
360.709	1649.06
360.936	1714.06
361.163	1736.06
361.39	1923.06
361.616	2104.06
361.843	2050.06
362.07	1926.06
362.296	1690.06
362.523	1650.06
362.749	1650.06
362.976	1681.06
363.203	1703.06
363.429	1667.06
363.656	1612.06
363.882	1672.06
364.109	1831.06
364.335	1960.06
364.562	1856.06
364.788	1788.06
365.015	1688.06
365.241	1609.06
365.468	1637.06
365.694	1701.06
365.92	1828.06
366.147	1724.06
366.373	1613.06
366.599	1591.06
366.826	1607.06
367.052	1613.06
367.278	1642.06
367.505	1648.06
367.731	1678.06
367.957	1706.06
368.184	1709.06
368.41	1844.06
368.636	1857.06
368.862	1868.06
369.089	1897.06
369.315	1836.06
369.541	1733.06
369.767	1728.06
369.993	1656.06
370.219	1613.06
370.445	1691.06
370.672	1761.06
370.898	1853.06
371.124	1892.06
371.35	1751.06
371.576	1765.06
371.802	1872.06
372.028	1768.06
372.254	1725.06
372.48	1709.06
372.706	1698.06
372.932	1653.06
373.158	1657.06
373.384	1688.06
373.61	1752.06
373.835	1858.06
374.061	1772.06
374.287	1708.06
374.513	1708.06
374.739	1750.06
374.965	1783.06
375.191	1778.06
375.416	1775.06
375.642	1776.06
375.868	1912.06
376.094	1965.06
376.319	1883.06
376.545	1744.06
376.771	1757.06
376.997	1858.06
377.222	1845.06
377.448	1801.06
377.674	1784.06
377.899	1829.06
378.125	1928.06
378.35	1951.06
378.576	1770.06
378.802	1664.06
379.027	1645.06
379.253	1708.06
379.478	1730.06
379.704	1669.06
379.929	1717.06
380.155	1679.06
380.38	1745.06
380.606	1785.06
380.831	1726.06
381.057	1816.06
381.282	1840.06
381.507	1787.06
381.733	1908.06
381.958	2003.06
382.184	1820.06
382.409	1782.06
382.634	1824.06
382.86	1787.06
383.085	1818.06
383.31	1858.06
383.535	2000.06
383.761	2118.06
383.986	2037.06
384.211	1937.06
384.436	1931.06
384.662	1981.06
384.887	2121.06
385.112	2003.06
385.337	1989.06
385.562	1971.06
385.787	1950.06
386.013	2043.06
386.238	2129.06
386.463	2005.06
386.688	2081.06
386.913	2283.06
387.138	2241.06
387.363	2003.06
387.588	2087.06
387.813	2044.06
388.038	2053.06
388.263	2083.06
388.488	2037.06
388.713	1908.06
388.938	1922.06
389.163	1920.06
389.387	1926.06
389.612	1971.06
389.837	2011.06
390.062	2004.06
390.287	2011.06
390.512	2028.06
390.736	2001.06
390.961	1904.06
391.186	1912.06
391.411	1914.06
391.636	1976.06
391.86	1956.06
392.085	1963.06
392.31	1957.06
392.534	1979.06
392.759	1970.06
392.984	1975.06
393.208	1978.06
393.433	2077.06
393.658	2078.06
393.882	2119.06
394.107	2037.06
394.331	1961.06
394.556	1955.06
394.78	1979.06
395.005	2083.06
395.229	2107.06
395.454	2258.06
395.678	2285.06
395.903	2176.06
396.127	2064.06
396.352	2076.06
396.576	2178.06
396.801	2170.06
397.025	2140.06
397.249	2149.06
397.474	2158.06
397.698	2146.06
397.922	2186.06
398.147	2290.06
398.371	2344.06
398.595	2370.06
398.82	2274.06
399.044	2307.06
399.268	2372.06
399.492	2561.06
399.717	2659.06
399.941	2660.06
400.165	2621.06
400.389	2508.06
400.613	2437.06
400.837	2745.06
401.062	3175.06
401.286	2719.06
401.51	2507.06
401.734	2560.06
401.958	2493.06
402.182	2347.06
402.406	2259.06
402.63	2217.06
402.854	2230.06
403.078	2291.06
403.302	2343.06
403.526	2380.06
403.75	2381.06
403.974	2404.06
404.198	2311.06
404.422	2470.06
404.645	2549.06
404.869	2516.06
405.093	2347.06
405.317	2254.06
405.541	2354.06
405.765	2352.06
405.988	2341.06
406.212	2369.06
406.436	2472.06
406.66	2514.06
406.883	2516.06
407.107	2802.06
407.331	3050.06
407.555	3320.06
407.778	3056.06
408.002	2569.06
408.226	2490.06
408.449	2520.06
408.673	2362.06
408.896	2478.06
409.12	2504.06
409.344	2410.06
409.567	2375.06
409.791	2358.06
410.014	2426.06
410.238	2516.06
410.461	2627.06
410.685	2387.06
410.908	2284.06
411.132	2326.06
411.355	2321.06
411.578	2254.06
411.802	2307.06
412.025	2366.06
412.249	2331.06
412.472	2264.06
412.695	2245.06
412.919	2244.06
413.142	2229.06
413.365	2215.06
413.589	2295.06
413.812	2394.06
414.035	2507.06
414.258	2261.06
414.482	2249.06
414.705	2288.06
414.928	2268.06
415.151	2214.06
415.374	2218.06
415.597	2280.06
415.821	2241.06
416.044	2354.06
416.267	2396.06
416.49	2180.06
416.713	2201.06
416.936	2228.06
417.159	2306.06
417.382	2342.06
417.605	2190.06
417.828	2274.06
418.051	2266.06
418.274	2203.06
418.497	2149.06
418.72	2127.06
418.943	2137.06
419.166	2315.06
419.389	2437.06
419.611	2236.06
419.834	2226.06
420.057	2261.06
420.28	2203.06
420.503	2157.06
420.726	2199.06
420.948	2208.06
421.171	2163.06
421.394	2097.06
421.617	2230.06
421.839	2217.06
422.062	2158.06
422.285	2161.06
422.507	2115.06
422.73	2042.06
422.953	2050.06
423.175	2060.06
423.398	2127.06
423.621	2152.06
423.843	2161.06
424.066	2190.06
424.288	2251.06
424.511	2325.06
424.733	2225.06
424.956	2078.06
425.178	2042.06
425.401	2041.06
425.623	2084.06
425.846	2072.06
426.068	2196.06
426.291	2224.06
426.513	2190.06
426.735	2204.06
426.958	2304.06
427.18	2484.06
427.402	2280.06
427.625	2334.06
427.847	2348.06
428.069	2170.06
428.292	2111.06
428.514	2078.06
428.736	2084.06
428.958	2053.06
429.181	2127.06
429.403	2328.06
429.625	2936.06
429.847	2607.06
430.069	2200.06
430.292	2357.06
430.514	2463.06
430.736	2277.06
430.958	2417.06
431.18	2281.06
431.402	2084.06
431.624	2102.06
431.846	2072.06
432.068	2032.06
432.29	2078.06
432.512	2105.06
432.734	2183.06
432.956	2175.06
433.178	2266.06
433.4	2241.06
433.622	2276.06
433.844	2147.06
434.066	2081.06
434.287	2057.06
434.509	2155.06
434.731	2258.06
434.953	2427.06
435.175	2390.06
435.397	2224.06
435.618	2209.06
435.84	2193.06
436.062	2180.06
436.284	2176.06
436.505	2207.06
436.727	2248.06
436.949	2216.06
437.17	2087.06
437.392	2103.06
437.614	2114.06
437.835	2044.06
438.057	2208.06
438.278	2312.06
438.5	2153.06
438.721	2119.06
438.943	2101.06
439.165	2099.06
439.386	2037.06
439.608	2091.06
439.829	2122.06
440.05	2106.06
440.272	2061.06
440.493	1992.06
440.715	2050.06
440.936	2235.06
441.158	2462.06
441.379	2402.06
441.6	2306.06
441.822	2262.06
442.043	2208.06
442.264	2193.06
442.486	2094.06
442.707	2089.06
442.928	2078.06
443.149	2112.06
443.371	2282.06
443.592	2343.06
443.813	2278.06
444.034	2221.06
444.255	2271.06
444.476	2314.06
444.698	2376.06
444.919	2387.06
445.14	2427.06
445.361	2441.06
445.582	2521.06
445.803	2390.06
446.024	2302.06
446.245	2394.06
446.466	2323.06
446.687	2151.06
446.908	2207.06
447.129	2113.06
447.35	2165.06
447.571	2144.06
447.792	2035.06
448.013	2034.06
448.234	2033.06
448.455	2202.06
448.675	2172.06
448.896	2022.06
449.117	2018.06
449.338	2057.06
449.559	2146.06
449.779	2264.06
450	2523.06
450.221	2701.06
450.442	2610.06
450.662	2260.06
450.883	1992.06
451.104	1976.06
451.324	1988.06
451.545	2071.06
451.766	2046.06
451.986	1924.06
452.207	1941.06
452.428	1900.06
452.648	1858.06
452.869	1923.06
453.089	2064.06
453.31	2062.06
453.53	2080.06
453.751	2069.06
453.971	1874.06
454.192	1955.06
454.412	2066.06
454.633	2012.06
454.853	1966.06
455.073	1849.06
455.294	1848.06
455.514	1821.06
455.734	1799.06
455.955	1869.06
456.175	1885.06
456.395	1878.06
456.616	1904.06
456.836	1979.06
457.056	1928.06
457.276	1942.06
457.497	1884.06
457.717	1773.06
457.937	1834.06
458.157	1889.06
458.377	1883.06
458.598	1869.06
458.818	1876.06
459.038	1997.06
459.258	2127.06
459.478	2125.06
459.698	2066.06
459.918	2139.06
460.138	2173.06
460.358	2245.06
460.578	2210.06
460.798	2362.06
461.018	2440.06
461.238	2360.06
461.458	2243.06
461.678	2221.06
461.898	2212.06
462.118	2145.06
462.338	2252.06
462.558	2295.06
462.777	2251.06
462.997	2308.06
463.217	2510.06
463.437	2500.06
463.657	2303.06
463.876	2251.06
464.096	2245.06
464.316	2251.06
464.536	2372.06
464.755	2330.06
464.975	2364.06
465.195	2267.06
465.414	2352.06
465.634	2356.06
465.854	2217.06
466.073	2381.06
466.293	2354.06
466.512	2088.06
466.732	2002.06
466.951	2133.06
467.171	2144.06
467.391	1988.06
467.61	1995.06
467.829	2026.06
468.049	2187.06
468.268	2422.06
468.488	2336.06
468.707	2157.06
468.927	2066.06
469.146	2032.06
469.365	2020.06
469.585	2056.06
469.804	2000.06
470.023	1982.06
470.243	2070.06
470.462	2089.06
470.681	1998.06
470.901	2039.06
471.12	2084.06
471.339	2000.06
471.558	1955.06
471.777	1978.06
471.997	1952.06
472.216	2011.06
472.435	1949.06
472.654	1974.06
472.873	2090.06
473.092	2137.06
473.311	2054.06
473.53	1930.06
473.749	1947.06
473.968	2020.06
474.187	2151.06
474.406	2281.06
474.625	2116.06
474.844	2078.06
475.063	2036.06
475.282	2133.06
475.501	2099.06
475.72	2068.06
475.939	2222.06
476.158	2140.06
476.377	2080.06
476.596	2079.06
476.814	2129.06
477.033	2158.06
477.252	2244.06
477.471	2312.06
477.69	2197.06
477.908	2186.06
478.127	2264.06
478.346	2445.06
478.564	2475.06
478.783	2404.06
479.002	2533.06
479.22	2413.06
479.439	2497.06
479.658	2878.06
479.876	2866.06
480.095	2488.06
480.313	2365.06
480.532	2293.06
480.751	2339.06
480.969	2389.06
481.188	2327.06
481.406	2289.06
481.624	2208.06
481.843	2294.06
482.061	2320.06
482.28	2351.06
482.498	2416.06
482.717	2362.06
482.935	2271.06
483.153	2292.06
483.372	2291.06
483.59	2273.06
483.808	2300.06
484.027	2388.06
484.245	2467.06
484.463	2823.06
484.681	3331.06
484.9	2551.06
485.118	2336.06
485.336	2344.06
485.554	2425.06
485.772	2496.06
485.99	2516.06
486.209	2435.06
486.427	2418.06
486.645	2468.06
486.863	2410.06
487.081	2469.06
487.299	2568.06
