Data from WStandard_LampEnergy8_LIBS07252019.E.O._I.C._HRD10591_16-00-24-929.txt Node
Date: Thu Jul 25 16:00:24 EDT 2019
User: cochatt
Spectrometer: HR+D1059
Trigger mode: 1
Integration Time (sec): 1.000000E-1
Scans to average: 1
Electric dark correction enabled: true
Nonlinearity correction enabled: false
Boxcar width: 0
XAxis mode: Wavelengths
Number of Pixels in Spectrum: 2048
>>>>>Begin Spectral Data<<<<<
223.165	-13.62
223.4	-13.62
223.635	-13.62
223.869	-7.62
224.104	-25.62
224.338	-18.62
224.573	-24.62
224.808	-14.62
225.042	-11.62
225.277	-0.62
225.511	6.38
225.746	10.38
225.98	-4.62
226.215	-1.62
226.449	26.38
226.683	16.38
226.918	25.38
227.152	38.38
227.387	39.38
227.621	43.38
227.856	53.38
228.09	42.38
228.324	42.38
228.559	48.38
228.793	95.38
229.027	187.38
229.262	190.38
229.496	210.38
229.73	213.38
229.964	246.38
230.199	253.38
230.433	247.38
230.667	262.38
230.901	284.38
231.136	251.38
231.37	261.38
231.604	252.38
231.838	265.38
232.072	267.38
232.306	245.38
232.541	263.38
232.775	298.38
233.009	309.38
233.243	309.38
233.477	283.38
233.711	302.38
233.945	309.38
234.179	311.38
234.413	302.38
234.647	305.38
234.881	330.38
235.115	309.38
235.349	293.38
235.583	290.38
235.817	303.38
236.051	305.38
236.285	296.38
236.519	323.38
236.753	354.38
236.987	342.38
237.221	353.38
237.455	364.38
237.689	373.38
237.922	341.38
238.156	340.38
238.39	337.38
238.624	362.38
238.858	386.38
239.091	386.38
239.325	410.38
239.559	466.38
239.793	491.38
240.027	521.38
240.26	500.38
240.494	382.38
240.728	357.38
240.961	366.38
241.195	377.38
241.429	391.38
241.662	408.38
241.896	377.38
242.13	405.38
242.363	418.38
242.597	433.38
242.83	453.38
243.064	454.38
243.298	468.38
243.531	468.38
243.765	436.38
243.998	450.38
244.232	418.38
244.465	409.38
244.699	423.38
244.932	449.38
245.166	510.38
245.399	497.38
245.633	454.38
245.866	433.38
246.099	453.38
246.333	487.38
246.566	466.38
246.8	533.38
247.033	573.38
247.266	516.38
247.5	502.38
247.733	532.38
247.966	555.38
248.2	594.38
248.433	612.38
248.666	600.38
248.899	645.38
249.133	729.38
249.366	785.38
249.599	654.38
249.832	586.38
250.066	627.38
250.299	606.38
250.532	571.38
250.765	514.38
250.998	585.38
251.231	585.38
251.465	602.38
251.698	561.38
251.931	581.38
252.164	578.38
252.397	607.38
252.63	605.38
252.863	541.38
253.096	539.38
253.329	578.38
253.562	592.38
253.795	595.38
254.028	597.38
254.261	558.38
254.494	572.38
254.727	544.38
254.96	576.38
255.193	650.38
255.426	695.38
255.659	743.38
255.892	778.38
256.124	669.38
256.357	633.38
256.59	645.38
256.823	669.38
257.056	684.38
257.289	804.38
257.521	861.38
257.754	767.38
257.987	754.38
258.22	821.38
258.452	799.38
258.685	650.38
258.918	661.38
259.151	667.38
259.383	623.38
259.616	582.38
259.849	604.38
260.081	674.38
260.314	750.38
260.547	799.38
260.779	782.38
261.012	745.38
261.244	682.38
261.477	678.38
261.71	687.38
261.942	682.38
262.175	659.38
262.407	677.38
262.64	651.38
262.872	596.38
263.105	625.38
263.337	611.38
263.57	622.38
263.802	630.38
264.035	581.38
264.267	557.38
264.499	535.38
264.732	588.38
264.964	647.38
265.197	661.38
265.429	705.38
265.661	741.38
265.894	841.38
266.126	830.38
266.358	749.38
266.591	801.38
266.823	830.38
267.055	784.38
267.287	747.38
267.52	714.38
267.752	722.38
267.984	769.38
268.216	767.38
268.448	782.38
268.681	762.38
268.913	710.38
269.145	671.38
269.377	684.38
269.609	756.38
269.841	846.38
270.073	969.38
270.306	1075.38
270.538	1090.38
270.77	941.38
271.002	822.38
271.234	779.38
271.466	777.38
271.698	901.38
271.93	1052.38
272.162	1035.38
272.394	960.38
272.626	870.38
272.858	787.38
273.09	690.38
273.322	693.38
273.553	661.38
273.785	681.38
274.017	669.38
274.249	732.38
274.481	749.38
274.713	708.38
274.945	703.38
275.176	672.38
275.408	669.38
275.64	651.38
275.872	679.38
276.104	723.38
276.335	810.38
276.567	881.38
276.799	900.38
277.031	817.38
277.262	790.38
277.494	795.38
277.726	897.38
277.957	863.38
278.189	803.38
278.421	710.38
278.652	717.38
278.884	709.38
279.115	733.38
279.347	729.38
279.579	705.38
279.81	718.38
280.042	789.38
280.273	843.38
280.505	838.38
280.736	819.38
280.968	814.38
281.199	715.38
281.431	682.38
281.662	696.38
281.894	724.38
282.125	725.38
282.356	726.38
282.588	749.38
282.819	767.38
283.051	823.38
283.282	826.38
283.513	833.38
283.745	735.38
283.976	701.38
284.207	711.38
284.439	718.38
284.67	716.38
284.901	742.38
285.132	741.38
285.364	748.38
285.595	764.38
285.826	741.38
286.057	709.38
286.288	751.38
286.52	780.38
286.751	827.38
286.982	849.38
287.213	769.38
287.444	718.38
287.675	717.38
287.906	789.38
288.138	814.38
288.369	787.38
288.6	759.38
288.831	722.38
289.062	735.38
289.293	733.38
289.524	737.38
289.755	773.38
289.986	770.38
290.217	716.38
290.448	721.38
290.679	758.38
290.91	790.38
291.141	779.38
291.371	825.38
291.602	794.38
291.833	804.38
292.064	829.38
292.295	801.38
292.526	854.38
292.757	839.38
292.987	822.38
293.218	783.38
293.449	866.38
293.68	937.38
293.91	984.38
294.141	897.38
294.372	879.38
294.603	913.38
294.833	961.38
295.064	901.38
295.295	832.38
295.525	754.38
295.756	745.38
295.987	727.38
296.217	719.38
296.448	740.38
296.679	749.38
296.909	762.38
297.14	742.38
297.37	761.38
297.601	823.38
297.831	873.38
298.062	871.38
298.292	793.38
298.523	787.38
298.753	763.38
298.984	783.38
299.214	778.38
299.445	804.38
299.675	807.38
299.905	835.38
300.136	812.38
300.366	785.38
300.597	740.38
300.827	753.38
301.057	810.38
301.288	836.38
301.518	848.38
301.748	842.38
301.979	919.38
302.209	951.38
302.439	967.38
302.669	950.38
302.9	919.38
303.13	842.38
303.36	841.38
303.59	862.38
303.82	844.38
304.051	848.38
304.281	859.38
304.511	853.38
304.741	928.38
304.971	999.38
305.201	1031.38
305.431	954.38
305.661	790.38
305.891	726.38
306.121	755.38
306.352	818.38
306.582	830.38
306.812	875.38
307.042	946.38
307.272	923.38
307.502	957.38
307.731	1018.38
307.961	1030.38
308.191	978.38
308.421	845.38
308.651	825.38
308.881	778.38
309.111	807.38
309.341	811.38
309.571	822.38
309.8	827.38
310.03	799.38
310.26	829.38
310.49	817.38
310.72	835.38
310.949	890.38
311.179	870.38
311.409	863.38
311.639	827.38
311.868	821.38
312.098	817.38
312.328	835.38
312.557	806.38
312.787	818.38
313.017	865.38
313.246	856.38
313.476	835.38
313.706	860.38
313.935	877.38
314.165	865.38
314.394	899.38
314.624	957.38
314.853	1015.38
315.083	1039.38
315.312	1030.38
315.542	969.38
315.771	890.38
316.001	902.38
316.23	935.38
316.46	925.38
316.689	934.38
316.919	873.38
317.148	848.38
317.377	880.38
317.607	949.38
317.836	1029.38
318.065	1060.38
318.295	1016.38
318.524	975.38
318.753	932.38
318.983	913.38
319.212	935.38
319.441	900.38
319.67	885.38
319.9	927.38
320.129	998.38
320.358	1010.38
320.587	983.38
320.816	1006.38
321.046	979.38
321.275	949.38
321.504	972.38
321.733	1010.38
321.962	993.38
322.191	902.38
322.42	907.38
322.649	892.38
322.878	909.38
323.108	922.38
323.337	948.38
323.566	947.38
323.795	921.38
324.024	951.38
324.253	910.38
324.482	916.38
324.71	891.38
324.939	858.38
325.168	883.38
325.397	919.38
325.626	938.38
325.855	916.38
326.084	907.38
326.313	919.38
326.542	929.38
326.77	968.38
326.999	940.38
327.228	917.38
327.457	868.38
327.686	851.38
327.914	886.38
328.143	921.38
328.372	898.38
328.6	854.38
328.829	906.38
329.058	897.38
329.287	895.38
329.515	920.38
329.744	941.38
329.972	1006.38
330.201	1026.38
330.43	1009.38
330.658	950.38
330.887	981.38
331.115	1000.38
331.344	951.38
331.572	956.38
331.801	941.38
332.03	969.38
332.258	984.38
332.486	961.38
332.715	963.38
332.943	972.38
333.172	945.38
333.4	988.38
333.629	1007.38
333.857	1065.38
334.085	1173.38
334.314	1340.38
334.542	1374.38
334.771	1256.38
334.999	1128.38
335.227	1064.38
335.455	1032.38
335.684	1049.38
335.912	1057.38
336.14	1120.38
336.369	1025.38
336.597	988.38
336.825	984.38
337.053	1011.38
337.281	1083.38
337.51	1116.38
337.738	1160.38
337.966	1075.38
338.194	969.38
338.422	953.38
338.65	948.38
338.878	926.38
339.106	938.38
339.334	916.38
339.562	935.38
339.79	919.38
340.018	997.38
340.246	1040.38
340.474	1025.38
340.702	1001.38
340.93	1002.38
341.158	972.38
341.386	977.38
341.614	974.38
341.842	985.38
342.07	983.38
342.298	968.38
342.526	949.38
342.754	984.38
342.981	966.38
343.209	926.38
343.437	968.38
343.665	941.38
343.893	990.38
344.12	1025.38
344.348	1011.38
344.576	977.38
344.804	956.38
345.031	967.38
345.259	963.38
345.487	933.38
345.714	883.38
345.942	881.38
346.17	905.38
346.397	929.38
346.625	893.38
346.853	889.38
347.08	845.38
347.308	885.38
347.535	889.38
347.763	907.38
347.99	896.38
348.218	869.38
348.445	884.38
348.673	897.38
348.9	910.38
349.128	938.38
349.355	966.38
349.583	954.38
349.81	908.38
350.037	849.38
350.265	870.38
350.492	868.38
350.72	890.38
350.947	936.38
351.174	939.38
351.402	877.38
351.629	850.38
351.856	857.38
352.083	871.38
352.311	874.38
352.538	887.38
352.765	915.38
352.992	915.38
353.22	917.38
353.447	874.38
353.674	914.38
353.901	888.38
354.128	874.38
354.355	893.38
354.583	926.38
354.81	925.38
355.037	957.38
355.264	949.38
355.491	929.38
355.718	921.38
355.945	912.38
356.172	859.38
356.399	865.38
356.626	879.38
356.853	923.38
357.08	996.38
357.307	1084.38
357.534	1057.38
357.761	942.38
357.988	891.38
358.215	856.38
358.441	856.38
358.668	877.38
358.895	869.38
359.122	939.38
359.349	1026.38
359.576	1021.38
359.802	910.38
360.029	899.38
360.256	864.38
360.483	904.38
360.709	897.38
360.936	929.38
361.163	983.38
361.39	1059.38
361.616	1146.38
361.843	1134.38
362.07	1049.38
362.296	940.38
362.523	881.38
362.749	915.38
362.976	933.38
363.203	911.38
363.429	893.38
363.656	897.38
363.882	936.38
364.109	1023.38
364.335	1077.38
364.562	1009.38
364.788	958.38
365.015	914.38
365.241	898.38
365.468	935.38
365.694	921.38
365.92	974.38
366.147	919.38
366.373	871.38
366.599	901.38
366.826	907.38
367.052	890.38
367.278	897.38
367.505	908.38
367.731	928.38
367.957	923.38
368.184	940.38
368.41	1010.38
368.636	1029.38
368.862	1047.38
369.089	1043.38
369.315	1000.38
369.541	968.38
369.767	949.38
369.993	890.38
370.219	913.38
370.445	935.38
370.672	1017.38
370.898	1050.38
371.124	1034.38
371.35	959.38
371.576	1015.38
371.802	1022.38
372.028	980.38
372.254	942.38
372.48	934.38
372.706	905.38
372.932	919.38
373.158	973.38
373.384	978.38
373.61	1017.38
373.835	1028.38
374.061	979.38
374.287	996.38
374.513	961.38
374.739	980.38
374.965	939.38
375.191	988.38
375.416	1002.38
375.642	996.38
375.868	1053.38
376.094	1076.38
376.319	1033.38
376.545	957.38
376.771	1029.38
376.997	1091.38
377.222	1039.38
377.448	1001.38
377.674	991.38
377.899	1029.38
378.125	1073.38
378.35	1029.38
378.576	963.38
378.802	937.38
379.027	918.38
379.253	945.38
379.478	969.38
379.704	942.38
379.929	982.38
380.155	972.38
380.38	982.38
380.606	994.38
380.831	1010.38
381.057	1086.38
381.282	1058.38
381.507	1034.38
381.733	1098.38
381.958	1102.38
382.184	1025.38
382.409	1017.38
382.634	1029.38
382.86	1029.38
383.085	1048.38
383.31	1057.38
383.535	1170.38
383.761	1214.38
383.986	1123.38
384.211	1103.38
384.436	1083.38
384.662	1116.38
384.887	1131.38
385.112	1133.38
385.337	1124.38
385.562	1120.38
385.787	1107.38
386.013	1147.38
386.238	1127.38
386.463	1129.38
386.688	1173.38
386.913	1275.38
387.138	1221.38
387.363	1156.38
387.588	1139.38
387.813	1127.38
388.038	1162.38
388.263	1173.38
388.488	1122.38
388.713	1041.38
388.938	1031.38
389.163	1069.38
389.387	1085.38
389.612	1089.38
389.837	1077.38
390.062	1114.38
390.287	1112.38
390.512	1114.38
390.736	1107.38
390.961	1074.38
391.186	1045.38
391.411	1073.38
391.636	1096.38
391.86	1118.38
392.085	1092.38
392.31	1109.38
392.534	1089.38
392.759	1073.38
392.984	1107.38
393.208	1105.38
393.433	1163.38
393.658	1175.38
393.882	1165.38
394.107	1142.38
394.331	1121.38
394.556	1113.38
394.78	1122.38
395.005	1175.38
395.229	1223.38
395.454	1238.38
395.678	1269.38
395.903	1216.38
396.127	1162.38
396.352	1201.38
396.576	1226.38
396.801	1250.38
397.025	1184.38
397.249	1206.38
397.474	1203.38
397.698	1183.38
397.922	1221.38
398.147	1301.38
398.371	1315.38
398.595	1319.38
398.82	1222.38
399.044	1301.38
399.268	1369.38
399.492	1415.38
399.717	1445.38
399.941	1431.38
400.165	1446.38
400.389	1404.38
400.613	1429.38
400.837	1596.38
401.062	1781.38
401.286	1474.38
401.51	1363.38
401.734	1432.38
401.958	1390.38
402.182	1316.38
402.406	1269.38
402.63	1254.38
402.854	1259.38
403.078	1283.38
403.302	1285.38
403.526	1325.38
403.75	1305.38
403.974	1309.38
404.198	1311.38
404.422	1388.38
404.645	1449.38
404.869	1402.38
405.093	1314.38
405.317	1289.38
405.541	1326.38
405.765	1287.38
405.988	1318.38
406.212	1349.38
406.436	1408.38
406.66	1436.38
406.883	1453.38
407.107	1646.38
407.331	1745.38
407.555	1853.38
407.778	1641.38
408.002	1425.38
408.226	1382.38
408.449	1421.38
408.673	1360.38
408.896	1363.38
409.12	1344.38
409.344	1340.38
409.567	1295.38
409.791	1324.38
410.014	1360.38
410.238	1458.38
410.461	1514.38
410.685	1316.38
410.908	1305.38
411.132	1316.38
411.355	1332.38
411.578	1295.38
411.802	1307.38
412.025	1307.38
412.249	1279.38
412.472	1308.38
412.695	1278.38
412.919	1256.38
413.142	1257.38
413.365	1287.38
413.589	1313.38
413.812	1389.38
414.035	1413.38
414.258	1289.38
414.482	1317.38
414.705	1284.38
414.928	1254.38
415.151	1274.38
415.374	1289.38
415.597	1322.38
415.821	1342.38
416.044	1326.38
416.267	1306.38
416.49	1231.38
416.713	1265.38
416.936	1339.38
417.159	1362.38
417.382	1329.38
417.605	1277.38
417.828	1293.38
418.051	1291.38
418.274	1272.38
418.497	1265.38
418.72	1259.38
418.943	1248.38
419.166	1311.38
419.389	1319.38
419.611	1294.38
419.834	1265.38
420.057	1291.38
420.28	1231.38
420.503	1235.38
420.726	1294.38
420.948	1210.38
421.171	1243.38
421.394	1262.38
421.617	1319.38
421.839	1345.38
422.062	1301.38
422.285	1255.38
422.507	1245.38
422.73	1206.38
422.953	1167.38
423.175	1196.38
423.398	1215.38
423.621	1230.38
423.843	1236.38
424.066	1340.38
424.288	1342.38
424.511	1369.38
424.733	1332.38
424.956	1217.38
425.178	1219.38
425.401	1243.38
425.623	1244.38
425.846	1201.38
426.068	1294.38
426.291	1323.38
426.513	1326.38
426.735	1301.38
426.958	1400.38
427.18	1471.38
427.402	1347.38
427.625	1367.38
427.847	1335.38
428.069	1244.38
428.292	1218.38
428.514	1213.38
428.736	1198.38
428.958	1189.38
429.181	1254.38
429.403	1439.38
429.625	1694.38
429.847	1437.38
430.069	1282.38
430.292	1403.38
430.514	1410.38
430.736	1345.38
430.958	1362.38
431.18	1304.38
431.402	1190.38
431.624	1157.38
431.846	1163.38
432.068	1112.38
432.29	1109.38
432.512	1160.38
432.734	1218.38
432.956	1245.38
433.178	1292.38
433.4	1305.38
433.622	1243.38
433.844	1213.38
434.066	1169.38
434.287	1149.38
434.509	1181.38
434.731	1228.38
434.953	1326.38
435.175	1302.38
435.397	1276.38
435.618	1250.38
435.84	1214.38
436.062	1204.38
436.284	1220.38
436.505	1242.38
436.727	1272.38
436.949	1282.38
437.17	1223.38
437.392	1199.38
437.614	1214.38
437.835	1153.38
438.057	1217.38
438.278	1226.38
438.5	1192.38
438.721	1194.38
438.943	1194.38
439.165	1203.38
439.386	1177.38
439.608	1217.38
439.829	1234.38
440.05	1225.38
440.272	1217.38
440.493	1227.38
440.715	1215.38
440.936	1322.38
441.158	1403.38
441.379	1401.38
441.6	1376.38
441.822	1322.38
442.043	1293.38
442.264	1308.38
442.486	1241.38
442.707	1227.38
442.928	1256.38
443.149	1302.38
443.371	1317.38
443.592	1341.38
443.813	1340.38
444.034	1334.38
444.255	1333.38
444.476	1381.38
444.698	1366.38
444.919	1369.38
445.14	1422.38
445.361	1429.38
445.582	1440.38
445.803	1390.38
446.024	1323.38
446.245	1381.38
446.466	1342.38
446.687	1291.38
446.908	1305.38
447.129	1285.38
447.35	1286.38
447.571	1253.38
447.792	1228.38
448.013	1251.38
448.234	1238.38
448.455	1290.38
448.675	1263.38
448.896	1228.38
449.117	1167.38
449.338	1198.38
449.559	1242.38
449.779	1294.38
450	1389.38
450.221	1435.38
450.442	1398.38
450.662	1271.38
450.883	1192.38
451.104	1153.38
451.324	1153.38
451.545	1181.38
451.766	1158.38
451.986	1109.38
452.207	1084.38
452.428	1064.38
452.648	1083.38
452.869	1068.38
453.089	1122.38
453.31	1147.38
453.53	1122.38
453.751	1072.38
453.971	1052.38
454.192	1105.38
454.412	1120.38
454.633	1120.38
454.853	1107.38
455.073	1029.38
455.294	1051.38
455.514	1046.38
455.734	1054.38
455.955	1063.38
456.175	1065.38
456.395	1046.38
456.616	1075.38
456.836	1067.38
457.056	1030.38
457.276	1066.38
457.497	1012.38
457.717	947.38
457.937	1041.38
458.157	1038.38
458.377	1007.38
458.598	1006.38
458.818	1045.38
459.038	1081.38
459.258	1102.38
459.478	1112.38
459.698	1081.38
459.918	1162.38
460.138	1204.38
460.358	1198.38
460.578	1197.38
460.798	1237.38
461.018	1342.38
461.238	1246.38
461.458	1233.38
461.678	1239.38
461.898	1197.38
462.118	1171.38
462.338	1219.38
462.558	1241.38
462.777	1242.38
462.997	1285.38
463.217	1368.38
463.437	1306.38
463.657	1238.38
463.876	1239.38
464.096	1209.38
464.316	1232.38
464.536	1292.38
464.755	1262.38
464.975	1269.38
465.195	1251.38
465.414	1263.38
465.634	1250.38
465.854	1303.38
466.073	1353.38
466.293	1283.38
466.512	1199.38
466.732	1164.38
466.951	1252.38
467.171	1217.38
467.391	1194.38
467.61	1153.38
467.829	1180.38
468.049	1291.38
468.268	1437.38
468.488	1318.38
468.707	1233.38
468.927	1225.38
469.146	1201.38
469.365	1186.38
469.585	1207.38
469.804	1217.38
470.023	1225.38
470.243	1245.38
470.462	1213.38
470.681	1191.38
470.901	1183.38
471.12	1226.38
471.339	1221.38
471.558	1148.38
471.777	1150.38
471.997	1196.38
472.216	1189.38
472.435	1101.38
472.654	1074.38
472.873	1148.38
473.092	1205.38
473.311	1139.38
473.53	1120.38
473.749	1147.38
473.968	1144.38
474.187	1213.38
474.406	1230.38
474.625	1195.38
474.844	1177.38
475.063	1203.38
475.282	1161.38
475.501	1186.38
475.72	1151.38
475.939	1258.38
476.158	1219.38
476.377	1195.38
476.596	1198.38
476.814	1173.38
477.033	1187.38
477.252	1243.38
477.471	1269.38
477.69	1241.38
477.908	1239.38
478.127	1326.38
478.346	1394.38
478.564	1382.38
478.783	1359.38
479.002	1443.38
479.22	1380.38
479.439	1437.38
479.658	1568.38
479.876	1487.38
480.095	1335.38
480.313	1308.38
480.532	1293.38
480.751	1261.38
480.969	1269.38
481.188	1231.38
481.406	1234.38
481.624	1213.38
481.843	1220.38
482.061	1273.38
482.28	1307.38
482.498	1314.38
482.717	1287.38
482.935	1259.38
483.153	1301.38
483.372	1330.38
483.59	1333.38
483.808	1325.38
484.027	1330.38
484.245	1387.38
484.463	1686.38
484.681	1830.38
484.9	1457.38
485.118	1371.38
485.336	1290.38
485.554	1351.38
485.772	1405.38
485.99	1325.38
486.209	1378.38
486.427	1335.38
486.645	1364.38
486.863	1400.38
487.081	1413.38
487.299	1420.38
487.517	1442.38
487.735	1448.38
487.953	1464.38
488.171	1461.38
488.389	1439.38
488.607	1418.38
488.825	1576.38
489.043	1461.38
489.261	1365.38
489.479	1437.38
489.696	1425.38
489.914	1457.38
490.132	1403.38
490.35	1431.38
490.568	1501.38
490.786	1481.38
491.003	1449.38
491.221	1484.38
491.439	1537.38
491.657	1556.38
491.874	1569.38
492.092	1625.38
492.31	1647.38
492.527	1636.38
492.745	1574.38
492.963	1572.38
493.18	1587.38
493.398	1665.38
493.615	1635.38
493.833	1582.38
494.05	1524.38
