Data from WStandard_LampEnergy5.5LIBS07252019.E.O._I.C._HRD10591_16-06-26-920.txt Node
Date: Thu Jul 25 16:06:26 EDT 2019
User: cochatt
Spectrometer: HR+D1059
Trigger mode: 1
Integration Time (sec): 1.000000E-1
Scans to average: 1
Electric dark correction enabled: true
Nonlinearity correction enabled: false
Boxcar width: 0
XAxis mode: Wavelengths
Number of Pixels in Spectrum: 2048
>>>>>Begin Spectral Data<<<<<
223.165	-27
223.4	-27
223.635	-27
223.869	-10
224.104	-8
224.338	-12
224.573	-12
224.808	-18
225.042	-9
225.277	-17
225.511	-4
225.746	7
225.98	11
226.215	20
226.449	5
226.683	16
226.918	27
227.152	31
227.387	40
227.621	44
227.856	41
228.09	52
228.324	49
228.559	65
228.793	141
229.027	333
229.262	329
229.496	357
229.73	385
229.964	426
230.199	431
230.433	464
230.667	486
230.901	516
231.136	453
231.37	452
231.604	436
231.838	445
232.072	437
232.306	429
232.541	433
232.775	508
233.009	552
233.243	534
233.477	487
233.711	487
233.945	532
234.179	489
234.413	533
234.647	577
234.881	577
235.115	539
235.349	544
235.583	537
235.817	521
236.051	518
236.285	522
236.519	548
236.753	627
236.987	635
237.221	641
237.455	693
237.689	664
237.922	625
238.156	614
238.39	629
238.624	669
238.858	707
239.091	712
239.325	730
239.559	843
239.793	867
240.027	956
240.26	963
240.494	695
240.728	656
240.961	662
241.195	680
241.429	749
241.662	746
241.896	695
242.13	700
242.363	789
242.597	823
242.83	835
243.064	852
243.298	892
243.531	852
243.765	836
243.998	855
244.232	741
244.465	693
244.699	735
244.932	846
245.166	965
245.399	882
245.633	828
245.866	793
246.099	890
246.333	873
246.566	877
246.8	956
247.033	1081
247.266	1001
247.5	959
247.733	955
247.966	1023
248.2	1149
248.433	1049
248.666	1095
248.899	1188
249.133	1384
249.366	1576
249.599	1287
249.832	1131
250.066	1147
250.299	1192
250.532	1109
250.765	974
250.998	1064
251.231	1099
251.465	1144
251.698	1071
251.931	1104
252.164	1097
252.397	1137
252.63	1139
252.863	1017
253.096	966
253.329	1043
253.562	1085
253.795	1209
254.028	1152
254.261	1059
254.494	1067
254.727	996
254.96	1029
255.193	1125
255.426	1292
255.659	1481
255.892	1557
256.124	1243
256.357	1235
256.59	1287
256.823	1316
257.056	1260
257.289	1551
257.521	1739
257.754	1533
257.987	1477
258.22	1634
258.452	1595
258.685	1246
258.918	1245
259.151	1260
259.383	1187
259.616	1081
259.849	1123
260.081	1267
260.314	1357
260.547	1565
260.779	1578
261.012	1472
261.244	1309
261.477	1220
261.71	1286
261.942	1276
262.175	1219
262.407	1313
262.64	1223
262.872	1161
263.105	1115
263.337	1157
263.57	1170
263.802	1182
264.035	1122
264.267	1069
264.499	1033
264.732	1117
264.964	1163
265.197	1206
265.429	1265
265.661	1407
265.894	1564
266.126	1635
266.358	1427
266.591	1514
266.823	1633
267.055	1441
267.287	1470
267.52	1436
267.752	1398
267.984	1393
268.216	1447
268.448	1522
268.681	1495
268.913	1365
269.145	1301
269.377	1280
269.609	1377
269.841	1564
270.073	1835
270.306	2063
270.538	2218
270.77	1887
271.002	1566
271.234	1452
271.466	1527
271.698	1638
271.93	1948
272.162	1980
272.394	1782
272.626	1708
272.858	1495
273.09	1331
273.322	1305
273.553	1274
273.785	1277
274.017	1322
274.249	1443
274.481	1454
274.713	1316
274.945	1285
275.176	1288
275.408	1263
275.64	1238
275.872	1264
276.104	1335
276.335	1485
276.567	1687
276.799	1742
277.031	1500
277.262	1485
277.494	1454
277.726	1662
277.957	1640
278.189	1519
278.421	1397
278.652	1367
278.884	1323
279.115	1333
279.347	1394
279.579	1331
279.81	1322
280.042	1479
280.273	1608
280.505	1609
280.736	1621
280.968	1543
281.199	1380
281.431	1315
281.662	1297
281.894	1303
282.125	1339
282.356	1386
282.588	1457
282.819	1393
283.051	1485
283.282	1609
283.513	1576
283.745	1346
283.976	1315
284.207	1292
284.439	1304
284.67	1339
284.901	1351
285.132	1404
285.364	1349
285.595	1409
285.826	1374
286.057	1341
286.288	1339
286.52	1403
286.751	1521
286.982	1582
287.213	1426
287.444	1319
287.675	1325
287.906	1386
288.138	1466
288.369	1432
288.6	1388
288.831	1348
289.062	1348
289.293	1410
289.524	1384
289.755	1388
289.986	1429
290.217	1295
290.448	1360
290.679	1384
290.91	1393
291.141	1430
291.371	1470
291.602	1460
291.833	1449
292.064	1475
292.295	1464
292.526	1493
292.757	1566
292.987	1510
293.218	1406
293.449	1482
293.68	1685
293.91	1783
294.141	1674
294.372	1581
294.603	1611
294.833	1661
295.064	1595
295.295	1455
295.525	1448
295.756	1333
295.987	1331
296.217	1331
296.448	1348
296.679	1354
296.909	1382
297.14	1362
297.37	1346
297.601	1482
297.831	1525
298.062	1606
298.292	1443
298.523	1373
298.753	1403
298.984	1429
299.214	1411
299.445	1437
299.675	1462
299.905	1452
300.136	1429
300.366	1384
300.597	1348
300.827	1355
301.057	1424
301.288	1510
301.518	1482
301.748	1521
301.979	1557
302.209	1564
302.439	1678
302.669	1752
302.9	1618
303.13	1509
303.36	1521
303.59	1488
303.82	1490
304.051	1507
304.281	1501
304.511	1471
304.741	1541
304.971	1697
305.201	1846
305.431	1753
305.661	1463
305.891	1371
306.121	1343
306.352	1385
306.582	1410
306.812	1516
307.042	1662
307.272	1648
307.502	1667
307.731	1814
307.961	1980
308.191	1817
308.421	1565
308.651	1500
308.881	1461
309.111	1449
309.341	1395
309.571	1427
309.8	1469
310.03	1455
310.26	1450
310.49	1435
310.72	1437
310.949	1545
311.179	1518
311.409	1494
311.639	1505
311.868	1435
312.098	1428
312.328	1466
312.557	1441
312.787	1502
313.017	1525
313.246	1519
313.476	1519
313.706	1514
313.935	1555
314.165	1533
314.394	1593
314.624	1660
314.853	1739
315.083	1779
315.312	1874
315.542	1772
315.771	1573
316.001	1557
316.23	1693
316.46	1621
316.689	1594
316.919	1530
317.148	1475
317.377	1487
317.607	1601
317.836	1790
318.065	1861
318.295	1751
318.524	1723
318.753	1627
318.983	1690
319.212	1636
319.441	1593
319.67	1549
319.9	1586
320.129	1655
320.358	1724
320.587	1763
320.816	1727
321.046	1727
321.275	1659
321.504	1670
321.733	1761
321.962	1703
322.191	1587
322.42	1575
322.649	1593
322.878	1573
323.108	1565
323.337	1593
323.566	1638
323.795	1652
324.024	1659
324.253	1593
324.482	1638
324.71	1586
324.939	1484
325.168	1510
325.397	1556
325.626	1617
325.855	1627
326.084	1578
326.313	1611
326.542	1589
326.77	1639
326.999	1693
327.228	1617
327.457	1513
327.686	1525
327.914	1518
328.143	1582
328.372	1587
328.6	1619
328.829	1574
329.058	1573
329.287	1546
329.515	1573
329.744	1627
329.972	1713
330.201	1749
330.43	1730
330.658	1680
330.887	1688
331.115	1706
331.344	1719
331.572	1629
331.801	1689
332.03	1671
332.258	1703
332.486	1711
332.715	1724
332.943	1752
333.172	1688
333.4	1680
333.629	1764
333.857	1844
334.085	2039
334.314	2218
334.542	2501
334.771	2271
334.999	2041
335.227	1897
335.455	1841
335.684	1797
335.912	1823
336.14	1903
336.369	1859
336.597	1709
336.825	1665
337.053	1778
337.281	1874
337.51	1896
337.738	1985
337.966	1930
338.194	1783
338.422	1734
338.65	1674
338.878	1693
339.106	1642
339.334	1606
339.562	1590
339.79	1608
340.018	1715
340.246	1769
340.474	1817
340.702	1707
340.93	1722
341.158	1702
341.386	1684
341.614	1697
341.842	1636
342.07	1667
342.298	1691
342.526	1688
342.754	1642
342.981	1624
343.209	1632
343.437	1627
343.665	1703
343.893	1715
344.12	1774
344.348	1815
344.576	1721
344.804	1649
345.031	1667
345.259	1711
345.487	1646
345.714	1581
345.942	1502
346.17	1527
346.397	1601
346.625	1613
346.853	1538
347.08	1488
347.308	1510
347.535	1527
347.763	1579
347.99	1582
348.218	1525
348.445	1518
348.673	1543
348.9	1554
349.128	1645
349.355	1705
349.583	1630
349.81	1561
350.037	1495
350.265	1467
350.492	1452
350.72	1547
350.947	1520
351.174	1606
351.402	1536
351.629	1467
351.856	1449
352.083	1426
352.311	1462
352.538	1487
352.765	1564
352.992	1587
353.22	1528
353.447	1465
353.674	1480
353.901	1520
354.128	1533
354.355	1527
354.583	1546
354.81	1589
355.037	1544
355.264	1539
355.491	1559
355.718	1563
355.945	1526
356.172	1520
356.399	1514
356.626	1497
356.853	1519
357.08	1637
357.307	1812
357.534	1859
357.761	1605
357.988	1499
358.215	1453
358.441	1466
358.668	1460
358.895	1468
359.122	1565
359.349	1685
359.576	1713
359.802	1546
360.029	1490
360.256	1493
360.483	1481
360.709	1495
360.936	1594
361.163	1623
361.39	1762
361.616	1891
361.843	1831
362.07	1773
362.296	1540
362.523	1474
362.749	1511
362.976	1519
363.203	1559
363.429	1543
363.656	1473
363.882	1545
364.109	1676
364.335	1849
364.562	1702
364.788	1649
365.015	1576
365.241	1478
365.468	1503
365.694	1612
365.92	1713
366.147	1622
366.373	1556
366.599	1509
366.826	1502
367.052	1467
367.278	1497
367.505	1541
367.731	1563
367.957	1537
368.184	1591
368.41	1666
368.636	1661
368.862	1656
369.089	1710
369.315	1679
369.541	1636
369.767	1533
369.993	1498
370.219	1531
370.445	1579
370.672	1633
370.898	1686
371.124	1720
371.35	1657
371.576	1665
371.802	1760
372.028	1661
372.254	1597
372.48	1575
372.706	1540
372.932	1535
373.158	1574
373.384	1604
373.61	1633
373.835	1721
374.061	1650
374.287	1655
374.513	1645
374.739	1633
374.965	1668
375.191	1685
375.416	1681
375.642	1678
375.868	1697
376.094	1794
376.319	1731
376.545	1604
376.771	1634
376.997	1724
377.222	1699
377.448	1615
377.674	1701
377.899	1642
378.125	1724
378.35	1801
378.576	1617
378.802	1589
379.027	1550
379.253	1606
379.478	1604
379.704	1573
379.929	1595
380.155	1634
380.38	1621
380.606	1660
380.831	1581
381.057	1656
381.282	1700
381.507	1697
381.733	1763
381.958	1873
382.184	1717
382.409	1691
382.634	1727
382.86	1676
383.085	1713
383.31	1773
383.535	1819
383.761	1958
383.986	1860
384.211	1827
384.436	1803
384.662	1873
384.887	1946
385.112	1852
385.337	1877
385.562	1830
385.787	1847
386.013	1877
386.238	1899
386.463	1885
386.688	1954
386.913	2112
387.138	2062
387.363	1898
387.588	1953
387.813	1880
388.038	1934
388.263	1946
388.488	1907
388.713	1781
388.938	1777
389.163	1806
389.387	1826
389.612	1807
389.837	1879
390.062	1894
390.287	1842
390.512	1854
390.736	1829
390.961	1839
391.186	1789
391.411	1791
391.636	1868
391.86	1896
392.085	1884
392.31	1843
392.534	1846
392.759	1905
392.984	1887
393.208	1898
393.433	2029
393.658	2071
393.882	2025
394.107	1916
394.331	1885
394.556	1913
394.78	1901
395.005	1916
395.229	1969
395.454	2129
395.678	2104
395.903	2097
396.127	1954
396.352	1979
396.576	1986
396.801	2067
397.025	2093
397.249	2053
397.474	2021
397.698	2008
397.922	2063
398.147	2138
398.371	2227
398.595	2201
398.82	2174
399.044	2222
399.268	2255
399.492	2415
399.717	2515
399.941	2561
400.165	2443
400.389	2405
400.613	2367
400.837	2518
401.062	2845
401.286	2479
401.51	2274
401.734	2413
401.958	2333
402.182	2190
402.406	2130
402.63	2123
402.854	2140
403.078	2133
403.302	2199
403.526	2274
403.75	2221
403.974	2179
404.198	2225
404.422	2257
404.645	2377
404.869	2355
405.093	2166
405.317	2147
405.541	2216
405.765	2297
405.988	2223
406.212	2280
406.436	2306
406.66	2388
406.883	2361
407.107	2582
407.331	2857
407.555	3022
407.778	2832
408.002	2416
408.226	2334
408.449	2376
408.673	2309
408.896	2291
409.12	2326
409.344	2301
409.567	2223
409.791	2238
410.014	2275
410.238	2347
410.461	2487
410.685	2248
410.908	2206
411.132	2233
411.355	2229
411.578	2171
411.802	2202
412.025	2217
412.249	2195
412.472	2141
412.695	2129
412.919	2120
413.142	2102
413.365	2135
413.589	2174
413.812	2247
414.035	2313
414.258	2143
414.482	2110
414.705	2135
414.928	2119
415.151	2113
415.374	2141
415.597	2157
415.821	2198
416.044	2262
416.267	2293
416.49	2076
416.713	2029
416.936	2094
417.159	2160
417.382	2170
417.605	2086
417.828	2158
418.051	2209
418.274	2127
418.497	2105
418.72	2100
418.943	2083
419.166	2191
419.389	2333
419.611	2150
419.834	2138
420.057	2159
420.28	2082
420.503	2051
420.726	2093
420.948	2086
421.171	2049
421.394	2107
421.617	2171
421.839	2103
422.062	2055
422.285	1992
422.507	2055
422.73	1979
422.953	1992
423.175	1983
423.398	2038
423.621	2079
423.843	2097
424.066	2106
424.288	2156
424.511	2180
424.733	2108
424.956	1969
425.178	1926
425.401	1977
425.623	2023
425.846	2006
426.068	2089
426.291	2106
426.513	2039
426.735	2071
426.958	2208
427.18	2291
427.402	2142
427.625	2166
427.847	2167
428.069	2077
428.292	1974
428.514	1945
428.736	1944
428.958	1969
429.181	1962
429.403	2201
429.625	2680
429.847	2359
430.069	2051
430.292	2207
430.514	2275
430.736	2072
430.958	2233
431.18	2153
431.402	1982
431.624	1983
431.846	1990
432.068	1919
432.29	1969
432.512	1991
432.734	2021
432.956	2063
433.178	2150
433.4	2134
433.622	2117
433.844	2076
434.066	1966
434.287	2012
434.509	2079
434.731	2153
434.953	2270
435.175	2214
435.397	2122
435.618	2069
435.84	2051
436.062	2114
436.284	2083
436.505	2088
436.727	2136
436.949	2086
437.17	2022
437.392	1964
437.614	2023
437.835	1953
438.057	2053
438.278	2171
438.5	2048
438.721	1979
438.943	2012
439.165	1969
439.386	1941
439.608	1966
439.829	1970
440.05	2003
440.272	1956
440.493	1932
440.715	2000
440.936	2090
441.158	2315
441.379	2256
441.6	2202
441.822	2118
442.043	2142
442.264	2061
442.486	1983
442.707	1977
442.928	1962
443.149	2038
443.371	2122
443.592	2225
443.813	2161
444.034	2166
444.255	2220
444.476	2219
444.698	2256
444.919	2282
445.14	2291
445.361	2325
445.582	2409
445.803	2301
446.024	2197
446.245	2283
446.466	2213
446.687	2097
446.908	2087
447.129	1996
447.35	2065
447.571	2038
447.792	1933
448.013	1927
448.234	2012
448.455	2105
448.675	2027
448.896	1886
449.117	1922
449.338	1937
449.559	1997
449.779	2128
450	2341
450.221	2540
450.442	2435
450.662	2176
450.883	1906
451.104	1865
451.324	1880
451.545	1973
451.766	1959
451.986	1875
452.207	1883
452.428	1862
452.648	1782
452.869	1813
453.089	1929
453.31	1919
453.53	1984
453.751	1884
453.971	1796
454.192	1829
454.412	1942
454.633	1897
454.853	1843
455.073	1739
455.294	1705
455.514	1728
455.734	1763
455.955	1752
456.175	1750
456.395	1801
456.616	1867
456.836	1826
457.056	1821
457.276	1792
457.497	1793
457.717	1721
457.937	1752
458.157	1806
458.377	1807
458.598	1821
458.818	1829
459.038	1886
459.258	1975
459.478	2014
459.698	1954
459.918	1972
460.138	2077
460.358	2138
460.578	2106
460.798	2208
461.018	2329
461.238	2216
461.458	2173
461.678	2162
461.898	2095
462.118	2038
462.338	2141
462.558	2147
462.777	2171
462.997	2249
463.217	2435
463.437	2374
463.657	2227
463.876	2175
464.096	2160
464.316	2167
464.536	2177
464.755	2266
464.975	2281
465.195	2177
465.414	2286
465.634	2243
465.854	2126
466.073	2203
466.293	2187
466.512	1970
466.732	1906
466.951	2005
467.171	2025
467.391	1932
467.61	1904
467.829	1919
468.049	2011
468.268	2278
468.488	2162
468.707	2074
468.927	1984
469.146	1932
469.365	1918
469.585	1951
469.804	1913
470.023	1956
470.243	2001
470.462	1939
470.681	1921
470.901	1929
471.12	1980
471.339	1918
471.558	1879
471.777	1889
471.997	1850
472.216	1935
472.435	1859
472.654	1871
472.873	1935
473.092	2055
473.311	1981
473.53	1889
473.749	1860
473.968	1962
474.187	2043
474.406	2111
474.625	2010
474.844	1954
475.063	1984
475.282	2024
475.501	1913
475.72	1978
475.939	2041
476.158	2034
476.377	1939
476.596	1981
476.814	2079
477.033	2067
477.252	2115
477.471	2177
477.69	2114
477.908	2054
478.127	2139
478.346	2309
478.564	2333
478.783	2286
479.002	2422
479.22	2289
479.439	2412
479.658	2719
479.876	2712
480.095	2337
480.313	2303
480.532	2188
480.751	2242
480.969	2232
481.188	2191
481.406	2155
481.624	2083
481.843	2195
482.061	2210
482.28	2246
482.498	2296
482.717	2264
482.935	2112
483.153	2145
483.372	2194
483.59	2128
483.808	2181
484.027	2225
484.245	2307
484.463	2618
484.681	2971
484.9	2442
485.118	2304
485.336	2207
485.554	2269
485.772	2377
485.99	2374
486.209	2335
486.427	2297
486.645	2291
486.863	2277
487.081	2325
487.299	2442
487.517	2330
487.735	2274
487.953	2246
488.171	2246
488.389	2242
488.607	2247
488.825	2415
489.043	2488
489.261	2270
489.479	2373
489.696	2434
489.914	2401
490.132	2313
490.35	2292
490.568	2398
490.786	2333
491.003	2196
491.221	2329
491.439	2382
491.657	2351
491.874	2347
492.092	2370
492.31	2377
492.527	2329
492.745	2345
492.963	2345
493.18	2408
493.398	2580
493.615	2645
493.833	2410
494.05	2397
494.268	2406
494.485	2457
494.703	2425
494.92	2356
495.138	2349
495.355	2361
495.573	2459
495.79	2663
496.008	2703
496.225	2542
496.442	2477
496.66	2525
496.877	2557
497.094	2588
497.312	2612
497.529	2549
497.746	2615
497.963	3055
498.181	3402
498.398	3130
498.615	3075
498.832	3042
499.049	2982
499.267	3099
499.484	3287
499.701	3494
499.918	3593
500.135	3828
500.352	4141
500.569	4087
500.786	4370
501.003	4051
501.22	3683
501.437	3604
501.654	3526
501.871	3423
502.088	3050
502.305	3085
502.522	2919
502.739	2713
502.956	2666
503.172	2625
503.389	2584
503.606	2531
503.823	2506
504.04	2495
504.256	2506
504.473	2506
504.69	2596
504.907	2531
505.123	2329
505.34	2440
505.557	3017
505.773	2638
505.99	2296
506.207	2181
506.423	2140
506.64	2132
506.856	2171
507.073	2404
507.289	2540
507.506	2446
507.722	2172
507.939	2075
508.155	2048
508.372	2069
508.588	2034
508.805	1994
509.021	1992
509.238	1948
509.454	1965
509.67	1933
509.887	1926
510.103	1912
510.319	1919
510.536	2027
510.752	2115
510.968	2070
511.184	2218
511.401	2237
511.617	1977
511.833	1934
512.049	1897
512.265	1856
512.481	1878
512.698	1963
512.914	2106
513.13	2018
513.346	1923
513.562	1875
513.778	1867
513.994	2060
514.21	2086
514.426	2057
514.642	2307
514.858	2152
515.074	1981
515.29	1924
515.506	2019
515.721	2004
515.937	2030
516.153	2295
516.369	2198
516.585	2058
516.801	2005
517.016	2035
517.232	2046
517.448	2087
517.664	2125
517.879	2109
518.095	2254
518.311	2153
518.527	2020
518.742	1998
518.958	1952
519.173	1933
519.389	1957
519.605	1988
519.82	1930
520.036	1988
520.251	1935
520.467	1949
520.682	2046
520.898	2179
521.113	1922
521.329	1914
521.544	2013
521.76	1916
521.975	1846
522.19	1782
522.406	1771
522.621	2130
522.836	2153
523.052	1803
523.267	1830
523.482	1891
523.698	1777
523.913	1704
524.128	1742
524.343	1869
524.559	1891
524.774	1775
524.989	1755
525.204	1762
525.419	1734
525.634	1733
525.849	1735
526.064	1710
526.28	1782
526.495	1671
526.71	1679
526.925	1670
527.14	1687
527.355	1689
527.57	1677
527.785	1732
527.999	1690
528.214	1670
528.429	1629
528.644	1661
528.859	1665
529.074	1655
529.289	1649
529.503	1701
529.718	1724
529.933	1685
530.148	1625
530.363	1595
530.577	1618
530.792	1646
531.007	1680
531.221	1638
531.436	1699
531.651	1717
531.865	1809
532.08	1731
532.295	1621
532.509	1593
532.724	1623
532.938	1683
533.153	1823
533.367	1721
533.582	1669
533.796	1636
534.011	1670
534.225	1666
534.44	1632
534.654	1638
534.868	1579
535.083	1708
535.297	1692
535.511	1642
535.726	1652
535.94	1644
536.154	1616
536.369	1556
536.583	1594
536.797	1577
537.011	1625
537.225	1555
537.44	1543
537.654	1650
537.868	1554
538.082	1476
538.296	1482
538.51	1505
538.724	1529
538.938	1497
539.153	1518
539.367	1540
539.581	1512
539.795	1623
540.009	1618
540.222	1551
540.436	1575
540.65	1709
540.864	1762
541.078	1613
541.292	1574
541.506	1556
541.72	1589
541.934	1573
