Data from WStandard_LampEnergy10_LIBS07252019.E.O._I.C._HRD10591_15-54-12-928.txt Node
Date: Thu Jul 25 15:54:12 EDT 2019
User: cochatt
Spectrometer: HR+D1059
Trigger mode: 1
Integration Time (sec): 1.000000E-1
Scans to average: 1
Electric dark correction enabled: true
Nonlinearity correction enabled: false
Boxcar width: 0
XAxis mode: Wavelengths
Number of Pixels in Spectrum: 2048
>>>>>Begin Spectral Data<<<<<
223.165	-22.88
223.4	-22.88
223.635	-22.88
223.869	-13.88
224.104	-17.88
224.338	-7.88
224.573	-5.88
224.808	-14.88
225.042	-4.88
225.277	-10.88
225.511	4.12
225.746	-7.88
225.98	-1.88
226.215	17.12
226.449	15.12
226.683	20.12
226.918	20.12
227.152	32.12
227.387	31.12
227.621	47.12
227.856	48.12
228.09	57.12
228.324	52.12
228.559	47.12
228.793	76.12
229.027	140.12
229.262	162.12
229.496	158.12
229.73	150.12
229.964	156.12
230.199	179.12
230.433	179.12
230.667	181.12
230.901	168.12
231.136	182.12
231.37	163.12
231.604	169.12
231.838	171.12
232.072	176.12
232.306	174.12
232.541	191.12
232.775	200.12
233.009	208.12
233.243	201.12
233.477	186.12
233.711	212.12
233.945	197.12
234.179	210.12
234.413	209.12
234.647	205.12
234.881	199.12
235.115	200.12
235.349	200.12
235.583	203.12
235.817	199.12
236.051	189.12
236.285	210.12
236.519	212.12
236.753	216.12
236.987	239.12
237.221	240.12
237.455	254.12
237.689	233.12
237.922	216.12
238.156	216.12
238.39	220.12
238.624	236.12
238.858	231.12
239.091	260.12
239.325	271.12
239.559	288.12
239.793	312.12
240.027	304.12
240.26	278.12
240.494	235.12
240.728	228.12
240.961	250.12
241.195	272.12
241.429	267.12
241.662	248.12
241.896	242.12
242.13	235.12
242.363	266.12
242.597	272.12
242.83	280.12
243.064	284.12
243.298	302.12
243.531	286.12
243.765	284.12
243.998	279.12
244.232	267.12
244.465	251.12
244.699	268.12
244.932	300.12
245.166	305.12
245.399	287.12
245.633	283.12
245.866	288.12
246.099	286.12
246.333	307.12
246.566	324.12
246.8	337.12
247.033	351.12
247.266	338.12
247.5	312.12
247.733	328.12
247.966	340.12
248.2	371.12
248.433	384.12
248.666	376.12
248.899	418.12
249.133	438.12
249.366	471.12
249.599	406.12
249.832	354.12
250.066	364.12
250.299	375.12
250.532	343.12
250.765	320.12
250.998	332.12
251.231	347.12
251.465	343.12
251.698	326.12
251.931	353.12
252.164	367.12
252.397	376.12
252.63	371.12
252.863	347.12
253.096	316.12
253.329	334.12
253.562	351.12
253.795	364.12
254.028	381.12
254.261	361.12
254.494	335.12
254.727	347.12
254.96	348.12
255.193	392.12
255.426	415.12
255.659	462.12
255.892	461.12
256.124	392.12
256.357	411.12
256.59	407.12
256.823	411.12
257.056	432.12
257.289	477.12
257.521	496.12
257.754	460.12
257.987	464.12
258.22	478.12
258.452	486.12
258.685	412.12
258.918	410.12
259.151	400.12
259.383	370.12
259.616	359.12
259.849	408.12
260.081	415.12
260.314	484.12
260.547	496.12
260.779	482.12
261.012	444.12
261.244	412.12
261.477	416.12
261.71	406.12
261.942	392.12
262.175	380.12
262.407	408.12
262.64	391.12
262.872	359.12
263.105	351.12
263.337	381.12
263.57	390.12
263.802	376.12
264.035	360.12
264.267	341.12
264.499	350.12
264.732	368.12
264.964	378.12
265.197	404.12
265.429	432.12
265.661	458.12
265.894	483.12
266.126	500.12
266.358	465.12
266.591	486.12
266.823	510.12
267.055	489.12
267.287	457.12
267.52	451.12
267.752	448.12
267.984	460.12
268.216	456.12
268.448	475.12
268.681	447.12
268.913	455.12
269.145	420.12
269.377	422.12
269.609	450.12
269.841	531.12
270.073	598.12
270.306	634.12
270.538	642.12
270.77	535.12
271.002	468.12
271.234	480.12
271.466	491.12
271.698	543.12
271.93	615.12
272.162	597.12
272.394	547.12
272.626	524.12
272.858	471.12
273.09	417.12
273.322	419.12
273.553	396.12
273.785	423.12
274.017	427.12
274.249	461.12
274.481	416.12
274.713	417.12
274.945	407.12
275.176	406.12
275.408	412.12
275.64	390.12
275.872	416.12
276.104	447.12
276.335	512.12
276.567	530.12
276.799	515.12
277.031	474.12
277.262	487.12
277.494	501.12
277.726	552.12
277.957	500.12
278.189	457.12
278.421	436.12
278.652	411.12
278.884	431.12
279.115	445.12
279.347	457.12
279.579	441.12
279.81	447.12
280.042	481.12
280.273	529.12
280.505	538.12
280.736	503.12
280.968	499.12
281.199	452.12
281.431	423.12
281.662	450.12
281.894	428.12
282.125	419.12
282.356	423.12
282.588	457.12
282.819	464.12
283.051	522.12
283.282	513.12
283.513	498.12
283.745	443.12
283.976	420.12
284.207	433.12
284.439	436.12
284.67	462.12
284.901	484.12
285.132	479.12
285.364	462.12
285.595	475.12
285.826	460.12
286.057	470.12
286.288	458.12
286.52	482.12
286.751	488.12
286.982	503.12
287.213	449.12
287.444	440.12
287.675	453.12
287.906	464.12
288.138	499.12
288.369	473.12
288.6	447.12
288.831	439.12
289.062	432.12
289.293	451.12
289.524	468.12
289.755	458.12
289.986	471.12
290.217	460.12
290.448	459.12
290.679	485.12
290.91	482.12
291.141	469.12
291.371	473.12
291.602	491.12
291.833	483.12
292.064	497.12
292.295	514.12
292.526	507.12
292.757	513.12
292.987	481.12
293.218	504.12
293.449	537.12
293.68	583.12
293.91	600.12
294.141	565.12
294.372	532.12
294.603	564.12
294.833	587.12
295.064	551.12
295.295	516.12
295.525	467.12
295.756	425.12
295.987	434.12
296.217	466.12
296.448	475.12
296.679	454.12
296.909	452.12
297.14	466.12
297.37	470.12
297.601	518.12
297.831	529.12
298.062	534.12
298.292	494.12
298.523	466.12
298.753	479.12
298.984	477.12
299.214	473.12
299.445	487.12
299.675	502.12
299.905	520.12
300.136	486.12
300.366	472.12
300.597	475.12
300.827	494.12
301.057	496.12
301.288	519.12
301.518	516.12
301.748	540.12
301.979	539.12
302.209	554.12
302.439	592.12
302.669	600.12
302.9	552.12
303.13	511.12
303.36	500.12
303.59	504.12
303.82	513.12
304.051	524.12
304.281	544.12
304.511	545.12
304.741	580.12
304.971	616.12
305.201	646.12
305.431	558.12
305.661	471.12
305.891	476.12
306.121	461.12
306.352	497.12
306.582	514.12
306.812	543.12
307.042	570.12
307.272	568.12
307.502	589.12
307.731	646.12
307.961	652.12
308.191	570.12
308.421	531.12
308.651	508.12
308.881	497.12
309.111	518.12
309.341	522.12
309.571	497.12
309.8	518.12
310.03	494.12
310.26	497.12
310.49	498.12
310.72	522.12
310.949	554.12
311.179	536.12
311.409	533.12
311.639	517.12
311.868	526.12
312.098	528.12
312.328	499.12
312.557	499.12
312.787	518.12
313.017	520.12
313.246	513.12
313.476	543.12
313.706	513.12
313.935	518.12
314.165	544.12
314.394	564.12
314.624	590.12
314.853	614.12
315.083	630.12
315.312	634.12
315.542	578.12
315.771	548.12
316.001	545.12
316.23	568.12
316.46	580.12
316.689	538.12
316.919	531.12
317.148	536.12
317.377	522.12
317.607	582.12
317.836	630.12
318.065	634.12
318.295	643.12
318.524	581.12
318.753	545.12
318.983	553.12
319.212	566.12
319.441	558.12
319.67	565.12
319.9	590.12
320.129	618.12
320.358	644.12
320.587	633.12
320.816	618.12
321.046	597.12
321.275	570.12
321.504	584.12
321.733	633.12
321.962	614.12
322.191	555.12
322.42	574.12
322.649	563.12
322.878	544.12
323.108	588.12
323.337	587.12
323.566	577.12
323.795	581.12
324.024	578.12
324.253	555.12
324.482	541.12
324.71	554.12
324.939	528.12
325.168	577.12
325.397	572.12
325.626	586.12
325.855	581.12
326.084	548.12
326.313	554.12
326.542	560.12
326.77	566.12
326.999	548.12
327.228	546.12
327.457	548.12
327.686	550.12
327.914	564.12
328.143	582.12
328.372	587.12
328.6	562.12
328.829	548.12
329.058	544.12
329.287	580.12
329.515	552.12
329.744	578.12
329.972	609.12
330.201	616.12
330.43	612.12
330.658	597.12
330.887	612.12
331.115	603.12
331.344	623.12
331.572	608.12
331.801	596.12
332.03	593.12
332.258	605.12
332.486	604.12
332.715	625.12
332.943	602.12
333.172	616.12
333.4	628.12
333.629	613.12
333.857	698.12
334.085	740.12
334.314	844.12
334.542	859.12
334.771	766.12
334.999	704.12
335.227	649.12
335.455	644.12
335.684	639.12
335.912	658.12
336.14	668.12
336.369	645.12
336.597	598.12
336.825	614.12
337.053	625.12
337.281	666.12
337.51	708.12
337.738	702.12
337.966	662.12
338.194	613.12
338.422	596.12
338.65	599.12
338.878	563.12
339.106	585.12
339.334	585.12
339.562	583.12
339.79	604.12
340.018	631.12
340.246	657.12
340.474	625.12
340.702	621.12
340.93	601.12
341.158	613.12
341.386	606.12
341.614	609.12
341.842	598.12
342.07	596.12
342.298	616.12
342.526	614.12
342.754	592.12
342.981	609.12
343.209	585.12
343.437	575.12
343.665	612.12
343.893	622.12
344.12	638.12
344.348	648.12
344.576	619.12
344.804	598.12
345.031	610.12
345.259	606.12
345.487	585.12
345.714	573.12
345.942	549.12
346.17	578.12
346.397	596.12
346.625	577.12
346.853	550.12
347.08	550.12
347.308	554.12
347.535	564.12
347.763	582.12
347.99	577.12
348.218	566.12
348.445	594.12
348.673	581.12
348.9	594.12
349.128	626.12
349.355	601.12
349.583	583.12
349.81	563.12
350.037	535.12
350.265	542.12
350.492	552.12
350.72	568.12
350.947	607.12
351.174	592.12
351.402	553.12
351.629	522.12
351.856	551.12
352.083	549.12
352.311	543.12
352.538	568.12
352.765	592.12
352.992	583.12
353.22	579.12
353.447	545.12
353.674	571.12
353.901	553.12
354.128	561.12
354.355	571.12
354.583	610.12
354.81	588.12
355.037	599.12
355.264	583.12
355.491	592.12
355.718	560.12
355.945	561.12
356.172	560.12
356.399	551.12
356.626	570.12
356.853	597.12
357.08	645.12
357.307	672.12
357.534	634.12
357.761	580.12
357.988	569.12
358.215	546.12
358.441	552.12
358.668	547.12
358.895	575.12
359.122	617.12
359.349	634.12
359.576	660.12
359.802	588.12
360.029	521.12
360.256	555.12
360.483	566.12
360.709	580.12
360.936	607.12
361.163	632.12
361.39	690.12
361.616	726.12
361.843	700.12
362.07	634.12
362.296	583.12
362.523	563.12
362.749	583.12
362.976	579.12
363.203	570.12
363.429	569.12
363.656	539.12
363.882	596.12
364.109	672.12
364.335	652.12
364.562	628.12
364.788	600.12
365.015	576.12
365.241	574.12
365.468	594.12
365.694	617.12
365.92	603.12
366.147	582.12
366.373	550.12
366.599	572.12
366.826	568.12
367.052	579.12
367.278	578.12
367.505	607.12
367.731	595.12
367.957	620.12
368.184	635.12
368.41	681.12
368.636	694.12
368.862	668.12
369.089	667.12
369.315	659.12
369.541	631.12
369.767	595.12
369.993	578.12
370.219	602.12
370.445	607.12
370.672	663.12
370.898	665.12
371.124	650.12
371.35	630.12
371.576	705.12
371.802	664.12
372.028	648.12
372.254	640.12
372.48	597.12
372.706	600.12
372.932	600.12
373.158	629.12
373.384	642.12
373.61	638.12
373.835	652.12
374.061	647.12
374.287	633.12
374.513	634.12
374.739	647.12
374.965	647.12
375.191	652.12
375.416	660.12
375.642	674.12
375.868	689.12
376.094	722.12
376.319	687.12
376.545	643.12
376.771	674.12
376.997	724.12
377.222	653.12
377.448	670.12
377.674	680.12
377.899	674.12
378.125	709.12
378.35	714.12
378.576	628.12
378.802	633.12
379.027	612.12
379.253	656.12
379.478	640.12
379.704	656.12
379.929	632.12
380.155	658.12
380.38	681.12
380.606	664.12
380.831	683.12
381.057	712.12
381.282	701.12
381.507	686.12
381.733	778.12
381.958	757.12
382.184	702.12
382.409	686.12
382.634	687.12
382.86	672.12
383.085	699.12
383.31	729.12
383.535	790.12
383.761	792.12
383.986	763.12
384.211	727.12
384.436	723.12
384.662	795.12
384.887	802.12
385.112	757.12
385.337	753.12
385.562	726.12
385.787	772.12
386.013	768.12
386.238	756.12
386.463	780.12
386.688	848.12
386.913	869.12
387.138	825.12
387.363	776.12
387.588	756.12
387.813	764.12
388.038	798.12
388.263	812.12
388.488	769.12
388.713	731.12
388.938	722.12
389.163	736.12
389.387	752.12
389.612	755.12
389.837	757.12
390.062	764.12
390.287	745.12
390.512	758.12
390.736	754.12
390.961	744.12
391.186	734.12
391.411	750.12
391.636	756.12
391.86	745.12
392.085	772.12
392.31	750.12
392.534	759.12
392.759	781.12
392.984	756.12
393.208	782.12
393.433	801.12
393.658	822.12
393.882	806.12
394.107	777.12
394.331	772.12
394.556	771.12
394.78	794.12
395.005	824.12
395.229	839.12
395.454	868.12
395.678	865.12
395.903	842.12
396.127	811.12
396.352	843.12
396.576	842.12
396.801	846.12
397.025	830.12
397.249	840.12
397.474	840.12
397.698	839.12
397.922	852.12
398.147	865.12
398.371	922.12
398.595	907.12
398.82	886.12
399.044	906.12
399.268	925.12
399.492	972.12
399.717	963.12
399.941	967.12
400.165	986.12
400.389	998.12
400.613	1012.12
400.837	1140.12
401.062	1193.12
401.286	1003.12
401.51	990.12
401.734	994.12
401.958	960.12
402.182	881.12
402.406	870.12
402.63	870.12
402.854	900.12
403.078	918.12
403.302	903.12
403.526	919.12
403.75	916.12
403.974	918.12
404.198	931.12
404.422	977.12
404.645	1020.12
404.869	985.12
405.093	914.12
405.317	894.12
405.541	905.12
405.765	929.12
405.988	934.12
406.212	970.12
406.436	972.12
406.66	1019.12
406.883	1046.12
407.107	1116.12
407.331	1208.12
407.555	1290.12
407.778	1109.12
408.002	981.12
408.226	969.12
408.449	961.12
408.673	956.12
408.896	966.12
409.12	943.12
409.344	954.12
409.567	913.12
409.791	950.12
410.014	974.12
410.238	1047.12
410.461	1070.12
410.685	984.12
410.908	952.12
411.132	935.12
411.355	937.12
411.578	938.12
411.802	929.12
412.025	932.12
412.249	913.12
412.472	939.12
412.695	942.12
412.919	931.12
413.142	917.12
413.365	946.12
413.589	948.12
413.812	1007.12
414.035	1007.12
414.258	969.12
414.482	960.12
414.705	915.12
414.928	912.12
415.151	916.12
415.374	932.12
415.597	946.12
415.821	923.12
416.044	977.12
416.267	949.12
416.49	900.12
416.713	909.12
416.936	946.12
417.159	1014.12
417.382	994.12
417.605	951.12
417.828	931.12
418.051	956.12
418.274	979.12
418.497	922.12
418.72	907.12
418.943	908.12
419.166	984.12
419.389	1001.12
419.611	949.12
419.834	961.12
420.057	960.12
420.28	939.12
420.503	944.12
420.726	964.12
420.948	943.12
421.171	932.12
421.394	938.12
421.617	991.12
421.839	988.12
422.062	982.12
422.285	950.12
422.507	912.12
422.73	900.12
422.953	884.12
423.175	898.12
423.398	920.12
423.621	915.12
423.843	916.12
424.066	950.12
424.288	1054.12
424.511	1035.12
424.733	1015.12
424.956	911.12
425.178	937.12
425.401	952.12
425.623	948.12
425.846	917.12
426.068	976.12
426.291	954.12
426.513	959.12
426.735	955.12
426.958	1072.12
427.18	1046.12
427.402	1003.12
427.625	1071.12
427.847	1030.12
428.069	915.12
428.292	909.12
428.514	906.12
428.736	888.12
428.958	885.12
429.181	931.12
429.403	1083.12
429.625	1241.12
429.847	1050.12
430.069	946.12
430.292	1085.12
430.514	1054.12
430.736	963.12
430.958	985.12
431.18	934.12
431.402	909.12
431.624	882.12
431.846	806.12
432.068	762.12
432.29	750.12
432.512	811.12
432.734	874.12
432.956	942.12
433.178	984.12
433.4	978.12
433.622	974.12
433.844	903.12
434.066	852.12
434.287	818.12
434.509	811.12
434.731	820.12
434.953	905.12
435.175	937.12
435.397	914.12
435.618	901.12
435.84	861.12
436.062	844.12
436.284	906.12
436.505	930.12
436.727	943.12
436.949	951.12
437.17	912.12
437.392	922.12
437.614	865.12
437.835	800.12
438.057	820.12
438.278	854.12
438.5	871.12
438.721	908.12
438.943	925.12
439.165	940.12
439.386	908.12
439.608	936.12
439.829	966.12
440.05	962.12
440.272	970.12
440.493	963.12
440.715	976.12
440.936	1072.12
441.158	1052.12
441.379	1063.12
441.6	1058.12
441.822	1028.12
442.043	1022.12
442.264	990.12
442.486	980.12
442.707	942.12
442.928	934.12
443.149	963.12
443.371	1001.12
443.592	996.12
443.813	1035.12
444.034	1012.12
444.255	1030.12
444.476	1023.12
444.698	1054.12
444.919	1054.12
445.14	1125.12
445.361	1104.12
445.582	1074.12
445.803	1060.12
446.024	1064.12
446.245	1056.12
446.466	1070.12
446.687	1067.12
446.908	1087.12
447.129	1044.12
447.35	1015.12
447.571	1010.12
447.792	964.12
448.013	944.12
448.234	1009.12
448.455	1032.12
448.675	972.12
448.896	911.12
449.117	908.12
449.338	926.12
449.559	944.12
449.779	977.12
450	1002.12
450.221	1052.12
450.442	1034.12
450.662	958.12
450.883	861.12
451.104	876.12
451.324	862.12
451.545	904.12
451.766	863.12
451.986	864.12
452.207	818.12
452.428	802.12
452.648	773.12
452.869	809.12
453.089	820.12
453.31	769.12
453.53	778.12
453.751	744.12
453.971	715.12
454.192	743.12
454.412	791.12
454.633	822.12
454.853	802.12
455.073	760.12
455.294	776.12
455.514	806.12
455.734	790.12
455.955	770.12
456.175	768.12
456.395	727.12
456.616	770.12
456.836	758.12
457.056	756.12
457.276	726.12
457.497	698.12
457.717	697.12
457.937	718.12
458.157	740.12
458.377	702.12
458.598	677.12
458.818	674.12
459.038	697.12
459.258	717.12
459.478	719.12
459.698	702.12
459.918	759.12
460.138	789.12
460.358	844.12
460.578	850.12
460.798	875.12
461.018	881.12
461.238	896.12
461.458	849.12
461.678	854.12
461.898	794.12
462.118	798.12
462.338	844.12
462.558	853.12
462.777	881.12
462.997	896.12
463.217	895.12
463.437	871.12
463.657	854.12
463.876	805.12
464.096	829.12
464.316	836.12
464.536	892.12
464.755	871.12
464.975	868.12
465.195	839.12
465.414	906.12
465.634	898.12
465.854	884.12
466.073	988.12
466.293	970.12
466.512	875.12
466.732	904.12
466.951	916.12
467.171	920.12
467.391	886.12
467.61	905.12
467.829	933.12
468.049	980.12
468.268	1051.12
468.488	975.12
468.707	962.12
468.927	906.12
469.146	919.12
469.365	924.12
469.585	956.12
469.804	952.12
470.023	960.12
470.243	959.12
470.462	943.12
470.681	908.12
470.901	920.12
471.12	919.12
471.339	931.12
471.558	908.12
471.777	921.12
471.997	905.12
472.216	877.12
472.435	796.12
472.654	740.12
472.873	794.12
473.092	857.12
473.311	862.12
473.53	804.12
473.749	822.12
473.968	828.12
474.187	862.12
474.406	868.12
474.625	870.12
474.844	890.12
475.063	884.12
475.282	875.12
475.501	857.12
475.72	851.12
475.939	885.12
476.158	884.12
476.377	850.12
476.596	866.12
476.814	855.12
477.033	801.12
477.252	830.12
477.471	934.12
477.69	927.12
477.908	952.12
478.127	988.12
478.346	1003.12
478.564	1007.12
478.783	1024.12
479.002	1055.12
479.22	1025.12
479.439	1033.12
479.658	1068.12
479.876	1013.12
480.095	925.12
480.313	903.12
480.532	882.12
480.751	881.12
480.969	850.12
481.188	814.12
481.406	791.12
481.624	790.12
481.843	822.12
482.061	821.12
482.28	884.12
482.498	907.12
482.717	870.12
482.935	904.12
483.153	988.12
483.372	1035.12
483.59	1028.12
483.808	983.12
484.027	968.12
484.245	1035.12
484.463	1223.12
484.681	1315.12
484.9	1033.12
485.118	984.12
485.336	921.12
485.554	907.12
485.772	901.12
485.99	885.12
486.209	918.12
486.427	907.12
486.645	953.12
486.863	1009.12
487.081	1054.12
487.299	1024.12
487.517	1032.12
487.735	1115.12
487.953	1183.12
488.171	1185.12
488.389	1130.12
488.607	1082.12
488.825	1189.12
489.043	1036.12
489.261	994.12
489.479	1034.12
489.696	1048.12
489.914	1027.12
490.132	1042.12
490.35	1081.12
490.568	1182.12
490.786	1165.12
491.003	1195.12
491.221	1278.12
491.439	1314.12
491.657	1312.12
491.874	1366.12
492.092	1464.12
492.31	1523.12
492.527	1482.12
492.745	1367.12
492.963	1336.12
493.18	1327.12
493.398	1354.12
493.615	1335.12
493.833	1290.12
494.05	1264.12
494.268	1251.12
494.485	1236.12
494.703	1252.12
494.92	1242.12
495.138	1225.12
495.355	1278.12
495.573	1276.12
495.79	1310.12
496.008	1308.12
496.225	1243.12
496.442	1212.12
496.66	1234.12
496.877	1233.12
497.094	1249.12
497.312	1239.12
497.529	1194.12
497.746	1210.12
497.963	1303.12
498.181	1294.12
498.398	1283.12
498.615	1208.12
498.832	1212.12
499.049	1184.12
499.267	1179.12
499.484	1246.12
499.701	1334.12
499.918	1430.12
500.135	1491.12
