Data from WStandard_LampEnergy5.5LIBS07252019.E.O._I.C._HRD10591_16-09-10-920.txt Node
Date: Thu Jul 25 16:09:10 EDT 2019
User: cochatt
Spectrometer: HR+D1059
Trigger mode: 1
Integration Time (sec): 1.000000E-1
Scans to average: 1
Electric dark correction enabled: true
Nonlinearity correction enabled: false
Boxcar width: 0
XAxis mode: Wavelengths
Number of Pixels in Spectrum: 2048
>>>>>Begin Spectral Data<<<<<
223.165	-18.25
223.4	-18.25
223.635	-18.25
223.869	-9.25
224.104	-16.25
224.338	-31.25
224.573	-17.25
224.808	-19.25
225.042	-7.25
225.277	-16.25
225.511	-18.25
225.746	4.75
225.98	10.75
226.215	32.75
226.449	7.75
226.683	19.75
226.918	35.75
227.152	41.75
227.387	27.75
227.621	45.75
227.856	40.75
228.09	41.75
228.324	38.75
228.559	48.75
228.793	127.75
229.027	352.75
229.262	351.75
229.496	356.75
229.73	396.75
229.964	421.75
230.199	442.75
230.433	445.75
230.667	491.75
230.901	515.75
231.136	451.75
231.37	449.75
231.604	463.75
231.838	447.75
232.072	471.75
232.306	439.75
232.541	440.75
232.775	523.75
233.009	571.75
233.243	564.75
233.477	489.75
233.711	535.75
233.945	529.75
234.179	547.75
234.413	583.75
234.647	621.75
234.881	538.75
235.115	523.75
235.349	536.75
235.583	545.75
235.817	549.75
236.051	514.75
236.285	514.75
236.519	564.75
236.753	606.75
236.987	642.75
237.221	647.75
237.455	713.75
237.689	700.75
237.922	631.75
238.156	630.75
238.39	633.75
238.624	661.75
238.858	705.75
239.091	721.75
239.325	759.75
239.559	876.75
239.793	925.75
240.027	993.75
240.26	997.75
240.494	741.75
240.728	695.75
240.961	695.75
241.195	715.75
241.429	794.75
241.662	790.75
241.896	731.75
242.13	735.75
242.363	815.75
242.597	896.75
242.83	857.75
243.064	871.75
243.298	919.75
243.531	888.75
243.765	883.75
243.998	886.75
244.232	787.75
244.465	746.75
244.699	763.75
244.932	891.75
245.166	968.75
245.399	934.75
245.633	890.75
245.866	852.75
246.099	915.75
246.333	895.75
246.566	936.75
246.8	997.75
247.033	1143.75
247.266	1013.75
247.5	989.75
247.733	1001.75
247.966	1054.75
248.2	1192.75
248.433	1146.75
248.666	1161.75
248.899	1256.75
249.133	1474.75
249.366	1660.75
249.599	1361.75
249.832	1212.75
250.066	1240.75
250.299	1225.75
250.532	1178.75
250.765	1035.75
250.998	1078.75
251.231	1170.75
251.465	1191.75
251.698	1147.75
251.931	1121.75
252.164	1171.75
252.397	1213.75
252.63	1201.75
252.863	1049.75
253.096	1041.75
253.329	1101.75
253.562	1135.75
253.795	1186.75
254.028	1194.75
254.261	1128.75
254.494	1136.75
254.727	1072.75
254.96	1104.75
255.193	1211.75
255.426	1345.75
255.659	1577.75
255.892	1642.75
256.124	1322.75
256.357	1247.75
256.59	1379.75
256.823	1391.75
257.056	1343.75
257.289	1614.75
257.521	1801.75
257.754	1637.75
257.987	1548.75
258.22	1704.75
258.452	1680.75
258.685	1357.75
258.918	1339.75
259.151	1380.75
259.383	1274.75
259.616	1112.75
259.849	1175.75
260.081	1331.75
260.314	1430.75
260.547	1633.75
260.779	1667.75
261.012	1537.75
261.244	1376.75
261.477	1315.75
261.71	1333.75
261.942	1342.75
262.175	1305.75
262.407	1441.75
262.64	1347.75
262.872	1248.75
263.105	1185.75
263.337	1247.75
263.57	1236.75
263.802	1259.75
264.035	1195.75
264.267	1117.75
264.499	1094.75
264.732	1169.75
264.964	1299.75
265.197	1312.75
265.429	1371.75
265.661	1493.75
265.894	1657.75
266.126	1712.75
266.358	1520.75
266.591	1609.75
266.823	1751.75
267.055	1545.75
267.287	1503.75
267.52	1495.75
267.752	1523.75
267.984	1498.75
268.216	1580.75
268.448	1607.75
268.681	1579.75
268.913	1466.75
269.145	1332.75
269.377	1341.75
269.609	1472.75
269.841	1649.75
270.073	1930.75
270.306	2191.75
270.538	2298.75
270.77	1993.75
271.002	1669.75
271.234	1572.75
271.466	1516.75
271.698	1740.75
271.93	2114.75
272.162	2157.75
272.394	1872.75
272.626	1814.75
272.858	1649.75
273.09	1387.75
273.322	1378.75
273.553	1316.75
273.785	1331.75
274.017	1369.75
274.249	1482.75
274.481	1480.75
274.713	1387.75
274.945	1349.75
275.176	1362.75
275.408	1351.75
275.64	1311.75
275.872	1336.75
276.104	1365.75
276.335	1581.75
276.567	1805.75
276.799	1853.75
277.031	1635.75
277.262	1547.75
277.494	1623.75
277.726	1777.75
277.957	1800.75
278.189	1624.75
278.421	1467.75
278.652	1420.75
278.884	1415.75
279.115	1409.75
279.347	1463.75
279.579	1395.75
279.81	1370.75
280.042	1543.75
280.273	1705.75
280.505	1685.75
280.736	1740.75
280.968	1620.75
281.199	1495.75
281.431	1389.75
281.662	1386.75
281.894	1412.75
282.125	1403.75
282.356	1477.75
282.588	1468.75
282.819	1454.75
283.051	1577.75
283.282	1758.75
283.513	1697.75
283.745	1485.75
283.976	1361.75
284.207	1389.75
284.439	1409.75
284.67	1418.75
284.901	1471.75
285.132	1483.75
285.364	1492.75
285.595	1505.75
285.826	1463.75
286.057	1450.75
286.288	1461.75
286.52	1507.75
286.751	1634.75
286.982	1669.75
287.213	1510.75
287.444	1421.75
287.675	1386.75
287.906	1501.75
288.138	1609.75
288.369	1526.75
288.6	1459.75
288.831	1446.75
289.062	1439.75
289.293	1474.75
289.524	1455.75
289.755	1522.75
289.986	1503.75
290.217	1396.75
290.448	1421.75
290.679	1500.75
290.91	1484.75
291.141	1523.75
291.371	1571.75
291.602	1552.75
291.833	1548.75
292.064	1611.75
292.295	1524.75
292.526	1599.75
292.757	1667.75
292.987	1591.75
293.218	1496.75
293.449	1599.75
293.68	1834.75
293.91	1961.75
294.141	1826.75
294.372	1703.75
294.603	1762.75
294.833	1885.75
295.064	1743.75
295.295	1618.75
295.525	1523.75
295.756	1440.75
295.987	1369.75
296.217	1415.75
296.448	1437.75
296.679	1442.75
296.909	1463.75
297.14	1439.75
297.37	1475.75
297.601	1549.75
297.831	1643.75
298.062	1677.75
298.292	1545.75
298.523	1467.75
298.753	1444.75
298.984	1474.75
299.214	1449.75
299.445	1506.75
299.675	1561.75
299.905	1562.75
300.136	1505.75
300.366	1485.75
300.597	1425.75
300.827	1426.75
301.057	1495.75
301.288	1585.75
301.518	1536.75
301.748	1618.75
301.979	1676.75
302.209	1699.75
302.439	1815.75
302.669	1894.75
302.9	1807.75
303.13	1577.75
303.36	1590.75
303.59	1595.75
303.82	1587.75
304.051	1562.75
304.281	1595.75
304.511	1568.75
304.741	1665.75
304.971	1874.75
305.201	2008.75
305.431	1878.75
305.661	1537.75
305.891	1425.75
306.121	1424.75
306.352	1429.75
306.582	1506.75
306.812	1616.75
307.042	1743.75
307.272	1764.75
307.502	1801.75
307.731	1945.75
307.961	2087.75
308.191	1949.75
308.421	1695.75
308.651	1554.75
308.881	1527.75
309.111	1558.75
309.341	1516.75
309.571	1523.75
309.8	1517.75
310.03	1488.75
310.26	1511.75
310.49	1519.75
310.72	1562.75
310.949	1605.75
311.179	1668.75
311.409	1631.75
311.639	1561.75
311.868	1553.75
312.098	1596.75
312.328	1528.75
312.557	1538.75
312.787	1592.75
313.017	1636.75
313.246	1599.75
313.476	1596.75
313.706	1624.75
313.935	1596.75
314.165	1624.75
314.394	1622.75
314.624	1764.75
314.853	1858.75
315.083	1890.75
315.312	1963.75
315.542	1881.75
315.771	1639.75
316.001	1694.75
316.23	1788.75
316.46	1743.75
316.689	1683.75
316.919	1625.75
317.148	1560.75
317.377	1552.75
317.607	1697.75
317.836	1912.75
318.065	2002.75
318.295	1900.75
318.524	1775.75
318.753	1739.75
318.983	1699.75
319.212	1718.75
319.441	1666.75
319.67	1621.75
319.9	1659.75
320.129	1767.75
320.358	1836.75
320.587	1915.75
320.816	1839.75
321.046	1818.75
321.275	1736.75
321.504	1771.75
321.733	1860.75
321.962	1857.75
322.191	1714.75
322.42	1705.75
322.649	1675.75
322.878	1647.75
323.108	1641.75
323.337	1705.75
323.566	1730.75
323.795	1729.75
324.024	1747.75
324.253	1658.75
324.482	1704.75
324.71	1670.75
324.939	1577.75
325.168	1645.75
325.397	1674.75
325.626	1722.75
325.855	1730.75
326.084	1687.75
326.313	1669.75
326.542	1735.75
326.77	1700.75
326.999	1756.75
327.228	1697.75
327.457	1602.75
327.686	1601.75
327.914	1645.75
328.143	1658.75
328.372	1693.75
328.6	1670.75
328.829	1674.75
329.058	1651.75
329.287	1616.75
329.515	1645.75
329.744	1712.75
329.972	1803.75
330.201	1878.75
330.43	1821.75
330.658	1738.75
330.887	1762.75
331.115	1804.75
331.344	1843.75
331.572	1768.75
331.801	1762.75
332.03	1805.75
332.258	1781.75
332.486	1811.75
332.715	1800.75
332.943	1821.75
333.172	1764.75
333.4	1779.75
333.629	1847.75
333.857	1915.75
334.085	2146.75
334.314	2367.75
334.542	2611.75
334.771	2415.75
334.999	2111.75
335.227	2056.75
335.455	1915.75
335.684	1880.75
335.912	1931.75
336.14	1987.75
336.369	1962.75
336.597	1829.75
336.825	1791.75
337.053	1880.75
337.281	1973.75
337.51	2022.75
337.738	2093.75
337.966	2012.75
338.194	1865.75
338.422	1758.75
338.65	1763.75
338.878	1730.75
339.106	1698.75
339.334	1675.75
339.562	1668.75
339.79	1708.75
340.018	1804.75
340.246	1858.75
340.474	1903.75
340.702	1835.75
340.93	1827.75
341.158	1808.75
341.386	1772.75
341.614	1739.75
341.842	1761.75
342.07	1764.75
342.298	1751.75
342.526	1806.75
342.754	1713.75
342.981	1700.75
343.209	1749.75
343.437	1688.75
343.665	1734.75
343.893	1812.75
344.12	1891.75
344.348	1904.75
344.576	1818.75
344.804	1772.75
345.031	1749.75
345.259	1773.75
345.487	1692.75
345.714	1630.75
345.942	1597.75
346.17	1613.75
346.397	1678.75
346.625	1713.75
346.853	1624.75
347.08	1537.75
347.308	1580.75
347.535	1633.75
347.763	1681.75
347.99	1665.75
348.218	1569.75
348.445	1607.75
348.673	1635.75
348.9	1669.75
349.128	1693.75
349.355	1708.75
349.583	1721.75
349.81	1659.75
350.037	1553.75
350.265	1542.75
350.492	1539.75
350.72	1578.75
350.947	1617.75
351.174	1687.75
351.402	1607.75
351.629	1579.75
351.856	1518.75
352.083	1524.75
352.311	1507.75
352.538	1600.75
352.765	1617.75
352.992	1674.75
353.22	1648.75
353.447	1565.75
353.674	1603.75
353.901	1629.75
354.128	1605.75
354.355	1580.75
354.583	1620.75
354.81	1650.75
355.037	1659.75
355.264	1665.75
355.491	1637.75
355.718	1637.75
355.945	1606.75
356.172	1573.75
356.399	1541.75
356.626	1551.75
356.853	1627.75
357.08	1748.75
357.307	1910.75
357.534	1933.75
357.761	1681.75
357.988	1586.75
358.215	1508.75
358.441	1544.75
358.668	1537.75
358.895	1562.75
359.122	1651.75
359.349	1803.75
359.576	1757.75
359.802	1656.75
360.029	1560.75
360.256	1545.75
360.483	1626.75
360.709	1613.75
360.936	1704.75
361.163	1691.75
361.39	1846.75
361.616	2043.75
361.843	1991.75
362.07	1887.75
362.296	1616.75
362.523	1583.75
362.749	1581.75
362.976	1641.75
363.203	1615.75
363.429	1593.75
363.656	1570.75
363.882	1615.75
364.109	1771.75
364.335	1916.75
364.562	1800.75
364.788	1717.75
365.015	1659.75
365.241	1541.75
365.468	1627.75
365.694	1691.75
365.92	1714.75
366.147	1686.75
366.373	1603.75
366.599	1585.75
366.826	1531.75
367.052	1567.75
367.278	1547.75
367.505	1606.75
367.731	1659.75
367.957	1669.75
368.184	1698.75
368.41	1749.75
368.636	1813.75
368.862	1827.75
369.089	1850.75
369.315	1787.75
369.541	1714.75
369.767	1642.75
369.993	1585.75
370.219	1628.75
370.445	1629.75
370.672	1729.75
370.898	1814.75
371.124	1800.75
371.35	1720.75
371.576	1714.75
371.802	1827.75
372.028	1727.75
372.254	1664.75
372.48	1645.75
372.706	1640.75
372.932	1611.75
373.158	1618.75
373.384	1680.75
373.61	1696.75
373.835	1765.75
374.061	1692.75
374.287	1703.75
374.513	1699.75
374.739	1718.75
374.965	1672.75
375.191	1747.75
375.416	1770.75
375.642	1727.75
375.868	1820.75
376.094	1898.75
376.319	1841.75
376.545	1697.75
376.771	1733.75
376.997	1819.75
377.222	1771.75
377.448	1713.75
377.674	1775.75
377.899	1777.75
378.125	1842.75
378.35	1857.75
378.576	1715.75
378.802	1665.75
379.027	1641.75
379.253	1665.75
379.478	1654.75
379.704	1704.75
379.929	1718.75
380.155	1674.75
380.38	1682.75
380.606	1746.75
380.831	1683.75
381.057	1768.75
381.282	1791.75
381.507	1751.75
381.733	1833.75
381.958	1903.75
382.184	1852.75
382.409	1747.75
382.634	1753.75
382.86	1759.75
383.085	1742.75
383.31	1811.75
383.535	1907.75
383.761	2072.75
383.986	1986.75
384.211	1949.75
384.436	1859.75
384.662	1962.75
384.887	2055.75
385.112	1929.75
385.337	1955.75
385.562	1923.75
385.787	1896.75
386.013	1985.75
386.238	1981.75
386.463	1959.75
386.688	2082.75
386.913	2211.75
387.138	2187.75
387.363	1972.75
387.588	1987.75
387.813	2010.75
388.038	2008.75
388.263	2071.75
388.488	2007.75
388.713	1865.75
388.938	1811.75
389.163	1845.75
389.387	1901.75
389.612	1917.75
389.837	1957.75
390.062	1969.75
390.287	1955.75
390.512	1927.75
390.736	1885.75
390.961	1868.75
391.186	1828.75
391.411	1886.75
391.636	1872.75
391.86	1935.75
392.085	1905.75
392.31	1912.75
392.534	1920.75
392.759	1991.75
392.984	1977.75
393.208	1935.75
393.433	2007.75
393.658	2048.75
393.882	2065.75
394.107	1993.75
394.331	1902.75
394.556	1886.75
394.78	1933.75
395.005	2009.75
395.229	2076.75
395.454	2221.75
395.678	2253.75
395.903	2137.75
396.127	2076.75
396.352	2051.75
396.576	2077.75
396.801	2167.75
397.025	2076.75
397.249	2116.75
397.474	2063.75
397.698	2072.75
397.922	2193.75
398.147	2198.75
398.371	2329.75
398.595	2288.75
398.82	2220.75
399.044	2236.75
399.268	2355.75
399.492	2504.75
399.717	2601.75
399.941	2602.75
400.165	2610.75
400.389	2451.75
400.613	2409.75
400.837	2695.75
401.062	3055.75
401.286	2696.75
401.51	2431.75
401.734	2515.75
401.958	2441.75
402.182	2274.75
402.406	2228.75
402.63	2153.75
402.854	2188.75
403.078	2206.75
403.302	2293.75
403.526	2277.75
403.75	2292.75
403.974	2330.75
404.198	2303.75
404.422	2337.75
404.645	2479.75
404.869	2439.75
405.093	2275.75
405.317	2252.75
405.541	2313.75
405.765	2329.75
405.988	2287.75
406.212	2329.75
406.436	2402.75
406.66	2481.75
406.883	2431.75
407.107	2745.75
407.331	3023.75
407.555	3170.75
407.778	3026.75
408.002	2509.75
408.226	2396.75
408.449	2427.75
408.673	2391.75
408.896	2407.75
409.12	2417.75
409.344	2336.75
409.567	2256.75
409.791	2321.75
410.014	2337.75
410.238	2456.75
410.461	2631.75
410.685	2371.75
410.908	2233.75
411.132	2301.75
411.355	2242.75
411.578	2267.75
411.802	2270.75
412.025	2291.75
412.249	2247.75
412.472	2184.75
412.695	2186.75
412.919	2185.75
413.142	2141.75
413.365	2245.75
413.589	2270.75
413.812	2345.75
414.035	2435.75
414.258	2219.75
414.482	2201.75
414.705	2212.75
414.928	2169.75
415.151	2170.75
415.374	2228.75
415.597	2247.75
415.821	2244.75
416.044	2323.75
416.267	2309.75
416.49	2167.75
416.713	2115.75
416.936	2177.75
417.159	2229.75
417.382	2274.75
417.605	2163.75
417.828	2206.75
418.051	2234.75
418.274	2189.75
418.497	2086.75
418.72	2112.75
418.943	2114.75
419.166	2265.75
419.389	2375.75
419.611	2218.75
419.834	2171.75
420.057	2197.75
420.28	2149.75
420.503	2095.75
420.726	2135.75
420.948	2197.75
421.171	2055.75
421.394	2090.75
421.617	2187.75
421.839	2147.75
422.062	2120.75
422.285	2088.75
422.507	2082.75
422.73	2071.75
422.953	2052.75
423.175	2053.75
423.398	2047.75
423.621	2104.75
423.843	2156.75
424.066	2157.75
424.288	2206.75
424.511	2243.75
424.733	2227.75
424.956	2033.75
425.178	2030.75
425.401	2032.75
425.623	2039.75
425.846	2030.75
426.068	2136.75
426.291	2200.75
426.513	2171.75
426.735	2179.75
426.958	2280.75
427.18	2387.75
427.402	2211.75
427.625	2243.75
427.847	2285.75
428.069	2153.75
428.292	2073.75
428.514	2012.75
428.736	2013.75
428.958	2001.75
429.181	2089.75
429.403	2321.75
429.625	2871.75
429.847	2504.75
430.069	2117.75
430.292	2306.75
430.514	2449.75
430.736	2215.75
430.958	2311.75
431.18	2171.75
431.402	2039.75
431.624	2036.75
431.846	2034.75
432.068	2029.75
432.29	2071.75
432.512	2049.75
432.734	2107.75
432.956	2141.75
433.178	2253.75
433.4	2160.75
433.622	2188.75
433.844	2072.75
434.066	2016.75
434.287	2051.75
434.509	2083.75
434.731	2275.75
434.953	2346.75
435.175	2280.75
435.397	2150.75
435.618	2173.75
435.84	2170.75
436.062	2094.75
436.284	2133.75
436.505	2132.75
436.727	2162.75
436.949	2137.75
437.17	2083.75
437.392	2057.75
437.614	2010.75
437.835	2007.75
438.057	2138.75
438.278	2208.75
438.5	2095.75
438.721	2065.75
438.943	2070.75
439.165	2036.75
439.386	1944.75
439.608	2022.75
439.829	2048.75
440.05	2018.75
440.272	2004.75
440.493	1949.75
440.715	2010.75
440.936	2175.75
441.158	2412.75
441.379	2339.75
441.6	2235.75
441.822	2193.75
442.043	2180.75
442.264	2106.75
442.486	2043.75
442.707	2015.75
442.928	2026.75
443.149	2079.75
443.371	2241.75
443.592	2274.75
443.813	2195.75
444.034	2203.75
444.255	2194.75
444.476	2308.75
444.698	2327.75
444.919	2292.75
445.14	2311.75
445.361	2335.75
445.582	2408.75
445.803	2320.75
446.024	2200.75
446.245	2336.75
446.466	2284.75
446.687	2140.75
446.908	2119.75
447.129	2035.75
447.35	2103.75
447.571	2118.75
447.792	2023.75
448.013	1989.75
448.234	2033.75
448.455	2158.75
448.675	2154.75
448.896	1971.75
449.117	1914.75
449.338	1965.75
449.559	2059.75
449.779	2181.75
450	2399.75
450.221	2605.75
450.442	2524.75
450.662	2196.75
450.883	1929.75
451.104	1883.75
451.324	1957.75
451.545	2026.75
451.766	1990.75
451.986	1888.75
452.207	1898.75
452.428	1854.75
452.648	1815.75
452.869	1857.75
453.089	2041.75
453.31	1999.75
453.53	2043.75
453.751	1954.75
453.971	1839.75
454.192	1915.75
454.412	2022.75
454.633	1935.75
454.853	1886.75
455.073	1740.75
455.294	1758.75
455.514	1788.75
455.734	1816.75
455.955	1837.75
456.175	1805.75
456.395	1843.75
456.616	1900.75
456.836	1955.75
457.056	1884.75
457.276	1867.75
457.497	1835.75
457.717	1755.75
457.937	1812.75
458.157	1833.75
458.377	1816.75
458.598	1831.75
458.818	1856.75
459.038	1933.75
459.258	2076.75
459.478	2060.75
459.698	2020.75
459.918	2031.75
460.138	2122.75
460.358	2195.75
460.578	2191.75
460.798	2266.75
461.018	2407.75
461.238	2332.75
461.458	2214.75
461.678	2266.75
461.898	2169.75
462.118	2096.75
462.338	2182.75
462.558	2193.75
462.777	2148.75
462.997	2306.75
463.217	2476.75
463.437	2427.75
463.657	2271.75
463.876	2174.75
464.096	2156.75
464.316	2177.75
464.536	2247.75
464.755	2294.75
464.975	2299.75
465.195	2210.75
465.414	2345.75
465.634	2335.75
465.854	2136.75
466.073	2308.75
466.293	2245.75
466.512	2055.75
466.732	2008.75
466.951	2066.75
467.171	2100.75
467.391	1959.75
467.61	1949.75
467.829	1941.75
468.049	2141.75
468.268	2309.75
468.488	2240.75
468.707	2111.75
468.927	2037.75
469.146	2012.75
469.365	1969.75
469.585	2003.75
469.804	1971.75
470.023	1985.75
470.243	2039.75
470.462	1993.75
470.681	1928.75
470.901	2000.75
471.12	1950.75
471.339	1967.75
471.558	1925.75
471.777	1904.75
471.997	1949.75
472.216	1951.75
472.435	1906.75
472.654	1908.75
472.873	2019.75
473.092	2155.75
473.311	2052.75
473.53	1900.75
473.749	1895.75
473.968	1937.75
474.187	2043.75
474.406	2135.75
474.625	2036.75
474.844	2035.75
475.063	2017.75
475.282	2079.75
475.501	2011.75
475.72	2049.75
475.939	2129.75
476.158	2128.75
476.377	2014.75
476.596	2045.75
476.814	2049.75
477.033	2106.75
477.252	2175.75
477.471	2255.75
477.69	2131.75
477.908	2105.75
478.127	2243.75
478.346	2376.75
478.564	2363.75
478.783	2373.75
479.002	2448.75
479.22	2363.75
479.439	2449.75
479.658	2831.75
479.876	2805.75
480.095	2448.75
480.313	2356.75
480.532	2239.75
480.751	2271.75
480.969	2297.75
481.188	2278.75
481.406	2252.75
481.624	2196.75
481.843	2223.75
482.061	2307.75
482.28	2311.75
482.498	2349.75
482.717	2320.75
482.935	2216.75
483.153	2240.75
483.372	2229.75
483.59	2230.75
483.808	2262.75
484.027	2288.75
484.245	2449.75
484.463	2741.75
484.681	3149.75
484.9	2472.75
485.118	2325.75
485.336	2287.75
485.554	2367.75
485.772	2459.75
485.99	2402.75
486.209	2384.75
486.427	2439.75
486.645	2391.75
486.863	2392.75
487.081	2427.75
487.299	2513.75
487.517	2453.75
