Data from WStandard_LampEnergy10_LIBS07252019.E.O._I.C._HRD10591_15-54-29-928.txt Node
Date: Thu Jul 25 15:54:29 EDT 2019
User: cochatt
Spectrometer: HR+D1059
Trigger mode: 1
Integration Time (sec): 1.000000E-1
Scans to average: 1
Electric dark correction enabled: true
Nonlinearity correction enabled: false
Boxcar width: 0
XAxis mode: Wavelengths
Number of Pixels in Spectrum: 2048
>>>>>Begin Spectral Data<<<<<
223.165	-38.75
223.4	-38.75
223.635	-38.75
223.869	-21.75
224.104	-11.75
224.338	-22.75
224.573	-20.75
224.808	-12.75
225.042	-1.75
225.277	0.25
225.511	-4.75
225.746	0.25
225.98	15.25
226.215	23.25
226.449	19.25
226.683	3.25
226.918	31.25
227.152	42.25
227.387	45.25
227.621	48.25
227.856	48.25
228.09	41.25
228.324	49.25
228.559	60.25
228.793	88.25
229.027	133.25
229.262	148.25
229.496	135.25
229.73	142.25
229.964	172.25
230.199	169.25
230.433	177.25
230.667	195.25
230.901	194.25
231.136	172.25
231.37	169.25
231.604	154.25
231.838	184.25
232.072	169.25
232.306	173.25
232.541	185.25
232.775	196.25
233.009	202.25
233.243	192.25
233.477	188.25
233.711	222.25
233.945	213.25
234.179	203.25
234.413	202.25
234.647	219.25
234.881	210.25
235.115	196.25
235.349	199.25
235.583	207.25
235.817	194.25
236.051	194.25
236.285	193.25
236.519	192.25
236.753	221.25
236.987	224.25
237.221	218.25
237.455	241.25
237.689	225.25
237.922	213.25
238.156	204.25
238.39	230.25
238.624	213.25
238.858	234.25
239.091	248.25
239.325	275.25
239.559	284.25
239.793	298.25
240.027	313.25
240.26	298.25
240.494	228.25
240.728	252.25
240.961	237.25
241.195	242.25
241.429	252.25
241.662	249.25
241.896	245.25
242.13	245.25
242.363	263.25
242.597	282.25
242.83	273.25
243.064	284.25
243.298	291.25
243.531	295.25
243.765	280.25
243.998	273.25
244.232	244.25
244.465	246.25
244.699	237.25
244.932	264.25
245.166	293.25
245.399	298.25
245.633	277.25
245.866	275.25
246.099	291.25
246.333	273.25
246.566	293.25
246.8	339.25
247.033	346.25
247.266	318.25
247.5	299.25
247.733	327.25
247.966	307.25
248.2	364.25
248.433	366.25
248.666	371.25
248.899	398.25
249.133	426.25
249.366	477.25
249.599	396.25
249.832	355.25
250.066	390.25
250.299	381.25
250.532	357.25
250.765	340.25
250.998	332.25
251.231	348.25
251.465	360.25
251.698	344.25
251.931	346.25
252.164	342.25
252.397	358.25
252.63	353.25
252.863	339.25
253.096	331.25
253.329	341.25
253.562	332.25
253.795	369.25
254.028	376.25
254.261	342.25
254.494	326.25
254.727	350.25
254.96	338.25
255.193	377.25
255.426	416.25
255.659	448.25
255.892	444.25
256.124	384.25
256.357	376.25
256.59	391.25
256.823	417.25
257.056	426.25
257.289	472.25
257.521	517.25
257.754	452.25
257.987	440.25
258.22	498.25
258.452	442.25
258.685	409.25
258.918	404.25
259.151	404.25
259.383	361.25
259.616	348.25
259.849	367.25
260.081	410.25
260.314	454.25
260.547	458.25
260.779	472.25
261.012	452.25
261.244	400.25
261.477	398.25
261.71	436.25
261.942	397.25
262.175	374.25
262.407	403.25
262.64	386.25
262.872	371.25
263.105	364.25
263.337	371.25
263.57	364.25
263.802	386.25
264.035	347.25
264.267	327.25
264.499	325.25
264.732	382.25
264.964	394.25
265.197	412.25
265.429	417.25
265.661	448.25
265.894	502.25
266.126	509.25
266.358	462.25
266.591	470.25
266.823	498.25
267.055	456.25
267.287	432.25
267.52	447.25
267.752	435.25
267.984	436.25
268.216	464.25
268.448	481.25
268.681	459.25
268.913	446.25
269.145	402.25
269.377	426.25
269.609	454.25
269.841	509.25
270.073	586.25
270.306	632.25
270.538	611.25
270.77	532.25
271.002	489.25
271.234	490.25
271.466	483.25
271.698	526.25
271.93	621.25
272.162	581.25
272.394	524.25
272.626	508.25
272.858	453.25
273.09	412.25
273.322	401.25
273.553	395.25
273.785	426.25
274.017	400.25
274.249	432.25
274.481	434.25
274.713	393.25
274.945	404.25
275.176	405.25
275.408	387.25
275.64	432.25
275.872	404.25
276.104	418.25
276.335	499.25
276.567	529.25
276.799	527.25
277.031	483.25
277.262	475.25
277.494	515.25
277.726	536.25
277.957	519.25
278.189	471.25
278.421	442.25
278.652	441.25
278.884	434.25
279.115	429.25
279.347	436.25
279.579	444.25
279.81	448.25
280.042	464.25
280.273	500.25
280.505	513.25
280.736	518.25
280.968	472.25
281.199	408.25
281.431	421.25
281.662	441.25
281.894	420.25
282.125	439.25
282.356	460.25
282.588	435.25
282.819	463.25
283.051	484.25
283.282	494.25
283.513	496.25
283.745	457.25
283.976	418.25
284.207	435.25
284.439	456.25
284.67	454.25
284.901	459.25
285.132	469.25
285.364	454.25
285.595	446.25
285.826	451.25
286.057	448.25
286.288	457.25
286.52	463.25
286.751	493.25
286.982	501.25
287.213	474.25
287.444	432.25
287.675	434.25
287.906	462.25
288.138	498.25
288.369	461.25
288.6	444.25
288.831	418.25
289.062	457.25
289.293	436.25
289.524	460.25
289.755	443.25
289.986	451.25
290.217	442.25
290.448	442.25
290.679	473.25
290.91	456.25
291.141	454.25
291.371	475.25
291.602	461.25
291.833	468.25
292.064	514.25
292.295	484.25
292.526	493.25
292.757	498.25
292.987	506.25
293.218	482.25
293.449	504.25
293.68	573.25
293.91	588.25
294.141	571.25
294.372	556.25
294.603	558.25
294.833	573.25
295.064	527.25
295.295	517.25
295.525	466.25
295.756	443.25
295.987	441.25
296.217	461.25
296.448	445.25
296.679	454.25
296.909	464.25
297.14	444.25
297.37	487.25
297.601	512.25
297.831	523.25
298.062	521.25
298.292	482.25
298.523	471.25
298.753	468.25
298.984	464.25
299.214	482.25
299.445	489.25
299.675	500.25
299.905	491.25
300.136	490.25
300.366	459.25
300.597	466.25
300.827	478.25
301.057	497.25
301.288	519.25
301.518	508.25
301.748	541.25
301.979	534.25
302.209	550.25
302.439	564.25
302.669	598.25
302.9	565.25
303.13	510.25
303.36	516.25
303.59	515.25
303.82	515.25
304.051	531.25
304.281	542.25
304.511	544.25
304.741	561.25
304.971	611.25
305.201	626.25
305.431	560.25
305.661	488.25
305.891	458.25
306.121	466.25
306.352	495.25
306.582	528.25
306.812	534.25
307.042	549.25
307.272	571.25
307.502	593.25
307.731	621.25
307.961	627.25
308.191	568.25
308.421	517.25
308.651	496.25
308.881	512.25
309.111	491.25
309.341	496.25
309.571	513.25
309.8	480.25
310.03	489.25
310.26	475.25
310.49	496.25
310.72	479.25
310.949	520.25
311.179	523.25
311.409	528.25
311.639	509.25
311.868	481.25
312.098	499.25
312.328	510.25
312.557	500.25
312.787	522.25
313.017	522.25
313.246	501.25
313.476	514.25
313.706	520.25
313.935	522.25
314.165	548.25
314.394	566.25
314.624	579.25
314.853	617.25
315.083	647.25
315.312	628.25
315.542	573.25
315.771	542.25
316.001	539.25
316.23	577.25
316.46	547.25
316.689	567.25
316.919	512.25
317.148	505.25
317.377	561.25
317.607	588.25
317.836	622.25
318.065	644.25
318.295	596.25
318.524	605.25
318.753	580.25
318.983	580.25
319.212	572.25
319.441	557.25
319.67	546.25
319.9	580.25
320.129	611.25
320.358	638.25
320.587	620.25
320.816	607.25
321.046	596.25
321.275	609.25
321.504	590.25
321.733	625.25
321.962	609.25
322.191	545.25
322.42	566.25
322.649	551.25
322.878	546.25
323.108	575.25
323.337	589.25
323.566	584.25
323.795	563.25
324.024	568.25
324.253	568.25
324.482	580.25
324.71	548.25
324.939	528.25
325.168	542.25
325.397	582.25
325.626	598.25
325.855	581.25
326.084	551.25
326.313	603.25
326.542	560.25
326.77	601.25
326.999	585.25
327.228	555.25
327.457	542.25
327.686	534.25
327.914	549.25
328.143	566.25
328.372	570.25
328.6	564.25
328.829	552.25
329.058	562.25
329.287	538.25
329.515	577.25
329.744	594.25
329.972	601.25
330.201	606.25
330.43	591.25
330.658	572.25
330.887	584.25
331.115	580.25
331.344	615.25
331.572	589.25
331.801	570.25
332.03	593.25
332.258	609.25
332.486	598.25
332.715	602.25
332.943	593.25
333.172	589.25
333.4	601.25
333.629	618.25
333.857	672.25
334.085	742.25
334.314	807.25
334.542	824.25
334.771	764.25
334.999	672.25
335.227	636.25
335.455	632.25
335.684	646.25
335.912	664.25
336.14	660.25
336.369	634.25
336.597	607.25
336.825	596.25
337.053	637.25
337.281	666.25
337.51	699.25
337.738	694.25
337.966	678.25
338.194	601.25
338.422	598.25
338.65	576.25
338.878	557.25
339.106	563.25
339.334	566.25
339.562	561.25
339.79	577.25
340.018	619.25
340.246	625.25
340.474	650.25
340.702	599.25
340.93	613.25
341.158	632.25
341.386	603.25
341.614	605.25
341.842	590.25
342.07	565.25
342.298	610.25
342.526	592.25
342.754	583.25
342.981	600.25
343.209	580.25
343.437	567.25
343.665	569.25
343.893	608.25
344.12	634.25
344.348	624.25
344.576	603.25
344.804	593.25
345.031	604.25
345.259	595.25
345.487	583.25
345.714	540.25
345.942	562.25
346.17	585.25
346.397	582.25
346.625	601.25
346.853	560.25
347.08	548.25
347.308	560.25
347.535	580.25
347.763	590.25
347.99	549.25
348.218	544.25
348.445	532.25
348.673	566.25
348.9	608.25
349.128	595.25
349.355	602.25
349.583	592.25
349.81	558.25
350.037	512.25
350.265	529.25
350.492	548.25
350.72	556.25
350.947	603.25
351.174	566.25
351.402	534.25
351.629	547.25
351.856	504.25
352.083	506.25
352.311	535.25
352.538	560.25
352.765	580.25
352.992	565.25
353.22	560.25
353.447	554.25
353.674	567.25
353.901	564.25
354.128	559.25
354.355	560.25
354.583	574.25
354.81	582.25
355.037	564.25
355.264	574.25
355.491	573.25
355.718	576.25
355.945	573.25
356.172	532.25
356.399	534.25
356.626	558.25
356.853	589.25
357.08	654.25
357.307	671.25
357.534	653.25
357.761	568.25
357.988	534.25
358.215	549.25
358.441	568.25
358.668	558.25
358.895	581.25
359.122	597.25
359.349	641.25
359.576	627.25
359.802	557.25
360.029	562.25
360.256	544.25
360.483	576.25
360.709	568.25
360.936	572.25
361.163	644.25
361.39	677.25
361.616	694.25
361.843	698.25
362.07	643.25
362.296	565.25
362.523	554.25
362.749	574.25
362.976	572.25
363.203	579.25
363.429	566.25
363.656	552.25
363.882	587.25
364.109	649.25
364.335	667.25
364.562	622.25
364.788	587.25
365.015	548.25
365.241	555.25
365.468	599.25
365.694	620.25
365.92	599.25
366.147	584.25
366.373	542.25
366.599	548.25
366.826	557.25
367.052	572.25
367.278	568.25
367.505	583.25
367.731	597.25
367.957	616.25
368.184	621.25
368.41	685.25
368.636	655.25
368.862	650.25
369.089	674.25
369.315	648.25
369.541	592.25
369.767	585.25
369.993	587.25
370.219	566.25
370.445	608.25
370.672	653.25
370.898	658.25
371.124	663.25
371.35	625.25
371.576	640.25
371.802	651.25
372.028	656.25
372.254	598.25
372.48	597.25
372.706	626.25
372.932	621.25
373.158	608.25
373.384	646.25
373.61	635.25
373.835	644.25
374.061	651.25
374.287	605.25
374.513	640.25
374.739	605.25
374.965	607.25
375.191	623.25
375.416	653.25
375.642	640.25
375.868	697.25
376.094	691.25
376.319	662.25
376.545	650.25
376.771	667.25
376.997	692.25
377.222	692.25
377.448	657.25
377.674	650.25
377.899	648.25
378.125	711.25
378.35	717.25
378.576	637.25
378.802	618.25
379.027	622.25
379.253	641.25
379.478	642.25
379.704	649.25
379.929	635.25
380.155	660.25
380.38	642.25
380.606	661.25
380.831	667.25
381.057	724.25
381.282	699.25
381.507	692.25
381.733	721.25
381.958	728.25
382.184	674.25
382.409	655.25
382.634	684.25
382.86	660.25
383.085	684.25
383.31	729.25
383.535	802.25
383.761	800.25
383.986	771.25
384.211	724.25
384.436	733.25
384.662	757.25
384.887	756.25
385.112	732.25
385.337	708.25
385.562	726.25
385.787	714.25
386.013	736.25
386.238	754.25
386.463	776.25
386.688	832.25
386.913	844.25
387.138	844.25
387.363	765.25
387.588	797.25
387.813	770.25
388.038	780.25
388.263	768.25
388.488	756.25
388.713	716.25
388.938	737.25
389.163	745.25
389.387	737.25
389.612	746.25
389.837	772.25
390.062	734.25
390.287	757.25
390.512	717.25
390.736	731.25
390.961	741.25
391.186	722.25
391.411	746.25
391.636	745.25
391.86	741.25
392.085	740.25
392.31	758.25
392.534	749.25
392.759	769.25
392.984	759.25
393.208	784.25
393.433	788.25
393.658	811.25
393.882	796.25
394.107	789.25
394.331	754.25
394.556	768.25
394.78	761.25
395.005	797.25
395.229	832.25
395.454	856.25
395.678	886.25
395.903	816.25
396.127	794.25
396.352	815.25
396.576	856.25
396.801	833.25
397.025	833.25
397.249	842.25
397.474	819.25
397.698	810.25
397.922	857.25
398.147	882.25
398.371	914.25
398.595	903.25
398.82	864.25
399.044	917.25
399.268	905.25
399.492	944.25
399.717	989.25
399.941	993.25
400.165	974.25
400.389	958.25
400.613	962.25
400.837	1125.25
401.062	1204.25
401.286	1006.25
401.51	978.25
401.734	956.25
401.958	928.25
402.182	896.25
402.406	871.25
402.63	889.25
402.854	869.25
403.078	892.25
403.302	887.25
403.526	920.25
403.75	910.25
403.974	916.25
404.198	942.25
404.422	964.25
404.645	976.25
404.869	969.25
405.093	896.25
405.317	874.25
405.541	924.25
405.765	933.25
405.988	923.25
406.212	940.25
406.436	971.25
406.66	991.25
406.883	993.25
407.107	1141.25
407.331	1210.25
407.555	1267.25
407.778	1149.25
408.002	985.25
408.226	958.25
408.449	952.25
408.673	947.25
408.896	965.25
409.12	960.25
409.344	930.25
409.567	914.25
409.791	911.25
410.014	961.25
410.238	1026.25
410.461	1039.25
410.685	929.25
410.908	915.25
411.132	953.25
411.355	956.25
411.578	924.25
411.802	936.25
412.025	945.25
412.249	924.25
412.472	892.25
412.695	900.25
412.919	916.25
413.142	917.25
413.365	930.25
413.589	920.25
413.812	981.25
414.035	992.25
414.258	934.25
414.482	916.25
414.705	911.25
414.928	919.25
415.151	937.25
415.374	934.25
415.597	945.25
415.821	946.25
416.044	924.25
416.267	908.25
416.49	885.25
416.713	897.25
416.936	932.25
417.159	978.25
417.382	945.25
417.605	924.25
417.828	925.25
418.051	921.25
418.274	952.25
418.497	935.25
418.72	933.25
418.943	916.25
419.166	940.25
419.389	976.25
419.611	956.25
419.834	958.25
420.057	937.25
420.28	964.25
420.503	954.25
420.726	959.25
420.948	935.25
421.171	920.25
421.394	928.25
421.617	989.25
421.839	1002.25
422.062	1003.25
422.285	923.25
422.507	924.25
422.73	907.25
422.953	858.25
423.175	886.25
423.398	924.25
423.621	925.25
423.843	930.25
424.066	983.25
424.288	1004.25
424.511	1052.25
424.733	980.25
424.956	922.25
425.178	905.25
425.401	946.25
425.623	932.25
425.846	934.25
426.068	984.25
426.291	1000.25
426.513	957.25
426.735	924.25
426.958	1042.25
427.18	1061.25
427.402	989.25
427.625	1016.25
427.847	981.25
428.069	938.25
428.292	927.25
428.514	890.25
428.736	890.25
428.958	902.25
429.181	935.25
429.403	1059.25
429.625	1243.25
429.847	1034.25
430.069	950.25
430.292	1045.25
430.514	1022.25
430.736	964.25
430.958	1000.25
431.18	932.25
431.402	859.25
431.624	832.25
431.846	775.25
432.068	732.25
432.29	754.25
432.512	792.25
432.734	904.25
432.956	941.25
433.178	965.25
433.4	994.25
433.622	977.25
433.844	916.25
434.066	850.25
434.287	782.25
434.509	760.25
434.731	818.25
434.953	897.25
435.175	946.25
435.397	921.25
435.618	877.25
435.84	855.25
436.062	862.25
436.284	895.25
436.505	926.25
436.727	941.25
436.949	926.25
437.17	910.25
437.392	870.25
437.614	863.25
437.835	812.25
438.057	809.25
438.278	830.25
438.5	852.25
438.721	890.25
438.943	909.25
439.165	896.25
439.386	900.25
439.608	976.25
439.829	935.25
440.05	956.25
440.272	937.25
440.493	951.25
440.715	992.25
440.936	1032.25
441.158	1066.25
441.379	1047.25
441.6	1030.25
441.822	1028.25
442.043	993.25
442.264	964.25
442.486	920.25
442.707	916.25
442.928	936.25
443.149	982.25
443.371	973.25
443.592	1030.25
443.813	1001.25
444.034	966.25
444.255	998.25
444.476	1013.25
444.698	1021.25
444.919	1020.25
445.14	1149.25
445.361	1108.25
445.582	1064.25
445.803	1033.25
446.024	1020.25
446.245	1056.25
446.466	1032.25
446.687	1053.25
446.908	1037.25
447.129	1026.25
447.35	1027.25
447.571	998.25
447.792	982.25
448.013	945.25
448.234	967.25
448.455	973.25
448.675	983.25
448.896	941.25
449.117	917.25
449.338	933.25
449.559	968.25
449.779	972.25
450	1037.25
450.221	1054.25
450.442	1019.25
450.662	946.25
450.883	870.25
451.104	856.25
451.324	864.25
451.545	910.25
451.766	874.25
451.986	861.25
452.207	840.25
452.428	792.25
452.648	779.25
452.869	796.25
453.089	802.25
453.31	796.25
453.53	742.25
453.751	730.25
453.971	720.25
454.192	710.25
454.412	783.25
454.633	757.25
454.853	769.25
455.073	768.25
455.294	782.25
455.514	758.25
455.734	769.25
455.955	761.25
456.175	732.25
456.395	732.25
456.616	730.25
456.836	754.25
457.056	760.25
457.276	732.25
457.497	690.25
457.717	683.25
457.937	716.25
458.157	702.25
458.377	712.25
458.598	684.25
458.818	670.25
459.038	706.25
459.258	700.25
459.478	712.25
459.698	704.25
459.918	731.25
460.138	803.25
460.358	839.25
460.578	842.25
460.798	875.25
461.018	893.25
461.238	870.25
461.458	842.25
461.678	837.25
461.898	813.25
462.118	783.25
462.338	825.25
462.558	844.25
462.777	855.25
462.997	862.25
463.217	899.25
463.437	869.25
463.657	864.25
463.876	822.25
464.096	845.25
464.316	849.25
464.536	865.25
464.755	866.25
464.975	859.25
465.195	844.25
465.414	894.25
465.634	848.25
465.854	878.25
466.073	974.25
466.293	919.25
466.512	883.25
466.732	894.25
466.951	931.25
467.171	897.25
467.391	854.25
467.61	881.25
467.829	895.25
468.049	978.25
468.268	1048.25
468.488	954.25
468.707	920.25
468.927	891.25
469.146	903.25
469.365	897.25
469.585	926.25
469.804	890.25
470.023	939.25
470.243	949.25
470.462	943.25
470.681	939.25
470.901	928.25
471.12	937.25
471.339	939.25
471.558	906.25
471.777	922.25
471.997	896.25
472.216	846.25
472.435	788.25
472.654	762.25
472.873	776.25
473.092	857.25
473.311	839.25
473.53	812.25
473.749	818.25
473.968	850.25
474.187	849.25
474.406	843.25
474.625	882.25
474.844	902.25
475.063	894.25
475.282	867.25
475.501	808.25
475.72	846.25
475.939	890.25
476.158	873.25
476.377	846.25
476.596	865.25
476.814	829.25
477.033	806.25
477.252	860.25
477.471	898.25
477.69	902.25
477.908	944.25
478.127	966.25
478.346	980.25
478.564	992.25
478.783	1001.25
479.002	1013.25
479.22	1000.25
479.439	1012.25
479.658	1074.25
479.876	982.25
480.095	895.25
480.313	889.25
480.532	897.25
480.751	876.25
480.969	832.25
481.188	828.25
481.406	797.25
481.624	766.25
481.843	802.25
482.061	833.25
482.28	884.25
482.498	869.25
482.717	856.25
482.935	906.25
483.153	954.25
483.372	995.25
483.59	1015.25
483.808	968.25
484.027	967.25
484.245	995.25
484.463	1233.25
484.681	1283.25
484.9	1026.25
485.118	968.25
485.336	928.25
485.554	896.25
485.772	910.25
485.99	876.25
486.209	884.25
486.427	928.25
486.645	915.25
486.863	989.25
487.081	1044.25
487.299	1035.25
487.517	1017.25
487.735	1134.25
487.953	1170.25
488.171	1191.25
488.389	1120.25
488.607	1080.25
488.825	1141.25
489.043	1084.25
489.261	993.25
489.479	1055.25
489.696	1042.25
489.914	1053.25
490.132	1048.25
490.35	1079.25
490.568	1167.25
490.786	1178.25
491.003	1183.25
491.221	1238.25
491.439	1269.25
491.657	1314.25
491.874	1386.25
492.092	1439.25
492.31	1492.25
492.527	1456.25
492.745	1380.25
492.963	1330.25
493.18	1273.25
493.398	1362.25
493.615	1337.25
493.833	1278.25
494.05	1207.25
494.268	1241.25
494.485	1234.25
494.703	1188.25
494.92	1208.25
495.138	1212.25
495.355	1249.25
495.573	1267.25
495.79	1292.25
496.008	1320.25
496.225	1224.25
496.442	1216.25
496.66	1271.25
496.877	1231.25
497.094	1213.25
497.312	1198.25
497.529	1194.25
497.746	1187.25
497.963	1284.25
498.181	1328.25
498.398	1247.25
498.615	1238.25
498.832	1152.25
499.049	1149.25
499.267	1144.25
499.484	1242.25
499.701	1348.25
499.918	1369.25
500.135	1481.25
500.352	1526.25
