Data from WStandard_LampEnergy5.5LIBS07252019.E.O._I.C._HRD10591_16-08-57-920.txt Node
Date: Thu Jul 25 16:08:57 EDT 2019
User: cochatt
Spectrometer: HR+D1059
Trigger mode: 1
Integration Time (sec): 1.000000E-1
Scans to average: 1
Electric dark correction enabled: true
Nonlinearity correction enabled: false
Boxcar width: 0
XAxis mode: Wavelengths
Number of Pixels in Spectrum: 2048
>>>>>Begin Spectral Data<<<<<
223.165	-5.81
223.4	-5.81
223.635	-5.81
223.869	-8.81
224.104	-21.81
224.338	-16.81
224.573	-22.81
224.808	-7.81
225.042	-7.81
225.277	-5.81
225.511	4.19
225.746	7.19
225.98	12.19
226.215	-13.81
226.449	15.19
226.683	17.19
226.918	27.19
227.152	28.19
227.387	51.19
227.621	44.19
227.856	39.19
228.09	36.19
228.324	57.19
228.559	54.19
228.793	147.19
229.027	348.19
229.262	358.19
229.496	378.19
229.73	380.19
229.964	424.19
230.199	425.19
230.433	449.19
230.667	478.19
230.901	524.19
231.136	463.19
231.37	419.19
231.604	446.19
231.838	462.19
232.072	447.19
232.306	420.19
232.541	466.19
232.775	537.19
233.009	566.19
233.243	559.19
233.477	519.19
233.711	532.19
233.945	553.19
234.179	540.19
234.413	552.19
234.647	591.19
234.881	572.19
235.115	538.19
235.349	529.19
235.583	531.19
235.817	527.19
236.051	531.19
236.285	532.19
236.519	578.19
236.753	634.19
236.987	662.19
237.221	653.19
237.455	733.19
237.689	717.19
237.922	648.19
238.156	636.19
238.39	645.19
238.624	664.19
238.858	716.19
239.091	746.19
239.325	754.19
239.559	916.19
239.793	898.19
240.027	987.19
240.26	962.19
240.494	731.19
240.728	686.19
240.961	689.19
241.195	731.19
241.429	779.19
241.662	780.19
241.896	704.19
242.13	743.19
242.363	821.19
242.597	860.19
242.83	840.19
243.064	846.19
243.298	916.19
243.531	878.19
243.765	898.19
243.998	891.19
244.232	731.19
244.465	716.19
244.699	730.19
244.932	853.19
245.166	985.19
245.399	939.19
245.633	894.19
245.866	849.19
246.099	883.19
246.333	908.19
246.566	938.19
246.8	1003.19
247.033	1135.19
247.266	1018.19
247.5	1001.19
247.733	1015.19
247.966	1096.19
248.2	1170.19
248.433	1153.19
248.666	1159.19
248.899	1254.19
249.133	1444.19
249.366	1634.19
249.599	1373.19
249.832	1196.19
250.066	1216.19
250.299	1255.19
250.532	1130.19
250.765	1045.19
250.998	1084.19
251.231	1129.19
251.465	1187.19
251.698	1108.19
251.931	1111.19
252.164	1137.19
252.397	1194.19
252.63	1231.19
252.863	1042.19
253.096	1031.19
253.329	1099.19
253.562	1137.19
253.795	1216.19
254.028	1200.19
254.261	1154.19
254.494	1078.19
254.727	1074.19
254.96	1099.19
255.193	1209.19
255.426	1362.19
255.659	1555.19
255.892	1592.19
256.124	1304.19
256.357	1234.19
256.59	1346.19
256.823	1367.19
257.056	1353.19
257.289	1568.19
257.521	1804.19
257.754	1641.19
257.987	1561.19
258.22	1685.19
258.452	1663.19
258.685	1326.19
258.918	1279.19
259.151	1330.19
259.383	1235.19
259.616	1081.19
259.849	1156.19
260.081	1310.19
260.314	1466.19
260.547	1634.19
260.779	1649.19
261.012	1532.19
261.244	1368.19
261.477	1285.19
261.71	1368.19
261.942	1366.19
262.175	1314.19
262.407	1408.19
262.64	1306.19
262.872	1209.19
263.105	1172.19
263.337	1206.19
263.57	1227.19
263.802	1198.19
264.035	1177.19
264.267	1106.19
264.499	1047.19
264.732	1139.19
264.964	1219.19
265.197	1259.19
265.429	1351.19
265.661	1512.19
265.894	1640.19
266.126	1708.19
266.358	1532.19
266.591	1602.19
266.823	1758.19
267.055	1548.19
267.287	1515.19
267.52	1481.19
267.752	1471.19
267.984	1452.19
268.216	1556.19
268.448	1569.19
268.681	1568.19
268.913	1444.19
269.145	1339.19
269.377	1346.19
269.609	1459.19
269.841	1611.19
270.073	1888.19
270.306	2106.19
270.538	2300.19
270.77	1954.19
271.002	1651.19
271.234	1583.19
271.466	1556.19
271.698	1757.19
271.93	2097.19
272.162	2067.19
272.394	1887.19
272.626	1835.19
272.858	1600.19
273.09	1356.19
273.322	1370.19
273.553	1326.19
273.785	1323.19
274.017	1363.19
274.249	1483.19
274.481	1502.19
274.713	1378.19
274.945	1317.19
275.176	1324.19
275.408	1366.19
275.64	1327.19
275.872	1314.19
276.104	1362.19
276.335	1578.19
276.567	1810.19
276.799	1843.19
277.031	1642.19
277.262	1510.19
277.494	1564.19
277.726	1752.19
277.957	1748.19
278.189	1570.19
278.421	1434.19
278.652	1406.19
278.884	1420.19
279.115	1413.19
279.347	1468.19
279.579	1397.19
279.81	1380.19
280.042	1526.19
280.273	1654.19
280.505	1664.19
280.736	1748.19
280.968	1643.19
281.199	1477.19
281.431	1370.19
281.662	1380.19
281.894	1339.19
282.125	1387.19
282.356	1441.19
282.588	1482.19
282.819	1482.19
283.051	1566.19
283.282	1710.19
283.513	1635.19
283.745	1466.19
283.976	1355.19
284.207	1354.19
284.439	1394.19
284.67	1406.19
284.901	1460.19
285.132	1486.19
285.364	1482.19
285.595	1462.19
285.826	1440.19
286.057	1438.19
286.288	1438.19
286.52	1448.19
286.751	1599.19
286.982	1643.19
287.213	1545.19
287.444	1402.19
287.675	1401.19
287.906	1476.19
288.138	1562.19
288.369	1506.19
288.6	1444.19
288.831	1383.19
289.062	1414.19
289.293	1464.19
289.524	1416.19
289.755	1502.19
289.986	1520.19
290.217	1391.19
290.448	1400.19
290.679	1463.19
290.91	1456.19
291.141	1496.19
291.371	1546.19
291.602	1529.19
291.833	1542.19
292.064	1587.19
292.295	1558.19
292.526	1577.19
292.757	1624.19
292.987	1588.19
293.218	1478.19
293.449	1600.19
293.68	1783.19
293.91	1959.19
294.141	1795.19
294.372	1662.19
294.603	1754.19
294.833	1841.19
295.064	1713.19
295.295	1552.19
295.525	1522.19
295.756	1420.19
295.987	1360.19
296.217	1399.19
296.448	1359.19
296.679	1412.19
296.909	1435.19
297.14	1429.19
297.37	1438.19
297.601	1523.19
297.831	1650.19
298.062	1649.19
298.292	1514.19
298.523	1434.19
298.753	1470.19
298.984	1468.19
299.214	1447.19
299.445	1496.19
299.675	1538.19
299.905	1517.19
300.136	1495.19
300.366	1483.19
300.597	1398.19
300.827	1429.19
301.057	1447.19
301.288	1537.19
301.518	1526.19
301.748	1604.19
301.979	1674.19
302.209	1676.19
302.439	1782.19
302.669	1839.19
302.9	1737.19
303.13	1556.19
303.36	1566.19
303.59	1603.19
303.82	1609.19
304.051	1554.19
304.281	1543.19
304.511	1542.19
304.741	1650.19
304.971	1824.19
305.201	1990.19
305.431	1879.19
305.661	1504.19
305.891	1400.19
306.121	1366.19
306.352	1438.19
306.582	1492.19
306.812	1578.19
307.042	1680.19
307.272	1714.19
307.502	1761.19
307.731	1890.19
307.961	2050.19
308.191	1887.19
308.421	1640.19
308.651	1555.19
308.881	1524.19
309.111	1515.19
309.341	1504.19
309.571	1491.19
309.8	1523.19
310.03	1525.19
310.26	1515.19
310.49	1493.19
310.72	1539.19
310.949	1605.19
311.179	1620.19
311.409	1584.19
311.639	1540.19
311.868	1506.19
312.098	1562.19
312.328	1518.19
312.557	1514.19
312.787	1510.19
313.017	1585.19
313.246	1553.19
313.476	1574.19
313.706	1613.19
313.935	1581.19
314.165	1607.19
314.394	1639.19
314.624	1754.19
314.853	1811.19
315.083	1895.19
315.312	1956.19
315.542	1856.19
315.771	1613.19
316.001	1622.19
316.23	1704.19
316.46	1686.19
316.689	1662.19
316.919	1617.19
317.148	1518.19
317.377	1512.19
317.607	1657.19
317.836	1881.19
318.065	1951.19
318.295	1890.19
318.524	1803.19
318.753	1714.19
318.983	1707.19
319.212	1679.19
319.441	1638.19
319.67	1644.19
319.9	1637.19
320.129	1736.19
320.358	1810.19
320.587	1842.19
320.816	1883.19
321.046	1824.19
321.275	1694.19
321.504	1716.19
321.733	1874.19
321.962	1821.19
322.191	1678.19
322.42	1652.19
322.649	1612.19
322.878	1657.19
323.108	1648.19
323.337	1702.19
323.566	1698.19
323.795	1694.19
324.024	1712.19
324.253	1687.19
324.482	1710.19
324.71	1646.19
324.939	1562.19
325.168	1572.19
325.397	1601.19
325.626	1655.19
325.855	1696.19
326.084	1659.19
326.313	1664.19
326.542	1672.19
326.77	1747.19
326.999	1747.19
327.228	1737.19
327.457	1618.19
327.686	1574.19
327.914	1579.19
328.143	1632.19
328.372	1660.19
328.6	1647.19
328.829	1624.19
329.058	1588.19
329.287	1626.19
329.515	1636.19
329.744	1675.19
329.972	1791.19
330.201	1838.19
330.43	1824.19
330.658	1715.19
330.887	1710.19
331.115	1749.19
331.344	1743.19
331.572	1754.19
331.801	1744.19
332.03	1762.19
332.258	1751.19
332.486	1786.19
332.715	1734.19
332.943	1768.19
333.172	1719.19
333.4	1746.19
333.629	1812.19
333.857	1880.19
334.085	2056.19
334.314	2316.19
334.542	2561.19
334.771	2356.19
334.999	2102.19
335.227	2002.19
335.455	1863.19
335.684	1859.19
335.912	1916.19
336.14	1940.19
336.369	1908.19
336.597	1788.19
336.825	1776.19
337.053	1809.19
337.281	1914.19
337.51	2008.19
337.738	2079.19
337.966	1966.19
338.194	1845.19
338.422	1760.19
338.65	1735.19
338.878	1716.19
339.106	1632.19
339.334	1669.19
339.562	1655.19
339.79	1662.19
340.018	1798.19
340.246	1818.19
340.474	1836.19
340.702	1777.19
340.93	1828.19
341.158	1794.19
341.386	1750.19
341.614	1748.19
341.842	1714.19
342.07	1690.19
342.298	1730.19
342.526	1719.19
342.754	1714.19
342.981	1680.19
343.209	1682.19
343.437	1680.19
343.665	1716.19
343.893	1782.19
344.12	1876.19
344.348	1868.19
344.576	1799.19
344.804	1707.19
345.031	1768.19
345.259	1758.19
345.487	1689.19
345.714	1634.19
345.942	1554.19
346.17	1575.19
346.397	1615.19
346.625	1641.19
346.853	1569.19
347.08	1532.19
347.308	1559.19
347.535	1544.19
347.763	1655.19
347.99	1625.19
348.218	1550.19
348.445	1599.19
348.673	1560.19
348.9	1652.19
349.128	1664.19
349.355	1764.19
349.583	1657.19
349.81	1611.19
350.037	1534.19
350.265	1489.19
350.492	1503.19
350.72	1520.19
350.947	1610.19
351.174	1656.19
351.402	1552.19
351.629	1509.19
351.856	1513.19
352.083	1503.19
352.311	1494.19
352.538	1504.19
352.765	1610.19
352.992	1678.19
353.22	1605.19
353.447	1525.19
353.674	1555.19
353.901	1592.19
354.128	1559.19
354.355	1535.19
354.583	1600.19
354.81	1643.19
355.037	1639.19
355.264	1643.19
355.491	1582.19
355.718	1629.19
355.945	1552.19
356.172	1587.19
356.399	1541.19
356.626	1553.19
356.853	1564.19
357.08	1683.19
357.307	1910.19
357.534	1869.19
357.761	1678.19
357.988	1545.19
358.215	1482.19
358.441	1482.19
358.668	1531.19
358.895	1532.19
359.122	1615.19
359.349	1763.19
359.576	1746.19
359.802	1595.19
360.029	1553.19
360.256	1510.19
360.483	1520.19
360.709	1558.19
360.936	1697.19
361.163	1685.19
361.39	1838.19
361.616	1983.19
361.843	1938.19
362.07	1829.19
362.296	1600.19
362.523	1516.19
362.749	1548.19
362.976	1611.19
363.203	1640.19
363.429	1596.19
363.656	1526.19
363.882	1570.19
364.109	1757.19
364.335	1876.19
364.562	1719.19
364.788	1657.19
365.015	1623.19
365.241	1556.19
365.468	1585.19
365.694	1616.19
365.92	1694.19
366.147	1668.19
366.373	1570.19
366.599	1523.19
366.826	1536.19
367.052	1544.19
367.278	1583.19
367.505	1569.19
367.731	1629.19
367.957	1654.19
368.184	1610.19
368.41	1767.19
368.636	1739.19
368.862	1739.19
369.089	1794.19
369.315	1694.19
369.541	1652.19
369.767	1640.19
369.993	1562.19
370.219	1556.19
370.445	1628.19
370.672	1664.19
370.898	1774.19
371.124	1780.19
371.35	1660.19
371.576	1671.19
371.802	1793.19
372.028	1693.19
372.254	1648.19
372.48	1627.19
372.706	1576.19
372.932	1598.19
373.158	1635.19
373.384	1637.19
373.61	1682.19
373.835	1791.19
374.061	1697.19
374.287	1641.19
374.513	1652.19
374.739	1690.19
374.965	1641.19
375.191	1676.19
375.416	1715.19
375.642	1708.19
375.868	1797.19
376.094	1848.19
376.319	1794.19
376.545	1649.19
376.771	1692.19
376.997	1761.19
377.222	1741.19
377.448	1688.19
377.674	1747.19
377.899	1712.19
378.125	1823.19
378.35	1824.19
378.576	1702.19
378.802	1598.19
379.027	1605.19
379.253	1605.19
379.478	1633.19
379.704	1628.19
379.929	1640.19
380.155	1655.19
380.38	1629.19
380.606	1666.19
380.831	1665.19
381.057	1729.19
381.282	1752.19
381.507	1729.19
381.733	1796.19
381.958	1912.19
382.184	1748.19
382.409	1698.19
382.634	1719.19
382.86	1731.19
383.085	1720.19
383.31	1788.19
383.535	1895.19
383.761	1993.19
383.986	1944.19
384.211	1842.19
384.436	1842.19
384.662	1868.19
384.887	1982.19
385.112	1912.19
385.337	1913.19
385.562	1871.19
385.787	1897.19
386.013	1917.19
386.238	1952.19
386.463	1952.19
386.688	2046.19
386.913	2172.19
387.138	2183.19
387.363	1937.19
387.588	1939.19
387.813	1935.19
388.038	1954.19
388.263	2027.19
388.488	1976.19
388.713	1862.19
388.938	1803.19
389.163	1822.19
389.387	1919.19
389.612	1899.19
389.837	1924.19
390.062	1914.19
390.287	1904.19
390.512	1896.19
390.736	1891.19
390.961	1854.19
391.186	1790.19
391.411	1828.19
391.636	1889.19
391.86	1927.19
392.085	1893.19
392.31	1854.19
392.534	1893.19
392.759	1906.19
392.984	1936.19
393.208	1908.19
393.433	1970.19
393.658	2021.19
393.882	2066.19
394.107	1919.19
394.331	1879.19
394.556	1864.19
394.78	1911.19
395.005	1929.19
395.229	2053.19
395.454	2128.19
395.678	2130.19
395.903	2122.19
396.127	2018.19
396.352	2005.19
396.576	2058.19
396.801	2098.19
397.025	2078.19
397.249	2098.19
397.474	2038.19
397.698	2040.19
397.922	2105.19
398.147	2180.19
398.371	2234.19
398.595	2252.19
398.82	2209.19
399.044	2240.19
399.268	2274.19
399.492	2445.19
399.717	2544.19
399.941	2548.19
400.165	2450.19
400.389	2434.19
400.613	2406.19
400.837	2660.19
401.062	2967.19
401.286	2576.19
401.51	2395.19
401.734	2510.19
401.958	2348.19
402.182	2253.19
402.406	2178.19
402.63	2162.19
402.854	2134.19
403.078	2144.19
403.302	2218.19
403.526	2267.19
403.75	2217.19
403.974	2281.19
404.198	2254.19
404.422	2295.19
404.645	2405.19
404.869	2412.19
405.093	2179.19
405.317	2214.19
405.541	2244.19
405.765	2296.19
405.988	2240.19
406.212	2286.19
406.436	2344.19
406.66	2421.19
406.883	2390.19
407.107	2676.19
407.331	2904.19
407.555	3141.19
407.778	2915.19
408.002	2444.19
408.226	2371.19
408.449	2401.19
408.673	2285.19
408.896	2315.19
409.12	2364.19
409.344	2310.19
409.567	2249.19
409.791	2290.19
410.014	2274.19
410.238	2427.19
410.461	2514.19
410.685	2287.19
410.908	2165.19
411.132	2261.19
411.355	2226.19
411.578	2202.19
411.802	2228.19
412.025	2265.19
412.249	2143.19
412.472	2154.19
412.695	2117.19
412.919	2153.19
413.142	2133.19
413.365	2226.19
413.589	2249.19
413.812	2261.19
414.035	2379.19
414.258	2188.19
414.482	2134.19
414.705	2139.19
414.928	2136.19
415.151	2097.19
415.374	2156.19
415.597	2178.19
415.821	2210.19
416.044	2297.19
416.267	2320.19
416.49	2047.19
416.713	2014.19
416.936	2103.19
417.159	2211.19
417.382	2242.19
417.605	2088.19
417.828	2158.19
418.051	2199.19
418.274	2136.19
418.497	2082.19
418.72	2123.19
418.943	2090.19
419.166	2198.19
419.389	2299.19
419.611	2176.19
419.834	2176.19
420.057	2173.19
420.28	2102.19
420.503	2073.19
420.726	2110.19
420.948	2098.19
421.171	2042.19
421.394	2056.19
421.617	2120.19
421.839	2144.19
422.062	2094.19
422.285	2036.19
422.507	2098.19
422.73	2012.19
422.953	1997.19
423.175	1974.19
423.398	2043.19
423.621	2060.19
423.843	2059.19
424.066	2118.19
424.288	2166.19
424.511	2246.19
424.733	2131.19
424.956	1947.19
425.178	1966.19
425.401	1994.19
425.623	1961.19
425.846	1917.19
426.068	2084.19
426.291	2153.19
426.513	2089.19
426.735	2093.19
426.958	2227.19
427.18	2388.19
427.402	2182.19
427.625	2243.19
427.847	2255.19
428.069	2109.19
428.292	1992.19
428.514	1952.19
428.736	1966.19
428.958	1976.19
429.181	2035.19
429.403	2273.19
429.625	2826.19
429.847	2449.19
430.069	2066.19
430.292	2237.19
430.514	2358.19
430.736	2204.19
430.958	2262.19
431.18	2194.19
431.402	2047.19
431.624	1980.19
431.846	2004.19
432.068	1975.19
432.29	1987.19
432.512	2050.19
432.734	2041.19
432.956	2057.19
433.178	2133.19
433.4	2164.19
433.622	2167.19
433.844	2045.19
434.066	2042.19
434.287	1962.19
434.509	2080.19
434.731	2160.19
434.953	2291.19
435.175	2225.19
435.397	2151.19
435.618	2115.19
435.84	2113.19
436.062	2079.19
436.284	2085.19
436.505	2103.19
436.727	2178.19
436.949	2075.19
437.17	2037.19
437.392	2032.19
437.614	2036.19
437.835	1969.19
438.057	2078.19
438.278	2187.19
438.5	2056.19
438.721	1979.19
438.943	2030.19
439.165	2007.19
439.386	1923.19
439.608	1974.19
439.829	1987.19
440.05	2004.19
440.272	1976.19
440.493	1930.19
440.715	1999.19
440.936	2119.19
441.158	2326.19
441.379	2274.19
441.6	2198.19
441.822	2123.19
442.043	2139.19
442.264	2083.19
442.486	1995.19
442.707	1980.19
442.928	1986.19
443.149	2098.19
443.371	2228.19
443.592	2256.19
443.813	2235.19
444.034	2184.19
444.255	2222.19
444.476	2252.19
444.698	2306.19
444.919	2276.19
445.14	2334.19
445.361	2312.19
445.582	2418.19
445.803	2246.19
446.024	2170.19
446.245	2255.19
446.466	2162.19
446.687	2082.19
446.908	2100.19
447.129	2030.19
447.35	2066.19
447.571	2050.19
447.792	1961.19
448.013	1963.19
448.234	1992.19
448.455	2098.19
448.675	2090.19
448.896	1943.19
449.117	1878.19
449.338	1980.19
449.559	2059.19
449.779	2129.19
450	2354.19
450.221	2506.19
450.442	2436.19
450.662	2172.19
450.883	1922.19
451.104	1863.19
451.324	1913.19
451.545	1978.19
451.766	1917.19
451.986	1873.19
452.207	1844.19
452.428	1822.19
452.648	1728.19
452.869	1863.19
453.089	1938.19
453.31	1954.19
453.53	2032.19
453.751	1928.19
453.971	1800.19
454.192	1898.19
454.412	1998.19
454.633	1927.19
454.853	1871.19
455.073	1752.19
455.294	1751.19
455.514	1746.19
455.734	1790.19
455.955	1826.19
456.175	1769.19
456.395	1816.19
456.616	1849.19
456.836	1881.19
457.056	1833.19
457.276	1847.19
457.497	1739.19
457.717	1717.19
457.937	1780.19
458.157	1820.19
458.377	1764.19
458.598	1803.19
458.818	1822.19
459.038	1887.19
459.258	2048.19
459.478	2036.19
459.698	1939.19
459.918	1991.19
460.138	2107.19
460.358	2103.19
460.578	2157.19
460.798	2179.19
461.018	2357.19
461.238	2256.19
461.458	2118.19
461.678	2146.19
461.898	2076.19
462.118	2043.19
462.338	2123.19
462.558	2135.19
462.777	2146.19
462.997	2254.19
463.217	2373.19
463.437	2394.19
463.657	2202.19
463.876	2171.19
464.096	2133.19
464.316	2146.19
464.536	2215.19
464.755	2228.19
464.975	2267.19
465.195	2165.19
465.414	2295.19
465.634	2280.19
465.854	2122.19
466.073	2261.19
466.293	2202.19
466.512	1990.19
466.732	1960.19
466.951	2036.19
467.171	2014.19
467.391	1919.19
467.61	1895.19
467.829	1963.19
468.049	2058.19
468.268	2280.19
468.488	2200.19
468.707	2025.19
468.927	2012.19
469.146	1961.19
469.365	1907.19
469.585	1977.19
469.804	1944.19
470.023	1934.19
470.243	1967.19
470.462	1915.19
470.681	1894.19
470.901	1985.19
471.12	1975.19
471.339	1938.19
471.558	1895.19
471.777	1910.19
471.997	1895.19
472.216	1891.19
472.435	1830.19
472.654	1899.19
472.873	1960.19
473.092	2086.19
473.311	2017.19
473.53	1865.19
473.749	1869.19
473.968	1886.19
474.187	2031.19
474.406	2138.19
474.625	2023.19
474.844	1990.19
475.063	1968.19
475.282	2026.19
475.501	1974.19
475.72	1970.19
475.939	2104.19
476.158	2023.19
476.377	1987.19
476.596	1988.19
476.814	2042.19
477.033	2011.19
477.252	2150.19
477.471	2178.19
477.69	2076.19
477.908	2046.19
478.127	2176.19
478.346	2376.19
478.564	2391.19
478.783	2321.19
479.002	2404.19
479.22	2306.19
479.439	2398.19
479.658	2791.19
479.876	2706.19
480.095	2379.19
480.313	2255.19
480.532	2174.19
480.751	2209.19
480.969	2280.19
481.188	2236.19
481.406	2212.19
481.624	2120.19
481.843	2130.19
482.061	2238.19
482.28	2279.19
482.498	2288.19
482.717	2291.19
482.935	2133.19
483.153	2163.19
483.372	2188.19
483.59	2198.19
483.808	2177.19
484.027	2243.19
484.245	2372.19
484.463	2677.19
484.681	3102.19
484.9	2412.19
485.118	2277.19
485.336	2198.19
485.554	2296.19
485.772	2427.19
485.99	2379.19
486.209	2388.19
486.427	2364.19
486.645	2333.19
486.863	2306.19
487.081	2348.19
487.299	2431.19
487.517	2387.19
