Data from WStandard_LampEnergy10_LIBS07252019.E.O._I.C._HRD10591_15-53-57-928.txt Node
Date: Thu Jul 25 15:53:57 EDT 2019
User: cochatt
Spectrometer: HR+D1059
Trigger mode: 1
Integration Time (sec): 1.000000E-1
Scans to average: 1
Electric dark correction enabled: true
Nonlinearity correction enabled: false
Boxcar width: 0
XAxis mode: Wavelengths
Number of Pixels in Spectrum: 2048
>>>>>Begin Spectral Data<<<<<
223.165	-28.31
223.4	-28.31
223.635	-28.31
223.869	-23.31
224.104	-22.31
224.338	-14.31
224.573	-7.31
224.808	-10.31
225.042	-0.31
225.277	-3.31
225.511	-12.31
225.746	-1.31
225.98	12.69
226.215	19.69
226.449	3.69
226.683	26.69
226.918	25.69
227.152	34.69
227.387	21.69
227.621	41.69
227.856	29.69
228.09	36.69
228.324	66.69
228.559	48.69
228.793	98.69
229.027	146.69
229.262	140.69
229.496	148.69
229.73	146.69
229.964	177.69
230.199	180.69
230.433	178.69
230.667	188.69
230.901	177.69
231.136	178.69
231.37	178.69
231.604	180.69
231.838	175.69
232.072	166.69
232.306	166.69
232.541	185.69
232.775	189.69
233.009	200.69
233.243	202.69
233.477	183.69
233.711	204.69
233.945	209.69
234.179	196.69
234.413	234.69
234.647	218.69
234.881	210.69
235.115	188.69
235.349	189.69
235.583	200.69
235.817	187.69
236.051	203.69
236.285	203.69
236.519	191.69
236.753	229.69
236.987	221.69
237.221	212.69
237.455	228.69
237.689	246.69
237.922	208.69
238.156	221.69
238.39	219.69
238.624	223.69
238.858	253.69
239.091	256.69
239.325	267.69
239.559	301.69
239.793	296.69
240.027	321.69
240.26	298.69
240.494	228.69
240.728	231.69
240.961	228.69
241.195	242.69
241.429	258.69
241.662	256.69
241.896	250.69
242.13	244.69
242.363	277.69
242.597	289.69
242.83	277.69
243.064	287.69
243.298	307.69
243.531	278.69
243.765	279.69
243.998	278.69
244.232	261.69
244.465	243.69
244.699	254.69
244.932	287.69
245.166	329.69
245.399	318.69
245.633	273.69
245.866	281.69
246.099	292.69
246.333	298.69
246.566	297.69
246.8	308.69
247.033	329.69
247.266	309.69
247.5	309.69
247.733	325.69
247.966	332.69
248.2	357.69
248.433	361.69
248.666	387.69
248.899	390.69
249.133	437.69
249.366	466.69
249.599	394.69
249.832	369.69
250.066	375.69
250.299	363.69
250.532	352.69
250.765	341.69
250.998	335.69
251.231	354.69
251.465	373.69
251.698	324.69
251.931	344.69
252.164	349.69
252.397	346.69
252.63	372.69
252.863	324.69
253.096	315.69
253.329	357.69
253.562	376.69
253.795	363.69
254.028	356.69
254.261	343.69
254.494	344.69
254.727	348.69
254.96	365.69
255.193	379.69
255.426	402.69
255.659	466.69
255.892	450.69
256.124	396.69
256.357	407.69
256.59	408.69
256.823	409.69
257.056	454.69
257.289	487.69
257.521	507.69
257.754	459.69
257.987	452.69
258.22	484.69
258.452	454.69
258.685	386.69
258.918	410.69
259.151	392.69
259.383	370.69
259.616	363.69
259.849	382.69
260.081	424.69
260.314	415.69
260.547	471.69
260.779	496.69
261.012	437.69
261.244	405.69
261.477	394.69
261.71	438.69
261.942	419.69
262.175	394.69
262.407	414.69
262.64	378.69
262.872	363.69
263.105	370.69
263.337	384.69
263.57	374.69
263.802	384.69
264.035	355.69
264.267	334.69
264.499	345.69
264.732	376.69
264.964	410.69
265.197	398.69
265.429	424.69
265.661	452.69
265.894	492.69
266.126	491.69
266.358	470.69
266.591	453.69
266.823	521.69
267.055	462.69
267.287	445.69
267.52	445.69
267.752	461.69
267.984	443.69
268.216	452.69
268.448	478.69
268.681	473.69
268.913	429.69
269.145	418.69
269.377	429.69
269.609	484.69
269.841	518.69
270.073	575.69
270.306	644.69
270.538	642.69
270.77	566.69
271.002	468.69
271.234	474.69
271.466	485.69
271.698	530.69
271.93	585.69
272.162	582.69
272.394	541.69
272.626	513.69
272.858	451.69
273.09	424.69
273.322	412.69
273.553	409.69
273.785	409.69
274.017	444.69
274.249	449.69
274.481	424.69
274.713	418.69
274.945	415.69
275.176	411.69
275.408	418.69
275.64	417.69
275.872	406.69
276.104	434.69
276.335	492.69
276.567	550.69
276.799	527.69
277.031	502.69
277.262	473.69
277.494	481.69
277.726	520.69
277.957	512.69
278.189	459.69
278.421	435.69
278.652	451.69
278.884	438.69
279.115	434.69
279.347	450.69
279.579	439.69
279.81	460.69
280.042	500.69
280.273	542.69
280.505	516.69
280.736	521.69
280.968	481.69
281.199	458.69
281.431	429.69
281.662	428.69
281.894	410.69
282.125	440.69
282.356	463.69
282.588	468.69
282.819	477.69
283.051	498.69
283.282	514.69
283.513	483.69
283.745	434.69
283.976	441.69
284.207	419.69
284.439	456.69
284.67	467.69
284.901	467.69
285.132	467.69
285.364	433.69
285.595	452.69
285.826	441.69
286.057	452.69
286.288	445.69
286.52	460.69
286.751	510.69
286.982	524.69
287.213	469.69
287.444	436.69
287.675	441.69
287.906	498.69
288.138	486.69
288.369	460.69
288.6	440.69
288.831	449.69
289.062	454.69
289.293	453.69
289.524	449.69
289.755	471.69
289.986	461.69
290.217	427.69
290.448	419.69
290.679	484.69
290.91	468.69
291.141	472.69
291.371	461.69
291.602	498.69
291.833	491.69
292.064	472.69
292.295	499.69
292.526	488.69
292.757	508.69
292.987	465.69
293.218	488.69
293.449	540.69
293.68	578.69
293.91	590.69
294.141	577.69
294.372	546.69
294.603	562.69
294.833	570.69
295.064	554.69
295.295	503.69
295.525	470.69
295.756	480.69
295.987	428.69
296.217	462.69
296.448	472.69
296.679	460.69
296.909	460.69
297.14	456.69
297.37	480.69
297.601	514.69
297.831	522.69
298.062	512.69
298.292	475.69
298.523	485.69
298.753	480.69
298.984	489.69
299.214	510.69
299.445	497.69
299.675	509.69
299.905	487.69
300.136	484.69
300.366	469.69
300.597	460.69
300.827	470.69
301.057	474.69
301.288	486.69
301.518	528.69
301.748	530.69
301.979	534.69
302.209	558.69
302.439	562.69
302.669	597.69
302.9	531.69
303.13	522.69
303.36	512.69
303.59	509.69
303.82	541.69
304.051	518.69
304.281	508.69
304.511	537.69
304.741	557.69
304.971	635.69
305.201	638.69
305.431	571.69
305.661	480.69
305.891	461.69
306.121	471.69
306.352	473.69
306.582	490.69
306.812	542.69
307.042	560.69
307.272	602.69
307.502	613.69
307.731	625.69
307.961	658.69
308.191	598.69
308.421	542.69
308.651	485.69
308.881	494.69
309.111	490.69
309.341	502.69
309.571	491.69
309.8	503.69
310.03	498.69
310.26	526.69
310.49	497.69
310.72	504.69
310.949	534.69
311.179	525.69
311.409	515.69
311.639	496.69
311.868	509.69
312.098	522.69
312.328	508.69
312.557	520.69
312.787	509.69
313.017	526.69
313.246	526.69
313.476	526.69
313.706	543.69
313.935	544.69
314.165	529.69
314.394	560.69
314.624	608.69
314.853	631.69
315.083	624.69
315.312	643.69
315.542	603.69
315.771	532.69
316.001	562.69
316.23	589.69
316.46	566.69
316.689	574.69
316.919	547.69
317.148	516.69
317.377	555.69
317.607	561.69
317.836	634.69
318.065	634.69
318.295	629.69
318.524	597.69
318.753	581.69
318.983	569.69
319.212	567.69
319.441	570.69
319.67	558.69
319.9	584.69
320.129	589.69
320.358	633.69
320.587	627.69
320.816	630.69
321.046	614.69
321.275	589.69
321.504	624.69
321.733	630.69
321.962	596.69
322.191	568.69
322.42	556.69
322.649	524.69
322.878	565.69
323.108	574.69
323.337	586.69
323.566	585.69
323.795	582.69
324.024	591.69
324.253	579.69
324.482	582.69
324.71	547.69
324.939	544.69
325.168	568.69
325.397	571.69
325.626	582.69
325.855	583.69
326.084	545.69
326.313	592.69
326.542	581.69
326.77	587.69
326.999	564.69
327.228	560.69
327.457	541.69
327.686	542.69
327.914	563.69
328.143	557.69
328.372	549.69
328.6	553.69
328.829	571.69
329.058	537.69
329.287	562.69
329.515	571.69
329.744	582.69
329.972	617.69
330.201	640.69
330.43	644.69
330.658	598.69
330.887	615.69
331.115	598.69
331.344	620.69
331.572	609.69
331.801	582.69
332.03	612.69
332.258	611.69
332.486	594.69
332.715	609.69
332.943	593.69
333.172	619.69
333.4	634.69
333.629	641.69
333.857	697.69
334.085	752.69
334.314	807.69
334.542	841.69
334.771	774.69
334.999	695.69
335.227	654.69
335.455	662.69
335.684	665.69
335.912	660.69
336.14	666.69
336.369	635.69
336.597	603.69
336.825	606.69
337.053	615.69
337.281	669.69
337.51	710.69
337.738	695.69
337.966	648.69
338.194	611.69
338.422	612.69
338.65	588.69
338.878	602.69
339.106	580.69
339.334	590.69
339.562	570.69
339.79	591.69
340.018	621.69
340.246	661.69
340.474	634.69
340.702	606.69
340.93	634.69
341.158	612.69
341.386	614.69
341.614	618.69
341.842	616.69
342.07	607.69
342.298	606.69
342.526	602.69
342.754	589.69
342.981	597.69
343.209	581.69
343.437	608.69
343.665	619.69
343.893	637.69
344.12	646.69
344.348	647.69
344.576	628.69
344.804	571.69
345.031	612.69
345.259	594.69
345.487	584.69
345.714	581.69
345.942	550.69
346.17	580.69
346.397	586.69
346.625	573.69
346.853	528.69
347.08	536.69
347.308	549.69
347.535	590.69
347.763	576.69
347.99	546.69
348.218	560.69
348.445	571.69
348.673	568.69
348.9	608.69
349.128	604.69
349.355	602.69
349.583	602.69
349.81	562.69
350.037	546.69
350.265	544.69
350.492	532.69
350.72	589.69
350.947	603.69
351.174	588.69
351.402	567.69
351.629	537.69
351.856	534.69
352.083	524.69
352.311	565.69
352.538	584.69
352.765	587.69
352.992	573.69
353.22	550.69
353.447	545.69
353.674	570.69
353.901	581.69
354.128	553.69
354.355	586.69
354.583	586.69
354.81	585.69
355.037	585.69
355.264	574.69
355.491	594.69
355.718	586.69
355.945	561.69
356.172	563.69
356.399	572.69
356.626	564.69
356.853	592.69
357.08	646.69
357.307	690.69
357.534	621.69
357.761	594.69
357.988	562.69
358.215	561.69
358.441	569.69
358.668	529.69
358.895	556.69
359.122	605.69
359.349	662.69
359.576	621.69
359.802	560.69
360.029	566.69
360.256	570.69
360.483	569.69
360.709	593.69
360.936	596.69
361.163	633.69
361.39	690.69
361.616	726.69
361.843	684.69
362.07	647.69
362.296	576.69
362.523	566.69
362.749	572.69
362.976	592.69
363.203	591.69
363.429	541.69
363.656	568.69
363.882	582.69
364.109	664.69
364.335	676.69
364.562	634.69
364.788	607.69
365.015	570.69
365.241	536.69
365.468	580.69
365.694	610.69
365.92	609.69
366.147	580.69
366.373	551.69
366.599	577.69
366.826	569.69
367.052	578.69
367.278	584.69
367.505	601.69
367.731	599.69
367.957	611.69
368.184	637.69
368.41	680.69
368.636	713.69
368.862	682.69
369.089	670.69
369.315	646.69
369.541	611.69
369.767	606.69
369.993	605.69
370.219	595.69
370.445	604.69
370.672	659.69
370.898	682.69
371.124	641.69
371.35	640.69
371.576	658.69
371.802	685.69
372.028	621.69
372.254	626.69
372.48	585.69
372.706	626.69
372.932	600.69
373.158	624.69
373.384	662.69
373.61	638.69
373.835	645.69
374.061	634.69
374.287	640.69
374.513	635.69
374.739	676.69
374.965	632.69
375.191	677.69
375.416	637.69
375.642	666.69
375.868	734.69
376.094	705.69
376.319	688.69
376.545	627.69
376.771	675.69
376.997	714.69
377.222	684.69
377.448	667.69
377.674	665.69
377.899	666.69
378.125	718.69
378.35	705.69
378.576	650.69
378.802	628.69
379.027	641.69
379.253	640.69
379.478	629.69
379.704	645.69
379.929	633.69
380.155	680.69
380.38	660.69
380.606	661.69
380.831	690.69
381.057	701.69
381.282	670.69
381.507	701.69
381.733	767.69
381.958	778.69
382.184	702.69
382.409	663.69
382.634	664.69
382.86	686.69
383.085	688.69
383.31	717.69
383.535	792.69
383.761	811.69
383.986	768.69
384.211	719.69
384.436	739.69
384.662	788.69
384.887	777.69
385.112	770.69
385.337	754.69
385.562	760.69
385.787	742.69
386.013	792.69
386.238	782.69
386.463	810.69
386.688	831.69
386.913	878.69
387.138	818.69
387.363	804.69
387.588	774.69
387.813	784.69
388.038	807.69
388.263	833.69
388.488	764.69
388.713	736.69
388.938	743.69
389.163	734.69
389.387	747.69
389.612	727.69
389.837	744.69
390.062	759.69
390.287	773.69
390.512	748.69
390.736	753.69
390.961	741.69
391.186	729.69
391.411	752.69
391.636	779.69
391.86	768.69
392.085	774.69
392.31	762.69
392.534	769.69
392.759	760.69
392.984	772.69
393.208	778.69
393.433	819.69
393.658	808.69
393.882	832.69
394.107	796.69
394.331	760.69
394.556	771.69
394.78	807.69
395.005	813.69
395.229	855.69
395.454	864.69
395.678	883.69
395.903	831.69
396.127	811.69
396.352	838.69
396.576	831.69
396.801	828.69
397.025	835.69
397.249	844.69
397.474	839.69
397.698	825.69
397.922	861.69
398.147	895.69
398.371	908.69
398.595	929.69
398.82	886.69
399.044	907.69
399.268	949.69
399.492	966.69
399.717	1004.69
399.941	1003.69
400.165	962.69
400.389	967.69
400.613	998.69
400.837	1129.69
401.062	1188.69
401.286	1053.69
401.51	1000.69
401.734	1004.69
401.958	966.69
402.182	916.69
402.406	889.69
402.63	892.69
402.854	884.69
403.078	894.69
403.302	893.69
403.526	919.69
403.75	938.69
403.974	946.69
404.198	955.69
404.422	993.69
404.645	1020.69
404.869	965.69
405.093	926.69
405.317	910.69
405.541	946.69
405.765	949.69
405.988	938.69
406.212	971.69
406.436	972.69
406.66	1020.69
406.883	1028.69
407.107	1144.69
407.331	1238.69
407.555	1268.69
407.778	1158.69
408.002	1010.69
408.226	938.69
408.449	965.69
408.673	930.69
408.896	944.69
409.12	968.69
409.344	974.69
409.567	921.69
409.791	955.69
410.014	971.69
410.238	1036.69
410.461	1057.69
410.685	972.69
410.908	962.69
411.132	930.69
411.355	963.69
411.578	953.69
411.802	951.69
412.025	953.69
412.249	969.69
412.472	934.69
412.695	935.69
412.919	908.69
413.142	929.69
413.365	935.69
413.589	953.69
413.812	1009.69
414.035	1040.69
414.258	953.69
414.482	920.69
414.705	940.69
414.928	964.69
415.151	915.69
415.374	924.69
415.597	941.69
415.821	915.69
416.044	962.69
416.267	943.69
416.49	913.69
416.713	964.69
416.936	980.69
417.159	982.69
417.382	987.69
417.605	936.69
417.828	952.69
418.051	948.69
418.274	931.69
418.497	931.69
418.72	952.69
418.943	950.69
419.166	951.69
419.389	984.69
419.611	961.69
419.834	970.69
420.057	964.69
420.28	931.69
420.503	964.69
420.726	954.69
420.948	952.69
421.171	914.69
421.394	941.69
421.617	972.69
421.839	1014.69
422.062	993.69
422.285	952.69
422.507	960.69
422.73	893.69
422.953	896.69
423.175	884.69
423.398	931.69
423.621	926.69
423.843	954.69
424.066	993.69
424.288	1016.69
424.511	1044.69
424.733	1042.69
424.956	952.69
425.178	934.69
425.401	955.69
425.623	940.69
425.846	939.69
426.068	981.69
426.291	958.69
426.513	947.69
426.735	984.69
426.958	1072.69
427.18	1062.69
427.402	1000.69
427.625	1018.69
427.847	1006.69
428.069	914.69
428.292	937.69
428.514	921.69
428.736	907.69
428.958	929.69
429.181	944.69
429.403	1091.69
429.625	1243.69
429.847	1060.69
430.069	969.69
430.292	1062.69
430.514	1008.69
430.736	994.69
430.958	992.69
431.18	953.69
431.402	916.69
431.624	845.69
431.846	810.69
432.068	709.69
432.29	764.69
432.512	796.69
432.734	911.69
432.956	914.69
433.178	971.69
433.4	972.69
433.622	958.69
433.844	904.69
434.066	842.69
434.287	808.69
434.509	771.69
434.731	823.69
434.953	897.69
435.175	954.69
435.397	927.69
435.618	907.69
435.84	844.69
436.062	859.69
436.284	892.69
436.505	936.69
436.727	974.69
436.949	918.69
437.17	927.69
437.392	905.69
437.614	857.69
437.835	820.69
438.057	827.69
438.278	842.69
438.5	862.69
438.721	909.69
438.943	954.69
439.165	929.69
439.386	939.69
439.608	958.69
439.829	979.69
440.05	949.69
440.272	948.69
440.493	949.69
440.715	967.69
440.936	1040.69
441.158	1073.69
441.379	1048.69
441.6	1029.69
441.822	1006.69
442.043	1009.69
442.264	1003.69
442.486	944.69
442.707	953.69
442.928	985.69
443.149	965.69
443.371	1026.69
443.592	1035.69
443.813	1018.69
444.034	1021.69
444.255	1019.69
444.476	1012.69
444.698	1039.69
444.919	1065.69
445.14	1130.69
445.361	1098.69
445.582	1108.69
445.803	1096.69
446.024	1066.69
446.245	1088.69
446.466	1083.69
446.687	1052.69
446.908	1086.69
447.129	1020.69
447.35	1032.69
447.571	1008.69
447.792	965.69
448.013	987.69
448.234	990.69
448.455	1012.69
448.675	972.69
448.896	932.69
449.117	933.69
449.338	934.69
449.559	976.69
449.779	1001.69
450	1042.69
450.221	1056.69
450.442	1026.69
450.662	962.69
450.883	905.69
451.104	906.69
451.324	893.69
451.545	884.69
451.766	888.69
451.986	853.69
452.207	839.69
452.428	818.69
452.648	811.69
452.869	789.69
453.089	789.69
453.31	765.69
453.53	765.69
453.751	728.69
453.971	707.69
454.192	736.69
454.412	788.69
454.633	790.69
454.853	813.69
455.073	761.69
455.294	754.69
455.514	744.69
455.734	749.69
455.955	762.69
456.175	736.69
456.395	756.69
456.616	756.69
456.836	747.69
457.056	754.69
457.276	751.69
457.497	710.69
457.717	718.69
457.937	715.69
458.157	718.69
458.377	730.69
458.598	701.69
458.818	681.69
459.038	672.69
459.258	739.69
459.478	706.69
459.698	712.69
459.918	737.69
460.138	799.69
460.358	866.69
460.578	842.69
460.798	866.69
461.018	902.69
461.238	892.69
461.458	856.69
461.678	845.69
461.898	813.69
462.118	804.69
462.338	861.69
462.558	869.69
462.777	877.69
462.997	862.69
463.217	888.69
463.437	914.69
463.657	866.69
463.876	838.69
464.096	866.69
464.316	868.69
464.536	884.69
464.755	901.69
464.975	916.69
465.195	888.69
465.414	894.69
465.634	883.69
465.854	905.69
466.073	995.69
466.293	954.69
466.512	883.69
466.732	886.69
466.951	905.69
467.171	913.69
467.391	885.69
467.61	885.69
467.829	909.69
468.049	977.69
468.268	1028.69
468.488	965.69
468.707	940.69
468.927	949.69
469.146	901.69
469.365	895.69
469.585	939.69
469.804	932.69
470.023	960.69
470.243	956.69
470.462	965.69
470.681	924.69
470.901	937.69
471.12	951.69
471.339	940.69
471.558	924.69
471.777	932.69
471.997	882.69
472.216	866.69
472.435	791.69
472.654	777.69
472.873	787.69
473.092	854.69
473.311	831.69
473.53	844.69
473.749	826.69
473.968	867.69
474.187	855.69
474.406	869.69
474.625	872.69
474.844	897.69
475.063	909.69
475.282	857.69
475.501	848.69
475.72	854.69
475.939	904.69
476.158	895.69
476.377	874.69
476.596	856.69
476.814	822.69
477.033	838.69
477.252	866.69
477.471	917.69
477.69	954.69
477.908	950.69
478.127	994.69
478.346	1037.69
478.564	1016.69
478.783	998.69
479.002	1026.69
479.22	1016.69
479.439	1053.69
479.658	1080.69
479.876	994.69
480.095	915.69
480.313	896.69
480.532	889.69
480.751	858.69
480.969	837.69
481.188	807.69
481.406	818.69
481.624	783.69
481.843	769.69
482.061	839.69
482.28	882.69
482.498	918.69
482.717	868.69
482.935	877.69
483.153	1011.69
483.372	1044.69
483.59	1025.69
483.808	996.69
484.027	980.69
484.245	985.69
484.463	1226.69
484.681	1304.69
484.9	1051.69
485.118	973.69
485.336	938.69
485.554	912.69
485.772	892.69
485.99	880.69
486.209	925.69
486.427	932.69
486.645	924.69
486.863	996.69
487.081	1074.69
487.299	1022.69
487.517	1017.69
487.735	1115.69
487.953	1196.69
488.171	1199.69
488.389	1156.69
488.607	1075.69
488.825	1108.69
489.043	1068.69
489.261	976.69
489.479	1034.69
489.696	1059.69
489.914	1053.69
490.132	1061.69
490.35	1127.69
490.568	1162.69
490.786	1182.69
491.003	1221.69
491.221	1285.69
491.439	1281.69
491.657	1325.69
491.874	1361.69
492.092	1458.69
492.31	1523.69
492.527	1474.69
492.745	1402.69
492.963	1359.69
493.18	1303.69
493.398	1357.69
493.615	1362.69
493.833	1284.69
494.05	1248.69
494.268	1276.69
494.485	1272.69
494.703	1231.69
494.92	1209.69
495.138	1276.69
495.355	1286.69
495.573	1308.69
495.79	1308.69
496.008	1299.69
496.225	1245.69
496.442	1241.69
496.66	1261.69
496.877	1262.69
497.094	1226.69
497.312	1258.69
497.529	1228.69
497.746	1232.69
497.963	1298.69
498.181	1311.69
498.398	1253.69
498.615	1200.69
498.832	1190.69
499.049	1157.69
499.267	1196.69
499.484	1270.69
499.701	1365.69
499.918	1372.69
500.135	1498.69
