Data from WStandard_LampEnergy5.5LIBS07252019.E.O._I.C._HRD10591_16-08-13-920.txt Node
Date: Thu Jul 25 16:08:13 EDT 2019
User: cochatt
Spectrometer: HR+D1059
Trigger mode: 1
Integration Time (sec): 1.000000E-1
Scans to average: 1
Electric dark correction enabled: true
Nonlinearity correction enabled: false
Boxcar width: 0
XAxis mode: Wavelengths
Number of Pixels in Spectrum: 2048
>>>>>Begin Spectral Data<<<<<
223.165	-19.12
223.4	-19.12
223.635	-19.12
223.869	-14.12
224.104	-22.12
224.338	-7.12
224.573	-9.12
224.808	-12.12
225.042	-9.12
225.277	-7.12
225.511	-9.12
225.746	-0.12
225.98	-1.12
226.215	16.88
226.449	15.88
226.683	14.88
226.918	32.88
227.152	29.88
227.387	36.88
227.621	32.88
227.856	38.88
228.09	29.88
228.324	63.88
228.559	52.88
228.793	152.88
229.027	356.88
229.262	378.88
229.496	376.88
229.73	384.88
229.964	442.88
230.199	456.88
230.433	478.88
230.667	499.88
230.901	532.88
231.136	464.88
231.37	473.88
231.604	447.88
231.838	469.88
232.072	468.88
232.306	440.88
232.541	477.88
232.775	548.88
233.009	598.88
233.243	581.88
233.477	525.88
233.711	537.88
233.945	548.88
234.179	556.88
234.413	583.88
234.647	633.88
234.881	613.88
235.115	518.88
235.349	537.88
235.583	557.88
235.817	545.88
236.051	527.88
236.285	560.88
236.519	599.88
236.753	665.88
236.987	665.88
237.221	664.88
237.455	750.88
237.689	706.88
237.922	662.88
238.156	658.88
238.39	655.88
238.624	694.88
238.858	736.88
239.091	792.88
239.325	785.88
239.559	892.88
239.793	965.88
240.027	1030.88
240.26	1044.88
240.494	790.88
240.728	736.88
240.961	726.88
241.195	707.88
241.429	815.88
241.662	777.88
241.896	741.88
242.13	752.88
242.363	833.88
242.597	888.88
242.83	866.88
243.064	881.88
243.298	959.88
243.531	945.88
243.765	910.88
243.998	902.88
244.232	808.88
244.465	750.88
244.699	793.88
244.932	886.88
245.166	1036.88
245.399	997.88
245.633	900.88
245.866	887.88
246.099	942.88
246.333	946.88
246.566	966.88
246.8	1046.88
247.033	1134.88
247.266	1105.88
247.5	1066.88
247.733	1040.88
247.966	1113.88
248.2	1232.88
248.433	1164.88
248.666	1221.88
248.899	1324.88
249.133	1549.88
249.366	1734.88
249.599	1429.88
249.832	1218.88
250.066	1258.88
250.299	1305.88
250.532	1213.88
250.765	1063.88
250.998	1152.88
251.231	1189.88
251.465	1252.88
251.698	1148.88
251.931	1152.88
252.164	1190.88
252.397	1248.88
252.63	1245.88
252.863	1106.88
253.096	1090.88
253.329	1153.88
253.562	1166.88
253.795	1256.88
254.028	1262.88
254.261	1169.88
254.494	1172.88
254.727	1079.88
254.96	1176.88
255.193	1239.88
255.426	1413.88
255.659	1605.88
255.892	1670.88
256.124	1389.88
256.357	1305.88
256.59	1412.88
256.823	1426.88
257.056	1424.88
257.289	1697.88
257.521	1920.88
257.754	1710.88
257.987	1606.88
258.22	1773.88
258.452	1706.88
258.685	1399.88
258.918	1375.88
259.151	1381.88
259.383	1329.88
259.616	1140.88
259.849	1243.88
260.081	1392.88
260.314	1538.88
260.547	1709.88
260.779	1716.88
261.012	1602.88
261.244	1418.88
261.477	1357.88
261.71	1416.88
261.942	1410.88
262.175	1359.88
262.407	1465.88
262.64	1368.88
262.872	1299.88
263.105	1247.88
263.337	1269.88
263.57	1269.88
263.802	1317.88
264.035	1218.88
264.267	1117.88
264.499	1122.88
264.732	1196.88
264.964	1278.88
265.197	1366.88
265.429	1385.88
265.661	1542.88
265.894	1733.88
266.126	1779.88
266.358	1556.88
266.591	1609.88
266.823	1858.88
267.055	1630.88
267.287	1564.88
267.52	1530.88
267.752	1559.88
267.984	1541.88
268.216	1629.88
268.448	1680.88
268.681	1606.88
268.913	1528.88
269.145	1433.88
269.377	1392.88
269.609	1490.88
269.841	1746.88
270.073	2021.88
270.306	2268.88
270.538	2435.88
270.77	2035.88
271.002	1724.88
271.234	1675.88
271.466	1640.88
271.698	1822.88
271.93	2192.88
272.162	2188.88
272.394	1964.88
272.626	1890.88
272.858	1654.88
273.09	1420.88
273.322	1410.88
273.553	1368.88
273.785	1364.88
274.017	1458.88
274.249	1560.88
274.481	1566.88
274.713	1447.88
274.945	1412.88
275.176	1430.88
275.408	1396.88
275.64	1352.88
275.872	1344.88
276.104	1457.88
276.335	1641.88
276.567	1900.88
276.799	1900.88
277.031	1691.88
277.262	1598.88
277.494	1670.88
277.726	1780.88
277.957	1831.88
278.189	1657.88
278.421	1530.88
278.652	1468.88
278.884	1466.88
279.115	1468.88
279.347	1565.88
279.579	1438.88
279.81	1460.88
280.042	1603.88
280.273	1774.88
280.505	1734.88
280.736	1812.88
280.968	1686.88
281.199	1460.88
281.431	1440.88
281.662	1423.88
281.894	1417.88
282.125	1463.88
282.356	1488.88
282.588	1539.88
282.819	1516.88
283.051	1602.88
283.282	1777.88
283.513	1768.88
283.745	1502.88
283.976	1411.88
284.207	1412.88
284.439	1473.88
284.67	1452.88
284.901	1521.88
285.132	1572.88
285.364	1506.88
285.595	1545.88
285.826	1496.88
286.057	1480.88
286.288	1516.88
286.52	1560.88
286.751	1619.88
286.982	1721.88
287.213	1589.88
287.444	1445.88
287.675	1405.88
287.906	1512.88
288.138	1670.88
288.369	1596.88
288.6	1528.88
288.831	1489.88
289.062	1466.88
289.293	1513.88
289.524	1498.88
289.755	1572.88
289.986	1598.88
290.217	1445.88
290.448	1467.88
290.679	1527.88
290.91	1533.88
291.141	1559.88
291.371	1660.88
291.602	1608.88
291.833	1598.88
292.064	1638.88
292.295	1587.88
292.526	1634.88
292.757	1733.88
292.987	1631.88
293.218	1509.88
293.449	1628.88
293.68	1865.88
293.91	2003.88
294.141	1854.88
294.372	1742.88
294.603	1776.88
294.833	1917.88
295.064	1809.88
295.295	1650.88
295.525	1574.88
295.756	1455.88
295.987	1430.88
296.217	1428.88
296.448	1465.88
296.679	1482.88
296.909	1492.88
297.14	1501.88
297.37	1478.88
297.601	1612.88
297.831	1705.88
298.062	1690.88
298.292	1589.88
298.523	1516.88
298.753	1495.88
298.984	1542.88
299.214	1528.88
299.445	1550.88
299.675	1601.88
299.905	1628.88
300.136	1557.88
300.366	1536.88
300.597	1494.88
300.827	1495.88
301.057	1518.88
301.288	1622.88
301.518	1591.88
301.748	1628.88
301.979	1720.88
302.209	1761.88
302.439	1889.88
302.669	1977.88
302.9	1828.88
303.13	1671.88
303.36	1623.88
303.59	1682.88
303.82	1645.88
304.051	1603.88
304.281	1636.88
304.511	1660.88
304.741	1699.88
304.971	1860.88
305.201	2064.88
305.431	1951.88
305.661	1586.88
305.891	1447.88
306.121	1454.88
306.352	1498.88
306.582	1596.88
306.812	1662.88
307.042	1803.88
307.272	1789.88
307.502	1863.88
307.731	1977.88
307.961	2157.88
308.191	1991.88
308.421	1693.88
308.651	1598.88
308.881	1568.88
309.111	1586.88
309.341	1562.88
309.571	1564.88
309.8	1550.88
310.03	1588.88
310.26	1513.88
310.49	1532.88
310.72	1590.88
310.949	1620.88
311.179	1664.88
311.409	1698.88
311.639	1615.88
311.868	1550.88
312.098	1607.88
312.328	1619.88
312.557	1598.88
312.787	1626.88
313.017	1619.88
313.246	1654.88
313.476	1648.88
313.706	1687.88
313.935	1689.88
314.165	1648.88
314.394	1743.88
314.624	1812.88
314.853	1921.88
315.083	1998.88
315.312	2056.88
315.542	1955.88
315.771	1716.88
316.001	1685.88
316.23	1775.88
316.46	1795.88
316.689	1730.88
316.919	1670.88
317.148	1640.88
317.377	1620.88
317.607	1712.88
317.836	1989.88
318.065	2013.88
318.295	1926.88
318.524	1855.88
318.753	1800.88
318.983	1799.88
319.212	1743.88
319.441	1701.88
319.67	1710.88
319.9	1729.88
320.129	1802.88
320.358	1829.88
320.587	1952.88
320.816	1946.88
321.046	1846.88
321.275	1788.88
321.504	1762.88
321.733	1934.88
321.962	1913.88
322.191	1763.88
322.42	1728.88
322.649	1691.88
322.878	1724.88
323.108	1744.88
323.337	1804.88
323.566	1760.88
323.795	1741.88
324.024	1745.88
324.253	1753.88
324.482	1772.88
324.71	1682.88
324.939	1611.88
325.168	1648.88
325.397	1715.88
325.626	1755.88
325.855	1765.88
326.084	1738.88
326.313	1710.88
326.542	1739.88
326.77	1802.88
326.999	1819.88
327.228	1764.88
327.457	1633.88
327.686	1667.88
327.914	1688.88
328.143	1709.88
328.372	1722.88
328.6	1711.88
328.829	1725.88
329.058	1660.88
329.287	1694.88
329.515	1704.88
329.744	1721.88
329.972	1836.88
330.201	1897.88
330.43	1851.88
330.658	1812.88
330.887	1800.88
331.115	1804.88
331.344	1810.88
331.572	1820.88
331.801	1809.88
332.03	1807.88
332.258	1803.88
332.486	1829.88
332.715	1826.88
332.943	1847.88
333.172	1776.88
333.4	1829.88
333.629	1871.88
333.857	2007.88
334.085	2170.88
334.314	2440.88
334.542	2654.88
334.771	2474.88
334.999	2190.88
335.227	2062.88
335.455	1955.88
335.684	1937.88
335.912	1968.88
336.14	2057.88
336.369	1990.88
336.597	1877.88
336.825	1829.88
337.053	1900.88
337.281	1976.88
337.51	2047.88
337.738	2168.88
337.966	2032.88
338.194	1897.88
338.422	1820.88
338.65	1838.88
338.878	1807.88
339.106	1742.88
339.334	1732.88
339.562	1720.88
339.79	1680.88
340.018	1833.88
340.246	1918.88
340.474	1909.88
340.702	1831.88
340.93	1886.88
341.158	1866.88
341.386	1811.88
341.614	1804.88
341.842	1768.88
342.07	1837.88
342.298	1822.88
342.526	1784.88
342.754	1759.88
342.981	1741.88
343.209	1757.88
343.437	1755.88
343.665	1784.88
343.893	1815.88
344.12	1901.88
344.348	1904.88
344.576	1877.88
344.804	1774.88
345.031	1753.88
345.259	1820.88
345.487	1758.88
345.714	1682.88
345.942	1674.88
346.17	1650.88
346.397	1697.88
346.625	1700.88
346.853	1659.88
347.08	1580.88
347.308	1614.88
347.535	1634.88
347.763	1743.88
347.99	1726.88
348.218	1628.88
348.445	1655.88
348.673	1681.88
348.9	1700.88
349.128	1771.88
349.355	1889.88
349.583	1776.88
349.81	1697.88
350.037	1578.88
350.265	1559.88
350.492	1553.88
350.72	1661.88
350.947	1654.88
351.174	1714.88
351.402	1625.88
351.629	1571.88
351.856	1522.88
352.083	1540.88
352.311	1553.88
352.538	1614.88
352.765	1692.88
352.992	1746.88
353.22	1670.88
353.447	1608.88
353.674	1626.88
353.901	1665.88
354.128	1621.88
354.355	1574.88
354.583	1638.88
354.81	1741.88
355.037	1711.88
355.264	1680.88
355.491	1666.88
355.718	1698.88
355.945	1696.88
356.172	1600.88
356.399	1567.88
356.626	1604.88
356.853	1680.88
357.08	1769.88
357.307	1954.88
357.534	1948.88
357.761	1742.88
357.988	1573.88
358.215	1567.88
358.441	1586.88
358.668	1583.88
358.895	1532.88
359.122	1670.88
359.349	1853.88
359.576	1856.88
359.802	1644.88
360.029	1575.88
360.256	1574.88
360.483	1605.88
360.709	1644.88
360.936	1693.88
361.163	1744.88
361.39	1898.88
361.616	2048.88
361.843	2019.88
362.07	1893.88
362.296	1669.88
362.523	1594.88
362.749	1659.88
362.976	1682.88
363.203	1702.88
363.429	1653.88
363.656	1549.88
363.882	1662.88
364.109	1767.88
364.335	1949.88
364.562	1907.88
364.788	1706.88
365.015	1680.88
365.241	1599.88
365.468	1648.88
365.694	1731.88
365.92	1778.88
366.147	1716.88
366.373	1629.88
366.599	1609.88
366.826	1585.88
367.052	1594.88
367.278	1591.88
367.505	1661.88
367.731	1678.88
367.957	1692.88
368.184	1749.88
368.41	1824.88
368.636	1865.88
368.862	1869.88
369.089	1864.88
369.315	1772.88
369.541	1755.88
369.767	1678.88
369.993	1645.88
370.219	1616.88
370.445	1676.88
370.672	1796.88
370.898	1851.88
371.124	1856.88
371.35	1743.88
371.576	1789.88
371.802	1840.88
372.028	1759.88
372.254	1720.88
372.48	1644.88
372.706	1672.88
372.932	1684.88
373.158	1687.88
373.384	1671.88
373.61	1729.88
373.835	1829.88
374.061	1766.88
374.287	1750.88
374.513	1725.88
374.739	1704.88
374.965	1746.88
375.191	1765.88
375.416	1777.88
375.642	1767.88
375.868	1829.88
376.094	1935.88
376.319	1872.88
376.545	1722.88
376.771	1779.88
376.997	1822.88
377.222	1829.88
377.448	1791.88
377.674	1808.88
377.899	1783.88
378.125	1858.88
378.35	1912.88
378.576	1718.88
378.802	1702.88
379.027	1669.88
379.253	1705.88
379.478	1712.88
379.704	1734.88
379.929	1736.88
380.155	1704.88
380.38	1705.88
380.606	1720.88
380.831	1728.88
381.057	1798.88
381.282	1822.88
381.507	1778.88
381.733	1873.88
381.958	1999.88
382.184	1810.88
382.409	1776.88
382.634	1829.88
382.86	1793.88
383.085	1769.88
383.31	1838.88
383.535	1951.88
383.761	2086.88
383.986	2017.88
384.211	1953.88
384.436	1926.88
384.662	2028.88
384.887	2091.88
385.112	1996.88
385.337	1986.88
385.562	1971.88
385.787	1964.88
386.013	2022.88
386.238	1985.88
386.463	2007.88
386.688	2082.88
386.913	2290.88
387.138	2192.88
387.363	2076.88
387.588	2031.88
387.813	2004.88
388.038	2033.88
388.263	2072.88
388.488	2015.88
388.713	1892.88
388.938	1912.88
389.163	1898.88
389.387	1942.88
389.612	1948.88
389.837	1998.88
390.062	2008.88
390.287	1994.88
390.512	1991.88
390.736	1956.88
390.961	1927.88
391.186	1849.88
391.411	1909.88
391.636	1931.88
391.86	1968.88
392.085	1913.88
392.31	1916.88
392.534	1975.88
392.759	1982.88
392.984	1951.88
393.208	1975.88
393.433	2006.88
393.658	2098.88
393.882	2120.88
394.107	1999.88
394.331	1991.88
394.556	1943.88
394.78	1987.88
395.005	2024.88
395.229	2114.88
395.454	2288.88
395.678	2249.88
395.903	2157.88
396.127	2045.88
396.352	2082.88
396.576	2157.88
396.801	2160.88
397.025	2162.88
397.249	2167.88
397.474	2133.88
397.698	2089.88
397.922	2167.88
398.147	2246.88
398.371	2322.88
398.595	2342.88
398.82	2223.88
399.044	2294.88
399.268	2388.88
399.492	2546.88
399.717	2645.88
399.941	2675.88
400.165	2583.88
400.389	2509.88
400.613	2453.88
400.837	2711.88
401.062	3188.88
401.286	2688.88
401.51	2476.88
401.734	2559.88
401.958	2503.88
402.182	2342.88
402.406	2259.88
402.63	2189.88
402.854	2220.88
403.078	2259.88
403.302	2309.88
403.526	2317.88
403.75	2358.88
403.974	2332.88
404.198	2355.88
404.422	2381.88
404.645	2500.88
404.869	2484.88
405.093	2312.88
405.317	2246.88
405.541	2327.88
405.765	2374.88
405.988	2324.88
406.212	2375.88
406.436	2401.88
406.66	2469.88
406.883	2503.88
407.107	2785.88
407.331	3034.88
407.555	3278.88
407.778	3082.88
408.002	2540.88
408.226	2452.88
408.449	2486.88
408.673	2392.88
408.896	2388.88
409.12	2422.88
409.344	2364.88
409.567	2348.88
409.791	2333.88
410.014	2399.88
410.238	2504.88
410.461	2686.88
410.685	2395.88
410.908	2300.88
411.132	2342.88
411.355	2336.88
411.578	2286.88
411.802	2269.88
412.025	2352.88
412.249	2305.88
412.472	2222.88
412.695	2178.88
412.919	2220.88
413.142	2200.88
413.365	2252.88
413.589	2245.88
413.812	2368.88
414.035	2450.88
414.258	2247.88
414.482	2203.88
414.705	2227.88
414.928	2247.88
415.151	2222.88
415.374	2213.88
415.597	2266.88
415.821	2309.88
416.044	2357.88
416.267	2373.88
416.49	2170.88
416.713	2133.88
416.936	2252.88
417.159	2325.88
417.382	2367.88
417.605	2176.88
417.828	2242.88
418.051	2318.88
418.274	2215.88
418.497	2172.88
418.72	2169.88
418.943	2119.88
419.166	2294.88
419.389	2432.88
419.611	2216.88
419.834	2163.88
420.057	2217.88
420.28	2183.88
420.503	2173.88
420.726	2191.88
420.948	2205.88
421.171	2118.88
421.394	2137.88
421.617	2265.88
421.839	2195.88
422.062	2151.88
422.285	2091.88
422.507	2139.88
422.73	2094.88
422.953	2058.88
423.175	2104.88
423.398	2134.88
423.621	2141.88
423.843	2121.88
424.066	2190.88
424.288	2242.88
424.511	2254.88
424.733	2251.88
424.956	2077.88
425.178	2030.88
425.401	2080.88
425.623	2115.88
425.846	2084.88
426.068	2191.88
426.291	2243.88
426.513	2226.88
426.735	2191.88
426.958	2276.88
427.18	2433.88
427.402	2252.88
427.625	2340.88
427.847	2316.88
428.069	2213.88
428.292	2076.88
428.514	2054.88
428.736	2046.88
428.958	2094.88
429.181	2077.88
429.403	2353.88
429.625	2912.88
429.847	2566.88
430.069	2103.88
430.292	2350.88
430.514	2451.88
430.736	2232.88
430.958	2369.88
431.18	2246.88
431.402	2073.88
431.624	2060.88
431.846	2042.88
432.068	2037.88
432.29	2031.88
432.512	2071.88
432.734	2179.88
432.956	2169.88
433.178	2250.88
433.4	2246.88
433.622	2243.88
433.844	2118.88
434.066	1981.88
434.287	2064.88
434.509	2163.88
434.731	2265.88
434.953	2384.88
435.175	2327.88
435.397	2238.88
435.618	2216.88
435.84	2192.88
436.062	2159.88
436.284	2191.88
436.505	2202.88
436.727	2278.88
436.949	2144.88
437.17	2087.88
437.392	2101.88
437.614	2123.88
437.835	2045.88
438.057	2185.88
438.278	2280.88
438.5	2129.88
438.721	2028.88
438.943	2071.88
439.165	2064.88
439.386	2021.88
439.608	2076.88
439.829	2080.88
440.05	2131.88
440.272	2055.88
440.493	1969.88
440.715	2024.88
440.936	2200.88
441.158	2449.88
441.379	2342.88
441.6	2260.88
441.822	2242.88
442.043	2189.88
442.264	2176.88
442.486	2094.88
442.707	2090.88
442.928	2022.88
443.149	2112.88
443.371	2227.88
443.592	2289.88
443.813	2280.88
444.034	2268.88
444.255	2257.88
444.476	2327.88
444.698	2353.88
444.919	2338.88
445.14	2440.88
445.361	2416.88
445.582	2478.88
445.803	2378.88
446.024	2236.88
446.245	2337.88
446.466	2290.88
446.687	2157.88
446.908	2140.88
447.129	2131.88
447.35	2150.88
447.571	2170.88
447.792	2020.88
448.013	2034.88
448.234	2009.88
448.455	2158.88
448.675	2160.88
448.896	2013.88
449.117	1968.88
449.338	2054.88
449.559	2141.88
449.779	2250.88
450	2447.88
450.221	2653.88
450.442	2576.88
450.662	2234.88
450.883	1958.88
451.104	1950.88
451.324	2009.88
451.545	2044.88
451.766	2050.88
451.986	1928.88
452.207	1941.88
452.428	1872.88
452.648	1868.88
452.869	1879.88
453.089	2057.88
453.31	2012.88
453.53	2078.88
453.751	2039.88
453.971	1846.88
454.192	1914.88
454.412	2052.88
454.633	1989.88
454.853	1982.88
455.073	1818.88
455.294	1747.88
455.514	1849.88
455.734	1852.88
455.955	1900.88
456.175	1878.88
456.395	1879.88
456.616	1908.88
456.836	1961.88
457.056	1891.88
457.276	1912.88
457.497	1865.88
457.717	1764.88
457.937	1826.88
458.157	1858.88
458.377	1869.88
458.598	1867.88
458.818	1906.88
459.038	1941.88
459.258	2070.88
459.478	2119.88
459.698	2007.88
459.918	2087.88
460.138	2173.88
460.358	2226.88
460.578	2229.88
460.798	2314.88
461.018	2438.88
461.238	2343.88
461.458	2227.88
461.678	2210.88
461.898	2168.88
462.118	2150.88
462.338	2227.88
462.558	2238.88
462.777	2244.88
462.997	2362.88
463.217	2499.88
463.437	2432.88
463.657	2313.88
463.876	2244.88
464.096	2224.88
464.316	2213.88
464.536	2320.88
464.755	2310.88
464.975	2376.88
465.195	2313.88
465.414	2345.88
465.634	2334.88
465.854	2245.88
466.073	2344.88
466.293	2331.88
466.512	2041.88
466.732	2048.88
466.951	2139.88
467.171	2090.88
467.391	2018.88
467.61	1990.88
467.829	1970.88
468.049	2181.88
468.268	2415.88
468.488	2294.88
468.707	2156.88
468.927	2102.88
469.146	2045.88
469.365	2006.88
469.585	2036.88
469.804	2010.88
470.023	2023.88
470.243	2057.88
470.462	2034.88
470.681	1963.88
470.901	2038.88
471.12	2057.88
471.339	2020.88
471.558	1932.88
471.777	1972.88
471.997	2020.88
472.216	1980.88
472.435	1903.88
472.654	1917.88
472.873	2003.88
473.092	2158.88
473.311	2055.88
473.53	1911.88
473.749	1928.88
473.968	2004.88
474.187	2123.88
474.406	2204.88
474.625	2084.88
474.844	2070.88
475.063	2005.88
475.282	2080.88
475.501	2083.88
475.72	2021.88
475.939	2169.88
476.158	2078.88
476.377	2048.88
476.596	2066.88
476.814	2159.88
477.033	2148.88
477.252	2247.88
477.471	2259.88
477.69	2146.88
477.908	2145.88
478.127	2273.88
478.346	2461.88
478.564	2439.88
478.783	2424.88
479.002	2462.88
479.22	2431.88
479.439	2530.88
479.658	2890.88
479.876	2840.88
480.095	2486.88
480.313	2379.88
480.532	2232.88
480.751	2282.88
480.969	2381.88
481.188	2319.88
481.406	2284.88
481.624	2257.88
481.843	2286.88
482.061	2319.88
482.28	2316.88
482.498	2382.88
482.717	2377.88
482.935	2249.88
483.153	2264.88
483.372	2268.88
483.59	2236.88
483.808	2298.88
484.027	2329.88
484.245	2474.88
484.463	2780.88
484.681	3244.88
484.9	2529.88
485.118	2354.88
485.336	2306.88
485.554	2357.88
485.772	2480.88
485.99	2460.88
486.209	2501.88
486.427	2391.88
486.645	2460.88
486.863	2394.88
487.081	2464.88
487.299	2567.88
