Data from WStandard_LampEnergy5.5LIBS07252019.E.O._I.C._HRD10591_16-08-42-921.txt Node
Date: Thu Jul 25 16:08:42 EDT 2019
User: cochatt
Spectrometer: HR+D1059
Trigger mode: 1
Integration Time (sec): 1.000000E-1
Scans to average: 1
Electric dark correction enabled: true
Nonlinearity correction enabled: false
Boxcar width: 0
XAxis mode: Wavelengths
Number of Pixels in Spectrum: 2048
>>>>>Begin Spectral Data<<<<<
223.165	-4.38
223.4	-4.38
223.635	-4.38
223.869	-21.38
224.104	-22.38
224.338	-15.38
224.573	-13.38
224.808	-13.38
225.042	-2.38
225.277	-18.38
225.511	-7.38
225.746	9.62
225.98	4.62
226.215	9.62
226.449	19.62
226.683	35.62
226.918	29.62
227.152	9.62
227.387	33.62
227.621	29.62
227.856	40.62
228.09	28.62
228.324	58.62
228.559	55.62
228.793	145.62
229.027	341.62
229.262	367.62
229.496	381.62
229.73	400.62
229.964	445.62
230.199	461.62
230.433	463.62
230.667	498.62
230.901	551.62
231.136	474.62
231.37	444.62
231.604	442.62
231.838	473.62
232.072	459.62
232.306	450.62
232.541	468.62
232.775	557.62
233.009	585.62
233.243	579.62
233.477	527.62
233.711	545.62
233.945	564.62
234.179	519.62
234.413	584.62
234.647	626.62
234.881	581.62
235.115	559.62
235.349	555.62
235.583	567.62
235.817	562.62
236.051	551.62
236.285	559.62
236.519	579.62
236.753	652.62
236.987	657.62
237.221	659.62
237.455	753.62
237.689	710.62
237.922	676.62
238.156	666.62
238.39	658.62
238.624	689.62
238.858	734.62
239.091	754.62
239.325	803.62
239.559	926.62
239.793	948.62
240.027	1049.62
240.26	1023.62
240.494	764.62
240.728	709.62
240.961	721.62
241.195	737.62
241.429	818.62
241.662	825.62
241.896	757.62
242.13	752.62
242.363	844.62
242.597	916.62
242.83	844.62
243.064	878.62
243.298	973.62
243.531	937.62
243.765	923.62
243.998	917.62
244.232	816.62
244.465	759.62
244.699	789.62
244.932	890.62
245.166	1031.62
245.399	972.62
245.633	912.62
245.866	872.62
246.099	932.62
246.333	944.62
246.566	959.62
246.8	1041.62
247.033	1159.62
247.266	1081.62
247.5	1029.62
247.733	1033.62
247.966	1099.62
248.2	1225.62
248.433	1168.62
248.666	1186.62
248.899	1341.62
249.133	1516.62
249.366	1713.62
249.599	1407.62
249.832	1250.62
250.066	1250.62
250.299	1261.62
250.532	1205.62
250.765	1048.62
250.998	1147.62
251.231	1209.62
251.465	1254.62
251.698	1185.62
251.931	1165.62
252.164	1168.62
252.397	1247.62
252.63	1252.62
252.863	1114.62
253.096	1091.62
253.329	1131.62
253.562	1156.62
253.795	1302.62
254.028	1251.62
254.261	1171.62
254.494	1162.62
254.727	1096.62
254.96	1135.62
255.193	1251.62
255.426	1402.62
255.659	1588.62
255.892	1663.62
256.124	1371.62
256.357	1319.62
256.59	1415.62
256.823	1419.62
257.056	1440.62
257.289	1702.62
257.521	1931.62
257.754	1671.62
257.987	1590.62
258.22	1752.62
258.452	1720.62
258.685	1397.62
258.918	1383.62
259.151	1391.62
259.383	1318.62
259.616	1155.62
259.849	1226.62
260.081	1374.62
260.314	1522.62
260.547	1653.62
260.779	1735.62
261.012	1572.62
261.244	1392.62
261.477	1327.62
261.71	1387.62
261.942	1402.62
262.175	1363.62
262.407	1444.62
262.64	1337.62
262.872	1293.62
263.105	1249.62
263.337	1241.62
263.57	1295.62
263.802	1279.62
264.035	1220.62
264.267	1167.62
264.499	1149.62
264.732	1207.62
264.964	1252.62
265.197	1347.62
265.429	1374.62
265.661	1562.62
265.894	1690.62
266.126	1783.62
266.358	1603.62
266.591	1609.62
266.823	1824.62
267.055	1627.62
267.287	1604.62
267.52	1561.62
267.752	1543.62
267.984	1551.62
268.216	1619.62
268.448	1641.62
268.681	1595.62
268.913	1525.62
269.145	1428.62
269.377	1401.62
269.609	1499.62
269.841	1730.62
270.073	2012.62
270.306	2188.62
270.538	2395.62
270.77	2004.62
271.002	1704.62
271.234	1651.62
271.466	1616.62
271.698	1815.62
271.93	2176.62
272.162	2203.62
272.394	1964.62
272.626	1860.62
272.858	1668.62
273.09	1443.62
273.322	1427.62
273.553	1352.62
273.785	1401.62
274.017	1425.62
274.249	1565.62
274.481	1583.62
274.713	1445.62
274.945	1408.62
275.176	1407.62
275.408	1438.62
275.64	1380.62
275.872	1383.62
276.104	1424.62
276.335	1640.62
276.567	1880.62
276.799	1867.62
277.031	1686.62
277.262	1595.62
277.494	1666.62
277.726	1815.62
277.957	1799.62
278.189	1637.62
278.421	1541.62
278.652	1480.62
278.884	1478.62
279.115	1461.62
279.347	1496.62
279.579	1462.62
279.81	1446.62
280.042	1638.62
280.273	1774.62
280.505	1756.62
280.736	1811.62
280.968	1700.62
281.199	1507.62
281.431	1445.62
281.662	1398.62
281.894	1422.62
282.125	1495.62
282.356	1494.62
282.588	1557.62
282.819	1516.62
283.051	1641.62
283.282	1825.62
283.513	1730.62
283.745	1542.62
283.976	1416.62
284.207	1413.62
284.439	1508.62
284.67	1496.62
284.901	1497.62
285.132	1547.62
285.364	1528.62
285.595	1572.62
285.826	1521.62
286.057	1488.62
286.288	1485.62
286.52	1535.62
286.751	1687.62
286.982	1708.62
287.213	1642.62
287.444	1469.62
287.675	1467.62
287.906	1510.62
288.138	1612.62
288.369	1608.62
288.6	1504.62
288.831	1445.62
289.062	1469.62
289.293	1508.62
289.524	1505.62
289.755	1528.62
289.986	1567.62
290.217	1444.62
290.448	1491.62
290.679	1555.62
290.91	1498.62
291.141	1538.62
291.371	1605.62
291.602	1609.62
291.833	1575.62
292.064	1656.62
292.295	1639.62
292.526	1661.62
292.757	1727.62
292.987	1601.62
293.218	1539.62
293.449	1659.62
293.68	1893.62
293.91	2010.62
294.141	1849.62
294.372	1747.62
294.603	1805.62
294.833	1900.62
295.064	1800.62
295.295	1639.62
295.525	1595.62
295.756	1481.62
295.987	1419.62
296.217	1471.62
296.448	1512.62
296.679	1490.62
296.909	1467.62
297.14	1508.62
297.37	1488.62
297.601	1575.62
297.831	1708.62
298.062	1742.62
298.292	1585.62
298.523	1511.62
298.753	1508.62
298.984	1527.62
299.214	1569.62
299.445	1551.62
299.675	1637.62
299.905	1600.62
300.136	1553.62
300.366	1521.62
300.597	1475.62
300.827	1479.62
301.057	1553.62
301.288	1615.62
301.518	1594.62
301.748	1661.62
301.979	1727.62
302.209	1730.62
302.439	1851.62
302.669	1979.62
302.9	1813.62
303.13	1633.62
303.36	1609.62
303.59	1660.62
303.82	1647.62
304.051	1623.62
304.281	1634.62
304.511	1632.62
304.741	1741.62
304.971	1902.62
305.201	2085.62
305.431	1912.62
305.661	1621.62
305.891	1463.62
306.121	1439.62
306.352	1496.62
306.582	1563.62
306.812	1682.62
307.042	1790.62
307.272	1803.62
307.502	1839.62
307.731	1944.62
307.961	2143.62
308.191	1997.62
308.421	1722.62
308.651	1623.62
308.881	1567.62
309.111	1593.62
309.341	1563.62
309.571	1588.62
309.8	1585.62
310.03	1573.62
310.26	1605.62
310.49	1567.62
310.72	1571.62
310.949	1642.62
311.179	1698.62
311.409	1671.62
311.639	1610.62
311.868	1566.62
312.098	1622.62
312.328	1609.62
312.557	1569.62
312.787	1623.62
313.017	1650.62
313.246	1624.62
313.476	1641.62
313.706	1723.62
313.935	1695.62
314.165	1649.62
314.394	1724.62
314.624	1834.62
314.853	1912.62
315.083	1963.62
315.312	2051.62
315.542	1906.62
315.771	1715.62
316.001	1699.62
316.23	1750.62
316.46	1828.62
316.689	1780.62
316.919	1679.62
317.148	1596.62
317.377	1660.62
317.607	1749.62
317.836	1974.62
318.065	2037.62
318.295	1977.62
318.524	1870.62
318.753	1811.62
318.983	1820.62
319.212	1717.62
319.441	1727.62
319.67	1693.62
319.9	1699.62
320.129	1763.62
320.358	1887.62
320.587	1962.62
320.816	1899.62
321.046	1900.62
321.275	1766.62
321.504	1785.62
321.733	1953.62
321.962	1881.62
322.191	1756.62
322.42	1745.62
322.649	1722.62
322.878	1717.62
323.108	1719.62
323.337	1803.62
323.566	1765.62
323.795	1798.62
324.024	1811.62
324.253	1744.62
324.482	1769.62
324.71	1712.62
324.939	1618.62
325.168	1691.62
325.397	1715.62
325.626	1804.62
325.855	1803.62
326.084	1735.62
326.313	1749.62
326.542	1745.62
326.77	1811.62
326.999	1819.62
327.228	1727.62
327.457	1642.62
327.686	1632.62
327.914	1672.62
328.143	1748.62
328.372	1730.62
328.6	1757.62
328.829	1697.62
329.058	1671.62
329.287	1662.62
329.515	1737.62
329.744	1736.62
329.972	1792.62
330.201	1870.62
330.43	1894.62
330.658	1859.62
330.887	1860.62
331.115	1823.62
331.344	1862.62
331.572	1817.62
331.801	1805.62
332.03	1804.62
332.258	1809.62
332.486	1819.62
332.715	1883.62
332.943	1848.62
333.172	1833.62
333.4	1852.62
333.629	1882.62
333.857	2012.62
334.085	2177.62
334.314	2434.62
334.542	2701.62
334.771	2515.62
334.999	2185.62
335.227	2087.62
335.455	2011.62
335.684	1967.62
335.912	2006.62
336.14	2061.62
336.369	2002.62
336.597	1901.62
336.825	1856.62
337.053	1887.62
337.281	1952.62
337.51	2086.62
337.738	2197.62
337.966	2089.62
338.194	1879.62
338.422	1868.62
338.65	1843.62
338.878	1807.62
339.106	1737.62
339.334	1743.62
339.562	1682.62
339.79	1782.62
340.018	1868.62
340.246	1951.62
340.474	1914.62
340.702	1857.62
340.93	1879.62
341.158	1840.62
341.386	1834.62
341.614	1834.62
341.842	1807.62
342.07	1795.62
342.298	1847.62
342.526	1846.62
342.754	1816.62
342.981	1771.62
343.209	1800.62
343.437	1800.62
343.665	1806.62
343.893	1852.62
344.12	1906.62
344.348	1961.62
344.576	1864.62
344.804	1825.62
345.031	1770.62
345.259	1825.62
345.487	1751.62
345.714	1705.62
345.942	1661.62
346.17	1699.62
346.397	1755.62
346.625	1721.62
346.853	1630.62
347.08	1632.62
347.308	1609.62
347.535	1657.62
347.763	1699.62
347.99	1698.62
348.218	1639.62
348.445	1637.62
348.673	1686.62
348.9	1723.62
349.128	1749.62
349.355	1852.62
349.583	1803.62
349.81	1735.62
350.037	1595.62
350.265	1571.62
350.492	1595.62
350.72	1633.62
350.947	1689.62
351.174	1726.62
351.402	1649.62
351.629	1557.62
351.856	1544.62
352.083	1578.62
352.311	1543.62
352.538	1642.62
352.765	1636.62
352.992	1723.62
353.22	1663.62
353.447	1654.62
353.674	1637.62
353.901	1624.62
354.128	1625.62
354.355	1598.62
354.583	1724.62
354.81	1722.62
355.037	1744.62
355.264	1715.62
355.491	1704.62
355.718	1685.62
355.945	1693.62
356.172	1643.62
356.399	1620.62
356.626	1596.62
356.853	1643.62
357.08	1786.62
357.307	1952.62
357.534	1995.62
357.761	1745.62
357.988	1623.62
358.215	1568.62
358.441	1563.62
358.668	1585.62
358.895	1568.62
359.122	1713.62
359.349	1839.62
359.576	1811.62
359.802	1667.62
360.029	1613.62
360.256	1595.62
360.483	1622.62
360.709	1656.62
360.936	1738.62
361.163	1719.62
361.39	1911.62
361.616	2047.62
361.843	2049.62
362.07	1934.62
362.296	1687.62
362.523	1612.62
362.749	1659.62
362.976	1693.62
363.203	1715.62
363.429	1638.62
363.656	1575.62
363.882	1638.62
364.109	1800.62
364.335	1982.62
364.562	1839.62
364.788	1761.62
365.015	1684.62
365.241	1631.62
365.468	1639.62
365.694	1688.62
365.92	1817.62
366.147	1720.62
366.373	1600.62
366.599	1580.62
366.826	1589.62
367.052	1613.62
367.278	1611.62
367.505	1659.62
367.731	1703.62
367.957	1647.62
368.184	1718.62
368.41	1845.62
368.636	1879.62
368.862	1864.62
369.089	1874.62
369.315	1819.62
369.541	1740.62
369.767	1667.62
369.993	1627.62
370.219	1620.62
370.445	1686.62
370.672	1772.62
370.898	1887.62
371.124	1841.62
371.35	1707.62
371.576	1770.62
371.802	1843.62
372.028	1807.62
372.254	1703.62
372.48	1667.62
372.706	1649.62
372.932	1682.62
373.158	1677.62
373.384	1695.62
373.61	1746.62
373.835	1848.62
374.061	1789.62
374.287	1755.62
374.513	1741.62
374.739	1745.62
374.965	1747.62
375.191	1767.62
375.416	1763.62
375.642	1786.62
375.868	1873.62
376.094	1961.62
376.319	1848.62
376.545	1763.62
376.771	1796.62
376.997	1859.62
377.222	1844.62
377.448	1774.62
377.674	1813.62
377.899	1777.62
378.125	1854.62
378.35	1889.62
378.576	1734.62
378.802	1673.62
379.027	1681.62
379.253	1735.62
379.478	1740.62
379.704	1752.62
379.929	1774.62
380.155	1742.62
380.38	1772.62
380.606	1768.62
380.831	1776.62
381.057	1810.62
381.282	1872.62
381.507	1815.62
381.733	1909.62
381.958	1997.62
382.184	1871.62
382.409	1816.62
382.634	1833.62
382.86	1821.62
383.085	1849.62
383.31	1878.62
383.535	2019.62
383.761	2116.62
383.986	2063.62
384.211	1988.62
384.436	1946.62
384.662	2011.62
384.887	2103.62
385.112	2039.62
385.337	2031.62
385.562	1988.62
385.787	1993.62
386.013	2011.62
386.238	2055.62
386.463	2033.62
386.688	2124.62
386.913	2245.62
387.138	2227.62
387.363	2072.62
387.588	2026.62
387.813	2025.62
388.038	2022.62
388.263	2130.62
388.488	2065.62
388.713	1891.62
388.938	1931.62
389.163	1875.62
389.387	1971.62
389.612	1972.62
389.837	1974.62
390.062	2049.62
390.287	1973.62
390.512	1976.62
390.736	1960.62
390.961	1973.62
391.186	1903.62
391.411	1970.62
391.636	1978.62
391.86	1983.62
392.085	1998.62
392.31	1982.62
392.534	1979.62
392.759	2034.62
392.984	1987.62
393.208	2007.62
393.433	2066.62
393.658	2102.62
393.882	2139.62
394.107	2002.62
394.331	1981.62
394.556	1973.62
394.78	2001.62
395.005	2051.62
395.229	2093.62
395.454	2284.62
395.678	2321.62
395.903	2209.62
396.127	2085.62
396.352	2090.62
396.576	2162.62
396.801	2184.62
397.025	2207.62
397.249	2189.62
397.474	2173.62
397.698	2133.62
397.922	2177.62
398.147	2290.62
398.371	2371.62
398.595	2435.62
398.82	2242.62
399.044	2363.62
399.268	2409.62
399.492	2596.62
399.717	2647.62
399.941	2707.62
400.165	2585.62
400.389	2549.62
400.613	2536.62
400.837	2759.62
401.062	3174.62
401.286	2653.62
401.51	2431.62
401.734	2645.62
401.958	2492.62
402.182	2342.62
402.406	2251.62
402.63	2260.62
402.854	2262.62
403.078	2255.62
403.302	2307.62
403.526	2365.62
403.75	2368.62
403.974	2379.62
404.198	2373.62
404.422	2412.62
404.645	2560.62
404.869	2538.62
405.093	2374.62
405.317	2338.62
405.541	2375.62
405.765	2400.62
405.988	2421.62
406.212	2441.62
406.436	2471.62
406.66	2549.62
406.883	2565.62
407.107	2860.62
407.331	3090.62
407.555	3313.62
407.778	3098.62
408.002	2602.62
408.226	2507.62
408.449	2463.62
408.673	2410.62
408.896	2433.62
409.12	2476.62
409.344	2426.62
409.567	2338.62
409.791	2383.62
410.014	2443.62
410.238	2491.62
410.461	2664.62
410.685	2421.62
410.908	2309.62
411.132	2396.62
411.355	2348.62
411.578	2312.62
411.802	2338.62
412.025	2368.62
412.249	2336.62
412.472	2279.62
412.695	2253.62
412.919	2221.62
413.142	2211.62
413.365	2281.62
413.589	2334.62
413.812	2429.62
414.035	2499.62
414.258	2333.62
414.482	2275.62
414.705	2299.62
414.928	2223.62
415.151	2252.62
415.374	2297.62
415.597	2330.62
415.821	2305.62
416.044	2367.62
416.267	2415.62
416.49	2198.62
416.713	2172.62
416.936	2284.62
417.159	2359.62
417.382	2303.62
417.605	2195.62
417.828	2305.62
418.051	2326.62
418.274	2278.62
418.497	2170.62
418.72	2169.62
418.943	2165.62
419.166	2386.62
419.389	2456.62
419.611	2309.62
419.834	2225.62
420.057	2265.62
420.28	2171.62
420.503	2178.62
420.726	2195.62
420.948	2187.62
421.171	2171.62
421.394	2175.62
421.617	2254.62
421.839	2219.62
422.062	2151.62
422.285	2119.62
422.507	2193.62
422.73	2080.62
422.953	2086.62
423.175	2127.62
423.398	2179.62
423.621	2183.62
423.843	2160.62
424.066	2201.62
424.288	2295.62
424.511	2328.62
424.733	2272.62
424.956	2084.62
425.178	2063.62
425.401	2089.62
425.623	2096.62
425.846	2108.62
426.068	2197.62
426.291	2277.62
426.513	2252.62
426.735	2176.62
426.958	2354.62
427.18	2503.62
427.402	2317.62
427.625	2351.62
427.847	2330.62
428.069	2201.62
428.292	2085.62
428.514	2087.62
428.736	2077.62
428.958	2109.62
429.181	2105.62
429.403	2367.62
429.625	2954.62
429.847	2593.62
430.069	2211.62
430.292	2367.62
430.514	2436.62
430.736	2266.62
430.958	2374.62
431.18	2264.62
431.402	2100.62
431.624	2101.62
431.846	2059.62
432.068	2051.62
432.29	2104.62
432.512	2080.62
432.734	2155.62
432.956	2198.62
433.178	2279.62
433.4	2231.62
433.622	2272.62
433.844	2197.62
434.066	2115.62
434.287	2088.62
434.509	2152.62
434.731	2230.62
434.953	2373.62
435.175	2371.62
435.397	2192.62
435.618	2220.62
435.84	2260.62
436.062	2187.62
436.284	2189.62
436.505	2227.62
436.727	2249.62
436.949	2226.62
437.17	2148.62
437.392	2124.62
437.614	2152.62
437.835	2083.62
438.057	2174.62
438.278	2303.62
438.5	2150.62
438.721	2093.62
438.943	2085.62
439.165	2088.62
439.386	2012.62
439.608	2083.62
439.829	2100.62
440.05	2091.62
440.272	2079.62
440.493	2059.62
440.715	2120.62
440.936	2199.62
441.158	2502.62
441.379	2381.62
441.6	2323.62
441.822	2217.62
442.043	2229.62
442.264	2192.62
442.486	2076.62
442.707	2069.62
442.928	2064.62
443.149	2168.62
443.371	2289.62
443.592	2348.62
443.813	2307.62
444.034	2260.62
444.255	2268.62
444.476	2313.62
444.698	2375.62
444.919	2343.62
445.14	2495.62
445.361	2453.62
445.582	2538.62
445.803	2382.62
446.024	2301.62
446.245	2409.62
446.466	2295.62
446.687	2249.62
446.908	2171.62
447.129	2132.62
447.35	2199.62
447.571	2166.62
447.792	2052.62
448.013	2006.62
448.234	2090.62
448.455	2208.62
448.675	2197.62
448.896	2006.62
449.117	1970.62
449.338	2051.62
449.559	2117.62
449.779	2261.62
450	2475.62
450.221	2695.62
450.442	2648.62
450.662	2255.62
450.883	2033.62
451.104	1943.62
451.324	2009.62
451.545	2053.62
451.766	2042.62
451.986	1945.62
452.207	1953.62
452.428	1859.62
452.648	1843.62
452.869	1914.62
453.089	2056.62
453.31	2060.62
453.53	2083.62
453.751	2018.62
453.971	1939.62
454.192	1957.62
454.412	2058.62
454.633	2004.62
454.853	1959.62
455.073	1853.62
455.294	1842.62
455.514	1824.62
455.734	1836.62
455.955	1927.62
456.175	1875.62
456.395	1888.62
456.616	1938.62
456.836	1960.62
457.056	1873.62
457.276	1925.62
457.497	1889.62
457.717	1818.62
457.937	1819.62
458.157	1926.62
458.377	1937.62
458.598	1855.62
458.818	1873.62
459.038	2011.62
459.258	2135.62
459.478	2136.62
459.698	2069.62
459.918	2122.62
460.138	2207.62
460.358	2271.62
460.578	2224.62
460.798	2330.62
461.018	2465.62
461.238	2377.62
461.458	2263.62
461.678	2283.62
461.898	2222.62
462.118	2134.62
462.338	2248.62
462.558	2269.62
462.777	2244.62
462.997	2371.62
463.217	2487.62
463.437	2510.62
463.657	2313.62
463.876	2330.62
464.096	2276.62
464.316	2224.62
464.536	2330.62
464.755	2322.62
464.975	2380.62
465.195	2271.62
465.414	2377.62
465.634	2365.62
465.854	2229.62
466.073	2371.62
466.293	2330.62
466.512	2071.62
466.732	2006.62
466.951	2140.62
467.171	2103.62
467.391	2042.62
467.61	1989.62
467.829	2002.62
468.049	2171.62
468.268	2398.62
468.488	2282.62
468.707	2129.62
468.927	2087.62
469.146	2032.62
469.365	1959.62
469.585	2032.62
469.804	2039.62
470.023	2032.62
470.243	2079.62
470.462	2053.62
470.681	1994.62
470.901	2015.62
471.12	2042.62
471.339	2008.62
471.558	1961.62
471.777	2016.62
471.997	1997.62
472.216	2001.62
472.435	1927.62
472.654	1964.62
472.873	2070.62
473.092	2215.62
473.311	2080.62
473.53	1971.62
473.749	1955.62
473.968	1997.62
474.187	2152.62
474.406	2248.62
474.625	2097.62
474.844	2031.62
475.063	2024.62
475.282	2138.62
475.501	2113.62
475.72	2050.62
475.939	2171.62
476.158	2097.62
476.377	2073.62
476.596	2102.62
476.814	2113.62
477.033	2139.62
477.252	2260.62
477.471	2331.62
477.69	2189.62
477.908	2167.62
478.127	2272.62
478.346	2494.62
478.564	2443.62
478.783	2448.62
479.002	2512.62
479.22	2476.62
479.439	2546.62
479.658	2845.62
479.876	2816.62
480.095	2509.62
480.313	2387.62
480.532	2271.62
480.751	2300.62
480.969	2392.62
481.188	2339.62
481.406	2287.62
481.624	2246.62
481.843	2292.62
482.061	2325.62
482.28	2398.62
482.498	2421.62
482.717	2417.62
482.935	2299.62
483.153	2301.62
483.372	2299.62
483.59	2247.62
483.808	2279.62
484.027	2364.62
484.245	2466.62
484.463	2801.62
484.681	3257.62
484.9	2560.62
485.118	2419.62
485.336	2276.62
485.554	2411.62
485.772	2573.62
485.99	2481.62
486.209	2505.62
486.427	2465.62
486.645	2503.62
486.863	2429.62
487.081	2505.62
487.299	2572.62
487.517	2510.62
