Data from WStandard_LampEnergy10_LIBS07252019.E.O._I.C._HRD10591_15-55-24-928.txt Node
Date: Thu Jul 25 15:55:24 EDT 2019
User: cochatt
Spectrometer: HR+D1059
Trigger mode: 1
Integration Time (sec): 1.000000E-1
Scans to average: 1
Electric dark correction enabled: true
Nonlinearity correction enabled: false
Boxcar width: 0
XAxis mode: Wavelengths
Number of Pixels in Spectrum: 2048
>>>>>Begin Spectral Data<<<<<
223.165	-13.12
223.4	-13.12
223.635	-13.12
223.869	-14.12
224.104	-12.12
224.338	-19.12
224.573	-13.12
224.808	-12.12
225.042	-2.12
225.277	7.88
225.511	0.88
225.746	-2.12
225.98	8.88
226.215	-5.12
226.449	11.88
226.683	21.88
226.918	16.88
227.152	24.88
227.387	47.88
227.621	42.88
227.856	43.88
228.09	53.88
228.324	49.88
228.559	59.88
228.793	78.88
229.027	133.88
229.262	130.88
229.496	142.88
229.73	143.88
229.964	155.88
230.199	164.88
230.433	168.88
230.667	180.88
230.901	193.88
231.136	183.88
231.37	163.88
231.604	164.88
231.838	173.88
232.072	171.88
232.306	165.88
232.541	196.88
232.775	191.88
233.009	191.88
233.243	200.88
233.477	164.88
233.711	193.88
233.945	204.88
234.179	197.88
234.413	200.88
234.647	224.88
234.881	208.88
235.115	195.88
235.349	198.88
235.583	197.88
235.817	191.88
236.051	186.88
236.285	185.88
236.519	199.88
236.753	235.88
236.987	223.88
237.221	210.88
237.455	234.88
237.689	227.88
237.922	231.88
238.156	189.88
238.39	227.88
238.624	207.88
238.858	239.88
239.091	248.88
239.325	249.88
239.559	273.88
239.793	273.88
240.027	318.88
240.26	284.88
240.494	225.88
240.728	230.88
240.961	254.88
241.195	244.88
241.429	259.88
241.662	261.88
241.896	241.88
242.13	244.88
242.363	258.88
242.597	276.88
242.83	274.88
243.064	275.88
243.298	272.88
243.531	279.88
243.765	296.88
243.998	281.88
244.232	262.88
244.465	241.88
244.699	263.88
244.932	259.88
245.166	288.88
245.399	281.88
245.633	268.88
245.866	291.88
246.099	283.88
246.333	256.88
246.566	291.88
246.8	303.88
247.033	328.88
247.266	316.88
247.5	313.88
247.733	328.88
247.966	343.88
248.2	357.88
248.433	341.88
248.666	360.88
248.899	381.88
249.133	424.88
249.366	458.88
249.599	387.88
249.832	348.88
250.066	375.88
250.299	379.88
250.532	338.88
250.765	319.88
250.998	351.88
251.231	323.88
251.465	348.88
251.698	332.88
251.931	337.88
252.164	343.88
252.397	345.88
252.63	352.88
252.863	336.88
253.096	315.88
253.329	365.88
253.562	356.88
253.795	371.88
254.028	352.88
254.261	332.88
254.494	334.88
254.727	326.88
254.96	334.88
255.193	370.88
255.426	409.88
255.659	425.88
255.892	449.88
256.124	376.88
256.357	346.88
256.59	377.88
256.823	399.88
257.056	418.88
257.289	469.88
257.521	482.88
257.754	445.88
257.987	431.88
258.22	472.88
258.452	427.88
258.685	401.88
258.918	387.88
259.151	387.88
259.383	369.88
259.616	323.88
259.849	345.88
260.081	416.88
260.314	409.88
260.547	468.88
260.779	451.88
261.012	454.88
261.244	375.88
261.477	391.88
261.71	384.88
261.942	381.88
262.175	392.88
262.407	396.88
262.64	380.88
262.872	368.88
263.105	386.88
263.337	376.88
263.57	383.88
263.802	370.88
264.035	342.88
264.267	342.88
264.499	337.88
264.732	374.88
264.964	391.88
265.197	405.88
265.429	415.88
265.661	439.88
265.894	476.88
266.126	497.88
266.358	443.88
266.591	470.88
266.823	460.88
267.055	437.88
267.287	451.88
267.52	450.88
267.752	436.88
267.984	439.88
268.216	448.88
268.448	482.88
268.681	441.88
268.913	405.88
269.145	416.88
269.377	404.88
269.609	448.88
269.841	502.88
270.073	598.88
270.306	631.88
270.538	620.88
270.77	507.88
271.002	498.88
271.234	486.88
271.466	484.88
271.698	544.88
271.93	594.88
272.162	584.88
272.394	539.88
272.626	495.88
272.858	447.88
273.09	420.88
273.322	386.88
273.553	378.88
273.785	423.88
274.017	416.88
274.249	426.88
274.481	437.88
274.713	427.88
274.945	393.88
275.176	385.88
275.408	400.88
275.64	405.88
275.872	424.88
276.104	433.88
276.335	480.88
276.567	543.88
276.799	520.88
277.031	468.88
277.262	470.88
277.494	513.88
277.726	547.88
277.957	506.88
278.189	474.88
278.421	433.88
278.652	401.88
278.884	423.88
279.115	425.88
279.347	446.88
279.579	436.88
279.81	423.88
280.042	480.88
280.273	499.88
280.505	499.88
280.736	493.88
280.968	465.88
281.199	422.88
281.431	428.88
281.662	432.88
281.894	428.88
282.125	432.88
282.356	445.88
282.588	448.88
282.819	469.88
283.051	463.88
283.282	521.88
283.513	497.88
283.745	452.88
283.976	434.88
284.207	442.88
284.439	429.88
284.67	451.88
284.901	439.88
285.132	441.88
285.364	449.88
285.595	451.88
285.826	428.88
286.057	447.88
286.288	447.88
286.52	463.88
286.751	485.88
286.982	490.88
287.213	451.88
287.444	426.88
287.675	433.88
287.906	468.88
288.138	477.88
288.369	466.88
288.6	429.88
288.831	433.88
289.062	428.88
289.293	446.88
289.524	450.88
289.755	460.88
289.986	455.88
290.217	425.88
290.448	452.88
290.679	431.88
290.91	453.88
291.141	473.88
291.371	469.88
291.602	467.88
291.833	477.88
292.064	487.88
292.295	481.88
292.526	502.88
292.757	491.88
292.987	476.88
293.218	479.88
293.449	540.88
293.68	562.88
293.91	560.88
294.141	537.88
294.372	559.88
294.603	561.88
294.833	585.88
295.064	525.88
295.295	489.88
295.525	469.88
295.756	443.88
295.987	417.88
296.217	447.88
296.448	464.88
296.679	459.88
296.909	471.88
297.14	456.88
297.37	457.88
297.601	496.88
297.831	531.88
298.062	495.88
298.292	480.88
298.523	474.88
298.753	472.88
298.984	467.88
299.214	491.88
299.445	500.88
299.675	501.88
299.905	492.88
300.136	491.88
300.366	465.88
300.597	459.88
300.827	468.88
301.057	491.88
301.288	487.88
301.518	503.88
301.748	519.88
301.979	537.88
302.209	577.88
302.439	574.88
302.669	587.88
302.9	534.88
303.13	518.88
303.36	513.88
303.59	521.88
303.82	487.88
304.051	513.88
304.281	517.88
304.511	511.88
304.741	565.88
304.971	609.88
305.201	607.88
305.431	551.88
305.661	470.88
305.891	437.88
306.121	452.88
306.352	480.88
306.582	505.88
306.812	543.88
307.042	550.88
307.272	559.88
307.502	598.88
307.731	633.88
307.961	615.88
308.191	572.88
308.421	495.88
308.651	483.88
308.881	487.88
309.111	483.88
309.341	474.88
309.571	495.88
309.8	488.88
310.03	475.88
310.26	487.88
310.49	493.88
310.72	518.88
310.949	521.88
311.179	525.88
311.409	484.88
311.639	501.88
311.868	489.88
312.098	504.88
312.328	498.88
312.557	510.88
312.787	504.88
313.017	514.88
313.246	507.88
313.476	497.88
313.706	542.88
313.935	540.88
314.165	549.88
314.394	527.88
314.624	576.88
314.853	587.88
315.083	612.88
315.312	605.88
315.542	576.88
315.771	536.88
316.001	551.88
316.23	570.88
316.46	565.88
316.689	560.88
316.919	525.88
317.148	509.88
317.377	522.88
317.607	539.88
317.836	625.88
318.065	608.88
318.295	585.88
318.524	556.88
318.753	556.88
318.983	555.88
319.212	544.88
319.441	537.88
319.67	546.88
319.9	574.88
320.129	604.88
320.358	635.88
320.587	645.88
320.816	608.88
321.046	595.88
321.275	568.88
321.504	579.88
321.733	612.88
321.962	598.88
322.191	551.88
322.42	543.88
322.649	539.88
322.878	529.88
323.108	546.88
323.337	579.88
323.566	584.88
323.795	567.88
324.024	565.88
324.253	551.88
324.482	545.88
324.71	541.88
324.939	535.88
325.168	543.88
325.397	556.88
325.626	563.88
325.855	564.88
326.084	578.88
326.313	548.88
326.542	566.88
326.77	559.88
326.999	544.88
327.228	542.88
327.457	511.88
327.686	536.88
327.914	534.88
328.143	554.88
328.372	572.88
328.6	547.88
328.829	531.88
329.058	525.88
329.287	555.88
329.515	555.88
329.744	579.88
329.972	618.88
330.201	615.88
330.43	593.88
330.658	579.88
330.887	575.88
331.115	588.88
331.344	569.88
331.572	595.88
331.801	606.88
332.03	575.88
332.258	594.88
332.486	588.88
332.715	613.88
332.943	579.88
333.172	588.88
333.4	583.88
333.629	617.88
333.857	664.88
334.085	743.88
334.314	804.88
334.542	819.88
334.771	764.88
334.999	681.88
335.227	657.88
335.455	610.88
335.684	621.88
335.912	662.88
336.14	645.88
336.369	631.88
336.597	595.88
336.825	579.88
337.053	618.88
337.281	655.88
337.51	684.88
337.738	693.88
337.966	665.88
338.194	594.88
338.422	589.88
338.65	587.88
338.878	579.88
339.106	577.88
339.334	561.88
339.562	566.88
339.79	551.88
340.018	613.88
340.246	639.88
340.474	639.88
340.702	625.88
340.93	643.88
341.158	600.88
341.386	610.88
341.614	597.88
341.842	583.88
342.07	605.88
342.298	593.88
342.526	583.88
342.754	566.88
342.981	576.88
343.209	569.88
343.437	561.88
343.665	603.88
343.893	609.88
344.12	620.88
344.348	614.88
344.576	595.88
344.804	571.88
345.031	608.88
345.259	598.88
345.487	554.88
345.714	548.88
345.942	527.88
346.17	574.88
346.397	554.88
346.625	576.88
346.853	542.88
347.08	511.88
347.308	526.88
347.535	563.88
347.763	563.88
347.99	554.88
348.218	540.88
348.445	552.88
348.673	546.88
348.9	576.88
349.128	600.88
349.355	601.88
349.583	566.88
349.81	570.88
350.037	532.88
350.265	552.88
350.492	549.88
350.72	567.88
350.947	577.88
351.174	583.88
351.402	541.88
351.629	537.88
351.856	514.88
352.083	532.88
352.311	531.88
352.538	542.88
352.765	571.88
352.992	543.88
353.22	546.88
353.447	544.88
353.674	555.88
353.901	559.88
354.128	540.88
354.355	563.88
354.583	589.88
354.81	593.88
355.037	577.88
355.264	574.88
355.491	567.88
355.718	550.88
355.945	539.88
356.172	531.88
356.399	540.88
356.626	533.88
356.853	582.88
357.08	609.88
357.307	661.88
357.534	623.88
357.761	570.88
357.988	569.88
358.215	556.88
358.441	550.88
358.668	536.88
358.895	548.88
359.122	602.88
359.349	630.88
359.576	612.88
359.802	554.88
360.029	527.88
360.256	549.88
360.483	545.88
360.709	587.88
360.936	595.88
361.163	636.88
361.39	677.88
361.616	702.88
361.843	699.88
362.07	626.88
362.296	561.88
362.523	547.88
362.749	572.88
362.976	602.88
363.203	572.88
363.429	554.88
363.656	551.88
363.882	595.88
364.109	653.88
364.335	641.88
364.562	616.88
364.788	594.88
365.015	581.88
365.241	562.88
365.468	575.88
365.694	616.88
365.92	611.88
366.147	582.88
366.373	555.88
366.599	559.88
366.826	552.88
367.052	563.88
367.278	574.88
367.505	573.88
367.731	565.88
367.957	603.88
368.184	652.88
368.41	669.88
368.636	682.88
368.862	643.88
369.089	653.88
369.315	623.88
369.541	620.88
369.767	615.88
369.993	588.88
370.219	615.88
370.445	632.88
370.672	660.88
370.898	679.88
371.124	668.88
371.35	625.88
371.576	660.88
371.802	657.88
372.028	627.88
372.254	616.88
372.48	590.88
372.706	585.88
372.932	595.88
373.158	593.88
373.384	609.88
373.61	624.88
373.835	663.88
374.061	620.88
374.287	585.88
374.513	617.88
374.739	629.88
374.965	632.88
375.191	653.88
375.416	665.88
375.642	649.88
375.868	699.88
376.094	717.88
376.319	672.88
376.545	643.88
376.771	674.88
376.997	695.88
377.222	660.88
377.448	670.88
377.674	683.88
377.899	669.88
378.125	680.88
378.35	673.88
378.576	630.88
378.802	645.88
379.027	601.88
379.253	629.88
379.478	609.88
379.704	630.88
379.929	617.88
380.155	647.88
380.38	645.88
380.606	661.88
380.831	659.88
381.057	698.88
381.282	686.88
381.507	659.88
381.733	752.88
381.958	721.88
382.184	680.88
382.409	647.88
382.634	671.88
382.86	671.88
383.085	671.88
383.31	707.88
383.535	764.88
383.761	787.88
383.986	756.88
384.211	729.88
384.436	741.88
384.662	766.88
384.887	791.88
385.112	722.88
385.337	721.88
385.562	735.88
385.787	736.88
386.013	764.88
386.238	777.88
386.463	770.88
386.688	831.88
386.913	856.88
387.138	831.88
387.363	774.88
387.588	746.88
387.813	765.88
388.038	788.88
388.263	775.88
388.488	764.88
388.713	727.88
388.938	703.88
389.163	703.88
389.387	722.88
389.612	752.88
389.837	758.88
390.062	753.88
390.287	744.88
390.512	741.88
390.736	730.88
390.961	716.88
391.186	733.88
391.411	722.88
391.636	731.88
391.86	767.88
392.085	756.88
392.31	726.88
392.534	755.88
392.759	753.88
392.984	732.88
393.208	771.88
393.433	795.88
393.658	790.88
393.882	827.88
394.107	744.88
394.331	757.88
394.556	781.88
394.78	780.88
395.005	804.88
395.229	809.88
395.454	879.88
395.678	846.88
395.903	825.88
396.127	813.88
396.352	851.88
396.576	844.88
396.801	821.88
397.025	818.88
397.249	837.88
397.474	843.88
397.698	827.88
397.922	825.88
398.147	893.88
398.371	944.88
398.595	890.88
398.82	875.88
399.044	881.88
399.268	936.88
399.492	981.88
399.717	981.88
399.941	988.88
400.165	976.88
400.389	984.88
400.613	978.88
400.837	1124.88
401.062	1192.88
401.286	1027.88
401.51	972.88
401.734	971.88
401.958	932.88
402.182	872.88
402.406	866.88
402.63	863.88
402.854	888.88
403.078	897.88
403.302	877.88
403.526	912.88
403.75	904.88
403.974	929.88
404.198	947.88
404.422	980.88
404.645	999.88
404.869	953.88
405.093	906.88
405.317	895.88
405.541	895.88
405.765	936.88
405.988	900.88
406.212	947.88
406.436	970.88
406.66	984.88
406.883	1010.88
407.107	1117.88
407.331	1193.88
407.555	1251.88
407.778	1149.88
408.002	986.88
408.226	959.88
408.449	968.88
408.673	959.88
408.896	916.88
409.12	970.88
409.344	919.88
409.567	914.88
409.791	945.88
410.014	960.88
410.238	1026.88
410.461	1030.88
410.685	938.88
410.908	916.88
411.132	932.88
411.355	919.88
411.578	929.88
411.802	949.88
412.025	952.88
412.249	913.88
412.472	890.88
412.695	921.88
412.919	931.88
413.142	907.88
413.365	927.88
413.589	930.88
413.812	998.88
414.035	1012.88
414.258	943.88
414.482	905.88
414.705	937.88
414.928	924.88
415.151	906.88
415.374	904.88
415.597	961.88
415.821	922.88
416.044	925.88
416.267	915.88
416.49	899.88
416.713	935.88
416.936	927.88
417.159	949.88
417.382	947.88
417.605	903.88
417.828	933.88
418.051	929.88
418.274	925.88
418.497	908.88
418.72	911.88
418.943	895.88
419.166	957.88
419.389	1000.88
419.611	950.88
419.834	915.88
420.057	933.88
420.28	933.88
420.503	927.88
420.726	922.88
420.948	962.88
421.171	902.88
421.394	932.88
421.617	978.88
421.839	970.88
422.062	991.88
422.285	916.88
422.507	913.88
422.73	879.88
422.953	868.88
423.175	897.88
423.398	902.88
423.621	913.88
423.843	927.88
424.066	976.88
424.288	1034.88
424.511	1034.88
424.733	999.88
424.956	904.88
425.178	933.88
425.401	905.88
425.623	926.88
425.846	920.88
426.068	966.88
426.291	934.88
426.513	927.88
426.735	964.88
426.958	1017.88
427.18	1037.88
427.402	972.88
427.625	1027.88
427.847	972.88
428.069	913.88
428.292	913.88
428.514	924.88
428.736	906.88
428.958	908.88
429.181	920.88
429.403	1069.88
429.625	1238.88
429.847	1059.88
430.069	941.88
430.292	1039.88
430.514	1008.88
430.736	947.88
430.958	956.88
431.18	916.88
431.402	870.88
431.624	812.88
431.846	784.88
432.068	727.88
432.29	724.88
432.512	757.88
432.734	871.88
432.956	937.88
433.178	964.88
433.4	928.88
433.622	939.88
433.844	907.88
434.066	840.88
434.287	778.88
434.509	778.88
434.731	825.88
434.953	900.88
435.175	923.88
435.397	897.88
435.618	858.88
435.84	834.88
436.062	836.88
436.284	891.88
436.505	933.88
436.727	924.88
436.949	913.88
437.17	867.88
437.392	900.88
437.614	834.88
437.835	791.88
438.057	809.88
438.278	844.88
438.5	864.88
438.721	888.88
438.943	897.88
439.165	899.88
439.386	908.88
439.608	928.88
439.829	956.88
440.05	985.88
440.272	955.88
440.493	934.88
440.715	976.88
440.936	1021.88
441.158	1079.88
441.379	1028.88
441.6	1037.88
441.822	1026.88
442.043	999.88
442.264	988.88
442.486	943.88
442.707	972.88
442.928	931.88
443.149	970.88
443.371	974.88
443.592	1003.88
443.813	1029.88
444.034	995.88
444.255	976.88
444.476	1030.88
444.698	1067.88
444.919	1033.88
445.14	1119.88
445.361	1071.88
445.582	1058.88
445.803	1067.88
446.024	1055.88
446.245	1075.88
446.466	1061.88
446.687	1027.88
446.908	1004.88
447.129	977.88
447.35	995.88
447.571	1001.88
447.792	952.88
448.013	945.88
448.234	957.88
448.455	980.88
448.675	972.88
448.896	893.88
449.117	928.88
449.338	931.88
449.559	956.88
449.779	972.88
450	1027.88
450.221	1059.88
450.442	1021.88
450.662	957.88
450.883	881.88
451.104	839.88
451.324	861.88
451.545	873.88
451.766	872.88
451.986	832.88
452.207	819.88
452.428	767.88
452.648	770.88
452.869	791.88
453.089	762.88
453.31	749.88
453.53	771.88
453.751	727.88
453.971	668.88
454.192	694.88
454.412	787.88
454.633	767.88
454.853	768.88
455.073	755.88
455.294	773.88
455.514	752.88
455.734	789.88
455.955	760.88
456.175	743.88
456.395	748.88
456.616	712.88
456.836	711.88
457.056	740.88
457.276	708.88
457.497	661.88
457.717	681.88
457.937	713.88
458.157	719.88
458.377	699.88
458.598	670.88
458.818	687.88
459.038	728.88
459.258	715.88
459.478	706.88
459.698	693.88
459.918	742.88
460.138	815.88
460.358	815.88
460.578	819.88
460.798	845.88
461.018	882.88
461.238	866.88
461.458	836.88
461.678	856.88
461.898	801.88
462.118	826.88
462.338	827.88
462.558	835.88
462.777	828.88
462.997	864.88
463.217	860.88
463.437	847.88
463.657	849.88
463.876	829.88
464.096	826.88
464.316	867.88
464.536	861.88
464.755	867.88
464.975	873.88
465.195	864.88
465.414	866.88
465.634	885.88
465.854	905.88
466.073	946.88
466.293	939.88
466.512	869.88
466.732	874.88
466.951	888.88
467.171	919.88
467.391	899.88
467.61	876.88
467.829	912.88
468.049	963.88
468.268	1030.88
468.488	960.88
468.707	918.88
468.927	907.88
469.146	895.88
469.365	918.88
469.585	929.88
469.804	897.88
470.023	921.88
470.243	936.88
470.462	904.88
470.681	934.88
470.901	919.88
471.12	938.88
471.339	926.88
471.558	918.88
471.777	895.88
471.997	899.88
472.216	822.88
472.435	768.88
472.654	752.88
472.873	790.88
473.092	845.88
473.311	823.88
473.53	817.88
473.749	835.88
473.968	839.88
474.187	831.88
474.406	846.88
474.625	855.88
474.844	863.88
475.063	897.88
475.282	852.88
475.501	820.88
475.72	840.88
475.939	907.88
476.158	873.88
476.377	843.88
476.596	817.88
476.814	805.88
477.033	800.88
477.252	848.88
477.471	886.88
477.69	927.88
477.908	922.88
478.127	962.88
478.346	1001.88
478.564	980.88
478.783	1010.88
479.002	1017.88
479.22	985.88
479.439	1019.88
479.658	1041.88
479.876	952.88
480.095	912.88
480.313	889.88
480.532	888.88
480.751	856.88
480.969	837.88
481.188	768.88
481.406	784.88
481.624	771.88
481.843	771.88
482.061	823.88
482.28	866.88
482.498	880.88
482.717	843.88
482.935	895.88
483.153	954.88
483.372	1032.88
483.59	994.88
483.808	955.88
484.027	919.88
484.245	970.88
484.463	1193.88
484.681	1269.88
484.9	987.88
485.118	965.88
485.336	932.88
485.554	916.88
485.772	901.88
485.99	879.88
486.209	907.88
486.427	913.88
486.645	960.88
486.863	984.88
487.081	1041.88
487.299	1048.88
487.517	1000.88
487.735	1081.88
487.953	1171.88
488.171	1175.88
488.389	1125.88
488.607	1080.88
488.825	1143.88
489.043	1029.88
489.261	985.88
489.479	1011.88
489.696	1064.88
489.914	1041.88
490.132	1032.88
490.35	1082.88
490.568	1156.88
490.786	1171.88
491.003	1182.88
491.221	1213.88
491.439	1247.88
491.657	1308.88
491.874	1348.88
492.092	1433.88
492.31	1491.88
492.527	1461.88
492.745	1369.88
492.963	1294.88
493.18	1329.88
493.398	1354.88
493.615	1319.88
493.833	1267.88
494.05	1210.88
494.268	1212.88
494.485	1235.88
494.703	1224.88
494.92	1230.88
495.138	1236.88
495.355	1255.88
495.573	1256.88
495.79	1274.88
496.008	1293.88
496.225	1226.88
496.442	1244.88
496.66	1249.88
496.877	1203.88
497.094	1203.88
497.312	1218.88
497.529	1196.88
497.746	1188.88
497.963	1248.88
498.181	1320.88
498.398	1249.88
498.615	1188.88
498.832	1149.88
499.049	1122.88
499.267	1156.88
499.484	1263.88
499.701	1360.88
499.918	1375.88
500.135	1442.88
500.352	1567.88
500.569	1580.88
