Data from WStandard_LampEnergy8_LIBS07252019.E.O._I.C._HRD10591_15-58-52-929.txt Node
Date: Thu Jul 25 15:58:52 EDT 2019
User: cochatt
Spectrometer: HR+D1059
Trigger mode: 1
Integration Time (sec): 1.000000E-1
Scans to average: 1
Electric dark correction enabled: true
Nonlinearity correction enabled: false
Boxcar width: 0
XAxis mode: Wavelengths
Number of Pixels in Spectrum: 2048
>>>>>Begin Spectral Data<<<<<
223.165	-15.81
223.4	-15.81
223.635	-15.81
223.869	-11.81
224.104	-28.81
224.338	-14.81
224.573	-9.81
224.808	-9.81
225.042	-0.81
225.277	-0.81
225.511	-5.81
225.746	8.19
225.98	5.19
226.215	22.19
226.449	5.19
226.683	27.19
226.918	13.19
227.152	17.19
227.387	48.19
227.621	36.19
227.856	50.19
228.09	46.19
228.324	62.19
228.559	53.19
228.793	81.19
229.027	197.19
229.262	203.19
229.496	227.19
229.73	230.19
229.964	241.19
230.199	264.19
230.433	259.19
230.667	260.19
230.901	292.19
231.136	281.19
231.37	248.19
231.604	247.19
231.838	264.19
232.072	289.19
232.306	232.19
232.541	277.19
232.775	301.19
233.009	339.19
233.243	325.19
233.477	290.19
233.711	297.19
233.945	322.19
234.179	311.19
234.413	331.19
234.647	337.19
234.881	315.19
235.115	298.19
235.349	314.19
235.583	316.19
235.817	290.19
236.051	281.19
236.285	300.19
236.519	322.19
236.753	362.19
236.987	366.19
237.221	356.19
237.455	382.19
237.689	378.19
237.922	348.19
238.156	346.19
238.39	370.19
238.624	354.19
238.858	388.19
239.091	406.19
239.325	419.19
239.559	480.19
239.793	501.19
240.027	522.19
240.26	503.19
240.494	390.19
240.728	387.19
240.961	395.19
241.195	382.19
241.429	424.19
241.662	413.19
241.896	390.19
242.13	417.19
242.363	444.19
242.597	463.19
242.83	434.19
243.064	449.19
243.298	490.19
243.531	445.19
243.765	469.19
243.998	449.19
244.232	420.19
244.465	410.19
244.699	414.19
244.932	462.19
245.166	512.19
245.399	491.19
245.633	452.19
245.866	440.19
246.099	493.19
246.333	478.19
246.566	505.19
246.8	520.19
247.033	563.19
247.266	567.19
247.5	553.19
247.733	548.19
247.966	562.19
248.2	615.19
248.433	582.19
248.666	639.19
248.899	678.19
249.133	764.19
249.366	832.19
249.599	702.19
249.832	619.19
250.066	618.19
250.299	599.19
250.532	577.19
250.765	539.19
250.998	579.19
251.231	614.19
251.465	601.19
251.698	589.19
251.931	568.19
252.164	602.19
252.397	626.19
252.63	639.19
252.863	536.19
253.096	541.19
253.329	558.19
253.562	604.19
253.795	650.19
254.028	635.19
254.261	587.19
254.494	588.19
254.727	550.19
254.96	587.19
255.193	639.19
255.426	700.19
255.659	776.19
255.892	825.19
256.124	660.19
256.357	642.19
256.59	711.19
256.823	700.19
257.056	713.19
257.289	841.19
257.521	909.19
257.754	854.19
257.987	776.19
258.22	867.19
258.452	826.19
258.685	692.19
258.918	689.19
259.151	678.19
259.383	636.19
259.616	606.19
259.849	626.19
260.081	708.19
260.314	774.19
260.547	842.19
260.779	856.19
261.012	793.19
261.244	716.19
261.477	665.19
261.71	715.19
261.942	688.19
262.175	682.19
262.407	713.19
262.64	680.19
262.872	630.19
263.105	616.19
263.337	632.19
263.57	651.19
263.802	644.19
264.035	617.19
264.267	578.19
264.499	561.19
264.732	625.19
264.964	650.19
265.197	666.19
265.429	727.19
265.661	767.19
265.894	865.19
266.126	880.19
266.358	790.19
266.591	806.19
266.823	868.19
267.055	787.19
267.287	771.19
267.52	778.19
267.752	761.19
267.984	779.19
268.216	780.19
268.448	841.19
268.681	782.19
268.913	733.19
269.145	718.19
269.377	697.19
269.609	771.19
269.841	911.19
270.073	1002.19
270.306	1118.19
270.538	1129.19
270.77	968.19
271.002	850.19
271.234	822.19
271.466	825.19
271.698	949.19
271.93	1047.19
272.162	1074.19
272.394	962.19
272.626	915.19
272.858	812.19
273.09	707.19
273.322	703.19
273.553	677.19
273.785	702.19
274.017	730.19
274.249	751.19
274.481	763.19
274.713	731.19
274.945	706.19
275.176	714.19
275.408	691.19
275.64	701.19
275.872	714.19
276.104	730.19
276.335	842.19
276.567	943.19
276.799	940.19
277.031	850.19
277.262	810.19
277.494	856.19
277.726	921.19
277.957	886.19
278.189	835.19
278.421	745.19
278.652	743.19
278.884	750.19
279.115	734.19
279.347	767.19
279.579	754.19
279.81	744.19
280.042	841.19
280.273	894.19
280.505	887.19
280.736	895.19
280.968	850.19
281.199	740.19
281.431	696.19
281.662	714.19
281.894	730.19
282.125	752.19
282.356	788.19
282.588	758.19
282.819	779.19
283.051	852.19
283.282	902.19
283.513	867.19
283.745	754.19
283.976	719.19
284.207	750.19
284.439	753.19
284.67	764.19
284.901	792.19
285.132	806.19
285.364	784.19
285.595	778.19
285.826	746.19
286.057	776.19
286.288	772.19
286.52	820.19
286.751	860.19
286.982	881.19
287.213	774.19
287.444	737.19
287.675	736.19
287.906	784.19
288.138	848.19
288.369	794.19
288.6	776.19
288.831	756.19
289.062	753.19
289.293	779.19
289.524	815.19
289.755	813.19
289.986	789.19
290.217	772.19
290.448	743.19
290.679	772.19
290.91	795.19
291.141	778.19
291.371	824.19
291.602	822.19
291.833	839.19
292.064	854.19
292.295	846.19
292.526	866.19
292.757	894.19
292.987	827.19
293.218	819.19
293.449	890.19
293.68	982.19
293.91	1048.19
294.141	949.19
294.372	937.19
294.603	944.19
294.833	982.19
295.064	900.19
295.295	835.19
295.525	816.19
295.756	786.19
295.987	738.19
296.217	766.19
296.448	773.19
296.679	783.19
296.909	823.19
297.14	777.19
297.37	805.19
297.601	859.19
297.831	905.19
298.062	885.19
298.292	809.19
298.523	792.19
298.753	790.19
298.984	827.19
299.214	801.19
299.445	856.19
299.675	836.19
299.905	858.19
300.136	816.19
300.366	822.19
300.597	761.19
300.827	779.19
301.057	831.19
301.288	878.19
301.518	858.19
301.748	859.19
301.979	915.19
302.209	942.19
302.439	1003.19
302.669	998.19
302.9	937.19
303.13	882.19
303.36	883.19
303.59	889.19
303.82	893.19
304.051	883.19
304.281	886.19
304.511	908.19
304.741	960.19
304.971	1036.19
305.201	1067.19
305.431	940.19
305.661	798.19
305.891	752.19
306.121	780.19
306.352	805.19
306.582	881.19
306.812	910.19
307.042	958.19
307.272	964.19
307.502	1013.19
307.731	1046.19
307.961	1095.19
308.191	999.19
308.421	889.19
308.651	856.19
308.881	818.19
309.111	857.19
309.341	835.19
309.571	841.19
309.8	839.19
310.03	847.19
310.26	831.19
310.49	836.19
310.72	854.19
310.949	891.19
311.179	912.19
311.409	898.19
311.639	857.19
311.868	860.19
312.098	874.19
312.328	860.19
312.557	844.19
312.787	855.19
313.017	859.19
313.246	886.19
313.476	866.19
313.706	914.19
313.935	896.19
314.165	912.19
314.394	929.19
314.624	1022.19
314.853	1003.19
315.083	1063.19
315.312	1042.19
315.542	988.19
315.771	914.19
316.001	933.19
316.23	978.19
316.46	962.19
316.689	942.19
316.919	886.19
317.148	866.19
317.377	858.19
317.607	982.19
317.836	1084.19
318.065	1081.19
318.295	1063.19
318.524	1033.19
318.753	970.19
318.983	957.19
319.212	936.19
319.441	950.19
319.67	949.19
319.9	934.19
320.129	1010.19
320.358	1026.19
320.587	1031.19
320.816	1019.19
321.046	1035.19
321.275	982.19
321.504	1016.19
321.733	1059.19
321.962	1039.19
322.191	942.19
322.42	933.19
322.649	924.19
322.878	936.19
323.108	928.19
323.337	986.19
323.566	946.19
323.795	952.19
324.024	982.19
324.253	958.19
324.482	958.19
324.71	928.19
324.939	867.19
325.168	931.19
325.397	936.19
325.626	962.19
325.855	956.19
326.084	923.19
326.313	950.19
326.542	966.19
326.77	975.19
326.999	1001.19
327.228	939.19
327.457	892.19
327.686	900.19
327.914	913.19
328.143	939.19
328.372	947.19
328.6	954.19
328.829	941.19
329.058	908.19
329.287	932.19
329.515	968.19
329.744	980.19
329.972	989.19
330.201	1052.19
330.43	1052.19
330.658	984.19
330.887	990.19
331.115	1037.19
331.344	1000.19
331.572	995.19
331.801	983.19
332.03	980.19
332.258	985.19
332.486	1012.19
332.715	1013.19
332.943	1035.19
333.172	992.19
333.4	1009.19
333.629	1038.19
333.857	1121.19
334.085	1265.19
334.314	1416.19
334.542	1485.19
334.771	1318.19
334.999	1182.19
335.227	1094.19
335.455	1070.19
335.684	1064.19
335.912	1106.19
336.14	1096.19
336.369	1062.19
336.597	1011.19
336.825	1003.19
337.053	1060.19
337.281	1103.19
337.51	1158.19
337.738	1173.19
337.966	1111.19
338.194	1024.19
338.422	1015.19
338.65	999.19
338.878	992.19
339.106	980.19
339.334	953.19
339.562	937.19
339.79	947.19
340.018	1035.19
340.246	1074.19
340.474	1055.19
340.702	1054.19
340.93	1023.19
341.158	1006.19
341.386	1006.19
341.614	999.19
341.842	1005.19
342.07	1010.19
342.298	1009.19
342.526	990.19
342.754	973.19
342.981	987.19
343.209	967.19
343.437	947.19
343.665	1020.19
343.893	1032.19
344.12	1072.19
344.348	1057.19
344.576	1007.19
344.804	989.19
345.031	994.19
345.259	1000.19
345.487	987.19
345.714	933.19
345.942	909.19
346.17	939.19
346.397	935.19
346.625	964.19
346.853	906.19
347.08	902.19
347.308	900.19
347.535	936.19
347.763	962.19
347.99	934.19
348.218	911.19
348.445	928.19
348.673	934.19
348.9	983.19
349.128	987.19
349.355	1032.19
349.583	973.19
349.81	914.19
350.037	899.19
350.265	886.19
350.492	897.19
350.72	900.19
350.947	949.19
351.174	930.19
351.402	904.19
351.629	876.19
351.856	880.19
352.083	867.19
352.311	839.19
352.538	927.19
352.765	922.19
352.992	965.19
353.22	881.19
353.447	912.19
353.674	908.19
353.901	940.19
354.128	920.19
354.355	915.19
354.583	964.19
354.81	960.19
355.037	965.19
355.264	985.19
355.491	942.19
355.718	964.19
355.945	900.19
356.172	913.19
356.399	887.19
356.626	938.19
356.853	950.19
357.08	1024.19
357.307	1144.19
357.534	1089.19
357.761	955.19
357.988	902.19
358.215	874.19
358.441	913.19
358.668	872.19
358.895	912.19
359.122	993.19
359.349	1091.19
359.576	1029.19
359.802	936.19
360.029	892.19
360.256	897.19
360.483	916.19
360.709	948.19
360.936	1006.19
361.163	1051.19
361.39	1154.19
361.616	1182.19
361.843	1143.19
362.07	1040.19
362.296	939.19
362.523	911.19
362.749	924.19
362.976	958.19
363.203	984.19
363.429	935.19
363.656	916.19
363.882	962.19
364.109	1067.19
364.335	1109.19
364.562	1064.19
364.788	981.19
365.015	924.19
365.241	930.19
365.468	936.19
365.694	1028.19
365.92	997.19
366.147	974.19
366.373	937.19
366.599	932.19
366.826	929.19
367.052	916.19
367.278	930.19
367.505	959.19
367.731	984.19
367.957	962.19
368.184	1003.19
368.41	1077.19
368.636	1083.19
368.862	1106.19
369.089	1063.19
369.315	1016.19
369.541	972.19
369.767	951.19
369.993	944.19
370.219	941.19
370.445	956.19
370.672	1037.19
370.898	1076.19
371.124	1042.19
371.35	1015.19
371.576	1036.19
371.802	1073.19
372.028	1035.19
372.254	977.19
372.48	951.19
372.706	950.19
372.932	920.19
373.158	977.19
373.384	1015.19
373.61	1013.19
373.835	1070.19
374.061	1000.19
374.287	985.19
374.513	1010.19
374.739	1008.19
374.965	999.19
375.191	1062.19
375.416	1036.19
375.642	1052.19
375.868	1113.19
376.094	1123.19
376.319	1056.19
376.545	1003.19
376.771	1055.19
376.997	1100.19
377.222	1082.19
377.448	1059.19
377.674	1066.19
377.899	1081.19
378.125	1118.19
378.35	1074.19
378.576	1018.19
378.802	963.19
379.027	975.19
379.253	990.19
379.478	985.19
379.704	1002.19
379.929	988.19
380.155	996.19
380.38	1033.19
380.606	1004.19
380.831	1042.19
381.057	1094.19
381.282	1076.19
381.507	1055.19
381.733	1107.19
381.958	1160.19
382.184	1074.19
382.409	1037.19
382.634	1059.19
382.86	1049.19
383.085	1059.19
383.31	1103.19
383.535	1189.19
383.761	1266.19
383.986	1182.19
384.211	1130.19
384.436	1118.19
384.662	1232.19
384.887	1220.19
385.112	1159.19
385.337	1132.19
385.562	1146.19
385.787	1127.19
386.013	1182.19
386.238	1150.19
386.463	1187.19
386.688	1284.19
386.913	1345.19
387.138	1262.19
387.363	1170.19
387.588	1161.19
387.813	1170.19
388.038	1162.19
388.263	1220.19
388.488	1180.19
388.713	1094.19
388.938	1094.19
389.163	1117.19
389.387	1127.19
389.612	1129.19
389.837	1158.19
390.062	1119.19
390.287	1178.19
390.512	1150.19
390.736	1123.19
390.961	1114.19
391.186	1093.19
391.411	1108.19
391.636	1111.19
391.86	1136.19
392.085	1115.19
392.31	1155.19
392.534	1134.19
392.759	1144.19
392.984	1181.19
393.208	1164.19
393.433	1233.19
393.658	1237.19
393.882	1245.19
394.107	1159.19
394.331	1124.19
394.556	1134.19
394.78	1160.19
395.005	1221.19
395.229	1252.19
395.454	1353.19
395.678	1338.19
395.903	1258.19
396.127	1180.19
396.352	1228.19
396.576	1296.19
396.801	1290.19
397.025	1258.19
397.249	1243.19
397.474	1218.19
397.698	1239.19
397.922	1260.19
398.147	1351.19
398.371	1396.19
398.595	1371.19
398.82	1285.19
399.044	1340.19
399.268	1406.19
399.492	1446.19
399.717	1503.19
399.941	1525.19
400.165	1479.19
400.389	1491.19
400.613	1480.19
400.837	1690.19
401.062	1817.19
401.286	1577.19
401.51	1481.19
401.734	1491.19
401.958	1413.19
402.182	1337.19
402.406	1304.19
402.63	1304.19
402.854	1311.19
403.078	1318.19
403.302	1327.19
403.526	1336.19
403.75	1356.19
403.974	1372.19
404.198	1394.19
404.422	1447.19
404.645	1508.19
404.869	1469.19
405.093	1332.19
405.317	1348.19
405.541	1354.19
405.765	1362.19
405.988	1376.19
406.212	1397.19
406.436	1403.19
406.66	1471.19
406.883	1480.19
407.107	1698.19
407.331	1873.19
407.555	1950.19
407.778	1689.19
408.002	1468.19
408.226	1414.19
408.449	1439.19
408.673	1390.19
408.896	1399.19
409.12	1402.19
409.344	1376.19
409.567	1352.19
409.791	1361.19
410.014	1399.19
410.238	1502.19
410.461	1549.19
410.685	1413.19
410.908	1345.19
411.132	1373.19
411.355	1387.19
411.578	1328.19
411.802	1379.19
412.025	1361.19
412.249	1345.19
412.472	1330.19
412.695	1323.19
412.919	1300.19
413.142	1314.19
413.365	1332.19
413.589	1350.19
413.812	1461.19
414.035	1507.19
414.258	1360.19
414.482	1332.19
414.705	1321.19
414.928	1334.19
415.151	1297.19
415.374	1349.19
415.597	1356.19
415.821	1370.19
416.044	1348.19
416.267	1342.19
416.49	1317.19
416.713	1265.19
416.936	1315.19
417.159	1380.19
417.382	1383.19
417.605	1310.19
417.828	1345.19
418.051	1362.19
418.274	1313.19
418.497	1312.19
418.72	1280.19
418.943	1302.19
419.166	1318.19
419.389	1351.19
419.611	1319.19
419.834	1307.19
420.057	1329.19
420.28	1299.19
420.503	1317.19
420.726	1356.19
420.948	1336.19
421.171	1289.19
421.394	1298.19
421.617	1348.19
421.839	1341.19
422.062	1356.19
422.285	1278.19
422.507	1313.19
422.73	1238.19
422.953	1234.19
423.175	1218.19
423.398	1266.19
423.621	1298.19
423.843	1300.19
424.066	1328.19
424.288	1384.19
424.511	1419.19
424.733	1390.19
424.956	1281.19
425.178	1281.19
425.401	1290.19
425.623	1317.19
425.846	1275.19
426.068	1341.19
426.291	1350.19
426.513	1338.19
426.735	1358.19
426.958	1419.19
427.18	1532.19
427.402	1382.19
427.625	1432.19
427.847	1426.19
428.069	1274.19
428.292	1258.19
428.514	1244.19
428.736	1225.19
428.958	1241.19
429.181	1285.19
429.403	1479.19
429.625	1787.19
429.847	1498.19
430.069	1334.19
430.292	1455.19
430.514	1486.19
430.736	1383.19
430.958	1395.19
431.18	1310.19
431.402	1266.19
431.624	1226.19
431.846	1209.19
432.068	1132.19
432.29	1145.19
432.512	1183.19
432.734	1230.19
432.956	1264.19
433.178	1332.19
433.4	1315.19
433.622	1296.19
433.844	1279.19
434.066	1202.19
434.287	1207.19
434.509	1218.19
434.731	1278.19
434.953	1377.19
435.175	1374.19
435.397	1323.19
435.618	1257.19
435.84	1236.19
436.062	1245.19
436.284	1319.19
436.505	1318.19
436.727	1328.19
436.949	1318.19
437.17	1280.19
437.392	1268.19
437.614	1183.19
437.835	1186.19
438.057	1235.19
438.278	1293.19
438.5	1242.19
438.721	1252.19
438.943	1236.19
439.165	1247.19
439.386	1274.19
439.608	1307.19
439.829	1278.19
440.05	1270.19
440.272	1219.19
440.493	1239.19
440.715	1320.19
440.936	1359.19
441.158	1443.19
441.379	1416.19
441.6	1422.19
441.822	1338.19
442.043	1350.19
442.264	1361.19
442.486	1262.19
442.707	1268.19
442.928	1290.19
443.149	1343.19
443.371	1361.19
443.592	1383.19
443.813	1396.19
444.034	1372.19
444.255	1371.19
444.476	1372.19
444.698	1396.19
444.919	1440.19
445.14	1483.19
445.361	1468.19
445.582	1465.19
445.803	1418.19
446.024	1364.19
446.245	1418.19
446.466	1393.19
446.687	1339.19
446.908	1373.19
447.129	1303.19
447.35	1319.19
447.571	1305.19
447.792	1265.19
448.013	1253.19
448.234	1264.19
448.455	1344.19
448.675	1323.19
448.896	1252.19
449.117	1205.19
449.338	1258.19
449.559	1282.19
449.779	1341.19
450	1436.19
450.221	1499.19
450.442	1433.19
450.662	1250.19
450.883	1206.19
451.104	1198.19
451.324	1189.19
451.545	1234.19
451.766	1175.19
451.986	1155.19
452.207	1157.19
452.428	1101.19
452.648	1064.19
452.869	1106.19
453.089	1156.19
453.31	1168.19
453.53	1160.19
453.751	1116.19
453.971	1057.19
454.192	1113.19
454.412	1186.19
454.633	1144.19
454.853	1116.19
455.073	1080.19
455.294	1067.19
455.514	1096.19
455.734	1111.19
455.955	1075.19
456.175	1070.19
456.395	1068.19
456.616	1103.19
456.836	1119.19
457.056	1090.19
457.276	1102.19
457.497	1067.19
457.717	1029.19
457.937	1046.19
458.157	1105.19
458.377	1044.19
458.598	1035.19
458.818	1055.19
459.038	1119.19
459.258	1178.19
459.478	1165.19
459.698	1154.19
459.918	1170.19
460.138	1219.19
460.358	1286.19
460.578	1218.19
460.798	1311.19
461.018	1360.19
461.238	1306.19
461.458	1257.19
461.678	1252.19
461.898	1238.19
462.118	1192.19
462.338	1276.19
462.558	1282.19
462.777	1273.19
462.997	1319.19
463.217	1384.19
463.437	1367.19
463.657	1274.19
463.876	1272.19
464.096	1273.19
464.316	1273.19
464.536	1341.19
464.755	1318.19
464.975	1347.19
465.195	1268.19
465.414	1354.19
465.634	1307.19
465.854	1298.19
466.073	1436.19
466.293	1415.19
466.512	1222.19
466.732	1228.19
466.951	1278.19
467.171	1264.19
467.391	1202.19
467.61	1195.19
467.829	1215.19
468.049	1376.19
468.268	1498.19
468.488	1349.19
468.707	1278.19
468.927	1270.19
469.146	1215.19
469.365	1234.19
469.585	1227.19
469.804	1237.19
470.023	1265.19
470.243	1272.19
470.462	1257.19
470.681	1242.19
470.901	1248.19
471.12	1247.19
471.339	1245.19
471.558	1231.19
471.777	1220.19
471.997	1238.19
472.216	1206.19
472.435	1146.19
472.654	1146.19
472.873	1158.19
473.092	1232.19
473.311	1187.19
473.53	1134.19
473.749	1132.19
473.968	1201.19
474.187	1194.19
474.406	1223.19
474.625	1210.19
474.844	1232.19
475.063	1217.19
475.282	1274.19
475.501	1214.19
475.72	1210.19
475.939	1338.19
476.158	1238.19
476.377	1221.19
476.596	1225.19
476.814	1243.19
477.033	1249.19
477.252	1307.19
477.471	1327.19
477.69	1293.19
477.908	1278.19
478.127	1396.19
478.346	1438.19
478.564	1426.19
478.783	1431.19
479.002	1452.19
479.22	1414.19
479.439	1490.19
479.658	1603.19
479.876	1539.19
480.095	1394.19
480.313	1379.19
480.532	1298.19
480.751	1302.19
480.969	1332.19
481.188	1289.19
481.406	1268.19
481.624	1224.19
481.843	1281.19
482.061	1298.19
482.28	1350.19
482.498	1378.19
482.717	1320.19
482.935	1284.19
483.153	1379.19
483.372	1384.19
483.59	1376.19
483.808	1351.19
484.027	1361.19
484.245	1499.19
484.463	1758.19
484.681	1953.19
484.9	1503.19
485.118	1374.19
485.336	1333.19
485.554	1393.19
485.772	1413.19
485.99	1421.19
486.209	1433.19
486.427	1386.19
486.645	1375.19
486.863	1423.19
487.081	1438.19
487.299	1431.19
487.517	1487.19
487.735	1458.19
487.953	1528.19
488.171	1499.19
488.389	1486.19
488.607	1481.19
488.825	1619.19
489.043	1559.19
489.261	1412.19
489.479	1488.19
489.696	1516.19
489.914	1470.19
490.132	1439.19
490.35	1450.19
490.568	1549.19
490.786	1534.19
491.003	1508.19
491.221	1562.19
491.439	1607.19
491.657	1575.19
491.874	1646.19
492.092	1690.19
492.31	1704.19
492.527	1692.19
492.745	1633.19
492.963	1625.19
493.18	1589.19
493.398	1717.19
