Data from WStandard_LampEnergy8_LIBS07252019.E.O._I.C._HRD10591_15-58-03-928.txt Node
Date: Thu Jul 25 15:58:03 EDT 2019
User: cochatt
Spectrometer: HR+D1059
Trigger mode: 1
Integration Time (sec): 1.000000E-1
Scans to average: 1
Electric dark correction enabled: true
Nonlinearity correction enabled: false
Boxcar width: 0
XAxis mode: Wavelengths
Number of Pixels in Spectrum: 2048
>>>>>Begin Spectral Data<<<<<
223.165	-21.5
223.4	-21.5
223.635	-21.5
223.869	-25.5
224.104	-16.5
224.338	-7.5
224.573	-1.5
224.808	-19.5
225.042	-18.5
225.277	4.5
225.511	0.5
225.746	8.5
225.98	-2.5
226.215	3.5
226.449	25.5
226.683	17.5
226.918	32.5
227.152	20.5
227.387	32.5
227.621	42.5
227.856	46.5
228.09	39.5
228.324	42.5
228.559	63.5
228.793	107.5
229.027	200.5
229.262	208.5
229.496	209.5
229.73	233.5
229.964	252.5
230.199	262.5
230.433	272.5
230.667	284.5
230.901	296.5
231.136	273.5
231.37	261.5
231.604	271.5
231.838	250.5
232.072	257.5
232.306	278.5
232.541	275.5
232.775	297.5
233.009	344.5
233.243	330.5
233.477	285.5
233.711	301.5
233.945	312.5
234.179	319.5
234.413	333.5
234.647	340.5
234.881	329.5
235.115	301.5
235.349	290.5
235.583	294.5
235.817	303.5
236.051	292.5
236.285	300.5
236.519	341.5
236.753	364.5
236.987	376.5
237.221	378.5
237.455	398.5
237.689	373.5
237.922	348.5
238.156	353.5
238.39	352.5
238.624	383.5
238.858	402.5
239.091	388.5
239.325	429.5
239.559	493.5
239.793	519.5
240.027	524.5
240.26	525.5
240.494	396.5
240.728	375.5
240.961	398.5
241.195	378.5
241.429	432.5
241.662	438.5
241.896	413.5
242.13	393.5
242.363	440.5
242.597	457.5
242.83	466.5
243.064	478.5
243.298	476.5
243.531	467.5
243.765	459.5
243.998	489.5
244.232	417.5
244.465	417.5
244.699	438.5
244.932	468.5
245.166	528.5
245.399	501.5
245.633	448.5
245.866	472.5
246.099	495.5
246.333	496.5
246.566	490.5
246.8	544.5
247.033	605.5
247.266	557.5
247.5	529.5
247.733	540.5
247.966	578.5
248.2	636.5
248.433	597.5
248.666	619.5
248.899	681.5
249.133	791.5
249.366	874.5
249.599	693.5
249.832	627.5
250.066	636.5
250.299	649.5
250.532	588.5
250.765	536.5
250.998	592.5
251.231	607.5
251.465	629.5
251.698	605.5
251.931	604.5
252.164	629.5
252.397	622.5
252.63	619.5
252.863	556.5
253.096	565.5
253.329	589.5
253.562	580.5
253.795	658.5
254.028	624.5
254.261	561.5
254.494	589.5
254.727	584.5
254.96	598.5
255.193	660.5
255.426	738.5
255.659	843.5
255.892	810.5
256.124	665.5
256.357	652.5
256.59	715.5
256.823	738.5
257.056	748.5
257.289	859.5
257.521	920.5
257.754	830.5
257.987	813.5
258.22	868.5
258.452	824.5
258.685	691.5
258.918	704.5
259.151	685.5
259.383	675.5
259.616	590.5
259.849	636.5
260.081	707.5
260.314	787.5
260.547	820.5
260.779	842.5
261.012	789.5
261.244	724.5
261.477	682.5
261.71	707.5
261.942	683.5
262.175	662.5
262.407	715.5
262.64	681.5
262.872	659.5
263.105	642.5
263.337	653.5
263.57	639.5
263.802	658.5
264.035	647.5
264.267	570.5
264.499	570.5
264.732	638.5
264.964	639.5
265.197	678.5
265.429	724.5
265.661	808.5
265.894	865.5
266.126	902.5
266.358	826.5
266.591	843.5
266.823	891.5
267.055	786.5
267.287	795.5
267.52	796.5
267.752	759.5
267.984	770.5
268.216	827.5
268.448	837.5
268.681	810.5
268.913	740.5
269.145	724.5
269.377	743.5
269.609	776.5
269.841	901.5
270.073	1000.5
270.306	1137.5
270.538	1154.5
270.77	978.5
271.002	854.5
271.234	818.5
271.466	835.5
271.698	968.5
271.93	1072.5
272.162	1063.5
272.394	978.5
272.626	922.5
272.858	834.5
273.09	743.5
273.322	745.5
273.553	701.5
273.785	698.5
274.017	721.5
274.249	751.5
274.481	756.5
274.713	710.5
274.945	717.5
275.176	714.5
275.408	702.5
275.64	716.5
275.872	706.5
276.104	743.5
276.335	861.5
276.567	950.5
276.799	940.5
277.031	859.5
277.262	820.5
277.494	873.5
277.726	950.5
277.957	907.5
278.189	852.5
278.421	773.5
278.652	767.5
278.884	746.5
279.115	743.5
279.347	757.5
279.579	758.5
279.81	767.5
280.042	843.5
280.273	900.5
280.505	896.5
280.736	897.5
280.968	860.5
281.199	749.5
281.431	706.5
281.662	738.5
281.894	723.5
282.125	761.5
282.356	827.5
282.588	774.5
282.819	782.5
283.051	843.5
283.282	899.5
283.513	864.5
283.745	791.5
283.976	723.5
284.207	744.5
284.439	792.5
284.67	772.5
284.901	807.5
285.132	790.5
285.364	793.5
285.595	781.5
285.826	817.5
286.057	772.5
286.288	793.5
286.52	811.5
286.751	866.5
286.982	871.5
287.213	802.5
287.444	788.5
287.675	743.5
287.906	807.5
288.138	853.5
288.369	794.5
288.6	765.5
288.831	739.5
289.062	756.5
289.293	769.5
289.524	792.5
289.755	812.5
289.986	817.5
290.217	745.5
290.448	776.5
290.679	784.5
290.91	816.5
291.141	827.5
291.371	848.5
291.602	807.5
291.833	828.5
292.064	824.5
292.295	840.5
292.526	859.5
292.757	870.5
292.987	828.5
293.218	824.5
293.449	917.5
293.68	987.5
293.91	1044.5
294.141	950.5
294.372	925.5
294.603	958.5
294.833	1001.5
295.064	925.5
295.295	823.5
295.525	816.5
295.756	773.5
295.987	733.5
296.217	759.5
296.448	802.5
296.679	790.5
296.909	786.5
297.14	771.5
297.37	783.5
297.601	860.5
297.831	921.5
298.062	907.5
298.292	804.5
298.523	782.5
298.753	809.5
298.984	794.5
299.214	806.5
299.445	831.5
299.675	863.5
299.905	851.5
300.136	834.5
300.366	835.5
300.597	774.5
300.827	759.5
301.057	830.5
301.288	867.5
301.518	856.5
301.748	902.5
301.979	920.5
302.209	947.5
302.439	992.5
302.669	1018.5
302.9	948.5
303.13	874.5
303.36	872.5
303.59	880.5
303.82	889.5
304.051	875.5
304.281	846.5
304.511	885.5
304.741	948.5
304.971	1059.5
305.201	1072.5
305.431	981.5
305.661	820.5
305.891	764.5
306.121	789.5
306.352	797.5
306.582	853.5
306.812	913.5
307.042	965.5
307.272	996.5
307.502	1024.5
307.731	1082.5
307.961	1089.5
308.191	1030.5
308.421	908.5
308.651	834.5
308.881	859.5
309.111	839.5
309.341	844.5
309.571	826.5
309.8	837.5
310.03	830.5
310.26	825.5
310.49	830.5
310.72	858.5
310.949	900.5
311.179	904.5
311.409	863.5
311.639	838.5
311.868	842.5
312.098	883.5
312.328	856.5
312.557	831.5
312.787	836.5
313.017	910.5
313.246	895.5
313.476	896.5
313.706	886.5
313.935	892.5
314.165	926.5
314.394	938.5
314.624	1002.5
314.853	1029.5
315.083	1052.5
315.312	1076.5
315.542	998.5
315.771	928.5
316.001	941.5
316.23	965.5
316.46	950.5
316.689	943.5
316.919	890.5
317.148	881.5
317.377	893.5
317.607	986.5
317.836	1089.5
318.065	1132.5
318.295	1057.5
318.524	1005.5
318.753	959.5
318.983	971.5
319.212	925.5
319.441	906.5
319.67	894.5
319.9	928.5
320.129	1024.5
320.358	1037.5
320.587	1056.5
320.816	1045.5
321.046	1005.5
321.275	950.5
321.504	1011.5
321.733	1090.5
321.962	1003.5
322.191	931.5
322.42	946.5
322.649	930.5
322.878	920.5
323.108	916.5
323.337	1004.5
323.566	959.5
323.795	963.5
324.024	984.5
324.253	924.5
324.482	963.5
324.71	929.5
324.939	865.5
325.168	914.5
325.397	950.5
325.626	948.5
325.855	949.5
326.084	932.5
326.313	944.5
326.542	960.5
326.77	989.5
326.999	973.5
327.228	940.5
327.457	898.5
327.686	865.5
327.914	893.5
328.143	928.5
328.372	946.5
328.6	936.5
328.829	941.5
329.058	937.5
329.287	941.5
329.515	929.5
329.744	958.5
329.972	1014.5
330.201	1037.5
330.43	1024.5
330.658	992.5
330.887	994.5
331.115	987.5
331.344	1009.5
331.572	948.5
331.801	972.5
332.03	970.5
332.258	997.5
332.486	986.5
332.715	1012.5
332.943	1001.5
333.172	993.5
333.4	1011.5
333.629	1040.5
333.857	1139.5
334.085	1231.5
334.314	1404.5
334.542	1464.5
334.771	1335.5
334.999	1154.5
335.227	1081.5
335.455	1081.5
335.684	1037.5
335.912	1065.5
336.14	1128.5
336.369	1063.5
336.597	1018.5
336.825	997.5
337.053	1056.5
337.281	1116.5
337.51	1159.5
337.738	1180.5
337.966	1099.5
338.194	1012.5
338.422	1009.5
338.65	1000.5
338.878	956.5
339.106	979.5
339.334	905.5
339.562	921.5
339.79	953.5
340.018	1010.5
340.246	1064.5
340.474	1062.5
340.702	1015.5
340.93	1067.5
341.158	1024.5
341.386	989.5
341.614	1000.5
341.842	976.5
342.07	1000.5
342.298	1030.5
342.526	1002.5
342.754	1001.5
342.981	1002.5
343.209	980.5
343.437	973.5
343.665	974.5
343.893	1032.5
344.12	1040.5
344.348	1072.5
344.576	1010.5
344.804	990.5
345.031	988.5
345.259	970.5
345.487	968.5
345.714	927.5
345.942	875.5
346.17	947.5
346.397	958.5
346.625	917.5
346.853	876.5
347.08	906.5
347.308	896.5
347.535	928.5
347.763	975.5
347.99	952.5
348.218	886.5
348.445	903.5
348.673	917.5
348.9	966.5
349.128	1011.5
349.355	1030.5
349.583	989.5
349.81	942.5
350.037	860.5
350.265	860.5
350.492	893.5
350.72	921.5
350.947	966.5
351.174	952.5
351.402	880.5
351.629	862.5
351.856	855.5
352.083	858.5
352.311	883.5
352.538	908.5
352.765	933.5
352.992	970.5
353.22	929.5
353.447	886.5
353.674	924.5
353.901	925.5
354.128	940.5
354.355	906.5
354.583	944.5
354.81	940.5
355.037	958.5
355.264	952.5
355.491	902.5
355.718	955.5
355.945	933.5
356.172	889.5
356.399	875.5
356.626	888.5
356.853	939.5
357.08	1048.5
357.307	1117.5
357.534	1068.5
357.761	944.5
357.988	900.5
358.215	867.5
358.441	916.5
358.668	883.5
358.895	917.5
359.122	1015.5
359.349	1056.5
359.576	1007.5
359.802	934.5
360.029	889.5
360.256	896.5
360.483	916.5
360.709	926.5
360.936	989.5
361.163	1045.5
361.39	1134.5
361.616	1165.5
361.843	1117.5
362.07	1040.5
362.296	958.5
362.523	894.5
362.749	918.5
362.976	948.5
363.203	953.5
363.429	922.5
363.656	893.5
363.882	919.5
364.109	1042.5
364.335	1110.5
364.562	1041.5
364.788	984.5
365.015	950.5
365.241	906.5
365.468	932.5
365.694	982.5
365.92	996.5
366.147	939.5
366.373	893.5
366.599	914.5
366.826	908.5
367.052	912.5
367.278	930.5
367.505	955.5
367.731	937.5
367.957	952.5
368.184	1008.5
368.41	1076.5
368.636	1079.5
368.862	1059.5
369.089	1066.5
369.315	1037.5
369.541	972.5
369.767	946.5
369.993	922.5
370.219	907.5
370.445	969.5
370.672	1038.5
370.898	1068.5
371.124	1051.5
371.35	992.5
371.576	1010.5
371.802	1044.5
372.028	1000.5
372.254	956.5
372.48	934.5
372.706	923.5
372.932	968.5
373.158	948.5
373.384	973.5
373.61	1033.5
373.835	1036.5
374.061	997.5
374.287	981.5
374.513	1006.5
374.739	1000.5
374.965	1000.5
375.191	1009.5
375.416	1052.5
375.642	996.5
375.868	1085.5
376.094	1144.5
376.319	1066.5
376.545	1001.5
376.771	1037.5
376.997	1076.5
377.222	1070.5
377.448	1050.5
377.674	1052.5
377.899	1052.5
378.125	1113.5
378.35	1080.5
378.576	971.5
378.802	952.5
379.027	947.5
379.253	973.5
379.478	974.5
379.704	979.5
379.929	964.5
380.155	1027.5
380.38	1015.5
380.606	1008.5
380.831	996.5
381.057	1100.5
381.282	1076.5
381.507	1075.5
381.733	1146.5
381.958	1149.5
382.184	1051.5
382.409	1052.5
382.634	1060.5
382.86	1027.5
383.085	1020.5
383.31	1066.5
383.535	1159.5
383.761	1231.5
383.986	1170.5
384.211	1101.5
384.436	1124.5
384.662	1164.5
384.887	1184.5
385.112	1124.5
385.337	1105.5
385.562	1125.5
385.787	1101.5
386.013	1138.5
386.238	1170.5
386.463	1175.5
386.688	1247.5
386.913	1302.5
387.138	1248.5
387.363	1151.5
387.588	1165.5
387.813	1165.5
388.038	1204.5
388.263	1234.5
388.488	1170.5
388.713	1059.5
388.938	1090.5
389.163	1083.5
389.387	1094.5
389.612	1124.5
389.837	1139.5
390.062	1134.5
390.287	1146.5
390.512	1133.5
390.736	1120.5
390.961	1080.5
391.186	1099.5
391.411	1088.5
391.636	1131.5
391.86	1130.5
392.085	1108.5
392.31	1110.5
392.534	1143.5
392.759	1162.5
392.984	1127.5
393.208	1147.5
393.433	1176.5
393.658	1265.5
393.882	1216.5
394.107	1160.5
394.331	1140.5
394.556	1140.5
394.78	1160.5
395.005	1196.5
395.229	1236.5
395.454	1303.5
395.678	1292.5
395.903	1217.5
396.127	1216.5
396.352	1207.5
396.576	1283.5
396.801	1292.5
397.025	1234.5
397.249	1252.5
397.474	1228.5
397.698	1206.5
397.922	1286.5
398.147	1321.5
398.371	1401.5
398.595	1320.5
398.82	1305.5
399.044	1329.5
399.268	1414.5
399.492	1460.5
399.717	1464.5
399.941	1491.5
400.165	1467.5
400.389	1426.5
400.613	1436.5
400.837	1650.5
401.062	1773.5
401.286	1541.5
401.51	1424.5
401.734	1460.5
401.958	1405.5
402.182	1317.5
402.406	1286.5
402.63	1256.5
402.854	1271.5
403.078	1311.5
403.302	1309.5
403.526	1317.5
403.75	1366.5
403.974	1366.5
404.198	1315.5
404.422	1377.5
404.645	1490.5
404.869	1412.5
405.093	1311.5
405.317	1291.5
405.541	1308.5
405.765	1343.5
405.988	1346.5
406.212	1376.5
406.436	1420.5
406.66	1458.5
406.883	1468.5
407.107	1673.5
407.331	1806.5
407.555	1914.5
407.778	1658.5
408.002	1418.5
408.226	1421.5
408.449	1411.5
408.673	1343.5
408.896	1374.5
409.12	1395.5
409.344	1356.5
409.567	1336.5
409.791	1325.5
410.014	1386.5
410.238	1462.5
410.461	1516.5
410.685	1369.5
410.908	1342.5
411.132	1332.5
411.355	1308.5
411.578	1314.5
411.802	1345.5
412.025	1346.5
412.249	1307.5
412.472	1304.5
412.695	1288.5
412.919	1306.5
413.142	1287.5
413.365	1319.5
413.589	1326.5
413.812	1405.5
414.035	1452.5
414.258	1289.5
414.482	1294.5
414.705	1325.5
414.928	1273.5
415.151	1312.5
415.374	1314.5
415.597	1337.5
415.821	1339.5
416.044	1335.5
416.267	1330.5
416.49	1284.5
416.713	1269.5
416.936	1312.5
417.159	1402.5
417.382	1385.5
417.605	1270.5
417.828	1329.5
418.051	1333.5
418.274	1292.5
418.497	1279.5
418.72	1284.5
418.943	1260.5
419.166	1323.5
419.389	1362.5
419.611	1323.5
419.834	1309.5
420.057	1320.5
420.28	1301.5
420.503	1277.5
420.726	1345.5
420.948	1315.5
421.171	1272.5
421.394	1296.5
421.617	1324.5
421.839	1358.5
422.062	1330.5
422.285	1237.5
422.507	1280.5
422.73	1239.5
422.953	1225.5
423.175	1227.5
423.398	1241.5
423.621	1235.5
423.843	1254.5
424.066	1340.5
424.288	1357.5
424.511	1429.5
424.733	1318.5
424.956	1245.5
425.178	1267.5
425.401	1244.5
425.623	1272.5
425.846	1239.5
426.068	1332.5
426.291	1328.5
426.513	1347.5
426.735	1360.5
426.958	1405.5
427.18	1479.5
427.402	1349.5
427.625	1373.5
427.847	1380.5
428.069	1269.5
428.292	1274.5
428.514	1240.5
428.736	1233.5
428.958	1254.5
429.181	1271.5
429.403	1478.5
429.625	1802.5
429.847	1472.5
430.069	1313.5
430.292	1473.5
430.514	1444.5
430.736	1357.5
430.958	1371.5
431.18	1290.5
431.402	1214.5
431.624	1210.5
431.846	1190.5
432.068	1141.5
432.29	1093.5
432.512	1190.5
432.734	1244.5
432.956	1326.5
433.178	1329.5
433.4	1334.5
433.622	1275.5
433.844	1255.5
434.066	1171.5
434.287	1128.5
434.509	1200.5
434.731	1266.5
434.953	1366.5
435.175	1317.5
435.397	1308.5
435.618	1266.5
435.84	1221.5
436.062	1220.5
436.284	1262.5
436.505	1286.5
436.727	1308.5
436.949	1264.5
437.17	1233.5
437.392	1213.5
437.614	1216.5
437.835	1174.5
438.057	1220.5
438.278	1253.5
438.5	1209.5
438.721	1247.5
438.943	1241.5
439.165	1250.5
439.386	1231.5
439.608	1266.5
439.829	1245.5
440.05	1267.5
440.272	1243.5
440.493	1230.5
440.715	1273.5
440.936	1358.5
441.158	1439.5
441.379	1398.5
441.6	1355.5
441.822	1357.5
442.043	1330.5
442.264	1304.5
442.486	1218.5
442.707	1220.5
442.928	1268.5
443.149	1290.5
443.371	1340.5
443.592	1436.5
443.813	1394.5
444.034	1378.5
444.255	1344.5
444.476	1381.5
444.698	1397.5
444.919	1365.5
445.14	1488.5
445.361	1452.5
445.582	1471.5
445.803	1433.5
446.024	1383.5
446.245	1409.5
446.466	1402.5
446.687	1301.5
446.908	1330.5
447.129	1304.5
447.35	1321.5
447.571	1282.5
447.792	1235.5
448.013	1233.5
448.234	1280.5
448.455	1332.5
448.675	1334.5
448.896	1199.5
449.117	1217.5
449.338	1219.5
449.559	1308.5
449.779	1335.5
450	1441.5
450.221	1491.5
450.442	1478.5
450.662	1278.5
450.883	1198.5
451.104	1152.5
451.324	1208.5
451.545	1227.5
451.766	1209.5
451.986	1150.5
452.207	1152.5
452.428	1107.5
452.648	1076.5
452.869	1137.5
453.089	1148.5
453.31	1147.5
453.53	1166.5
453.751	1133.5
453.971	1064.5
454.192	1108.5
454.412	1129.5
454.633	1140.5
454.853	1112.5
455.073	1034.5
455.294	1055.5
455.514	1040.5
455.734	1065.5
455.955	1092.5
456.175	1070.5
456.395	1081.5
456.616	1087.5
456.836	1091.5
457.056	1066.5
457.276	1089.5
457.497	1042.5
457.717	1014.5
457.937	1055.5
458.157	1091.5
458.377	1032.5
458.598	1053.5
458.818	1014.5
459.038	1136.5
459.258	1151.5
459.478	1152.5
459.698	1127.5
459.918	1137.5
460.138	1228.5
460.358	1221.5
460.578	1239.5
460.798	1300.5
461.018	1348.5
461.238	1296.5
461.458	1281.5
461.678	1234.5
461.898	1213.5
462.118	1213.5
462.338	1266.5
462.558	1244.5
462.777	1239.5
462.997	1292.5
463.217	1373.5
463.437	1340.5
463.657	1283.5
463.876	1244.5
464.096	1220.5
464.316	1236.5
464.536	1281.5
464.755	1307.5
464.975	1299.5
465.195	1285.5
465.414	1308.5
465.634	1311.5
465.854	1293.5
466.073	1394.5
466.293	1315.5
466.512	1212.5
466.732	1235.5
466.951	1244.5
467.171	1250.5
467.391	1181.5
467.61	1148.5
467.829	1243.5
468.049	1326.5
468.268	1467.5
468.488	1341.5
468.707	1261.5
468.927	1237.5
469.146	1200.5
469.365	1213.5
469.585	1236.5
469.804	1220.5
470.023	1236.5
470.243	1262.5
470.462	1251.5
470.681	1240.5
470.901	1266.5
471.12	1249.5
471.339	1210.5
471.558	1210.5
471.777	1197.5
471.997	1198.5
472.216	1172.5
472.435	1128.5
472.654	1148.5
472.873	1174.5
473.092	1218.5
473.311	1184.5
473.53	1130.5
473.749	1129.5
473.968	1131.5
474.187	1204.5
474.406	1242.5
474.625	1213.5
474.844	1224.5
475.063	1204.5
475.282	1229.5
475.501	1191.5
475.72	1229.5
475.939	1278.5
476.158	1254.5
476.377	1173.5
476.596	1172.5
476.814	1208.5
477.033	1186.5
477.252	1285.5
477.471	1291.5
477.69	1255.5
477.908	1292.5
478.127	1338.5
478.346	1440.5
478.564	1404.5
478.783	1449.5
479.002	1440.5
479.22	1404.5
479.439	1466.5
479.658	1597.5
479.876	1516.5
480.095	1373.5
480.313	1340.5
480.532	1295.5
480.751	1278.5
480.969	1268.5
481.188	1295.5
481.406	1270.5
481.624	1206.5
481.843	1240.5
482.061	1275.5
482.28	1324.5
482.498	1362.5
482.717	1293.5
482.935	1298.5
483.153	1324.5
483.372	1356.5
483.59	1341.5
483.808	1364.5
484.027	1370.5
484.245	1406.5
484.463	1738.5
484.681	1912.5
484.9	1453.5
485.118	1333.5
485.336	1332.5
485.554	1368.5
485.772	1406.5
485.99	1349.5
486.209	1397.5
486.427	1356.5
486.645	1349.5
486.863	1421.5
487.081	1442.5
487.299	1447.5
487.517	1403.5
487.735	1491.5
487.953	1473.5
488.171	1526.5
488.389	1445.5
488.607	1448.5
488.825	1556.5
489.043	1536.5
489.261	1384.5
489.479	1450.5
489.696	1490.5
489.914	1473.5
490.132	1403.5
490.35	1430.5
490.568	1521.5
490.786	1479.5
491.003	1468.5
491.221	1532.5
491.439	1579.5
491.657	1581.5
491.874	1627.5
492.092	1668.5
492.31	1691.5
492.527	1659.5
492.745	1652.5
492.963	1578.5
493.18	1614.5
493.398	1665.5
493.615	1677.5
493.833	1597.5
494.05	1557.5
494.268	1550.5
494.485	1587.5
494.703	1576.5
494.92	1550.5
495.138	1544.5
495.355	1558.5
495.573	1615.5
495.79	1668.5
496.008	1630.5
496.225	1604.5
496.442	1602.5
496.66	1615.5
496.877	1561.5
497.094	1607.5
497.312	1636.5
497.529	1609.5
497.746	1660.5
497.963	1845.5
498.181	1961.5
498.398	1940.5
498.615	1814.5
498.832	1761.5
499.049	1727.5
499.267	1761.5
499.484	1869.5
499.701	1955.5
499.918	2006.5
500.135	2176.5
500.352	2275.5
500.569	2290.5
500.786	2509.5
501.003	2285.5
501.22	2061.5
501.437	2078.5
501.654	2107.5
501.871	1998.5
502.088	1766.5
502.305	1724.5
502.522	1685.5
502.739	1591.5
502.956	1534.5
503.172	1581.5
503.389	1499.5
503.606	1427.5
503.823	1466.5
504.04	1517.5
504.256	1473.5
504.473	1495.5
504.69	1531.5
504.907	1444.5
505.123	1407.5
505.34	1525.5
505.557	1985.5
505.773	1654.5
505.99	1360.5
506.207	1290.5
506.423	1274.5
506.64	1265.5
506.856	1326.5
507.073	1543.5
507.289	1573.5
507.506	1496.5
507.722	1297.5
507.939	1250.5
508.155	1237.5
508.372	1248.5
508.588	1205.5
508.805	1174.5
509.021	1161.5
509.238	1159.5
509.454	1145.5
509.67	1146.5
