Data from WStandard_LampEnergy5.5LIBS07252019.E.O._I.C._HRD10591_16-06-38-919.txt Node
Date: Thu Jul 25 16:06:38 EDT 2019
User: cochatt
Spectrometer: HR+D1059
Trigger mode: 1
Integration Time (sec): 1.000000E-1
Scans to average: 1
Electric dark correction enabled: true
Nonlinearity correction enabled: false
Boxcar width: 0
XAxis mode: Wavelengths
Number of Pixels in Spectrum: 2048
>>>>>Begin Spectral Data<<<<<
223.165	-7.62
223.4	-7.62
223.635	-7.62
223.869	-17.62
224.104	-19.62
224.338	-6.62
224.573	-13.62
224.808	-5.62
225.042	-14.62
225.277	-21.62
225.511	8.38
225.746	3.38
225.98	4.38
226.215	19.38
226.449	18.38
226.683	14.38
226.918	12.38
227.152	26.38
227.387	32.38
227.621	39.38
227.856	36.38
228.09	53.38
228.324	52.38
228.559	60.38
228.793	154.38
229.027	345.38
229.262	364.38
229.496	406.38
229.73	410.38
229.964	449.38
230.199	448.38
230.433	465.38
230.667	508.38
230.901	521.38
231.136	479.38
231.37	466.38
231.604	481.38
231.838	461.38
232.072	483.38
232.306	456.38
232.541	475.38
232.775	527.38
233.009	611.38
233.243	599.38
233.477	510.38
233.711	557.38
233.945	556.38
234.179	548.38
234.413	588.38
234.647	635.38
234.881	612.38
235.115	561.38
235.349	548.38
235.583	554.38
235.817	554.38
236.051	547.38
236.285	562.38
236.519	596.38
236.753	679.38
236.987	680.38
237.221	659.38
237.455	724.38
237.689	721.38
237.922	659.38
238.156	651.38
238.39	640.38
238.624	708.38
238.858	736.38
239.091	755.38
239.325	810.38
239.559	920.38
239.793	985.38
240.027	1030.38
240.26	1032.38
240.494	765.38
240.728	706.38
240.961	709.38
241.195	740.38
241.429	813.38
241.662	806.38
241.896	737.38
242.13	783.38
242.363	860.38
242.597	929.38
242.83	888.38
243.064	890.38
243.298	963.38
243.531	925.38
243.765	924.38
243.998	924.38
244.232	807.38
244.465	776.38
244.699	793.38
244.932	875.38
245.166	1034.38
245.399	973.38
245.633	924.38
245.866	880.38
246.099	924.38
246.333	935.38
246.566	973.38
246.8	1038.38
247.033	1193.38
247.266	1090.38
247.5	1065.38
247.733	1029.38
247.966	1112.38
248.2	1270.38
248.433	1174.38
248.666	1251.38
248.899	1321.38
249.133	1507.38
249.366	1786.38
249.599	1424.38
249.832	1234.38
250.066	1280.38
250.299	1298.38
250.532	1216.38
250.765	1053.38
250.998	1148.38
251.231	1220.38
251.465	1209.38
251.698	1184.38
251.931	1207.38
252.164	1182.38
252.397	1266.38
252.63	1258.38
252.863	1107.38
253.096	1090.38
253.329	1140.38
253.562	1191.38
253.795	1276.38
254.028	1293.38
254.261	1193.38
254.494	1152.38
254.727	1086.38
254.96	1128.38
255.193	1228.38
255.426	1380.38
255.659	1607.38
255.892	1708.38
256.124	1379.38
256.357	1326.38
256.59	1436.38
256.823	1432.38
257.056	1414.38
257.289	1696.38
257.521	1879.38
257.754	1692.38
257.987	1566.38
258.22	1767.38
258.452	1743.38
258.685	1409.38
258.918	1334.38
259.151	1395.38
259.383	1346.38
259.616	1124.38
259.849	1221.38
260.081	1404.38
260.314	1532.38
260.547	1675.38
260.779	1739.38
261.012	1618.38
261.244	1453.38
261.477	1360.38
261.71	1412.38
261.942	1415.38
262.175	1365.38
262.407	1458.38
262.64	1392.38
262.872	1259.38
263.105	1225.38
263.337	1292.38
263.57	1300.38
263.802	1289.38
264.035	1213.38
264.267	1153.38
264.499	1123.38
264.732	1236.38
264.964	1261.38
265.197	1340.38
265.429	1375.38
265.661	1560.38
265.894	1714.38
266.126	1782.38
266.358	1567.38
266.591	1626.38
266.823	1801.38
267.055	1576.38
267.287	1593.38
267.52	1556.38
267.752	1514.38
267.984	1533.38
268.216	1630.38
268.448	1655.38
268.681	1645.38
268.913	1494.38
269.145	1427.38
269.377	1388.38
269.609	1451.38
269.841	1714.38
270.073	2026.38
270.306	2231.38
270.538	2425.38
270.77	2034.38
271.002	1724.38
271.234	1616.38
271.466	1622.38
271.698	1810.38
271.93	2191.38
272.162	2178.38
272.394	1956.38
272.626	1922.38
272.858	1642.38
273.09	1446.38
273.322	1450.38
273.553	1369.38
273.785	1403.38
274.017	1438.38
274.249	1531.38
274.481	1580.38
274.713	1426.38
274.945	1370.38
275.176	1437.38
275.408	1400.38
275.64	1372.38
275.872	1342.38
276.104	1423.38
276.335	1632.38
276.567	1879.38
276.799	1883.38
277.031	1655.38
277.262	1576.38
277.494	1643.38
277.726	1806.38
277.957	1821.38
278.189	1684.38
278.421	1545.38
278.652	1480.38
278.884	1462.38
279.115	1461.38
279.347	1491.38
279.579	1430.38
279.81	1449.38
280.042	1614.38
280.273	1760.38
280.505	1745.38
280.736	1795.38
280.968	1688.38
281.199	1466.38
281.431	1437.38
281.662	1435.38
281.894	1417.38
282.125	1476.38
282.356	1522.38
282.588	1552.38
282.819	1524.38
283.051	1672.38
283.282	1772.38
283.513	1749.38
283.745	1477.38
283.976	1386.38
284.207	1432.38
284.439	1464.38
284.67	1461.38
284.901	1518.38
285.132	1546.38
285.364	1489.38
285.595	1574.38
285.826	1484.38
286.057	1467.38
286.288	1472.38
286.52	1514.38
286.751	1676.38
286.982	1736.38
287.213	1597.38
287.444	1460.38
287.675	1431.38
287.906	1527.38
288.138	1612.38
288.369	1556.38
288.6	1535.38
288.831	1472.38
289.062	1458.38
289.293	1502.38
289.524	1466.38
289.755	1541.38
289.986	1569.38
290.217	1444.38
290.448	1450.38
290.679	1526.38
290.91	1524.38
291.141	1562.38
291.371	1588.38
291.602	1634.38
291.833	1573.38
292.064	1629.38
292.295	1623.38
292.526	1620.38
292.757	1721.38
292.987	1622.38
293.218	1526.38
293.449	1628.38
293.68	1842.38
293.91	2026.38
294.141	1896.38
294.372	1719.38
294.603	1809.38
294.833	1861.38
295.064	1806.38
295.295	1612.38
295.525	1608.38
295.756	1475.38
295.987	1401.38
296.217	1427.38
296.448	1468.38
296.679	1464.38
296.909	1487.38
297.14	1481.38
297.37	1486.38
297.601	1560.38
297.831	1707.38
298.062	1684.38
298.292	1558.38
298.523	1443.38
298.753	1521.38
298.984	1542.38
299.214	1562.38
299.445	1568.38
299.675	1624.38
299.905	1622.38
300.136	1552.38
300.366	1568.38
300.597	1462.38
300.827	1507.38
301.057	1517.38
301.288	1624.38
301.518	1588.38
301.748	1599.38
301.979	1685.38
302.209	1764.38
302.439	1849.38
302.669	1947.38
302.9	1821.38
303.13	1628.38
303.36	1599.38
303.59	1676.38
303.82	1656.38
304.051	1598.38
304.281	1637.38
304.511	1644.38
304.741	1669.38
304.971	1908.38
305.201	2093.38
305.431	1907.38
305.661	1594.38
305.891	1442.38
306.121	1464.38
306.352	1458.38
306.582	1554.38
306.812	1689.38
307.042	1771.38
307.272	1769.38
307.502	1800.38
307.731	1985.38
307.961	2166.38
308.191	2029.38
308.421	1702.38
308.651	1597.38
308.881	1591.38
309.111	1556.38
309.341	1555.38
309.571	1605.38
309.8	1576.38
310.03	1563.38
310.26	1516.38
310.49	1543.38
310.72	1573.38
310.949	1651.38
311.179	1702.38
311.409	1645.38
311.639	1586.38
311.868	1541.38
312.098	1607.38
312.328	1588.38
312.557	1545.38
312.787	1629.38
313.017	1662.38
313.246	1633.38
313.476	1604.38
313.706	1645.38
313.935	1682.38
314.165	1678.38
314.394	1698.38
314.624	1844.38
314.853	1926.38
315.083	1963.38
315.312	2082.38
315.542	1933.38
315.771	1718.38
316.001	1700.38
316.23	1802.38
316.46	1780.38
316.689	1747.38
316.919	1678.38
317.148	1603.38
317.377	1615.38
317.607	1716.38
317.836	1958.38
318.065	2029.38
318.295	1923.38
318.524	1872.38
318.753	1815.38
318.983	1798.38
319.212	1747.38
319.441	1704.38
319.67	1660.38
319.9	1713.38
320.129	1797.38
320.358	1906.38
320.587	1910.38
320.816	1914.38
321.046	1891.38
321.275	1753.38
321.504	1728.38
321.733	1925.38
321.962	1909.38
322.191	1729.38
322.42	1746.38
322.649	1696.38
322.878	1736.38
323.108	1698.38
323.337	1803.38
323.566	1778.38
323.795	1791.38
324.024	1806.38
324.253	1759.38
324.482	1756.38
324.71	1736.38
324.939	1625.38
325.168	1624.38
325.397	1714.38
325.626	1765.38
325.855	1816.38
326.084	1693.38
326.313	1745.38
326.542	1781.38
326.77	1812.38
326.999	1817.38
327.228	1734.38
327.457	1649.38
327.686	1637.38
327.914	1672.38
328.143	1706.38
328.372	1762.38
328.6	1730.38
328.829	1693.38
329.058	1709.38
329.287	1662.38
329.515	1753.38
329.744	1738.38
329.972	1842.38
330.201	1888.38
330.43	1912.38
330.658	1812.38
330.887	1829.38
331.115	1834.38
331.344	1820.38
331.572	1789.38
331.801	1798.38
332.03	1804.38
332.258	1789.38
332.486	1810.38
332.715	1862.38
332.943	1872.38
333.172	1830.38
333.4	1852.38
333.629	1881.38
333.857	1952.38
334.085	2121.38
334.314	2466.38
334.542	2724.38
334.771	2498.38
334.999	2191.38
335.227	2072.38
335.455	1948.38
335.684	1949.38
335.912	1981.38
336.14	2046.38
336.369	1957.38
336.597	1874.38
336.825	1816.38
337.053	1878.38
337.281	1957.38
337.51	2076.38
337.738	2174.38
337.966	2106.38
338.194	1901.38
338.422	1826.38
338.65	1801.38
338.878	1780.38
339.106	1777.38
339.334	1732.38
339.562	1703.38
339.79	1749.38
340.018	1857.38
340.246	1929.38
340.474	1936.38
340.702	1904.38
340.93	1912.38
341.158	1849.38
341.386	1814.38
341.614	1853.38
341.842	1803.38
342.07	1824.38
342.298	1807.38
342.526	1819.38
342.754	1797.38
342.981	1737.38
343.209	1789.38
343.437	1729.38
343.665	1785.38
343.893	1819.38
344.12	1907.38
344.348	2005.38
344.576	1879.38
344.804	1803.38
345.031	1766.38
345.259	1813.38
345.487	1714.38
345.714	1658.38
345.942	1615.38
346.17	1650.38
346.397	1680.38
346.625	1748.38
346.853	1605.38
347.08	1611.38
347.308	1640.38
347.535	1680.38
347.763	1729.38
347.99	1721.38
348.218	1606.38
348.445	1618.38
348.673	1681.38
348.9	1714.38
349.128	1761.38
349.355	1862.38
349.583	1798.38
349.81	1703.38
350.037	1567.38
350.265	1527.38
350.492	1591.38
350.72	1626.38
350.947	1661.38
351.174	1708.38
351.402	1665.38
351.629	1594.38
351.856	1556.38
352.083	1495.38
352.311	1554.38
352.538	1588.38
352.765	1673.38
352.992	1715.38
353.22	1648.38
353.447	1619.38
353.674	1618.38
353.901	1676.38
354.128	1605.38
354.355	1588.38
354.583	1679.38
354.81	1685.38
355.037	1728.38
355.264	1712.38
355.491	1672.38
355.718	1692.38
355.945	1659.38
356.172	1640.38
356.399	1579.38
356.626	1590.38
356.853	1643.38
357.08	1779.38
357.307	1976.38
357.534	1954.38
357.761	1766.38
357.988	1624.38
358.215	1589.38
358.441	1607.38
358.668	1547.38
358.895	1565.38
359.122	1662.38
359.349	1800.38
359.576	1827.38
359.802	1629.38
360.029	1638.38
360.256	1581.38
360.483	1615.38
360.709	1673.38
360.936	1691.38
361.163	1725.38
361.39	1906.38
361.616	2091.38
361.843	2029.38
362.07	1931.38
362.296	1724.38
362.523	1648.38
362.749	1615.38
362.976	1668.38
363.203	1669.38
363.429	1628.38
363.656	1606.38
363.882	1628.38
364.109	1797.38
364.335	1972.38
364.562	1824.38
364.788	1734.38
365.015	1701.38
365.241	1600.38
365.468	1666.38
365.694	1707.38
365.92	1785.38
366.147	1701.38
366.373	1658.38
366.599	1584.38
366.826	1596.38
367.052	1589.38
367.278	1594.38
367.505	1620.38
367.731	1653.38
367.957	1635.38
368.184	1717.38
368.41	1829.38
368.636	1849.38
368.862	1814.38
369.089	1869.38
369.315	1821.38
369.541	1708.38
369.767	1706.38
369.993	1615.38
370.219	1614.38
370.445	1686.38
370.672	1764.38
370.898	1828.38
371.124	1812.38
371.35	1725.38
371.576	1765.38
371.802	1840.38
372.028	1773.38
372.254	1693.38
372.48	1665.38
372.706	1663.38
372.932	1638.38
373.158	1668.38
373.384	1669.38
373.61	1734.38
373.835	1832.38
374.061	1754.38
374.287	1706.38
374.513	1720.38
374.739	1756.38
374.965	1769.38
375.191	1744.38
375.416	1742.38
375.642	1804.38
375.868	1826.38
376.094	1915.38
376.319	1892.38
376.545	1716.38
376.771	1730.38
376.997	1852.38
377.222	1813.38
377.448	1777.38
377.674	1835.38
377.899	1757.38
378.125	1868.38
378.35	1898.38
378.576	1732.38
378.802	1640.38
379.027	1672.38
379.253	1724.38
379.478	1699.38
379.704	1716.38
379.929	1708.38
380.155	1715.38
380.38	1730.38
380.606	1735.38
380.831	1740.38
381.057	1811.38
381.282	1841.38
381.507	1767.38
381.733	1869.38
381.958	1974.38
382.184	1841.38
382.409	1734.38
382.634	1789.38
382.86	1799.38
383.085	1803.38
383.31	1830.38
383.535	1968.38
383.761	2058.38
383.986	1992.38
384.211	1897.38
384.436	1958.38
384.662	1994.38
384.887	2077.38
385.112	1999.38
385.337	1984.38
385.562	1938.38
385.787	1928.38
386.013	2003.38
386.238	2012.38
386.463	1997.38
386.688	2128.38
386.913	2279.38
387.138	2208.38
387.363	2060.38
387.588	2029.38
387.813	2015.38
388.038	2009.38
388.263	2071.38
388.488	2068.38
388.713	1893.38
388.938	1901.38
389.163	1876.38
389.387	1951.38
389.612	1940.38
389.837	2005.38
390.062	1976.38
390.287	1996.38
390.512	1984.38
390.736	1992.38
390.961	1889.38
391.186	1843.38
391.411	1897.38
391.636	1948.38
391.86	1970.38
392.085	1944.38
392.31	1921.38
392.534	1947.38
392.759	1954.38
392.984	1957.38
393.208	1986.38
393.433	2080.38
393.658	2153.38
393.882	2136.38
394.107	1984.38
394.331	1963.38
394.556	1938.38
394.78	1990.38
395.005	2034.38
395.229	2077.38
395.454	2214.38
395.678	2247.38
395.903	2147.38
396.127	2086.38
396.352	2075.38
396.576	2123.38
396.801	2147.38
397.025	2170.38
397.249	2168.38
397.474	2171.38
397.698	2069.38
397.922	2172.38
398.147	2245.38
398.371	2357.38
398.595	2357.38
398.82	2225.38
399.044	2292.38
399.268	2401.38
399.492	2532.38
399.717	2650.38
399.941	2682.38
400.165	2595.38
400.389	2539.38
400.613	2474.38
400.837	2705.38
401.062	3069.38
401.286	2724.38
401.51	2406.38
401.734	2558.38
401.958	2502.38
402.182	2330.38
402.406	2219.38
402.63	2239.38
402.854	2189.38
403.078	2255.38
403.302	2301.38
403.526	2338.38
403.75	2339.38
403.974	2369.38
404.198	2354.38
404.422	2366.38
404.645	2516.38
404.869	2518.38
405.093	2365.38
405.317	2221.38
405.541	2334.38
405.765	2365.38
405.988	2338.38
406.212	2425.38
406.436	2439.38
406.66	2520.38
406.883	2480.38
407.107	2833.38
407.331	3014.38
407.555	3258.38
407.778	3069.38
408.002	2552.38
408.226	2445.38
408.449	2492.38
408.673	2399.38
408.896	2412.38
409.12	2443.38
409.344	2411.38
409.567	2253.38
409.791	2308.38
410.014	2405.38
410.238	2487.38
410.461	2674.38
410.685	2411.38
410.908	2276.38
411.132	2364.38
411.355	2312.38
411.578	2315.38
411.802	2249.38
412.025	2317.38
412.249	2251.38
412.472	2236.38
412.695	2231.38
412.919	2187.38
413.142	2218.38
413.365	2245.38
413.589	2336.38
413.812	2337.38
414.035	2456.38
414.258	2262.38
414.482	2197.38
414.705	2235.38
414.928	2238.38
415.151	2221.38
415.374	2254.38
415.597	2269.38
415.821	2270.38
416.044	2382.38
416.267	2378.38
416.49	2171.38
416.713	2148.38
416.936	2229.38
417.159	2312.38
417.382	2310.38
417.605	2189.38
417.828	2180.38
418.051	2314.38
418.274	2207.38
418.497	2144.38
418.72	2187.38
418.943	2169.38
419.166	2286.38
419.389	2408.38
419.611	2271.38
419.834	2185.38
420.057	2218.38
420.28	2160.38
420.503	2187.38
420.726	2207.38
420.948	2210.38
421.171	2126.38
421.394	2168.38
421.617	2215.38
421.839	2194.38
422.062	2171.38
422.285	2122.38
422.507	2156.38
422.73	2086.38
422.953	2072.38
423.175	2070.38
423.398	2161.38
423.621	2144.38
423.843	2177.38
424.066	2227.38
424.288	2305.38
424.511	2314.38
424.733	2272.38
424.956	2076.38
425.178	2052.38
425.401	2056.38
425.623	2108.38
425.846	2094.38
426.068	2221.38
426.291	2182.38
426.513	2172.38
426.735	2202.38
426.958	2317.38
427.18	2446.38
427.402	2250.38
427.625	2315.38
427.847	2344.38
428.069	2193.38
428.292	2100.38
428.514	2068.38
428.736	2017.38
428.958	2107.38
429.181	2050.38
429.403	2352.38
429.625	2880.38
429.847	2588.38
430.069	2146.38
430.292	2296.38
430.514	2442.38
430.736	2249.38
430.958	2336.38
431.18	2208.38
431.402	2086.38
431.624	2108.38
431.846	2142.38
432.068	2043.38
432.29	2086.38
432.512	2111.38
432.734	2104.38
432.956	2148.38
433.178	2268.38
433.4	2299.38
433.622	2258.38
433.844	2140.38
434.066	2046.38
434.287	2059.38
434.509	2142.38
434.731	2258.38
434.953	2345.38
435.175	2362.38
435.397	2149.38
435.618	2205.38
435.84	2154.38
436.062	2178.38
436.284	2168.38
436.505	2182.38
436.727	2221.38
436.949	2137.38
437.17	2090.38
437.392	2085.38
437.614	2106.38
437.835	2085.38
438.057	2176.38
438.278	2256.38
438.5	2119.38
438.721	2092.38
438.943	2146.38
439.165	2096.38
439.386	2013.38
439.608	2097.38
439.829	2054.38
440.05	2109.38
440.272	2032.38
440.493	2038.38
440.715	2032.38
440.936	2171.38
441.158	2445.38
441.379	2374.38
441.6	2329.38
441.822	2224.38
442.043	2241.38
442.264	2157.38
442.486	2051.38
442.707	2063.38
442.928	2053.38
443.149	2147.38
443.371	2232.38
443.592	2332.38
443.813	2309.38
444.034	2266.38
444.255	2283.38
444.476	2328.38
444.698	2381.38
444.919	2323.38
445.14	2378.38
445.361	2418.38
445.582	2474.38
445.803	2387.38
446.024	2294.38
446.245	2380.38
446.466	2274.38
446.687	2182.38
446.908	2189.38
447.129	2117.38
447.35	2155.38
447.571	2132.38
447.792	2080.38
448.013	2025.38
448.234	2060.38
448.455	2182.38
448.675	2180.38
448.896	2016.38
449.117	1968.38
449.338	2058.38
449.559	2131.38
449.779	2243.38
450	2430.38
450.221	2642.38
450.442	2594.38
450.662	2245.38
450.883	1949.38
451.104	1965.38
451.324	2022.38
451.545	2071.38
451.766	2019.38
451.986	1908.38
452.207	1944.38
452.428	1889.38
452.648	1834.38
452.869	1895.38
453.089	2048.38
453.31	2035.38
453.53	2082.38
453.751	2012.38
453.971	1868.38
454.192	1965.38
454.412	2054.38
454.633	1970.38
454.853	1934.38
455.073	1816.38
455.294	1820.38
455.514	1809.38
455.734	1843.38
455.955	1872.38
456.175	1867.38
456.395	1841.38
456.616	1901.38
456.836	1956.38
457.056	1867.38
457.276	1922.38
457.497	1868.38
457.717	1810.38
457.937	1840.38
458.157	1861.38
458.377	1850.38
458.598	1886.38
458.818	1844.38
459.038	1929.38
459.258	2081.38
459.478	2078.38
459.698	2016.38
459.918	2073.38
460.138	2177.38
460.358	2197.38
460.578	2204.38
460.798	2306.38
461.018	2445.38
461.238	2342.38
461.458	2192.38
461.678	2198.38
461.898	2182.38
462.118	2110.38
462.338	2248.38
462.558	2227.38
462.777	2269.38
462.997	2317.38
463.217	2462.38
463.437	2452.38
463.657	2300.38
463.876	2206.38
464.096	2213.38
464.316	2219.38
464.536	2300.38
464.755	2352.38
464.975	2344.38
465.195	2204.38
465.414	2378.38
465.634	2382.38
465.854	2205.38
466.073	2357.38
466.293	2296.38
466.512	2054.38
466.732	2069.38
466.951	2123.38
467.171	2151.38
467.391	2006.38
467.61	1942.38
467.829	2001.38
468.049	2145.38
468.268	2380.38
468.488	2284.38
468.707	2144.38
468.927	2080.38
469.146	2056.38
469.365	1960.38
469.585	2008.38
469.804	1965.38
470.023	2024.38
470.243	2052.38
470.462	2058.38
470.681	1976.38
470.901	2076.38
471.12	2032.38
471.339	1996.38
471.558	1991.38
471.777	1924.38
471.997	1964.38
472.216	2009.38
472.435	1919.38
472.654	1925.38
472.873	2035.38
473.092	2156.38
473.311	2098.38
473.53	1944.38
473.749	1924.38
473.968	1989.38
474.187	2113.38
474.406	2198.38
474.625	2088.38
474.844	2038.38
475.063	2044.38
475.282	2122.38
475.501	2054.38
475.72	2066.38
475.939	2145.38
476.158	2098.38
476.377	2074.38
476.596	2078.38
476.814	2117.38
477.033	2181.38
477.252	2225.38
477.471	2281.38
477.69	2126.38
477.908	2135.38
478.127	2266.38
478.346	2449.38
478.564	2500.38
478.783	2418.38
479.002	2513.38
479.22	2436.38
479.439	2504.38
479.658	2915.38
479.876	2868.38
480.095	2474.38
480.313	2336.38
480.532	2248.38
480.751	2287.38
480.969	2340.38
481.188	2273.38
481.406	2285.38
481.624	2225.38
481.843	2282.38
482.061	2312.38
482.28	2343.38
482.498	2344.38
482.717	2336.38
482.935	2253.38
483.153	2238.38
483.372	2274.38
483.59	2240.38
483.808	2303.38
484.027	2328.38
484.245	2454.38
484.463	2762.38
484.681	3251.38
484.9	2502.38
485.118	2317.38
485.336	2301.38
485.554	2361.38
485.772	2479.38
485.99	2418.38
486.209	2478.38
486.427	2435.38
486.645	2449.38
486.863	2395.38
487.081	2457.38
487.299	2497.38
487.517	2467.38
