Data from WStandard_LampEnergy8_LIBS07252019.E.O._I.C._HRD10591_16-00-52-930.txt Node
Date: Thu Jul 25 16:00:52 EDT 2019
User: cochatt
Spectrometer: HR+D1059
Trigger mode: 1
Integration Time (sec): 1.000000E-1
Scans to average: 1
Electric dark correction enabled: true
Nonlinearity correction enabled: false
Boxcar width: 0
XAxis mode: Wavelengths
Number of Pixels in Spectrum: 2048
>>>>>Begin Spectral Data<<<<<
223.165	-38.44
223.4	-38.44
223.635	-38.44
223.869	-10.44
224.104	-19.44
224.338	-15.44
224.573	-15.44
224.808	-14.44
225.042	-12.44
225.277	3.56
225.511	3.56
225.746	3.56
225.98	-2.44
226.215	9.56
226.449	14.56
226.683	42.56
226.918	31.56
227.152	19.56
227.387	24.56
227.621	27.56
227.856	36.56
228.09	48.56
228.324	42.56
228.559	50.56
228.793	94.56
229.027	199.56
229.262	211.56
229.496	194.56
229.73	217.56
229.964	215.56
230.199	257.56
230.433	257.56
230.667	259.56
230.901	281.56
231.136	242.56
231.37	261.56
231.604	235.56
231.838	246.56
232.072	267.56
232.306	245.56
232.541	252.56
232.775	282.56
233.009	311.56
233.243	310.56
233.477	293.56
233.711	271.56
233.945	292.56
234.179	289.56
234.413	316.56
234.647	329.56
234.881	318.56
235.115	277.56
235.349	280.56
235.583	280.56
235.817	273.56
236.051	290.56
236.285	305.56
236.519	314.56
236.753	336.56
236.987	349.56
237.221	342.56
237.455	363.56
237.689	361.56
237.922	350.56
238.156	335.56
238.39	352.56
238.624	333.56
238.858	388.56
239.091	404.56
239.325	405.56
239.559	457.56
239.793	473.56
240.027	506.56
240.26	461.56
240.494	362.56
240.728	349.56
240.961	358.56
241.195	357.56
241.429	377.56
241.662	399.56
241.896	383.56
242.13	386.56
242.363	423.56
242.597	455.56
242.83	411.56
243.064	432.56
243.298	457.56
243.531	444.56
243.765	446.56
243.998	451.56
244.232	400.56
244.465	381.56
244.699	396.56
244.932	443.56
245.166	478.56
245.399	467.56
245.633	426.56
245.866	437.56
246.099	442.56
246.333	468.56
246.566	474.56
246.8	495.56
247.033	542.56
247.266	506.56
247.5	510.56
247.733	502.56
247.966	552.56
248.2	589.56
248.433	579.56
248.666	588.56
248.899	653.56
249.133	755.56
249.366	773.56
249.599	654.56
249.832	608.56
250.066	598.56
250.299	593.56
250.532	568.56
250.765	508.56
250.998	542.56
251.231	581.56
251.465	597.56
251.698	555.56
251.931	555.56
252.164	577.56
252.397	597.56
252.63	571.56
252.863	535.56
253.096	559.56
253.329	551.56
253.562	569.56
253.795	598.56
254.028	580.56
254.261	549.56
254.494	544.56
254.727	546.56
254.96	553.56
255.193	614.56
255.426	680.56
255.659	763.56
255.892	741.56
256.124	657.56
256.357	645.56
256.59	674.56
256.823	689.56
257.056	687.56
257.289	761.56
257.521	871.56
257.754	793.56
257.987	725.56
258.22	817.56
258.452	789.56
258.685	666.56
258.918	652.56
259.151	635.56
259.383	603.56
259.616	575.56
259.849	610.56
260.081	666.56
260.314	740.56
260.547	783.56
260.779	773.56
261.012	746.56
261.244	673.56
261.477	639.56
261.71	673.56
261.942	670.56
262.175	647.56
262.407	659.56
262.64	635.56
262.872	640.56
263.105	610.56
263.337	603.56
263.57	601.56
263.802	598.56
264.035	596.56
264.267	561.56
264.499	549.56
264.732	558.56
264.964	603.56
265.197	646.56
265.429	691.56
265.661	763.56
265.894	803.56
266.126	843.56
266.358	754.56
266.591	782.56
266.823	792.56
267.055	745.56
267.287	751.56
267.52	745.56
267.752	707.56
267.984	718.56
268.216	782.56
268.448	776.56
268.681	753.56
268.913	699.56
269.145	670.56
269.377	672.56
269.609	737.56
269.841	849.56
270.073	968.56
270.306	1060.56
270.538	1071.56
270.77	893.56
271.002	790.56
271.234	763.56
271.466	784.56
271.698	897.56
271.93	1015.56
272.162	987.56
272.394	930.56
272.626	870.56
272.858	765.56
273.09	690.56
273.322	674.56
273.553	639.56
273.785	658.56
274.017	677.56
274.249	740.56
274.481	745.56
274.713	694.56
274.945	642.56
275.176	645.56
275.408	664.56
275.64	649.56
275.872	666.56
276.104	726.56
276.335	784.56
276.567	887.56
276.799	875.56
277.031	804.56
277.262	762.56
277.494	814.56
277.726	880.56
277.957	845.56
278.189	797.56
278.421	719.56
278.652	706.56
278.884	701.56
279.115	722.56
279.347	716.56
279.579	734.56
279.81	753.56
280.042	808.56
280.273	868.56
280.505	854.56
280.736	851.56
280.968	803.56
281.199	693.56
281.431	711.56
281.662	673.56
281.894	683.56
282.125	727.56
282.356	738.56
282.588	722.56
282.819	736.56
283.051	790.56
283.282	847.56
283.513	841.56
283.745	747.56
283.976	701.56
284.207	691.56
284.439	698.56
284.67	715.56
284.901	736.56
285.132	749.56
285.364	741.56
285.595	741.56
285.826	719.56
286.057	734.56
286.288	769.56
286.52	781.56
286.751	813.56
286.982	827.56
287.213	757.56
287.444	733.56
287.675	719.56
287.906	773.56
288.138	828.56
288.369	764.56
288.6	728.56
288.831	705.56
289.062	708.56
289.293	734.56
289.524	742.56
289.755	769.56
289.986	746.56
290.217	706.56
290.448	719.56
290.679	715.56
290.91	763.56
291.141	793.56
291.371	782.56
291.602	792.56
291.833	785.56
292.064	799.56
292.295	806.56
292.526	824.56
292.757	834.56
292.987	798.56
293.218	771.56
293.449	857.56
293.68	925.56
293.91	970.56
294.141	905.56
294.372	877.56
294.603	908.56
294.833	937.56
295.064	914.56
295.295	803.56
295.525	800.56
295.756	726.56
295.987	681.56
296.217	732.56
296.448	749.56
296.679	747.56
296.909	780.56
297.14	737.56
297.37	767.56
297.601	827.56
297.831	879.56
298.062	837.56
298.292	778.56
298.523	781.56
298.753	767.56
298.984	760.56
299.214	781.56
299.445	808.56
299.675	797.56
299.905	803.56
300.136	806.56
300.366	773.56
300.597	738.56
300.827	777.56
301.057	819.56
301.288	847.56
301.518	831.56
301.748	875.56
301.979	912.56
302.209	897.56
302.439	947.56
302.669	970.56
302.9	895.56
303.13	851.56
303.36	821.56
303.59	839.56
303.82	831.56
304.051	848.56
304.281	846.56
304.511	841.56
304.741	936.56
304.971	981.56
305.201	1042.56
305.431	936.56
305.661	791.56
305.891	761.56
306.121	738.56
306.352	779.56
306.582	850.56
306.812	882.56
307.042	907.56
307.272	907.56
307.502	945.56
307.731	1061.56
307.961	1055.56
308.191	970.56
308.421	872.56
308.651	797.56
308.881	814.56
309.111	827.56
309.341	777.56
309.571	783.56
309.8	803.56
310.03	813.56
310.26	789.56
310.49	793.56
310.72	833.56
310.949	874.56
311.179	858.56
311.409	851.56
311.639	808.56
311.868	835.56
312.098	819.56
312.328	828.56
312.557	833.56
312.787	819.56
313.017	830.56
313.246	854.56
313.476	822.56
313.706	875.56
313.935	857.56
314.165	851.56
314.394	892.56
314.624	953.56
314.853	990.56
315.083	1023.56
315.312	1030.56
315.542	942.56
315.771	888.56
316.001	890.56
316.23	935.56
316.46	887.56
316.689	880.56
316.919	855.56
317.148	857.56
317.377	855.56
317.607	961.56
317.836	1047.56
318.065	1039.56
318.295	990.56
318.524	956.56
318.753	923.56
318.983	935.56
319.212	910.56
319.441	887.56
319.67	871.56
319.9	917.56
320.129	969.56
320.358	989.56
320.587	1013.56
320.816	1005.56
321.046	983.56
321.275	931.56
321.504	955.56
321.733	1043.56
321.962	971.56
322.191	917.56
322.42	931.56
322.649	899.56
322.878	890.56
323.108	895.56
323.337	941.56
323.566	927.56
323.795	934.56
324.024	921.56
324.253	907.56
324.482	913.56
324.71	907.56
324.939	842.56
325.168	903.56
325.397	925.56
325.626	917.56
325.855	913.56
326.084	900.56
326.313	905.56
326.542	910.56
326.77	954.56
326.999	934.56
327.228	901.56
327.457	838.56
327.686	856.56
327.914	865.56
328.143	918.56
328.372	903.56
328.6	899.56
328.829	893.56
329.058	888.56
329.287	872.56
329.515	938.56
329.744	934.56
329.972	995.56
330.201	1014.56
330.43	986.56
330.658	942.56
330.887	957.56
331.115	937.56
331.344	990.56
331.572	970.56
331.801	937.56
332.03	941.56
332.258	946.56
332.486	953.56
332.715	967.56
332.943	1000.56
333.172	981.56
333.4	993.56
333.629	979.56
333.857	1069.56
334.085	1186.56
334.314	1303.56
334.542	1374.56
334.771	1269.56
334.999	1128.56
335.227	1061.56
335.455	1028.56
335.684	1030.56
335.912	1033.56
336.14	1059.56
336.369	999.56
336.597	970.56
336.825	971.56
337.053	1021.56
337.281	1077.56
337.51	1097.56
337.738	1155.56
337.966	1062.56
338.194	1003.56
338.422	948.56
338.65	945.56
338.878	913.56
339.106	934.56
339.334	899.56
339.562	914.56
339.79	941.56
340.018	989.56
340.246	1037.56
340.474	1023.56
340.702	992.56
340.93	1016.56
341.158	981.56
341.386	974.56
341.614	955.56
341.842	966.56
342.07	1007.56
342.298	986.56
342.526	939.56
342.754	953.56
342.981	937.56
343.209	929.56
343.437	954.56
343.665	949.56
343.893	1015.56
344.12	1018.56
344.348	1019.56
344.576	978.56
344.804	921.56
345.031	960.56
345.259	955.56
345.487	955.56
345.714	894.56
345.942	891.56
346.17	905.56
346.397	906.56
346.625	891.56
346.853	866.56
347.08	872.56
347.308	864.56
347.535	911.56
347.763	946.56
347.99	885.56
348.218	874.56
348.445	906.56
348.673	926.56
348.9	938.56
349.128	957.56
349.355	943.56
349.583	953.56
349.81	916.56
350.037	871.56
350.265	889.56
350.492	867.56
350.72	900.56
350.947	925.56
351.174	917.56
351.402	874.56
351.629	829.56
351.856	850.56
352.083	849.56
352.311	851.56
352.538	871.56
352.765	901.56
352.992	927.56
353.22	894.56
353.447	870.56
353.674	889.56
353.901	897.56
354.128	882.56
354.355	894.56
354.583	948.56
354.81	936.56
355.037	941.56
355.264	925.56
355.491	890.56
355.718	909.56
355.945	883.56
356.172	917.56
356.399	877.56
356.626	869.56
356.853	950.56
357.08	1002.56
357.307	1069.56
357.534	1043.56
357.761	921.56
357.988	869.56
358.215	891.56
358.441	897.56
358.668	827.56
358.895	889.56
359.122	949.56
359.349	1044.56
359.576	965.56
359.802	906.56
360.029	866.56
360.256	883.56
360.483	866.56
360.709	920.56
360.936	949.56
361.163	1002.56
361.39	1067.56
361.616	1129.56
361.843	1105.56
362.07	1003.56
362.296	907.56
362.523	890.56
362.749	921.56
362.976	905.56
363.203	938.56
363.429	928.56
363.656	858.56
363.882	927.56
364.109	1018.56
364.335	1064.56
364.562	989.56
364.788	931.56
365.015	890.56
365.241	895.56
365.468	904.56
365.694	950.56
365.92	979.56
366.147	927.56
366.373	892.56
366.599	905.56
366.826	863.56
367.052	890.56
367.278	921.56
367.505	915.56
367.731	953.56
367.957	936.56
368.184	961.56
368.41	1025.56
368.636	1039.56
368.862	1055.56
369.089	1027.56
369.315	979.56
369.541	955.56
369.767	922.56
369.993	936.56
370.219	903.56
370.445	943.56
370.672	997.56
370.898	1031.56
371.124	1005.56
371.35	975.56
371.576	990.56
371.802	1011.56
372.028	979.56
372.254	954.56
372.48	926.56
372.706	903.56
372.932	925.56
373.158	953.56
373.384	969.56
373.61	1013.56
373.835	1007.56
374.061	973.56
374.287	969.56
374.513	970.56
374.739	970.56
374.965	945.56
375.191	987.56
375.416	1015.56
375.642	1032.56
375.868	1055.56
376.094	1064.56
376.319	1010.56
376.545	987.56
376.771	1025.56
376.997	1053.56
377.222	1021.56
377.448	993.56
377.674	986.56
377.899	1005.56
378.125	1080.56
378.35	1040.56
378.576	919.56
378.802	925.56
379.027	938.56
379.253	966.56
379.478	962.56
379.704	990.56
379.929	962.56
380.155	971.56
380.38	1000.56
380.606	952.56
380.831	1009.56
381.057	1043.56
381.282	1045.56
381.507	1028.56
381.733	1137.56
381.958	1133.56
382.184	1017.56
382.409	979.56
382.634	1008.56
382.86	989.56
383.085	1036.56
383.31	1072.56
383.535	1168.56
383.761	1160.56
383.986	1132.56
384.211	1094.56
384.436	1091.56
384.662	1151.56
384.887	1174.56
385.112	1073.56
385.337	1099.56
385.562	1120.56
385.787	1114.56
386.013	1161.56
386.238	1153.56
386.463	1140.56
386.688	1227.56
386.913	1264.56
387.138	1235.56
387.363	1167.56
387.588	1153.56
387.813	1134.56
388.038	1209.56
388.263	1169.56
388.488	1130.56
388.713	1071.56
388.938	1062.56
389.163	1069.56
389.387	1097.56
389.612	1082.56
389.837	1101.56
390.062	1139.56
390.287	1139.56
390.512	1113.56
390.736	1077.56
390.961	1054.56
391.186	1062.56
391.411	1087.56
391.636	1108.56
391.86	1138.56
392.085	1117.56
392.31	1124.56
392.534	1128.56
392.759	1125.56
392.984	1102.56
393.208	1123.56
393.433	1134.56
393.658	1222.56
393.882	1182.56
394.107	1126.56
394.331	1127.56
394.556	1108.56
394.78	1149.56
395.005	1146.56
395.229	1231.56
395.454	1289.56
395.678	1264.56
395.903	1225.56
396.127	1186.56
396.352	1173.56
396.576	1238.56
396.801	1228.56
397.025	1197.56
397.249	1190.56
397.474	1185.56
397.698	1214.56
397.922	1240.56
398.147	1319.56
398.371	1330.56
398.595	1313.56
398.82	1252.56
399.044	1279.56
399.268	1353.56
399.492	1412.56
399.717	1447.56
399.941	1453.56
400.165	1461.56
400.389	1377.56
400.613	1417.56
400.837	1601.56
401.062	1769.56
401.286	1500.56
401.51	1418.56
401.734	1412.56
401.958	1341.56
402.182	1321.56
402.406	1213.56
402.63	1240.56
402.854	1265.56
403.078	1290.56
403.302	1297.56
403.526	1326.56
403.75	1326.56
403.974	1334.56
404.198	1313.56
404.422	1403.56
404.645	1474.56
404.869	1393.56
405.093	1303.56
405.317	1309.56
405.541	1319.56
405.765	1389.56
405.988	1313.56
406.212	1348.56
406.436	1351.56
406.66	1431.56
406.883	1473.56
407.107	1624.56
407.331	1783.56
407.555	1895.56
407.778	1649.56
408.002	1393.56
408.226	1366.56
408.449	1368.56
408.673	1344.56
408.896	1373.56
409.12	1360.56
409.344	1337.56
409.567	1341.56
409.791	1321.56
410.014	1382.56
410.238	1441.56
410.461	1501.56
410.685	1388.56
410.908	1296.56
411.132	1341.56
411.355	1296.56
411.578	1335.56
411.802	1293.56
412.025	1329.56
412.249	1299.56
412.472	1274.56
412.695	1277.56
412.919	1231.56
413.142	1268.56
413.365	1277.56
413.589	1349.56
413.812	1396.56
414.035	1401.56
414.258	1292.56
414.482	1265.56
414.705	1284.56
414.928	1263.56
415.151	1306.56
415.374	1279.56
415.597	1334.56
415.821	1347.56
416.044	1288.56
416.267	1346.56
416.49	1248.56
416.713	1230.56
416.936	1286.56
417.159	1346.56
417.382	1320.56
417.605	1289.56
417.828	1306.56
418.051	1325.56
418.274	1258.56
418.497	1253.56
418.72	1261.56
418.943	1256.56
419.166	1327.56
419.389	1321.56
419.611	1296.56
419.834	1299.56
420.057	1291.56
420.28	1271.56
420.503	1261.56
420.726	1291.56
420.948	1299.56
421.171	1252.56
421.394	1243.56
421.617	1323.56
421.839	1283.56
422.062	1297.56
422.285	1247.56
422.507	1233.56
422.73	1245.56
422.953	1205.56
423.175	1188.56
423.398	1248.56
423.621	1245.56
423.843	1295.56
424.066	1327.56
424.288	1322.56
424.511	1359.56
424.733	1301.56
424.956	1195.56
425.178	1251.56
425.401	1264.56
425.623	1263.56
425.846	1239.56
426.068	1289.56
426.291	1322.56
426.513	1321.56
426.735	1296.56
426.958	1389.56
427.18	1464.56
427.402	1331.56
427.625	1371.56
427.847	1363.56
428.069	1280.56
428.292	1238.56
428.514	1221.56
428.736	1206.56
428.958	1227.56
429.181	1255.56
429.403	1461.56
429.625	1701.56
429.847	1431.56
430.069	1306.56
430.292	1443.56
430.514	1415.56
430.736	1340.56
430.958	1364.56
431.18	1299.56
431.402	1193.56
431.624	1197.56
431.846	1169.56
432.068	1130.56
432.29	1137.56
432.512	1159.56
432.734	1234.56
432.956	1267.56
433.178	1284.56
433.4	1312.56
433.622	1270.56
433.844	1240.56
434.066	1206.56
434.287	1175.56
434.509	1147.56
434.731	1241.56
434.953	1327.56
435.175	1307.56
435.397	1261.56
435.618	1240.56
435.84	1221.56
436.062	1164.56
436.284	1248.56
436.505	1263.56
436.727	1304.56
436.949	1257.56
437.17	1217.56
437.392	1204.56
437.614	1187.56
437.835	1149.56
438.057	1226.56
438.278	1221.56
438.5	1204.56
438.721	1187.56
438.943	1219.56
439.165	1178.56
439.386	1174.56
439.608	1253.56
439.829	1229.56
440.05	1264.56
440.272	1231.56
440.493	1186.56
440.715	1259.56
440.936	1300.56
441.158	1392.56
441.379	1380.56
441.6	1354.56
441.822	1327.56
442.043	1332.56
442.264	1297.56
442.486	1224.56
442.707	1217.56
442.928	1236.56
443.149	1267.56
443.371	1317.56
443.592	1352.56
443.813	1352.56
444.034	1343.56
444.255	1341.56
444.476	1336.56
444.698	1386.56
444.919	1363.56
445.14	1453.56
445.361	1417.56
445.582	1405.56
445.803	1369.56
446.024	1354.56
446.245	1367.56
446.466	1325.56
446.687	1308.56
446.908	1305.56
447.129	1266.56
447.35	1311.56
447.571	1272.56
447.792	1221.56
448.013	1207.56
448.234	1223.56
448.455	1285.56
448.675	1288.56
448.896	1181.56
449.117	1169.56
449.338	1153.56
449.559	1239.56
449.779	1288.56
450	1400.56
450.221	1478.56
450.442	1393.56
450.662	1245.56
450.883	1175.56
451.104	1125.56
451.324	1174.56
451.545	1193.56
451.766	1161.56
451.986	1118.56
452.207	1129.56
452.428	1103.56
452.648	1056.56
452.869	1106.56
453.089	1093.56
453.31	1139.56
453.53	1100.56
453.751	1098.56
453.971	1054.56
454.192	1061.56
454.412	1147.56
454.633	1106.56
454.853	1121.56
455.073	1037.56
455.294	1034.56
455.514	1044.56
455.734	1055.56
455.955	1059.56
456.175	1032.56
456.395	1059.56
456.616	1060.56
456.836	1072.56
457.056	1073.56
457.276	1071.56
457.497	1060.56
457.717	997.56
457.937	989.56
458.157	1016.56
458.377	987.56
458.598	1019.56
458.818	1017.56
459.038	1091.56
459.258	1097.56
459.478	1109.56
459.698	1107.56
459.918	1135.56
460.138	1174.56
460.358	1207.56
460.578	1207.56
460.798	1243.56
461.018	1321.56
461.238	1259.56
461.458	1250.56
461.678	1243.56
461.898	1193.56
462.118	1183.56
462.338	1224.56
462.558	1248.56
462.777	1210.56
462.997	1276.56
463.217	1310.56
463.437	1344.56
463.657	1278.56
463.876	1229.56
464.096	1219.56
464.316	1218.56
464.536	1302.56
464.755	1281.56
464.975	1297.56
465.195	1283.56
465.414	1316.56
465.634	1270.56
465.854	1278.56
466.073	1327.56
466.293	1290.56
466.512	1171.56
466.732	1171.56
466.951	1227.56
467.171	1229.56
467.391	1172.56
467.61	1152.56
467.829	1193.56
468.049	1304.56
468.268	1388.56
468.488	1333.56
468.707	1225.56
468.927	1224.56
469.146	1215.56
469.365	1229.56
469.585	1197.56
469.804	1190.56
470.023	1211.56
470.243	1203.56
470.462	1226.56
470.681	1183.56
470.901	1210.56
471.12	1221.56
471.339	1197.56
471.558	1181.56
471.777	1187.56
471.997	1165.56
472.216	1134.56
472.435	1098.56
472.654	1095.56
472.873	1171.56
473.092	1200.56
473.311	1161.56
473.53	1102.56
473.749	1127.56
473.968	1156.56
474.187	1185.56
474.406	1209.56
474.625	1183.56
474.844	1203.56
475.063	1199.56
475.282	1179.56
475.501	1197.56
475.72	1189.56
475.939	1251.56
476.158	1230.56
476.377	1176.56
476.596	1191.56
476.814	1180.56
477.033	1193.56
477.252	1218.56
477.471	1309.56
477.69	1275.56
477.908	1229.56
478.127	1319.56
478.346	1407.56
478.564	1369.56
478.783	1414.56
479.002	1430.56
479.22	1383.56
479.439	1388.56
479.658	1555.56
479.876	1494.56
480.095	1342.56
480.313	1289.56
480.532	1274.56
480.751	1305.56
480.969	1304.56
481.188	1260.56
481.406	1242.56
481.624	1216.56
481.843	1213.56
482.061	1277.56
482.28	1318.56
482.498	1301.56
482.717	1283.56
482.935	1249.56
483.153	1303.56
483.372	1313.56
483.59	1350.56
483.808	1330.56
484.027	1335.56
484.245	1418.56
484.463	1683.56
484.681	1821.56
484.9	1408.56
485.118	1363.56
485.336	1322.56
485.554	1324.56
485.772	1337.56
485.99	1345.56
486.209	1353.56
486.427	1332.56
486.645	1392.56
486.863	1399.56
487.081	1413.56
487.299	1447.56
487.517	1437.56
487.735	1446.56
487.953	1451.56
488.171	1460.56
488.389	1445.56
488.607	1442.56
488.825	1524.56
489.043	1494.56
489.261	1405.56
489.479	1424.56
489.696	1484.56
489.914	1422.56
490.132	1413.56
490.35	1469.56
490.568	1518.56
490.786	1517.56
491.003	1469.56
491.221	1513.56
491.439	1537.56
491.657	1556.56
491.874	1615.56
492.092	1655.56
492.31	1658.56
492.527	1626.56
492.745	1593.56
492.963	1603.56
493.18	1574.56
493.398	1636.56
493.615	1659.56
493.833	1565.56
494.05	1483.56
