Data from WStandard_LampEnergy5.5LIBS07252019.E.O._I.C._HRD10591_16-06-21-920.txt Node
Date: Thu Jul 25 16:06:21 EDT 2019
User: cochatt
Spectrometer: HR+D1059
Trigger mode: 1
Integration Time (sec): 1.000000E-1
Scans to average: 1
Electric dark correction enabled: true
Nonlinearity correction enabled: false
Boxcar width: 0
XAxis mode: Wavelengths
Number of Pixels in Spectrum: 2048
>>>>>Begin Spectral Data<<<<<
223.165	-9.25
223.4	-9.25
223.635	-9.25
223.869	-30.25
224.104	-32.25
224.338	-16.25
224.573	-18.25
224.808	-0.25
225.042	-9.25
225.277	-7.25
225.511	-9.25
225.746	12.75
225.98	2.75
226.215	10.75
226.449	24.75
226.683	25.75
226.918	35.75
227.152	19.75
227.387	35.75
227.621	22.75
227.856	37.75
228.09	42.75
228.324	54.75
228.559	57.75
228.793	149.75
229.027	318.75
229.262	337.75
229.496	340.75
229.73	361.75
229.964	383.75
230.199	395.75
230.433	440.75
230.667	460.75
230.901	470.75
231.136	414.75
231.37	404.75
231.604	416.75
231.838	403.75
232.072	425.75
232.306	397.75
232.541	422.75
232.775	486.75
233.009	552.75
233.243	518.75
233.477	471.75
233.711	479.75
233.945	510.75
234.179	482.75
234.413	512.75
234.647	564.75
234.881	528.75
235.115	484.75
235.349	494.75
235.583	520.75
235.817	493.75
236.051	472.75
236.285	488.75
236.519	520.75
236.753	588.75
236.987	617.75
237.221	624.75
237.455	667.75
237.689	627.75
237.922	588.75
238.156	547.75
238.39	566.75
238.624	606.75
238.858	658.75
239.091	676.75
239.325	704.75
239.559	794.75
239.793	825.75
240.027	890.75
240.26	894.75
240.494	666.75
240.728	629.75
240.961	647.75
241.195	643.75
241.429	725.75
241.662	709.75
241.896	643.75
242.13	656.75
242.363	727.75
242.597	797.75
242.83	746.75
243.064	778.75
243.298	839.75
243.531	797.75
243.765	807.75
243.998	783.75
244.232	695.75
244.465	658.75
244.699	700.75
244.932	770.75
245.166	894.75
245.399	842.75
245.633	759.75
245.866	748.75
246.099	807.75
246.333	832.75
246.566	832.75
246.8	923.75
247.033	1010.75
247.266	929.75
247.5	922.75
247.733	898.75
247.966	954.75
248.2	1080.75
248.433	1015.75
248.666	1042.75
248.899	1121.75
249.133	1321.75
249.366	1506.75
249.599	1228.75
249.832	1039.75
250.066	1094.75
250.299	1134.75
250.532	1036.75
250.765	960.75
250.998	997.75
251.231	1039.75
251.465	1066.75
251.698	990.75
251.931	987.75
252.164	1027.75
252.397	1060.75
252.63	1095.75
252.863	973.75
253.096	937.75
253.329	989.75
253.562	1024.75
253.795	1107.75
254.028	1075.75
254.261	1000.75
254.494	1005.75
254.727	971.75
254.96	985.75
255.193	1100.75
255.426	1202.75
255.659	1394.75
255.892	1462.75
256.124	1175.75
256.357	1109.75
256.59	1217.75
256.823	1241.75
257.056	1201.75
257.289	1476.75
257.521	1639.75
257.754	1428.75
257.987	1366.75
258.22	1485.75
258.452	1451.75
258.685	1200.75
258.918	1158.75
259.151	1202.75
259.383	1140.75
259.616	1013.75
259.849	1080.75
260.081	1230.75
260.314	1321.75
260.547	1449.75
260.779	1492.75
261.012	1329.75
261.244	1265.75
261.477	1141.75
261.71	1187.75
261.942	1194.75
262.175	1166.75
262.407	1257.75
262.64	1191.75
262.872	1112.75
263.105	1068.75
263.337	1062.75
263.57	1105.75
263.802	1090.75
264.035	1057.75
264.267	973.75
264.499	971.75
264.732	1073.75
264.964	1113.75
265.197	1131.75
265.429	1190.75
265.661	1314.75
265.894	1464.75
266.126	1515.75
266.358	1345.75
266.591	1382.75
266.823	1537.75
267.055	1342.75
267.287	1348.75
267.52	1322.75
267.752	1310.75
267.984	1360.75
268.216	1358.75
268.448	1387.75
268.681	1394.75
268.913	1306.75
269.145	1225.75
269.377	1176.75
269.609	1306.75
269.841	1461.75
270.073	1718.75
270.306	1893.75
270.538	2065.75
270.77	1718.75
271.002	1471.75
271.234	1423.75
271.466	1401.75
271.698	1503.75
271.93	1824.75
272.162	1842.75
272.394	1666.75
272.626	1604.75
272.858	1395.75
273.09	1269.75
273.322	1232.75
273.553	1208.75
273.785	1189.75
274.017	1240.75
274.249	1350.75
274.481	1376.75
274.713	1225.75
274.945	1198.75
275.176	1224.75
275.408	1194.75
275.64	1180.75
275.872	1162.75
276.104	1251.75
276.335	1394.75
276.567	1600.75
276.799	1642.75
277.031	1441.75
277.262	1366.75
277.494	1386.75
277.726	1569.75
277.957	1554.75
278.189	1399.75
278.421	1327.75
278.652	1291.75
278.884	1271.75
279.115	1230.75
279.347	1304.75
279.579	1214.75
279.81	1252.75
280.042	1367.75
280.273	1499.75
280.505	1515.75
280.736	1542.75
280.968	1521.75
281.199	1291.75
281.431	1253.75
281.662	1253.75
281.894	1242.75
282.125	1283.75
282.356	1307.75
282.588	1340.75
282.819	1360.75
283.051	1424.75
283.282	1502.75
283.513	1476.75
283.745	1326.75
283.976	1192.75
284.207	1211.75
284.439	1255.75
284.67	1269.75
284.901	1282.75
285.132	1320.75
285.364	1354.75
285.595	1341.75
285.826	1288.75
286.057	1297.75
286.288	1300.75
286.52	1362.75
286.751	1449.75
286.982	1522.75
287.213	1382.75
287.444	1282.75
287.675	1278.75
287.906	1308.75
288.138	1411.75
288.369	1354.75
288.6	1334.75
288.831	1271.75
289.062	1287.75
289.293	1307.75
289.524	1349.75
289.755	1346.75
289.986	1373.75
290.217	1270.75
290.448	1284.75
290.679	1330.75
290.91	1331.75
291.141	1356.75
291.371	1421.75
291.602	1408.75
291.833	1360.75
292.064	1402.75
292.295	1396.75
292.526	1438.75
292.757	1492.75
292.987	1426.75
293.218	1368.75
293.449	1453.75
293.68	1607.75
293.91	1728.75
294.141	1595.75
294.372	1475.75
294.603	1518.75
294.833	1584.75
295.064	1500.75
295.295	1421.75
295.525	1381.75
295.756	1307.75
295.987	1247.75
296.217	1286.75
296.448	1303.75
296.679	1317.75
296.909	1331.75
297.14	1332.75
297.37	1299.75
297.601	1367.75
297.831	1459.75
298.062	1502.75
298.292	1371.75
298.523	1290.75
298.753	1341.75
298.984	1374.75
299.214	1352.75
299.445	1370.75
299.675	1409.75
299.905	1387.75
300.136	1382.75
300.366	1323.75
300.597	1299.75
300.827	1307.75
301.057	1373.75
301.288	1456.75
301.518	1432.75
301.748	1434.75
301.979	1497.75
302.209	1511.75
302.439	1634.75
302.669	1687.75
302.9	1552.75
303.13	1426.75
303.36	1407.75
303.59	1472.75
303.82	1472.75
304.051	1435.75
304.281	1454.75
304.511	1416.75
304.741	1519.75
304.971	1608.75
305.201	1775.75
305.431	1672.75
305.661	1390.75
305.891	1284.75
306.121	1270.75
306.352	1331.75
306.582	1388.75
306.812	1495.75
307.042	1569.75
307.272	1576.75
307.502	1632.75
307.731	1729.75
307.961	1862.75
308.191	1738.75
308.421	1507.75
308.651	1423.75
308.881	1398.75
309.111	1383.75
309.341	1353.75
309.571	1409.75
309.8	1390.75
310.03	1405.75
310.26	1396.75
310.49	1391.75
310.72	1421.75
310.949	1423.75
311.179	1485.75
311.409	1493.75
311.639	1436.75
311.868	1384.75
312.098	1403.75
312.328	1402.75
312.557	1375.75
312.787	1428.75
313.017	1480.75
313.246	1483.75
313.476	1470.75
313.706	1480.75
313.935	1469.75
314.165	1464.75
314.394	1524.75
314.624	1605.75
314.853	1685.75
315.083	1753.75
315.312	1802.75
315.542	1709.75
315.771	1544.75
316.001	1500.75
316.23	1556.75
316.46	1554.75
316.689	1549.75
316.919	1471.75
317.148	1421.75
317.377	1467.75
317.607	1560.75
317.836	1747.75
318.065	1760.75
318.295	1695.75
318.524	1662.75
318.753	1586.75
318.983	1571.75
319.212	1586.75
319.441	1513.75
319.67	1453.75
319.9	1509.75
320.129	1631.75
320.358	1697.75
320.587	1753.75
320.816	1666.75
321.046	1643.75
321.275	1587.75
321.504	1566.75
321.733	1706.75
321.962	1649.75
322.191	1518.75
322.42	1526.75
322.649	1521.75
322.878	1519.75
323.108	1500.75
323.337	1570.75
323.566	1564.75
323.795	1550.75
324.024	1569.75
324.253	1559.75
324.482	1581.75
324.71	1545.75
324.939	1476.75
325.168	1501.75
325.397	1542.75
325.626	1568.75
325.855	1571.75
326.084	1533.75
326.313	1537.75
326.542	1568.75
326.77	1570.75
326.999	1599.75
327.228	1553.75
327.457	1447.75
327.686	1480.75
327.914	1493.75
328.143	1572.75
328.372	1567.75
328.6	1543.75
328.829	1575.75
329.058	1497.75
329.287	1484.75
329.515	1540.75
329.744	1573.75
329.972	1646.75
330.201	1701.75
330.43	1680.75
330.658	1628.75
330.887	1619.75
331.115	1630.75
331.344	1620.75
331.572	1639.75
331.801	1654.75
332.03	1642.75
332.258	1660.75
332.486	1639.75
332.715	1658.75
332.943	1655.75
333.172	1639.75
333.4	1668.75
333.629	1733.75
333.857	1835.75
334.085	1985.75
334.314	2175.75
334.542	2364.75
334.771	2260.75
334.999	1978.75
335.227	1878.75
335.455	1839.75
335.684	1768.75
335.912	1835.75
336.14	1843.75
336.369	1780.75
336.597	1716.75
336.825	1688.75
337.053	1714.75
337.281	1794.75
337.51	1856.75
337.738	1939.75
337.966	1858.75
338.194	1671.75
338.422	1648.75
338.65	1633.75
338.878	1639.75
339.106	1577.75
339.334	1567.75
339.562	1530.75
339.79	1556.75
340.018	1659.75
340.246	1711.75
340.474	1723.75
340.702	1674.75
340.93	1692.75
341.158	1664.75
341.386	1659.75
341.614	1625.75
341.842	1622.75
342.07	1616.75
342.298	1623.75
342.526	1648.75
342.754	1632.75
342.981	1622.75
343.209	1629.75
343.437	1632.75
343.665	1622.75
343.893	1670.75
344.12	1771.75
344.348	1773.75
344.576	1700.75
344.804	1593.75
345.031	1605.75
345.259	1623.75
345.487	1598.75
345.714	1523.75
345.942	1481.75
346.17	1491.75
346.397	1540.75
346.625	1564.75
346.853	1504.75
347.08	1445.75
347.308	1498.75
347.535	1480.75
347.763	1523.75
347.99	1505.75
348.218	1452.75
348.445	1460.75
348.673	1504.75
348.9	1554.75
349.128	1563.75
349.355	1628.75
349.583	1556.75
349.81	1533.75
350.037	1460.75
350.265	1429.75
350.492	1435.75
350.72	1455.75
350.947	1512.75
351.174	1558.75
351.402	1512.75
351.629	1420.75
351.856	1383.75
352.083	1385.75
352.311	1417.75
352.538	1463.75
352.765	1524.75
352.992	1545.75
353.22	1487.75
353.447	1467.75
353.674	1479.75
353.901	1485.75
354.128	1469.75
354.355	1463.75
354.583	1474.75
354.81	1552.75
355.037	1545.75
355.264	1549.75
355.491	1522.75
355.718	1519.75
355.945	1486.75
356.172	1435.75
356.399	1444.75
356.626	1465.75
356.853	1466.75
357.08	1577.75
357.307	1721.75
357.534	1768.75
357.761	1557.75
357.988	1468.75
358.215	1421.75
358.441	1440.75
358.668	1421.75
358.895	1478.75
359.122	1519.75
359.349	1613.75
359.576	1640.75
359.802	1493.75
360.029	1474.75
360.256	1478.75
360.483	1467.75
360.709	1473.75
360.936	1546.75
361.163	1572.75
361.39	1722.75
361.616	1871.75
361.843	1774.75
362.07	1677.75
362.296	1526.75
362.523	1454.75
362.749	1481.75
362.976	1518.75
363.203	1536.75
363.429	1501.75
363.656	1446.75
363.882	1504.75
364.109	1639.75
364.335	1761.75
364.562	1615.75
364.788	1591.75
365.015	1482.75
365.241	1415.75
365.468	1528.75
365.694	1561.75
365.92	1651.75
366.147	1584.75
366.373	1483.75
366.599	1447.75
366.826	1444.75
367.052	1467.75
367.278	1484.75
367.505	1526.75
367.731	1521.75
367.957	1536.75
368.184	1522.75
368.41	1606.75
368.636	1639.75
368.862	1659.75
369.089	1666.75
369.315	1634.75
369.541	1590.75
369.767	1559.75
369.993	1437.75
370.219	1464.75
370.445	1482.75
370.672	1570.75
370.898	1666.75
371.124	1639.75
371.35	1574.75
371.576	1622.75
371.802	1667.75
372.028	1638.75
372.254	1586.75
372.48	1534.75
372.706	1554.75
372.932	1552.75
373.158	1561.75
373.384	1555.75
373.61	1585.75
373.835	1721.75
374.061	1625.75
374.287	1564.75
374.513	1608.75
374.739	1621.75
374.965	1609.75
375.191	1594.75
375.416	1610.75
375.642	1650.75
375.868	1703.75
376.094	1747.75
376.319	1696.75
376.545	1566.75
376.771	1601.75
376.997	1631.75
377.222	1663.75
377.448	1602.75
377.674	1668.75
377.899	1638.75
378.125	1698.75
378.35	1737.75
378.576	1585.75
378.802	1547.75
379.027	1538.75
379.253	1586.75
379.478	1602.75
379.704	1560.75
379.929	1602.75
380.155	1570.75
380.38	1588.75
380.606	1667.75
380.831	1600.75
381.057	1620.75
381.282	1680.75
381.507	1639.75
381.733	1723.75
381.958	1769.75
382.184	1693.75
382.409	1633.75
382.634	1666.75
382.86	1650.75
383.085	1650.75
383.31	1702.75
383.535	1768.75
383.761	1912.75
383.986	1805.75
384.211	1770.75
384.436	1798.75
384.662	1877.75
384.887	1936.75
385.112	1814.75
385.337	1869.75
385.562	1820.75
385.787	1794.75
386.013	1834.75
386.238	1867.75
386.463	1841.75
386.688	1967.75
386.913	2027.75
387.138	1997.75
387.363	1855.75
387.588	1842.75
387.813	1851.75
388.038	1853.75
388.263	1930.75
388.488	1861.75
388.713	1792.75
388.938	1790.75
389.163	1824.75
389.387	1754.75
389.612	1767.75
389.837	1855.75
390.062	1846.75
390.287	1867.75
390.512	1855.75
390.736	1814.75
390.961	1770.75
391.186	1746.75
391.411	1796.75
391.636	1834.75
391.86	1850.75
392.085	1858.75
392.31	1838.75
392.534	1894.75
392.759	1890.75
392.984	1913.75
393.208	1976.75
393.433	2102.75
393.658	2228.75
393.882	2025.75
394.107	1825.75
394.331	1869.75
394.556	1857.75
394.78	1855.75
395.005	1920.75
395.229	1917.75
395.454	2080.75
395.678	2069.75
395.903	2060.75
396.127	1977.75
396.352	1916.75
396.576	2011.75
396.801	2082.75
397.025	2118.75
397.249	2109.75
397.474	2008.75
397.698	1992.75
397.922	1986.75
398.147	2059.75
398.371	2184.75
398.595	2156.75
398.82	2110.75
399.044	2170.75
399.268	2256.75
399.492	2380.75
399.717	2512.75
399.941	2508.75
400.165	2466.75
400.389	2369.75
400.613	2297.75
400.837	2446.75
401.062	2810.75
401.286	2431.75
401.51	2263.75
401.734	2327.75
401.958	2304.75
402.182	2168.75
402.406	2099.75
402.63	2069.75
402.854	2076.75
403.078	2175.75
403.302	2195.75
403.526	2249.75
403.75	2180.75
403.974	2226.75
404.198	2194.75
404.422	2190.75
404.645	2347.75
404.869	2262.75
405.093	2193.75
405.317	2130.75
405.541	2230.75
405.765	2262.75
405.988	2194.75
406.212	2282.75
406.436	2290.75
406.66	2298.75
406.883	2293.75
407.107	2526.75
407.331	2766.75
407.555	2947.75
407.778	2805.75
408.002	2401.75
408.226	2348.75
408.449	2319.75
408.673	2245.75
408.896	2248.75
409.12	2293.75
409.344	2231.75
409.567	2162.75
409.791	2194.75
410.014	2227.75
410.238	2266.75
410.461	2418.75
410.685	2230.75
410.908	2143.75
411.132	2196.75
411.355	2202.75
411.578	2125.75
411.802	2127.75
412.025	2163.75
412.249	2156.75
412.472	2093.75
412.695	2065.75
412.919	2067.75
413.142	2075.75
413.365	2139.75
413.589	2137.75
413.812	2168.75
414.035	2238.75
414.258	2134.75
414.482	2063.75
414.705	2084.75
414.928	2086.75
415.151	2066.75
415.374	2122.75
415.597	2142.75
415.821	2103.75
416.044	2233.75
416.267	2218.75
416.49	1987.75
416.713	2025.75
416.936	2083.75
417.159	2174.75
417.382	2115.75
417.605	2018.75
417.828	2164.75
418.051	2173.75
418.274	2114.75
418.497	2035.75
418.72	2051.75
418.943	2066.75
419.166	2156.75
419.389	2282.75
419.611	2155.75
419.834	2135.75
420.057	2120.75
420.28	2056.75
420.503	2038.75
420.726	2056.75
420.948	2048.75
421.171	2047.75
421.394	2051.75
421.617	2091.75
421.839	2063.75
422.062	2028.75
422.285	1960.75
422.507	1983.75
422.73	1976.75
422.953	1980.75
423.175	1950.75
423.398	2007.75
423.621	2044.75
423.843	2033.75
424.066	2084.75
424.288	2095.75
424.511	2121.75
424.733	2076.75
424.956	1938.75
425.178	1949.75
425.401	1963.75
425.623	1977.75
425.846	1947.75
426.068	2016.75
426.291	2046.75
426.513	2007.75
426.735	2027.75
426.958	2103.75
427.18	2198.75
427.402	2060.75
427.625	2118.75
427.847	2135.75
428.069	2019.75
428.292	1964.75
428.514	1912.75
428.736	1867.75
428.958	1954.75
429.181	1949.75
429.403	2162.75
429.625	2576.75
429.847	2318.75
430.069	1942.75
430.292	2129.75
430.514	2190.75
430.736	2088.75
430.958	2181.75
431.18	2111.75
431.402	1975.75
431.624	1927.75
431.846	1959.75
432.068	1924.75
432.29	1928.75
432.512	1992.75
432.734	1978.75
432.956	2025.75
433.178	2084.75
433.4	2081.75
433.622	2101.75
433.844	1969.75
434.066	1932.75
434.287	1914.75
434.509	1985.75
434.731	2118.75
434.953	2200.75
435.175	2202.75
435.397	2076.75
435.618	2057.75
435.84	2062.75
436.062	2019.75
436.284	2034.75
436.505	2065.75
436.727	2089.75
436.949	2044.75
437.17	1988.75
437.392	1956.75
437.614	1949.75
437.835	1932.75
438.057	2027.75
438.278	2134.75
438.5	1949.75
438.721	1932.75
438.943	1956.75
439.165	1954.75
439.386	1939.75
439.608	1939.75
439.829	1916.75
440.05	1978.75
440.272	1934.75
440.493	1900.75
440.715	1930.75
440.936	2045.75
441.158	2251.75
441.379	2198.75
441.6	2151.75
441.822	2110.75
442.043	2096.75
442.264	2064.75
442.486	1976.75
442.707	1951.75
442.928	1907.75
443.149	1988.75
443.371	2137.75
443.592	2211.75
443.813	2136.75
444.034	2122.75
444.255	2185.75
444.476	2179.75
444.698	2246.75
444.919	2226.75
445.14	2258.75
445.361	2267.75
445.582	2351.75
445.803	2220.75
446.024	2168.75
446.245	2160.75
446.466	2120.75
446.687	2024.75
446.908	2025.75
447.129	1990.75
447.35	2001.75
447.571	2007.75
447.792	1913.75
448.013	1900.75
448.234	1918.75
448.455	1966.75
448.675	2006.75
448.896	1807.75
449.117	1834.75
449.338	1887.75
449.559	1903.75
449.779	2103.75
450	2274.75
450.221	2420.75
450.442	2334.75
450.662	2067.75
450.883	1835.75
451.104	1804.75
451.324	1868.75
451.545	1899.75
451.766	1911.75
451.986	1822.75
452.207	1810.75
452.428	1748.75
452.648	1731.75
452.869	1776.75
453.089	1872.75
453.31	1855.75
453.53	1943.75
453.751	1860.75
453.971	1734.75
454.192	1820.75
454.412	1950.75
454.633	1846.75
454.853	1782.75
455.073	1664.75
455.294	1657.75
455.514	1668.75
455.734	1728.75
455.955	1734.75
456.175	1736.75
456.395	1723.75
456.616	1767.75
456.836	1796.75
457.056	1774.75
457.276	1722.75
457.497	1726.75
457.717	1686.75
457.937	1712.75
458.157	1764.75
458.377	1740.75
458.598	1732.75
458.818	1770.75
459.038	1833.75
459.258	1959.75
459.478	1920.75
459.698	1906.75
459.918	1940.75
460.138	2000.75
460.358	2072.75
460.578	2110.75
460.798	2178.75
461.018	2254.75
461.238	2133.75
461.458	2100.75
461.678	2111.75
461.898	2094.75
462.118	1996.75
462.338	2084.75
462.558	2130.75
462.777	2103.75
462.997	2193.75
463.217	2304.75
463.437	2372.75
463.657	2195.75
463.876	2139.75
464.096	2114.75
464.316	2096.75
464.536	2168.75
464.755	2192.75
464.975	2273.75
465.195	2153.75
465.414	2222.75
465.634	2196.75
465.854	2017.75
466.073	2127.75
466.293	2139.75
466.512	1873.75
466.732	1896.75
466.951	1972.75
467.171	1966.75
467.391	1930.75
467.61	1888.75
467.829	1861.75
468.049	1980.75
468.268	2139.75
468.488	2077.75
468.707	1998.75
468.927	1932.75
469.146	1890.75
469.365	1867.75
469.585	1863.75
469.804	1860.75
470.023	1896.75
470.243	1930.75
470.462	1904.75
470.681	1869.75
470.901	1940.75
471.12	1930.75
471.339	1885.75
471.558	1852.75
471.777	1841.75
471.997	1878.75
472.216	1850.75
472.435	1778.75
472.654	1812.75
472.873	1899.75
473.092	1992.75
473.311	1931.75
473.53	1819.75
473.749	1794.75
473.968	1851.75
474.187	1957.75
474.406	2073.75
474.625	1934.75
474.844	1911.75
475.063	1895.75
475.282	1916.75
475.501	1895.75
475.72	1855.75
475.939	1953.75
476.158	1960.75
476.377	1921.75
476.596	1914.75
476.814	2005.75
477.033	1991.75
477.252	2046.75
477.471	2119.75
477.69	2036.75
477.908	2003.75
478.127	2104.75
478.346	2302.75
478.564	2304.75
478.783	2280.75
479.002	2309.75
479.22	2237.75
479.439	2330.75
479.658	2594.75
479.876	2579.75
480.095	2276.75
480.313	2234.75
480.532	2104.75
480.751	2188.75
480.969	2192.75
481.188	2139.75
481.406	2115.75
481.624	2057.75
481.843	2102.75
482.061	2130.75
482.28	2163.75
482.498	2212.75
482.717	2222.75
482.935	2067.75
483.153	2059.75
483.372	2146.75
483.59	2107.75
483.808	2068.75
484.027	2127.75
484.245	2223.75
484.463	2495.75
484.681	2842.75
484.9	2346.75
485.118	2165.75
485.336	2125.75
485.554	2173.75
485.772	2282.75
485.99	2248.75
486.209	2278.75
486.427	2226.75
486.645	2186.75
486.863	2198.75
487.081	2265.75
487.299	2365.75
487.517	2281.75
487.735	2204.75
