Data from WStandard_LampEnergy8_LIBS07252019.E.O._I.C._HRD10591_15-58-06-929.txt Node
Date: Thu Jul 25 15:58:06 EDT 2019
User: cochatt
Spectrometer: HR+D1059
Trigger mode: 1
Integration Time (sec): 1.000000E-1
Scans to average: 1
Electric dark correction enabled: true
Nonlinearity correction enabled: false
Boxcar width: 0
XAxis mode: Wavelengths
Number of Pixels in Spectrum: 2048
>>>>>Begin Spectral Data<<<<<
223.165	-12.12
223.4	-12.12
223.635	-12.12
223.869	-11.12
224.104	-21.12
224.338	-7.12
224.573	-11.12
224.808	-19.12
225.042	-2.12
225.277	0.88
225.511	-12.12
225.746	19.88
225.98	3.88
226.215	3.88
226.449	15.88
226.683	3.88
226.918	15.88
227.152	31.88
227.387	43.88
227.621	34.88
227.856	51.88
228.09	39.88
228.324	50.88
228.559	53.88
228.793	98.88
229.027	216.88
229.262	210.88
229.496	213.88
229.73	235.88
229.964	244.88
230.199	259.88
230.433	266.88
230.667	268.88
230.901	295.88
231.136	273.88
231.37	261.88
231.604	265.88
231.838	268.88
232.072	273.88
232.306	250.88
232.541	281.88
232.775	310.88
233.009	329.88
233.243	304.88
233.477	300.88
233.711	313.88
233.945	322.88
234.179	320.88
234.413	317.88
234.647	333.88
234.881	316.88
235.115	297.88
235.349	310.88
235.583	297.88
235.817	316.88
236.051	311.88
236.285	303.88
236.519	320.88
236.753	369.88
236.987	375.88
237.221	355.88
237.455	395.88
237.689	376.88
237.922	364.88
238.156	351.88
238.39	377.88
238.624	391.88
238.858	409.88
239.091	401.88
239.325	458.88
239.559	471.88
239.793	489.88
240.027	523.88
240.26	502.88
240.494	395.88
240.728	363.88
240.961	385.88
241.195	387.88
241.429	424.88
241.662	437.88
241.896	403.88
242.13	422.88
242.363	444.88
242.597	490.88
242.83	457.88
243.064	462.88
243.298	500.88
243.531	483.88
243.765	465.88
243.998	483.88
244.232	423.88
244.465	432.88
244.699	439.88
244.932	478.88
245.166	531.88
245.399	507.88
245.633	476.88
245.866	468.88
246.099	479.88
246.333	496.88
246.566	481.88
246.8	543.88
247.033	618.88
247.266	573.88
247.5	533.88
247.733	556.88
247.966	585.88
248.2	603.88
248.433	600.88
248.666	635.88
248.899	675.88
249.133	789.88
249.366	838.88
249.599	703.88
249.832	629.88
250.066	639.88
250.299	653.88
250.532	593.88
250.765	579.88
250.998	596.88
251.231	618.88
251.465	621.88
251.698	606.88
251.931	616.88
252.164	618.88
252.397	630.88
252.63	608.88
252.863	550.88
253.096	579.88
253.329	563.88
253.562	619.88
253.795	641.88
254.028	620.88
254.261	591.88
254.494	566.88
254.727	572.88
254.96	620.88
255.193	662.88
255.426	703.88
255.659	812.88
255.892	831.88
256.124	690.88
256.357	685.88
256.59	723.88
256.823	706.88
257.056	739.88
257.289	821.88
257.521	929.88
257.754	827.88
257.987	769.88
258.22	879.88
258.452	849.88
258.685	706.88
258.918	689.88
259.151	689.88
259.383	665.88
259.616	598.88
259.849	637.88
260.081	708.88
260.314	780.88
260.547	817.88
260.779	864.88
261.012	791.88
261.244	701.88
261.477	665.88
261.71	703.88
261.942	693.88
262.175	705.88
262.407	728.88
262.64	669.88
262.872	636.88
263.105	604.88
263.337	641.88
263.57	657.88
263.802	651.88
264.035	608.88
264.267	603.88
264.499	583.88
264.732	625.88
264.964	651.88
265.197	698.88
265.429	723.88
265.661	785.88
265.894	875.88
266.126	896.88
266.358	837.88
266.591	848.88
266.823	866.88
267.055	810.88
267.287	777.88
267.52	793.88
267.752	807.88
267.984	756.88
268.216	810.88
268.448	832.88
268.681	824.88
268.913	734.88
269.145	710.88
269.377	698.88
269.609	773.88
269.841	895.88
270.073	1035.88
270.306	1138.88
270.538	1149.88
270.77	954.88
271.002	866.88
271.234	851.88
271.466	852.88
271.698	921.88
271.93	1083.88
272.162	1079.88
272.394	969.88
272.626	908.88
272.858	825.88
273.09	735.88
273.322	720.88
273.553	674.88
273.785	704.88
274.017	730.88
274.249	775.88
274.481	777.88
274.713	748.88
274.945	732.88
275.176	724.88
275.408	708.88
275.64	705.88
275.872	715.88
276.104	776.88
276.335	844.88
276.567	944.88
276.799	953.88
277.031	859.88
277.262	822.88
277.494	856.88
277.726	924.88
277.957	891.88
278.189	848.88
278.421	795.88
278.652	736.88
278.884	729.88
279.115	779.88
279.347	767.88
279.579	745.88
279.81	773.88
280.042	829.88
280.273	904.88
280.505	920.88
280.736	915.88
280.968	845.88
281.199	771.88
281.431	735.88
281.662	765.88
281.894	754.88
282.125	756.88
282.356	795.88
282.588	801.88
282.819	788.88
283.051	829.88
283.282	919.88
283.513	900.88
283.745	763.88
283.976	720.88
284.207	761.88
284.439	747.88
284.67	763.88
284.901	777.88
285.132	818.88
285.364	808.88
285.595	800.88
285.826	774.88
286.057	774.88
286.288	770.88
286.52	827.88
286.751	887.88
286.982	869.88
287.213	811.88
287.444	731.88
287.675	753.88
287.906	802.88
288.138	851.88
288.369	815.88
288.6	782.88
288.831	748.88
289.062	743.88
289.293	748.88
289.524	790.88
289.755	813.88
289.986	796.88
290.217	780.88
290.448	768.88
290.679	803.88
290.91	804.88
291.141	830.88
291.371	871.88
291.602	866.88
291.833	836.88
292.064	845.88
292.295	849.88
292.526	845.88
292.757	889.88
292.987	828.88
293.218	795.88
293.449	921.88
293.68	993.88
293.91	1069.88
294.141	984.88
294.372	940.88
294.603	985.88
294.833	996.88
295.064	923.88
295.295	842.88
295.525	831.88
295.756	789.88
295.987	748.88
296.217	770.88
296.448	797.88
296.679	805.88
296.909	794.88
297.14	746.88
297.37	815.88
297.601	867.88
297.831	923.88
298.062	895.88
298.292	828.88
298.523	787.88
298.753	811.88
298.984	836.88
299.214	801.88
299.445	836.88
299.675	867.88
299.905	844.88
300.136	823.88
300.366	793.88
300.597	798.88
300.827	810.88
301.057	832.88
301.288	855.88
301.518	839.88
301.748	886.88
301.979	928.88
302.209	914.88
302.439	977.88
302.669	1017.88
302.9	970.88
303.13	895.88
303.36	847.88
303.59	898.88
303.82	897.88
304.051	863.88
304.281	867.88
304.511	908.88
304.741	964.88
304.971	1038.88
305.201	1100.88
305.431	995.88
305.661	836.88
305.891	761.88
306.121	779.88
306.352	815.88
306.582	881.88
306.812	911.88
307.042	981.88
307.272	979.88
307.502	1025.88
307.731	1090.88
307.961	1116.88
308.191	1031.88
308.421	913.88
308.651	863.88
308.881	841.88
309.111	848.88
309.341	828.88
309.571	871.88
309.8	861.88
310.03	869.88
310.26	837.88
310.49	851.88
310.72	880.88
310.949	901.88
311.179	879.88
311.409	873.88
311.639	893.88
311.868	863.88
312.098	840.88
312.328	854.88
312.557	835.88
312.787	876.88
313.017	885.88
313.246	887.88
313.476	887.88
313.706	912.88
313.935	918.88
314.165	940.88
314.394	954.88
314.624	979.88
314.853	1051.88
315.083	1076.88
315.312	1112.88
315.542	1012.88
315.771	913.88
316.001	939.88
316.23	979.88
316.46	956.88
316.689	959.88
316.919	902.88
317.148	903.88
317.377	943.88
317.607	989.88
317.836	1105.88
318.065	1105.88
318.295	1056.88
318.524	1037.88
318.753	979.88
318.983	948.88
319.212	947.88
319.441	928.88
319.67	927.88
319.9	937.88
320.129	994.88
320.358	1023.88
320.587	1033.88
320.816	1064.88
321.046	1041.88
321.275	992.88
321.504	978.88
321.733	1052.88
321.962	1003.88
322.191	962.88
322.42	940.88
322.649	914.88
322.878	939.88
323.108	979.88
323.337	977.88
323.566	1015.88
323.795	973.88
324.024	969.88
324.253	957.88
324.482	966.88
324.71	935.88
324.939	887.88
325.168	915.88
325.397	948.88
325.626	966.88
325.855	977.88
326.084	949.88
326.313	966.88
326.542	968.88
326.77	1011.88
326.999	999.88
327.228	938.88
327.457	900.88
327.686	909.88
327.914	925.88
328.143	937.88
328.372	947.88
328.6	946.88
328.829	919.88
329.058	926.88
329.287	937.88
329.515	961.88
329.744	981.88
329.972	1032.88
330.201	1047.88
330.43	1028.88
330.658	998.88
330.887	1019.88
331.115	1015.88
331.344	1045.88
331.572	989.88
331.801	1013.88
332.03	1009.88
332.258	996.88
332.486	1025.88
332.715	1028.88
332.943	1060.88
333.172	1014.88
333.4	1038.88
333.629	1057.88
333.857	1135.88
334.085	1264.88
334.314	1421.88
334.542	1500.88
334.771	1323.88
334.999	1194.88
335.227	1113.88
335.455	1082.88
335.684	1059.88
335.912	1096.88
336.14	1130.88
336.369	1079.88
336.597	1037.88
336.825	1012.88
337.053	1079.88
337.281	1132.88
337.51	1172.88
337.738	1221.88
337.966	1137.88
338.194	1043.88
338.422	1012.88
338.65	1015.88
338.878	975.88
339.106	976.88
339.334	960.88
339.562	932.88
339.79	987.88
340.018	1035.88
340.246	1079.88
340.474	1099.88
340.702	1032.88
340.93	1037.88
341.158	1052.88
341.386	993.88
341.614	1011.88
341.842	1017.88
342.07	1057.88
342.298	1046.88
342.526	1017.88
342.754	1011.88
342.981	1011.88
343.209	999.88
343.437	977.88
343.665	1017.88
343.893	1032.88
344.12	1081.88
344.348	1058.88
344.576	1016.88
344.804	1012.88
345.031	972.88
345.259	989.88
345.487	973.88
345.714	908.88
345.942	913.88
346.17	916.88
346.397	993.88
346.625	961.88
346.853	944.88
347.08	896.88
347.308	906.88
347.535	933.88
347.763	954.88
347.99	936.88
348.218	917.88
348.445	938.88
348.673	956.88
348.9	1002.88
349.128	1044.88
349.355	1045.88
349.583	1021.88
349.81	945.88
350.037	867.88
350.265	873.88
350.492	881.88
350.72	907.88
350.947	978.88
351.174	952.88
351.402	935.88
351.629	887.88
351.856	891.88
352.083	845.88
352.311	883.88
352.538	930.88
352.765	964.88
352.992	974.88
353.22	935.88
353.447	918.88
353.674	940.88
353.901	911.88
354.128	935.88
354.355	920.88
354.583	950.88
354.81	997.88
355.037	993.88
355.264	967.88
355.491	938.88
355.718	968.88
355.945	951.88
356.172	908.88
356.399	901.88
356.626	932.88
356.853	986.88
357.08	1065.88
357.307	1129.88
357.534	1073.88
357.761	965.88
357.988	887.88
358.215	878.88
358.441	908.88
358.668	907.88
358.895	923.88
359.122	999.88
359.349	1089.88
359.576	1014.88
359.802	911.88
360.029	894.88
360.256	894.88
360.483	906.88
360.709	955.88
360.936	1015.88
361.163	1045.88
361.39	1131.88
361.616	1164.88
361.843	1167.88
362.07	1055.88
362.296	952.88
362.523	906.88
362.749	951.88
362.976	943.88
363.203	959.88
363.429	908.88
363.656	932.88
363.882	984.88
364.109	1094.88
364.335	1141.88
364.562	1020.88
364.788	985.88
365.015	922.88
365.241	902.88
365.468	957.88
365.694	993.88
365.92	1065.88
366.147	977.88
366.373	919.88
366.599	903.88
366.826	915.88
367.052	920.88
367.278	913.88
367.505	947.88
367.731	961.88
367.957	954.88
368.184	1000.88
368.41	1073.88
368.636	1069.88
368.862	1088.88
369.089	1096.88
369.315	1029.88
369.541	1023.88
369.767	949.88
369.993	936.88
370.219	972.88
370.445	977.88
370.672	1037.88
370.898	1085.88
371.124	1055.88
371.35	1009.88
371.576	1027.88
371.802	1053.88
372.028	1007.88
372.254	959.88
372.48	961.88
372.706	946.88
372.932	967.88
373.158	963.88
373.384	982.88
373.61	1023.88
373.835	1060.88
374.061	1020.88
374.287	1019.88
374.513	1011.88
374.739	1001.88
374.965	1004.88
375.191	1049.88
375.416	1043.88
375.642	1041.88
375.868	1112.88
376.094	1139.88
376.319	1068.88
376.545	1017.88
376.771	1046.88
376.997	1102.88
377.222	1068.88
377.448	1031.88
377.674	1055.88
377.899	1051.88
378.125	1110.88
378.35	1097.88
378.576	984.88
378.802	955.88
379.027	975.88
379.253	996.88
379.478	1018.88
379.704	1014.88
379.929	1027.88
380.155	995.88
380.38	1023.88
380.606	1033.88
380.831	1056.88
381.057	1105.88
381.282	1089.88
381.507	1067.88
381.733	1129.88
381.958	1158.88
382.184	1075.88
382.409	1030.88
382.634	1067.88
382.86	1078.88
383.085	1045.88
383.31	1100.88
383.535	1200.88
383.761	1235.88
383.986	1180.88
384.211	1155.88
384.436	1116.88
384.662	1179.88
384.887	1193.88
385.112	1147.88
385.337	1194.88
385.562	1148.88
385.787	1155.88
386.013	1164.88
386.238	1177.88
386.463	1200.88
386.688	1294.88
386.913	1343.88
387.138	1284.88
387.363	1189.88
387.588	1181.88
387.813	1164.88
388.038	1203.88
388.263	1259.88
388.488	1156.88
388.713	1110.88
388.938	1081.88
389.163	1108.88
389.387	1149.88
389.612	1123.88
389.837	1191.88
390.062	1161.88
390.287	1153.88
390.512	1134.88
390.736	1104.88
390.961	1126.88
391.186	1082.88
391.411	1115.88
391.636	1154.88
391.86	1116.88
392.085	1147.88
392.31	1115.88
392.534	1143.88
392.759	1178.88
392.984	1164.88
393.208	1161.88
393.433	1182.88
393.658	1235.88
393.882	1224.88
394.107	1181.88
394.331	1129.88
394.556	1151.88
394.78	1168.88
395.005	1197.88
395.229	1255.88
395.454	1306.88
395.678	1312.88
395.903	1242.88
396.127	1194.88
396.352	1210.88
396.576	1292.88
396.801	1261.88
397.025	1273.88
397.249	1287.88
397.474	1239.88
397.698	1256.88
397.922	1270.88
398.147	1338.88
398.371	1395.88
398.595	1355.88
398.82	1350.88
399.044	1332.88
399.268	1403.88
399.492	1475.88
399.717	1480.88
399.941	1537.88
400.165	1477.88
400.389	1459.88
400.613	1500.88
400.837	1664.88
401.062	1864.88
401.286	1554.88
401.51	1431.88
401.734	1494.88
401.958	1432.88
402.182	1320.88
402.406	1316.88
402.63	1280.88
402.854	1299.88
403.078	1329.88
403.302	1316.88
403.526	1348.88
403.75	1382.88
403.974	1391.88
404.198	1393.88
404.422	1433.88
404.645	1530.88
404.869	1445.88
405.093	1360.88
405.317	1367.88
405.541	1355.88
405.765	1380.88
405.988	1381.88
406.212	1383.88
406.436	1405.88
406.66	1487.88
406.883	1519.88
407.107	1719.88
407.331	1797.88
407.555	1911.88
407.778	1721.88
408.002	1447.88
408.226	1439.88
408.449	1411.88
408.673	1399.88
408.896	1423.88
409.12	1424.88
409.344	1420.88
409.567	1363.88
409.791	1374.88
410.014	1429.88
410.238	1509.88
410.461	1559.88
410.685	1383.88
410.908	1355.88
411.132	1396.88
411.355	1360.88
411.578	1331.88
411.802	1388.88
412.025	1401.88
412.249	1359.88
412.472	1335.88
412.695	1355.88
412.919	1330.88
413.142	1347.88
413.365	1313.88
413.589	1352.88
413.812	1433.88
414.035	1445.88
414.258	1328.88
414.482	1369.88
414.705	1347.88
414.928	1322.88
415.151	1331.88
415.374	1307.88
415.597	1342.88
415.821	1320.88
416.044	1378.88
416.267	1371.88
416.49	1266.88
416.713	1302.88
416.936	1368.88
417.159	1382.88
417.382	1395.88
417.605	1315.88
417.828	1340.88
418.051	1363.88
418.274	1303.88
418.497	1281.88
418.72	1307.88
418.943	1291.88
419.166	1337.88
419.389	1365.88
419.611	1335.88
419.834	1321.88
420.057	1324.88
420.28	1298.88
420.503	1307.88
420.726	1364.88
420.948	1297.88
421.171	1276.88
421.394	1297.88
421.617	1382.88
421.839	1340.88
422.062	1339.88
422.285	1313.88
422.507	1300.88
422.73	1238.88
422.953	1232.88
423.175	1231.88
423.398	1323.88
423.621	1305.88
423.843	1278.88
424.066	1335.88
424.288	1408.88
424.511	1451.88
424.733	1373.88
424.956	1241.88
425.178	1251.88
425.401	1260.88
425.623	1291.88
425.846	1273.88
426.068	1352.88
426.291	1331.88
426.513	1305.88
426.735	1351.88
426.958	1456.88
427.18	1521.88
427.402	1382.88
427.625	1409.88
427.847	1399.88
428.069	1291.88
428.292	1265.88
428.514	1231.88
428.736	1243.88
428.958	1269.88
429.181	1300.88
429.403	1487.88
429.625	1791.88
429.847	1498.88
430.069	1320.88
430.292	1500.88
430.514	1492.88
430.736	1361.88
430.958	1362.88
431.18	1313.88
431.402	1288.88
431.624	1241.88
431.846	1220.88
432.068	1135.88
432.29	1161.88
432.512	1199.88
432.734	1290.88
432.956	1286.88
433.178	1360.88
433.4	1340.88
433.622	1310.88
433.844	1268.88
434.066	1205.88
434.287	1171.88
434.509	1217.88
434.731	1288.88
434.953	1363.88
435.175	1355.88
435.397	1300.88
435.618	1272.88
435.84	1235.88
436.062	1259.88
436.284	1290.88
436.505	1301.88
436.727	1328.88
436.949	1295.88
437.17	1252.88
437.392	1206.88
437.614	1242.88
437.835	1175.88
438.057	1228.88
438.278	1259.88
438.5	1240.88
438.721	1240.88
438.943	1222.88
439.165	1232.88
439.386	1246.88
439.608	1272.88
439.829	1289.88
440.05	1249.88
440.272	1289.88
440.493	1234.88
440.715	1283.88
440.936	1399.88
441.158	1455.88
441.379	1442.88
441.6	1414.88
441.822	1360.88
442.043	1369.88
442.264	1311.88
442.486	1294.88
442.707	1319.88
442.928	1261.88
443.149	1314.88
443.371	1365.88
443.592	1373.88
443.813	1396.88
444.034	1369.88
444.255	1405.88
444.476	1424.88
444.698	1432.88
444.919	1409.88
445.14	1497.88
445.361	1450.88
445.582	1495.88
445.803	1447.88
446.024	1403.88
446.245	1454.88
446.466	1395.88
446.687	1371.88
446.908	1356.88
447.129	1334.88
447.35	1346.88
447.571	1313.88
447.792	1252.88
448.013	1251.88
448.234	1267.88
448.455	1305.88
448.675	1304.88
448.896	1196.88
449.117	1209.88
449.338	1211.88
449.559	1279.88
449.779	1316.88
450	1441.88
450.221	1531.88
450.442	1436.88
450.662	1301.88
450.883	1194.88
451.104	1182.88
451.324	1224.88
451.545	1242.88
451.766	1205.88
451.986	1166.88
452.207	1148.88
452.428	1109.88
452.648	1098.88
452.869	1132.88
453.089	1163.88
453.31	1155.88
453.53	1147.88
453.751	1146.88
453.971	1076.88
454.192	1077.88
454.412	1184.88
454.633	1132.88
454.853	1118.88
455.073	1067.88
455.294	1096.88
455.514	1065.88
455.734	1114.88
455.955	1090.88
456.175	1092.88
456.395	1094.88
456.616	1120.88
456.836	1096.88
457.056	1108.88
457.276	1095.88
457.497	1040.88
457.717	1023.88
457.937	1082.88
458.157	1089.88
458.377	1043.88
458.598	1067.88
458.818	1071.88
459.038	1151.88
459.258	1185.88
459.478	1153.88
459.698	1132.88
459.918	1149.88
460.138	1214.88
460.358	1252.88
460.578	1254.88
460.798	1312.88
461.018	1364.88
461.238	1341.88
461.458	1290.88
461.678	1256.88
461.898	1276.88
462.118	1240.88
462.338	1297.88
462.558	1268.88
462.777	1280.88
462.997	1348.88
463.217	1385.88
463.437	1375.88
463.657	1256.88
463.876	1271.88
464.096	1287.88
464.316	1250.88
464.536	1322.88
464.755	1311.88
464.975	1350.88
465.195	1299.88
465.414	1363.88
465.634	1345.88
465.854	1313.88
466.073	1428.88
466.293	1373.88
466.512	1237.88
466.732	1227.88
466.951	1286.88
467.171	1240.88
467.391	1221.88
467.61	1173.88
467.829	1237.88
468.049	1351.88
468.268	1503.88
468.488	1325.88
468.707	1287.88
468.927	1245.88
469.146	1221.88
469.365	1210.88
469.585	1250.88
469.804	1233.88
470.023	1239.88
470.243	1247.88
470.462	1280.88
470.681	1198.88
470.901	1263.88
471.12	1269.88
471.339	1269.88
471.558	1233.88
471.777	1209.88
471.997	1187.88
472.216	1198.88
472.435	1150.88
472.654	1153.88
472.873	1187.88
473.092	1239.88
473.311	1210.88
473.53	1142.88
473.749	1129.88
473.968	1220.88
474.187	1233.88
474.406	1228.88
474.625	1209.88
474.844	1247.88
475.063	1220.88
475.282	1250.88
475.501	1221.88
475.72	1224.88
475.939	1323.88
476.158	1236.88
476.377	1223.88
476.596	1215.88
476.814	1240.88
477.033	1216.88
477.252	1282.88
477.471	1320.88
477.69	1303.88
477.908	1293.88
478.127	1354.88
478.346	1449.88
478.564	1427.88
478.783	1431.88
479.002	1459.88
479.22	1416.88
479.439	1476.88
479.658	1589.88
479.876	1546.88
480.095	1399.88
480.313	1377.88
480.532	1274.88
480.751	1335.88
480.969	1340.88
481.188	1299.88
481.406	1225.88
481.624	1267.88
481.843	1256.88
482.061	1316.88
482.28	1354.88
482.498	1350.88
482.717	1324.88
482.935	1306.88
483.153	1340.88
483.372	1398.88
483.59	1392.88
483.808	1370.88
484.027	1364.88
484.245	1436.88
484.463	1791.88
484.681	1919.88
484.9	1466.88
485.118	1409.88
485.336	1357.88
485.554	1395.88
485.772	1415.88
485.99	1367.88
486.209	1417.88
486.427	1385.88
486.645	1447.88
486.863	1430.88
487.081	1465.88
487.299	1509.88
487.517	1477.88
487.735	1435.88
487.953	1514.88
488.171	1492.88
488.389	1483.88
488.607	1498.88
488.825	1653.88
489.043	1588.88
489.261	1423.88
489.479	1501.88
489.696	1483.88
489.914	1473.88
490.132	1444.88
490.35	1467.88
490.568	1545.88
490.786	1539.88
491.003	1508.88
491.221	1558.88
491.439	1625.88
491.657	1592.88
491.874	1637.88
492.092	1669.88
492.31	1686.88
492.527	1686.88
492.745	1647.88
492.963	1579.88
493.18	1613.88
