Data from WStandard_LampEnergy10_LIBS07252019.E.O._I.C._HRD10591_15-53-41-928.txt Node
Date: Thu Jul 25 15:53:41 EDT 2019
User: cochatt
Spectrometer: HR+D1059
Trigger mode: 1
Integration Time (sec): 1.000000E-1
Scans to average: 1
Electric dark correction enabled: true
Nonlinearity correction enabled: false
Boxcar width: 0
XAxis mode: Wavelengths
Number of Pixels in Spectrum: 2048
>>>>>Begin Spectral Data<<<<<
223.165	-11.81
223.4	-11.81
223.635	-11.81
223.869	-14.81
224.104	-15.81
224.338	-4.81
224.573	-7.81
224.808	-1.81
225.042	-8.81
225.277	-7.81
225.511	-15.81
225.746	-6.81
225.98	5.19
226.215	4.19
226.449	10.19
226.683	21.19
226.918	33.19
227.152	22.19
227.387	27.19
227.621	43.19
227.856	51.19
228.09	57.19
228.324	54.19
228.559	45.19
228.793	91.19
229.027	148.19
229.262	152.19
229.496	152.19
229.73	138.19
229.964	189.19
230.199	173.19
230.433	188.19
230.667	184.19
230.901	182.19
231.136	173.19
231.37	175.19
231.604	170.19
231.838	172.19
232.072	168.19
232.306	171.19
232.541	197.19
232.775	201.19
233.009	204.19
233.243	204.19
233.477	205.19
233.711	213.19
233.945	221.19
234.179	181.19
234.413	200.19
234.647	219.19
234.881	206.19
235.115	161.19
235.349	190.19
235.583	192.19
235.817	205.19
236.051	189.19
236.285	181.19
236.519	214.19
236.753	235.19
236.987	224.19
237.221	218.19
237.455	242.19
237.689	229.19
237.922	225.19
238.156	210.19
238.39	240.19
238.624	241.19
238.858	245.19
239.091	262.19
239.325	287.19
239.559	274.19
239.793	277.19
240.027	304.19
240.26	308.19
240.494	248.19
240.728	237.19
240.961	244.19
241.195	247.19
241.429	279.19
241.662	271.19
241.896	254.19
242.13	232.19
242.363	242.19
242.597	280.19
242.83	281.19
243.064	270.19
243.298	299.19
243.531	301.19
243.765	289.19
243.998	282.19
244.232	265.19
244.465	257.19
244.699	261.19
244.932	282.19
245.166	306.19
245.399	302.19
245.633	280.19
245.866	284.19
246.099	284.19
246.333	303.19
246.566	313.19
246.8	315.19
247.033	325.19
247.266	332.19
247.5	315.19
247.733	328.19
247.966	353.19
248.2	363.19
248.433	372.19
248.666	376.19
248.899	387.19
249.133	444.19
249.366	466.19
249.599	397.19
249.832	352.19
250.066	375.19
250.299	379.19
250.532	351.19
250.765	320.19
250.998	329.19
251.231	352.19
251.465	363.19
251.698	348.19
251.931	348.19
252.164	347.19
252.397	364.19
252.63	351.19
252.863	340.19
253.096	324.19
253.329	355.19
253.562	353.19
253.795	382.19
254.028	380.19
254.261	327.19
254.494	339.19
254.727	361.19
254.96	364.19
255.193	361.19
255.426	420.19
255.659	461.19
255.892	451.19
256.124	416.19
256.357	402.19
256.59	404.19
256.823	417.19
257.056	407.19
257.289	481.19
257.521	514.19
257.754	459.19
257.987	468.19
258.22	474.19
258.452	462.19
258.685	413.19
258.918	392.19
259.151	388.19
259.383	393.19
259.616	360.19
259.849	375.19
260.081	423.19
260.314	454.19
260.547	474.19
260.779	459.19
261.012	430.19
261.244	424.19
261.477	417.19
261.71	412.19
261.942	394.19
262.175	395.19
262.407	450.19
262.64	380.19
262.872	390.19
263.105	374.19
263.337	390.19
263.57	382.19
263.802	405.19
264.035	339.19
264.267	357.19
264.499	357.19
264.732	374.19
264.964	386.19
265.197	418.19
265.429	448.19
265.661	471.19
265.894	480.19
266.126	500.19
266.358	468.19
266.591	469.19
266.823	507.19
267.055	468.19
267.287	462.19
267.52	441.19
267.752	448.19
267.984	458.19
268.216	473.19
268.448	457.19
268.681	475.19
268.913	424.19
269.145	405.19
269.377	438.19
269.609	466.19
269.841	535.19
270.073	596.19
270.306	636.19
270.538	631.19
270.77	579.19
271.002	484.19
271.234	478.19
271.466	494.19
271.698	564.19
271.93	621.19
272.162	582.19
272.394	556.19
272.626	541.19
272.858	476.19
273.09	420.19
273.322	426.19
273.553	406.19
273.785	432.19
274.017	422.19
274.249	457.19
274.481	469.19
274.713	418.19
274.945	410.19
275.176	419.19
275.408	408.19
275.64	430.19
275.872	439.19
276.104	445.19
276.335	520.19
276.567	508.19
276.799	532.19
277.031	487.19
277.262	457.19
277.494	515.19
277.726	540.19
277.957	508.19
278.189	488.19
278.421	457.19
278.652	427.19
278.884	432.19
279.115	435.19
279.347	453.19
279.579	443.19
279.81	424.19
280.042	484.19
280.273	528.19
280.505	517.19
280.736	509.19
280.968	475.19
281.199	437.19
281.431	428.19
281.662	436.19
281.894	440.19
282.125	468.19
282.356	474.19
282.588	467.19
282.819	454.19
283.051	496.19
283.282	532.19
283.513	526.19
283.745	458.19
283.976	434.19
284.207	441.19
284.439	449.19
284.67	445.19
284.901	472.19
285.132	472.19
285.364	459.19
285.595	461.19
285.826	442.19
286.057	468.19
286.288	458.19
286.52	464.19
286.751	491.19
286.982	498.19
287.213	480.19
287.444	439.19
287.675	452.19
287.906	484.19
288.138	497.19
288.369	488.19
288.6	454.19
288.831	420.19
289.062	447.19
289.293	461.19
289.524	456.19
289.755	476.19
289.986	477.19
290.217	456.19
290.448	442.19
290.679	462.19
290.91	479.19
291.141	497.19
291.371	490.19
291.602	490.19
291.833	486.19
292.064	503.19
292.295	504.19
292.526	514.19
292.757	521.19
292.987	494.19
293.218	486.19
293.449	529.19
293.68	584.19
293.91	610.19
294.141	570.19
294.372	562.19
294.603	568.19
294.833	604.19
295.064	571.19
295.295	493.19
295.525	490.19
295.756	460.19
295.987	447.19
296.217	445.19
296.448	463.19
296.679	474.19
296.909	460.19
297.14	484.19
297.37	487.19
297.601	508.19
297.831	533.19
298.062	517.19
298.292	489.19
298.523	485.19
298.753	501.19
298.984	486.19
299.214	500.19
299.445	520.19
299.675	530.19
299.905	525.19
300.136	498.19
300.366	472.19
300.597	452.19
300.827	467.19
301.057	490.19
301.288	550.19
301.518	509.19
301.748	530.19
301.979	570.19
302.209	569.19
302.439	592.19
302.669	602.19
302.9	561.19
303.13	523.19
303.36	524.19
303.59	550.19
303.82	525.19
304.051	531.19
304.281	526.19
304.511	550.19
304.741	577.19
304.971	605.19
305.201	640.19
305.431	574.19
305.661	502.19
305.891	459.19
306.121	463.19
306.352	494.19
306.582	514.19
306.812	542.19
307.042	568.19
307.272	608.19
307.502	625.19
307.731	648.19
307.961	635.19
308.191	602.19
308.421	530.19
308.651	524.19
308.881	515.19
309.111	517.19
309.341	515.19
309.571	524.19
309.8	486.19
310.03	506.19
310.26	484.19
310.49	496.19
310.72	540.19
310.949	548.19
311.179	548.19
311.409	530.19
311.639	521.19
311.868	519.19
312.098	526.19
312.328	526.19
312.557	522.19
312.787	527.19
313.017	548.19
313.246	529.19
313.476	520.19
313.706	538.19
313.935	542.19
314.165	549.19
314.394	567.19
314.624	594.19
314.853	626.19
315.083	646.19
315.312	643.19
315.542	579.19
315.771	565.19
316.001	556.19
316.23	618.19
316.46	572.19
316.689	571.19
316.919	556.19
317.148	527.19
317.377	543.19
317.607	600.19
317.836	658.19
318.065	653.19
318.295	643.19
318.524	605.19
318.753	616.19
318.983	587.19
319.212	586.19
319.441	572.19
319.67	555.19
319.9	588.19
320.129	632.19
320.358	631.19
320.587	625.19
320.816	619.19
321.046	620.19
321.275	585.19
321.504	609.19
321.733	639.19
321.962	614.19
322.191	591.19
322.42	572.19
322.649	572.19
322.878	546.19
323.108	560.19
323.337	545.19
323.566	584.19
323.795	594.19
324.024	601.19
324.253	574.19
324.482	590.19
324.71	564.19
324.939	517.19
325.168	570.19
325.397	589.19
325.626	601.19
325.855	592.19
326.084	571.19
326.313	574.19
326.542	604.19
326.77	594.19
326.999	598.19
327.228	558.19
327.457	544.19
327.686	542.19
327.914	553.19
328.143	605.19
328.372	574.19
328.6	588.19
328.829	555.19
329.058	537.19
329.287	569.19
329.515	561.19
329.744	610.19
329.972	608.19
330.201	633.19
330.43	626.19
330.658	614.19
330.887	616.19
331.115	608.19
331.344	609.19
331.572	629.19
331.801	590.19
332.03	596.19
332.258	605.19
332.486	632.19
332.715	640.19
332.943	618.19
333.172	627.19
333.4	604.19
333.629	642.19
333.857	678.19
334.085	777.19
334.314	876.19
334.542	880.19
334.771	766.19
334.999	700.19
335.227	653.19
335.455	636.19
335.684	636.19
335.912	675.19
336.14	673.19
336.369	638.19
336.597	630.19
336.825	616.19
337.053	660.19
337.281	676.19
337.51	706.19
337.738	713.19
337.966	680.19
338.194	607.19
338.422	611.19
338.65	605.19
338.878	588.19
339.106	584.19
339.334	576.19
339.562	580.19
339.79	604.19
340.018	625.19
340.246	634.19
340.474	645.19
340.702	632.19
340.93	651.19
341.158	602.19
341.386	636.19
341.614	602.19
341.842	612.19
342.07	610.19
342.298	626.19
342.526	632.19
342.754	608.19
342.981	610.19
343.209	597.19
343.437	604.19
343.665	608.19
343.893	634.19
344.12	660.19
344.348	661.19
344.576	607.19
344.804	605.19
345.031	613.19
345.259	626.19
345.487	578.19
345.714	568.19
345.942	565.19
346.17	561.19
346.397	557.19
346.625	584.19
346.853	551.19
347.08	548.19
347.308	564.19
347.535	601.19
347.763	612.19
347.99	588.19
348.218	558.19
348.445	564.19
348.673	601.19
348.9	571.19
349.128	626.19
349.355	622.19
349.583	595.19
349.81	561.19
350.037	543.19
350.265	552.19
350.492	560.19
350.72	587.19
350.947	609.19
351.174	614.19
351.402	561.19
351.629	534.19
351.856	546.19
352.083	535.19
352.311	561.19
352.538	573.19
352.765	585.19
352.992	586.19
353.22	578.19
353.447	533.19
353.674	572.19
353.901	596.19
354.128	574.19
354.355	558.19
354.583	597.19
354.81	614.19
355.037	607.19
355.264	598.19
355.491	592.19
355.718	563.19
355.945	585.19
356.172	555.19
356.399	559.19
356.626	588.19
356.853	602.19
357.08	694.19
357.307	701.19
357.534	678.19
357.761	599.19
357.988	570.19
358.215	559.19
358.441	570.19
358.668	522.19
358.895	561.19
359.122	622.19
359.349	648.19
359.576	631.19
359.802	562.19
360.029	570.19
360.256	545.19
360.483	581.19
360.709	601.19
360.936	617.19
361.163	633.19
361.39	700.19
361.616	723.19
361.843	720.19
362.07	650.19
362.296	620.19
362.523	572.19
362.749	574.19
362.976	597.19
363.203	597.19
363.429	580.19
363.656	572.19
363.882	610.19
364.109	660.19
364.335	669.19
364.562	629.19
364.788	610.19
365.015	596.19
365.241	563.19
365.468	583.19
365.694	610.19
365.92	615.19
366.147	614.19
366.373	569.19
366.599	575.19
366.826	567.19
367.052	582.19
367.278	597.19
367.505	609.19
367.731	628.19
367.957	627.19
368.184	633.19
368.41	707.19
368.636	697.19
368.862	689.19
369.089	690.19
369.315	660.19
369.541	642.19
369.767	619.19
369.993	577.19
370.219	604.19
370.445	649.19
370.672	696.19
370.898	720.19
371.124	683.19
371.35	651.19
371.576	667.19
371.802	661.19
372.028	658.19
372.254	624.19
372.48	624.19
372.706	618.19
372.932	611.19
373.158	648.19
373.384	654.19
373.61	652.19
373.835	657.19
374.061	646.19
374.287	647.19
374.513	621.19
374.739	648.19
374.965	653.19
375.191	647.19
375.416	677.19
375.642	654.19
375.868	728.19
376.094	741.19
376.319	705.19
376.545	636.19
376.771	687.19
376.997	757.19
377.222	705.19
377.448	680.19
377.674	686.19
377.899	705.19
378.125	717.19
378.35	714.19
378.576	664.19
378.802	632.19
379.027	650.19
379.253	645.19
379.478	677.19
379.704	664.19
379.929	658.19
380.155	651.19
380.38	671.19
380.606	698.19
380.831	672.19
381.057	708.19
381.282	715.19
381.507	724.19
381.733	757.19
381.958	761.19
382.184	705.19
382.409	707.19
382.634	702.19
382.86	704.19
383.085	713.19
383.31	730.19
383.535	806.19
383.761	824.19
383.986	760.19
384.211	752.19
384.436	744.19
384.662	774.19
384.887	778.19
385.112	752.19
385.337	744.19
385.562	729.19
385.787	746.19
386.013	769.19
386.238	770.19
386.463	788.19
386.688	822.19
386.913	850.19
387.138	858.19
387.363	775.19
387.588	776.19
387.813	777.19
388.038	786.19
388.263	820.19
388.488	777.19
388.713	738.19
388.938	724.19
389.163	756.19
389.387	778.19
389.612	747.19
389.837	789.19
390.062	791.19
390.287	807.19
390.512	753.19
390.736	772.19
390.961	733.19
391.186	762.19
391.411	762.19
391.636	760.19
391.86	795.19
392.085	750.19
392.31	785.19
392.534	768.19
392.759	792.19
392.984	775.19
393.208	790.19
393.433	814.19
393.658	826.19
393.882	824.19
394.107	804.19
394.331	786.19
394.556	777.19
394.78	804.19
395.005	825.19
395.229	892.19
395.454	903.19
395.678	890.19
395.903	842.19
396.127	804.19
396.352	836.19
396.576	855.19
396.801	856.19
397.025	867.19
397.249	865.19
397.474	834.19
397.698	857.19
397.922	873.19
398.147	904.19
398.371	938.19
398.595	951.19
398.82	877.19
399.044	928.19
399.268	947.19
399.492	983.19
399.717	1001.19
399.941	1017.19
400.165	993.19
400.389	982.19
400.613	1004.19
400.837	1148.19
401.062	1227.19
401.286	1042.19
401.51	1000.19
401.734	1033.19
401.958	952.19
402.182	926.19
402.406	905.19
402.63	904.19
402.854	925.19
403.078	936.19
403.302	917.19
403.526	926.19
403.75	955.19
403.974	941.19
404.198	957.19
404.422	1012.19
404.645	1049.19
404.869	993.19
405.093	924.19
405.317	942.19
405.541	934.19
405.765	928.19
405.988	967.19
406.212	963.19
406.436	980.19
406.66	1044.19
406.883	1060.19
407.107	1203.19
407.331	1273.19
407.555	1300.19
407.778	1170.19
408.002	1000.19
408.226	977.19
408.449	981.19
408.673	972.19
408.896	970.19
409.12	994.19
409.344	989.19
409.567	937.19
409.791	963.19
410.014	1000.19
410.238	1024.19
410.461	1107.19
410.685	968.19
410.908	955.19
411.132	969.19
411.355	954.19
411.578	937.19
411.802	967.19
412.025	968.19
412.249	948.19
412.472	954.19
412.695	933.19
412.919	924.19
413.142	934.19
413.365	950.19
413.589	980.19
413.812	1027.19
414.035	1036.19
414.258	953.19
414.482	950.19
414.705	981.19
414.928	943.19
415.151	908.19
415.374	945.19
415.597	946.19
415.821	965.19
416.044	987.19
416.267	946.19
416.49	918.19
416.713	949.19
416.936	974.19
417.159	1024.19
417.382	987.19
417.605	928.19
417.828	966.19
418.051	966.19
418.274	954.19
418.497	962.19
418.72	952.19
418.943	931.19
419.166	1007.19
419.389	1002.19
419.611	989.19
419.834	974.19
420.057	974.19
420.28	955.19
420.503	953.19
420.726	985.19
420.948	950.19
421.171	916.19
421.394	969.19
421.617	981.19
421.839	985.19
422.062	988.19
422.285	961.19
422.507	955.19
422.73	905.19
422.953	920.19
423.175	894.19
423.398	929.19
423.621	940.19
423.843	956.19
424.066	1000.19
424.288	1045.19
424.511	1070.19
424.733	1046.19
424.956	975.19
425.178	962.19
425.401	944.19
425.623	973.19
425.846	951.19
426.068	1020.19
426.291	978.19
426.513	966.19
426.735	973.19
426.958	1055.19
427.18	1080.19
427.402	1041.19
427.625	1054.19
427.847	1020.19
428.069	949.19
428.292	948.19
428.514	936.19
428.736	922.19
428.958	918.19
429.181	973.19
429.403	1119.19
429.625	1252.19
429.847	1091.19
430.069	977.19
430.292	1105.19
430.514	1090.19
430.736	1012.19
430.958	1030.19
431.18	949.19
431.402	897.19
431.624	860.19
431.846	810.19
432.068	766.19
432.29	747.19
432.512	814.19
432.734	898.19
432.956	947.19
433.178	1003.19
433.4	975.19
433.622	956.19
433.844	908.19
434.066	874.19
434.287	845.19
434.509	801.19
434.731	848.19
434.953	892.19
435.175	942.19
435.397	920.19
435.618	874.19
435.84	842.19
436.062	860.19
436.284	937.19
436.505	969.19
436.727	996.19
436.949	931.19
437.17	918.19
437.392	908.19
437.614	856.19
437.835	842.19
438.057	832.19
438.278	863.19
438.5	859.19
438.721	878.19
438.943	916.19
439.165	952.19
439.386	954.19
439.608	953.19
439.829	961.19
440.05	964.19
440.272	996.19
440.493	996.19
440.715	996.19
440.936	1045.19
441.158	1068.19
441.379	1081.19
441.6	1059.19
441.822	1030.19
442.043	1046.19
442.264	1014.19
442.486	987.19
442.707	974.19
442.928	954.19
443.149	992.19
443.371	1031.19
443.592	1019.19
443.813	1049.19
444.034	1045.19
444.255	1026.19
444.476	1069.19
444.698	1077.19
444.919	1045.19
445.14	1164.19
445.361	1149.19
445.582	1092.19
445.803	1056.19
446.024	1067.19
446.245	1089.19
446.466	1101.19
446.687	1075.19
446.908	1109.19
447.129	1064.19
447.35	1043.19
447.571	1024.19
447.792	999.19
448.013	980.19
448.234	966.19
448.455	1044.19
448.675	1028.19
448.896	923.19
449.117	912.19
449.338	940.19
449.559	982.19
449.779	1033.19
450	1036.19
450.221	1047.19
450.442	1056.19
450.662	969.19
450.883	903.19
451.104	899.19
451.324	905.19
451.545	915.19
451.766	881.19
451.986	853.19
452.207	833.19
452.428	817.19
452.648	808.19
452.869	788.19
453.089	812.19
453.31	801.19
453.53	785.19
453.751	759.19
453.971	742.19
454.192	763.19
454.412	794.19
454.633	826.19
454.853	811.19
455.073	794.19
455.294	795.19
455.514	797.19
455.734	765.19
455.955	772.19
456.175	776.19
456.395	769.19
456.616	752.19
456.836	766.19
457.056	760.19
457.276	763.19
457.497	711.19
457.717	704.19
457.937	714.19
458.157	754.19
458.377	697.19
458.598	698.19
458.818	686.19
459.038	718.19
459.258	738.19
459.478	728.19
459.698	704.19
459.918	733.19
460.138	811.19
460.358	848.19
460.578	860.19
460.798	856.19
461.018	916.19
461.238	907.19
461.458	871.19
461.678	866.19
461.898	851.19
462.118	830.19
462.338	876.19
462.558	871.19
462.777	861.19
462.997	876.19
463.217	900.19
463.437	893.19
463.657	846.19
463.876	829.19
464.096	843.19
464.316	854.19
464.536	914.19
464.755	917.19
464.975	888.19
465.195	881.19
465.414	908.19
465.634	904.19
465.854	918.19
466.073	1038.19
466.293	977.19
466.512	918.19
466.732	860.19
466.951	932.19
467.171	916.19
467.391	910.19
467.61	896.19
467.829	924.19
468.049	993.19
468.268	1081.19
468.488	1005.19
468.707	960.19
468.927	939.19
469.146	912.19
469.365	943.19
469.585	966.19
469.804	955.19
470.023	950.19
470.243	973.19
470.462	978.19
470.681	934.19
470.901	938.19
471.12	972.19
471.339	969.19
471.558	953.19
471.777	921.19
471.997	930.19
472.216	880.19
472.435	831.19
472.654	797.19
472.873	805.19
473.092	867.19
473.311	843.19
473.53	821.19
473.749	818.19
473.968	875.19
474.187	853.19
474.406	852.19
474.625	869.19
474.844	903.19
475.063	904.19
475.282	839.19
475.501	830.19
475.72	872.19
475.939	918.19
476.158	914.19
476.377	913.19
476.596	880.19
476.814	829.19
477.033	825.19
477.252	861.19
477.471	944.19
477.69	949.19
477.908	966.19
478.127	995.19
478.346	1006.19
478.564	1005.19
478.783	1002.19
479.002	1072.19
479.22	1056.19
479.439	1042.19
479.658	1066.19
479.876	1003.19
480.095	937.19
480.313	892.19
480.532	893.19
480.751	886.19
480.969	834.19
481.188	818.19
481.406	790.19
481.624	792.19
481.843	820.19
482.061	856.19
482.28	907.19
482.498	910.19
482.717	866.19
482.935	910.19
483.153	1002.19
483.372	1052.19
483.59	1004.19
483.808	992.19
484.027	975.19
484.245	1039.19
484.463	1266.19
484.681	1358.19
484.9	1055.19
485.118	1012.19
485.336	953.19
485.554	924.19
485.772	890.19
485.99	894.19
486.209	919.19
486.427	914.19
486.645	942.19
486.863	1021.19
487.081	1054.19
487.299	1050.19
487.517	1049.19
487.735	1154.19
487.953	1193.19
488.171	1198.19
488.389	1167.19
488.607	1122.19
488.825	1191.19
489.043	1074.19
489.261	1012.19
489.479	1077.19
489.696	1067.19
489.914	1039.19
490.132	1058.19
490.35	1132.19
490.568	1224.19
490.786	1193.19
491.003	1200.19
491.221	1278.19
491.439	1320.19
491.657	1326.19
491.874	1381.19
492.092	1460.19
492.31	1504.19
492.527	1482.19
492.745	1421.19
492.963	1378.19
493.18	1346.19
493.398	1375.19
493.615	1362.19
493.833	1335.19
494.05	1270.19
494.268	1287.19
494.485	1247.19
494.703	1248.19
494.92	1245.19
495.138	1237.19
495.355	1296.19
495.573	1325.19
495.79	1308.19
496.008	1285.19
496.225	1221.19
496.442	1211.19
496.66	1256.19
496.877	1224.19
497.094	1271.19
497.312	1257.19
497.529	1239.19
497.746	1225.19
497.963	1300.19
498.181	1311.19
498.398	1268.19
498.615	1245.19
498.832	1177.19
499.049	1172.19
499.267	1192.19
499.484	1278.19
499.701	1371.19
499.918	1424.19
