Data from WStandard_LampEnergy8_LIBS07252019.E.O._I.C._HRD10591_16-00-26-930.txt Node
Date: Thu Jul 25 16:00:26 EDT 2019
User: cochatt
Spectrometer: HR+D1059
Trigger mode: 1
Integration Time (sec): 1.000000E-1
Scans to average: 1
Electric dark correction enabled: true
Nonlinearity correction enabled: false
Boxcar width: 0
XAxis mode: Wavelengths
Number of Pixels in Spectrum: 2048
>>>>>Begin Spectral Data<<<<<
223.165	-7.12
223.4	-7.12
223.635	-7.12
223.869	-18.12
224.104	-19.12
224.338	-13.12
224.573	-16.12
224.808	-15.12
225.042	-14.12
225.277	-11.12
225.511	12.88
225.746	1.88
225.98	6.88
226.215	0.88
226.449	7.88
226.683	22.88
226.918	33.88
227.152	26.88
227.387	31.88
227.621	34.88
227.856	39.88
228.09	44.88
228.324	50.88
228.559	54.88
228.793	98.88
229.027	191.88
229.262	188.88
229.496	210.88
229.73	231.88
229.964	252.88
230.199	229.88
230.433	245.88
230.667	256.88
230.901	267.88
231.136	246.88
231.37	241.88
231.604	247.88
231.838	252.88
232.072	273.88
232.306	281.88
232.541	274.88
232.775	302.88
233.009	319.88
233.243	308.88
233.477	279.88
233.711	287.88
233.945	289.88
234.179	283.88
234.413	299.88
234.647	330.88
234.881	327.88
235.115	286.88
235.349	289.88
235.583	298.88
235.817	281.88
236.051	280.88
236.285	291.88
236.519	305.88
236.753	348.88
236.987	337.88
237.221	329.88
237.455	358.88
237.689	342.88
237.922	348.88
238.156	326.88
238.39	332.88
238.624	356.88
238.858	361.88
239.091	377.88
239.325	404.88
239.559	456.88
239.793	471.88
240.027	506.88
240.26	473.88
240.494	374.88
240.728	359.88
240.961	370.88
241.195	372.88
241.429	401.88
241.662	419.88
241.896	388.88
242.13	395.88
242.363	423.88
242.597	468.88
242.83	442.88
243.064	438.88
243.298	434.88
243.531	451.88
243.765	463.88
243.998	441.88
244.232	415.88
244.465	387.88
244.699	426.88
244.932	448.88
245.166	496.88
245.399	457.88
245.633	424.88
245.866	455.88
246.099	448.88
246.333	485.88
246.566	482.88
246.8	518.88
247.033	559.88
247.266	512.88
247.5	494.88
247.733	505.88
247.966	523.88
248.2	612.88
248.433	586.88
248.666	614.88
248.899	631.88
249.133	720.88
249.366	768.88
249.599	662.88
249.832	578.88
250.066	579.88
250.299	602.88
250.532	575.88
250.765	530.88
250.998	564.88
251.231	567.88
251.465	583.88
251.698	535.88
251.931	553.88
252.164	598.88
252.397	606.88
252.63	575.88
252.863	550.88
253.096	532.88
253.329	547.88
253.562	585.88
253.795	625.88
254.028	596.88
254.261	558.88
254.494	568.88
254.727	550.88
254.96	575.88
255.193	609.88
255.426	676.88
255.659	743.88
255.892	767.88
256.124	646.88
256.357	636.88
256.59	659.88
256.823	675.88
257.056	684.88
257.289	806.88
257.521	866.88
257.754	816.88
257.987	740.88
258.22	819.88
258.452	767.88
258.685	650.88
258.918	611.88
259.151	647.88
259.383	631.88
259.616	551.88
259.849	606.88
260.081	667.88
260.314	725.88
260.547	791.88
260.779	800.88
261.012	739.88
261.244	670.88
261.477	655.88
261.71	681.88
261.942	654.88
262.175	634.88
262.407	688.88
262.64	648.88
262.872	623.88
263.105	594.88
263.337	609.88
263.57	623.88
263.802	602.88
264.035	570.88
264.267	568.88
264.499	542.88
264.732	583.88
264.964	633.88
265.197	646.88
265.429	673.88
265.661	738.88
265.894	822.88
266.126	851.88
266.358	738.88
266.591	788.88
266.823	806.88
267.055	766.88
267.287	742.88
267.52	758.88
267.752	733.88
267.984	729.88
268.216	774.88
268.448	783.88
268.681	747.88
268.913	713.88
269.145	670.88
269.377	684.88
269.609	743.88
269.841	838.88
270.073	942.88
270.306	1068.88
270.538	1054.88
270.77	917.88
271.002	849.88
271.234	784.88
271.466	788.88
271.698	885.88
271.93	1024.88
272.162	991.88
272.394	909.88
272.626	879.88
272.858	783.88
273.09	679.88
273.322	668.88
273.553	656.88
273.785	659.88
274.017	681.88
274.249	731.88
274.481	720.88
274.713	674.88
274.945	688.88
275.176	679.88
275.408	669.88
275.64	682.88
275.872	682.88
276.104	740.88
276.335	793.88
276.567	884.88
276.799	897.88
277.031	803.88
277.262	806.88
277.494	823.88
277.726	873.88
277.957	852.88
278.189	789.88
278.421	776.88
278.652	713.88
278.884	724.88
279.115	733.88
279.347	733.88
279.579	709.88
279.81	708.88
280.042	784.88
280.273	833.88
280.505	833.88
280.736	831.88
280.968	811.88
281.199	720.88
281.431	696.88
281.662	686.88
281.894	707.88
282.125	714.88
282.356	763.88
282.588	752.88
282.819	741.88
283.051	805.88
283.282	834.88
283.513	833.88
283.745	730.88
283.976	696.88
284.207	715.88
284.439	729.88
284.67	745.88
284.901	751.88
285.132	762.88
285.364	731.88
285.595	727.88
285.826	738.88
286.057	695.88
286.288	734.88
286.52	766.88
286.751	810.88
286.982	843.88
287.213	768.88
287.444	709.88
287.675	720.88
287.906	774.88
288.138	795.88
288.369	763.88
288.6	719.88
288.831	743.88
289.062	732.88
289.293	747.88
289.524	750.88
289.755	763.88
289.986	730.88
290.217	742.88
290.448	763.88
290.679	766.88
290.91	769.88
291.141	779.88
291.371	817.88
291.602	804.88
291.833	794.88
292.064	836.88
292.295	803.88
292.526	827.88
292.757	881.88
292.987	813.88
293.218	793.88
293.449	838.88
293.68	952.88
293.91	982.88
294.141	928.88
294.372	871.88
294.603	926.88
294.833	965.88
295.064	881.88
295.295	821.88
295.525	780.88
295.756	735.88
295.987	711.88
296.217	718.88
296.448	749.88
296.679	759.88
296.909	758.88
297.14	752.88
297.37	763.88
297.601	798.88
297.831	839.88
298.062	853.88
298.292	809.88
298.523	778.88
298.753	752.88
298.984	758.88
299.214	795.88
299.445	785.88
299.675	807.88
299.905	808.88
300.136	796.88
300.366	778.88
300.597	734.88
300.827	770.88
301.057	786.88
301.288	843.88
301.518	820.88
301.748	852.88
301.979	906.88
302.209	912.88
302.439	953.88
302.669	986.88
302.9	921.88
303.13	832.88
303.36	832.88
303.59	860.88
303.82	828.88
304.051	828.88
304.281	847.88
304.511	844.88
304.741	940.88
304.971	986.88
305.201	1046.88
305.431	905.88
305.661	792.88
305.891	737.88
306.121	755.88
306.352	788.88
306.582	818.88
306.812	895.88
307.042	920.88
307.272	937.88
307.502	969.88
307.731	1019.88
307.961	1030.88
308.191	924.88
308.421	871.88
308.651	818.88
308.881	819.88
309.111	822.88
309.341	826.88
309.571	819.88
309.8	819.88
310.03	810.88
310.26	827.88
310.49	825.88
310.72	857.88
310.949	851.88
311.179	850.88
311.409	830.88
311.639	818.88
311.868	838.88
312.098	869.88
312.328	811.88
312.557	778.88
312.787	849.88
313.017	878.88
313.246	850.88
313.476	853.88
313.706	846.88
313.935	879.88
314.165	892.88
314.394	917.88
314.624	965.88
314.853	983.88
315.083	1044.88
315.312	1052.88
315.542	943.88
315.771	901.88
316.001	910.88
316.23	910.88
316.46	928.88
316.689	884.88
316.919	882.88
317.148	862.88
317.377	875.88
317.607	962.88
317.836	1034.88
318.065	1064.88
318.295	990.88
318.524	996.88
318.753	944.88
318.983	898.88
319.212	897.88
319.441	890.88
319.67	908.88
319.9	905.88
320.129	934.88
320.358	999.88
320.587	1018.88
320.816	994.88
321.046	966.88
321.275	954.88
321.504	990.88
321.733	1012.88
321.962	979.88
322.191	922.88
322.42	919.88
322.649	895.88
322.878	923.88
323.108	898.88
323.337	966.88
323.566	927.88
323.795	920.88
324.024	924.88
324.253	929.88
324.482	907.88
324.71	871.88
324.939	848.88
325.168	891.88
325.397	918.88
325.626	971.88
325.855	962.88
326.084	914.88
326.313	914.88
326.542	934.88
326.77	958.88
326.999	960.88
327.228	905.88
327.457	859.88
327.686	857.88
327.914	866.88
328.143	918.88
328.372	886.88
328.6	907.88
328.829	883.88
329.058	883.88
329.287	934.88
329.515	937.88
329.744	931.88
329.972	975.88
330.201	1033.88
330.43	992.88
330.658	937.88
330.887	950.88
331.115	976.88
331.344	975.88
331.572	962.88
331.801	948.88
332.03	957.88
332.258	952.88
332.486	962.88
332.715	1000.88
332.943	986.88
333.172	962.88
333.4	973.88
333.629	1000.88
333.857	1083.88
334.085	1218.88
334.314	1330.88
334.542	1398.88
334.771	1241.88
334.999	1153.88
335.227	1047.88
335.455	1014.88
335.684	1039.88
335.912	1056.88
336.14	1091.88
336.369	1022.88
336.597	964.88
336.825	990.88
337.053	1011.88
337.281	1086.88
337.51	1130.88
337.738	1156.88
337.966	1064.88
338.194	968.88
338.422	975.88
338.65	942.88
338.878	947.88
339.106	913.88
339.334	914.88
339.562	909.88
339.79	965.88
340.018	992.88
340.246	1006.88
340.474	1001.88
340.702	1036.88
340.93	1036.88
341.158	1003.88
341.386	991.88
341.614	985.88
341.842	991.88
342.07	979.88
342.298	985.88
342.526	950.88
342.754	960.88
342.981	965.88
343.209	969.88
343.437	953.88
343.665	947.88
343.893	980.88
344.12	1015.88
344.348	1067.88
344.576	981.88
344.804	972.88
345.031	967.88
345.259	955.88
345.487	915.88
345.714	880.88
345.942	869.88
346.17	893.88
346.397	916.88
346.625	908.88
346.853	893.88
347.08	855.88
347.308	892.88
347.535	928.88
347.763	947.88
347.99	896.88
348.218	878.88
348.445	903.88
348.673	916.88
348.9	963.88
349.128	959.88
349.355	981.88
349.583	944.88
349.81	924.88
350.037	875.88
350.265	841.88
350.492	876.88
350.72	924.88
350.947	924.88
351.174	923.88
351.402	869.88
351.629	836.88
351.856	851.88
352.083	818.88
352.311	870.88
352.538	908.88
352.765	913.88
352.992	933.88
353.22	901.88
353.447	880.88
353.674	911.88
353.901	899.88
354.128	890.88
354.355	915.88
354.583	939.88
354.81	952.88
355.037	967.88
355.264	916.88
355.491	931.88
355.718	922.88
355.945	912.88
356.172	918.88
356.399	860.88
356.626	870.88
356.853	926.88
357.08	983.88
357.307	1095.88
357.534	1044.88
357.761	923.88
357.988	888.88
358.215	868.88
358.441	873.88
358.668	854.88
358.895	876.88
359.122	950.88
359.349	1010.88
359.576	955.88
359.802	884.88
360.029	880.88
360.256	881.88
360.483	932.88
360.709	931.88
360.936	965.88
361.163	990.88
361.39	1089.88
361.616	1121.88
361.843	1130.88
362.07	1014.88
362.296	910.88
362.523	887.88
362.749	913.88
362.976	938.88
363.203	946.88
363.429	899.88
363.656	884.88
363.882	947.88
364.109	1014.88
364.335	1090.88
364.562	992.88
364.788	952.88
365.015	915.88
365.241	915.88
365.468	907.88
365.694	985.88
365.92	999.88
366.147	937.88
366.373	916.88
366.599	880.88
366.826	898.88
367.052	892.88
367.278	913.88
367.505	931.88
367.731	942.88
367.957	933.88
368.184	991.88
368.41	1024.88
368.636	1005.88
368.862	1057.88
369.089	1052.88
369.315	1036.88
369.541	963.88
369.767	921.88
369.993	890.88
370.219	921.88
370.445	956.88
370.672	1032.88
370.898	1055.88
371.124	974.88
371.35	971.88
371.576	996.88
371.802	1041.88
372.028	998.88
372.254	950.88
372.48	948.88
372.706	939.88
372.932	952.88
373.158	931.88
373.384	958.88
373.61	995.88
373.835	1026.88
374.061	989.88
374.287	967.88
374.513	954.88
374.739	985.88
374.965	982.88
375.191	976.88
375.416	1047.88
375.642	1010.88
375.868	1047.88
376.094	1091.88
376.319	1034.88
376.545	941.88
376.771	1020.88
376.997	1082.88
377.222	1060.88
377.448	1016.88
377.674	1052.88
377.899	1051.88
378.125	1099.88
378.35	1083.88
378.576	983.88
378.802	961.88
379.027	944.88
379.253	975.88
379.478	962.88
379.704	987.88
379.929	970.88
380.155	942.88
380.38	995.88
380.606	986.88
380.831	994.88
381.057	1069.88
381.282	1074.88
381.507	1054.88
381.733	1077.88
381.958	1150.88
382.184	1054.88
382.409	995.88
382.634	1028.88
382.86	1010.88
383.085	994.88
383.31	1062.88
383.535	1138.88
383.761	1205.88
383.986	1147.88
384.211	1077.88
384.436	1109.88
384.662	1147.88
384.887	1183.88
385.112	1123.88
385.337	1127.88
385.562	1120.88
385.787	1129.88
386.013	1145.88
386.238	1129.88
386.463	1113.88
386.688	1222.88
386.913	1291.88
387.138	1248.88
387.363	1143.88
387.588	1176.88
387.813	1141.88
388.038	1168.88
388.263	1181.88
388.488	1156.88
388.713	1048.88
388.938	1075.88
389.163	1069.88
389.387	1099.88
389.612	1097.88
389.837	1094.88
390.062	1088.88
390.287	1123.88
390.512	1086.88
390.736	1086.88
390.961	1054.88
391.186	1029.88
391.411	1098.88
391.636	1099.88
391.86	1125.88
392.085	1138.88
392.31	1108.88
392.534	1136.88
392.759	1125.88
392.984	1116.88
393.208	1121.88
393.433	1222.88
393.658	1200.88
393.882	1214.88
394.107	1129.88
394.331	1118.88
394.556	1110.88
394.78	1118.88
395.005	1178.88
395.229	1219.88
395.454	1305.88
395.678	1293.88
395.903	1210.88
396.127	1180.88
396.352	1193.88
396.576	1232.88
396.801	1226.88
397.025	1199.88
397.249	1214.88
397.474	1218.88
397.698	1193.88
397.922	1235.88
398.147	1296.88
398.371	1351.88
398.595	1328.88
398.82	1265.88
399.044	1305.88
399.268	1354.88
399.492	1425.88
399.717	1442.88
399.941	1491.88
400.165	1463.88
400.389	1384.88
400.613	1432.88
400.837	1652.88
401.062	1753.88
401.286	1522.88
401.51	1408.88
401.734	1438.88
401.958	1390.88
402.182	1303.88
402.406	1286.88
402.63	1242.88
402.854	1277.88
403.078	1291.88
403.302	1254.88
403.526	1322.88
403.75	1300.88
403.974	1371.88
404.198	1334.88
404.422	1398.88
404.645	1505.88
404.869	1402.88
405.093	1308.88
405.317	1292.88
405.541	1324.88
405.765	1335.88
405.988	1310.88
406.212	1344.88
406.436	1385.88
406.66	1446.88
406.883	1470.88
407.107	1637.88
407.331	1763.88
407.555	1877.88
407.778	1667.88
408.002	1390.88
408.226	1390.88
408.449	1406.88
408.673	1339.88
408.896	1340.88
409.12	1421.88
409.344	1336.88
409.567	1311.88
409.791	1320.88
410.014	1386.88
410.238	1431.88
410.461	1536.88
410.685	1396.88
410.908	1320.88
411.132	1356.88
411.355	1321.88
411.578	1322.88
411.802	1318.88
412.025	1350.88
412.249	1302.88
412.472	1283.88
412.695	1286.88
412.919	1295.88
413.142	1268.88
413.365	1307.88
413.589	1313.88
413.812	1409.88
414.035	1416.88
414.258	1299.88
414.482	1330.88
414.705	1308.88
414.928	1267.88
415.151	1271.88
415.374	1295.88
415.597	1318.88
415.821	1310.88
416.044	1321.88
416.267	1319.88
416.49	1262.88
416.713	1244.88
416.936	1317.88
417.159	1375.88
417.382	1362.88
417.605	1277.88
417.828	1303.88
418.051	1318.88
418.274	1267.88
418.497	1263.88
418.72	1266.88
418.943	1237.88
419.166	1333.88
419.389	1330.88
419.611	1278.88
419.834	1253.88
420.057	1304.88
420.28	1295.88
420.503	1277.88
420.726	1286.88
420.948	1318.88
421.171	1259.88
421.394	1282.88
421.617	1316.88
421.839	1336.88
422.062	1298.88
422.285	1259.88
422.507	1257.88
422.73	1212.88
422.953	1205.88
423.175	1213.88
423.398	1252.88
423.621	1246.88
423.843	1283.88
424.066	1326.88
424.288	1343.88
424.511	1385.88
424.733	1344.88
424.956	1207.88
425.178	1246.88
425.401	1232.88
425.623	1238.88
425.846	1230.88
426.068	1327.88
426.291	1262.88
426.513	1276.88
426.735	1299.88
426.958	1361.88
427.18	1458.88
427.402	1337.88
427.625	1372.88
427.847	1366.88
428.069	1267.88
428.292	1267.88
428.514	1207.88
428.736	1242.88
428.958	1207.88
429.181	1254.88
429.403	1449.88
429.625	1723.88
429.847	1416.88
430.069	1312.88
430.292	1408.88
430.514	1408.88
430.736	1364.88
430.958	1339.88
431.18	1303.88
431.402	1204.88
431.624	1209.88
431.846	1162.88
432.068	1122.88
432.29	1114.88
432.512	1162.88
432.734	1235.88
432.956	1239.88
433.178	1321.88
433.4	1272.88
433.622	1309.88
433.844	1258.88
434.066	1202.88
434.287	1190.88
434.509	1208.88
434.731	1222.88
434.953	1362.88
435.175	1318.88
435.397	1252.88
435.618	1235.88
435.84	1228.88
436.062	1201.88
436.284	1280.88
436.505	1272.88
436.727	1280.88
436.949	1219.88
437.17	1210.88
437.392	1206.88
437.614	1184.88
437.835	1143.88
438.057	1194.88
438.278	1194.88
438.5	1161.88
438.721	1177.88
438.943	1232.88
439.165	1200.88
439.386	1220.88
439.608	1225.88
439.829	1224.88
440.05	1232.88
440.272	1226.88
440.493	1227.88
440.715	1292.88
440.936	1337.88
441.158	1387.88
441.379	1380.88
441.6	1345.88
441.822	1330.88
442.043	1301.88
442.264	1306.88
442.486	1256.88
442.707	1236.88
442.928	1272.88
443.149	1255.88
443.371	1326.88
443.592	1368.88
443.813	1353.88
444.034	1321.88
444.255	1333.88
444.476	1355.88
444.698	1396.88
444.919	1364.88
445.14	1482.88
445.361	1403.88
445.582	1451.88
445.803	1328.88
446.024	1346.88
446.245	1366.88
446.466	1359.88
446.687	1297.88
446.908	1296.88
447.129	1291.88
447.35	1299.88
447.571	1292.88
447.792	1226.88
448.013	1211.88
448.234	1275.88
448.455	1268.88
448.675	1277.88
448.896	1182.88
449.117	1171.88
449.338	1194.88
449.559	1235.88
449.779	1300.88
450	1383.88
450.221	1470.88
450.442	1432.88
450.662	1282.88
450.883	1146.88
451.104	1171.88
451.324	1178.88
451.545	1189.88
451.766	1156.88
451.986	1159.88
452.207	1096.88
452.428	1108.88
452.648	1072.88
452.869	1092.88
453.089	1132.88
453.31	1144.88
453.53	1116.88
453.751	1056.88
453.971	1056.88
454.192	1084.88
454.412	1135.88
454.633	1118.88
454.853	1088.88
455.073	1066.88
455.294	1058.88
455.514	1059.88
455.734	1056.88
455.955	1087.88
456.175	1049.88
456.395	1032.88
456.616	1060.88
456.836	1076.88
457.056	1049.88
457.276	1056.88
457.497	994.88
457.717	988.88
457.937	1058.88
458.157	1064.88
458.377	1015.88
458.598	996.88
458.818	1016.88
459.038	1090.88
459.258	1123.88
459.478	1103.88
459.698	1076.88
459.918	1127.88
460.138	1169.88
460.358	1241.88
460.578	1239.88
460.798	1256.88
461.018	1293.88
461.238	1280.88
461.458	1286.88
461.678	1238.88
461.898	1210.88
462.118	1204.88
462.338	1249.88
462.558	1248.88
462.777	1250.88
462.997	1311.88
463.217	1318.88
463.437	1330.88
463.657	1259.88
463.876	1238.88
464.096	1247.88
464.316	1262.88
464.536	1292.88
464.755	1313.88
464.975	1280.88
465.195	1264.88
465.414	1284.88
465.634	1244.88
465.854	1278.88
466.073	1385.88
466.293	1337.88
466.512	1171.88
466.732	1182.88
466.951	1234.88
467.171	1204.88
467.391	1146.88
467.61	1163.88
467.829	1189.88
468.049	1335.88
468.268	1448.88
468.488	1292.88
468.707	1236.88
468.927	1224.88
469.146	1182.88
469.365	1184.88
469.585	1218.88
469.804	1193.88
470.023	1189.88
470.243	1246.88
470.462	1198.88
470.681	1182.88
470.901	1230.88
471.12	1218.88
471.339	1242.88
471.558	1188.88
471.777	1173.88
471.997	1185.88
472.216	1162.88
472.435	1097.88
472.654	1091.88
472.873	1162.88
473.092	1216.88
473.311	1163.88
473.53	1127.88
473.749	1157.88
473.968	1150.88
474.187	1177.88
474.406	1199.88
474.625	1210.88
474.844	1175.88
475.063	1192.88
475.282	1214.88
475.501	1187.88
475.72	1212.88
475.939	1279.88
476.158	1214.88
476.377	1189.88
476.596	1196.88
476.814	1187.88
477.033	1178.88
477.252	1271.88
477.471	1312.88
477.69	1268.88
477.908	1264.88
478.127	1337.88
478.346	1404.88
478.564	1400.88
478.783	1386.88
479.002	1402.88
479.22	1381.88
479.439	1438.88
479.658	1577.88
479.876	1495.88
480.095	1354.88
480.313	1330.88
480.532	1278.88
480.751	1282.88
480.969	1287.88
481.188	1208.88
481.406	1223.88
481.624	1198.88
481.843	1235.88
482.061	1278.88
482.28	1280.88
482.498	1319.88
482.717	1263.88
482.935	1282.88
483.153	1311.88
483.372	1355.88
483.59	1347.88
483.808	1309.88
484.027	1345.88
484.245	1438.88
484.463	1686.88
484.681	1835.88
484.9	1459.88
485.118	1366.88
485.336	1350.88
485.554	1340.88
485.772	1379.88
485.99	1355.88
486.209	1367.88
486.427	1379.88
486.645	1402.88
486.863	1392.88
487.081	1435.88
487.299	1393.88
487.517	1426.88
487.735	1450.88
487.953	1479.88
488.171	1498.88
488.389	1436.88
488.607	1445.88
488.825	1588.88
489.043	1512.88
489.261	1369.88
489.479	1436.88
489.696	1466.88
489.914	1471.88
490.132	1418.88
490.35	1420.88
490.568	1523.88
490.786	1487.88
491.003	1473.88
491.221	1519.88
491.439	1560.88
491.657	1572.88
491.874	1605.88
492.092	1625.88
492.31	1701.88
492.527	1627.88
492.745	1594.88
492.963	1577.88
493.18	1583.88
493.398	1666.88
493.615	1664.88
493.833	1554.88
494.05	1522.88
494.268	1507.88
