Data from WStandard_LampEnergy10_LIBS07252019.E.O._I.C._HRD10591_15-54-03-928.txt Node
Date: Thu Jul 25 15:54:03 EDT 2019
User: cochatt
Spectrometer: HR+D1059
Trigger mode: 1
Integration Time (sec): 1.000000E-1
Scans to average: 1
Electric dark correction enabled: true
Nonlinearity correction enabled: false
Boxcar width: 0
XAxis mode: Wavelengths
Number of Pixels in Spectrum: 2048
>>>>>Begin Spectral Data<<<<<
223.165	-11.56
223.4	-11.56
223.635	-11.56
223.869	-18.56
224.104	-24.56
224.338	-16.56
224.573	-12.56
224.808	-1.56
225.042	1.44
225.277	-2.56
225.511	-7.56
225.746	-4.56
225.98	3.44
226.215	16.44
226.449	25.44
226.683	12.44
226.918	15.44
227.152	25.44
227.387	30.44
227.621	45.44
227.856	44.44
228.09	41.44
228.324	47.44
228.559	46.44
228.793	79.44
229.027	134.44
229.262	136.44
229.496	135.44
229.73	149.44
229.964	158.44
230.199	164.44
230.433	179.44
230.667	188.44
230.901	176.44
231.136	163.44
231.37	165.44
231.604	165.44
231.838	169.44
232.072	174.44
232.306	165.44
232.541	177.44
232.775	187.44
233.009	187.44
233.243	189.44
233.477	173.44
233.711	174.44
233.945	194.44
234.179	208.44
234.413	198.44
234.647	181.44
234.881	190.44
235.115	189.44
235.349	185.44
235.583	206.44
235.817	195.44
236.051	190.44
236.285	188.44
236.519	204.44
236.753	205.44
236.987	224.44
237.221	221.44
237.455	208.44
237.689	228.44
237.922	216.44
238.156	204.44
238.39	212.44
238.624	226.44
238.858	225.44
239.091	229.44
239.325	250.44
239.559	273.44
239.793	278.44
240.027	293.44
240.26	290.44
240.494	234.44
240.728	228.44
240.961	223.44
241.195	238.44
241.429	245.44
241.662	232.44
241.896	228.44
242.13	258.44
242.363	264.44
242.597	254.44
242.83	277.44
243.064	265.44
243.298	276.44
243.531	263.44
243.765	269.44
243.998	277.44
244.232	242.44
244.465	239.44
244.699	249.44
244.932	275.44
245.166	297.44
245.399	293.44
245.633	276.44
245.866	257.44
246.099	266.44
246.333	285.44
246.566	293.44
246.8	322.44
247.033	331.44
247.266	287.44
247.5	300.44
247.733	323.44
247.966	322.44
248.2	350.44
248.433	341.44
248.666	357.44
248.899	377.44
249.133	413.44
249.366	441.44
249.599	395.44
249.832	362.44
250.066	372.44
250.299	356.44
250.532	353.44
250.765	310.44
250.998	321.44
251.231	328.44
251.465	352.44
251.698	329.44
251.931	348.44
252.164	339.44
252.397	343.44
252.63	362.44
252.863	323.44
253.096	333.44
253.329	339.44
253.562	351.44
253.795	360.44
254.028	339.44
254.261	332.44
254.494	318.44
254.727	319.44
254.96	353.44
255.193	357.44
255.426	401.44
255.659	430.44
255.892	436.44
256.124	369.44
256.357	389.44
256.59	419.44
256.823	384.44
257.056	415.44
257.289	471.44
257.521	494.44
257.754	461.44
257.987	448.44
258.22	461.44
258.452	451.44
258.685	373.44
258.918	365.44
259.151	385.44
259.383	360.44
259.616	331.44
259.849	346.44
260.081	395.44
260.314	433.44
260.547	461.44
260.779	460.44
261.012	420.44
261.244	399.44
261.477	403.44
261.71	391.44
261.942	366.44
262.175	390.44
262.407	419.44
262.64	385.44
262.872	358.44
263.105	363.44
263.337	369.44
263.57	374.44
263.802	381.44
264.035	353.44
264.267	327.44
264.499	323.44
264.732	372.44
264.964	365.44
265.197	388.44
265.429	406.44
265.661	441.44
265.894	478.44
266.126	488.44
266.358	441.44
266.591	476.44
266.823	469.44
267.055	437.44
267.287	444.44
267.52	428.44
267.752	409.44
267.984	448.44
268.216	462.44
268.448	455.44
268.681	438.44
268.913	404.44
269.145	389.44
269.377	393.44
269.609	427.44
269.841	478.44
270.073	563.44
270.306	611.44
270.538	597.44
270.77	525.44
271.002	476.44
271.234	451.44
271.466	467.44
271.698	528.44
271.93	590.44
272.162	583.44
272.394	537.44
272.626	493.44
272.858	446.44
273.09	407.44
273.322	397.44
273.553	381.44
273.785	402.44
274.017	414.44
274.249	447.44
274.481	420.44
274.713	415.44
274.945	405.44
275.176	400.44
275.408	397.44
275.64	372.44
275.872	394.44
276.104	438.44
276.335	497.44
276.567	519.44
276.799	506.44
277.031	468.44
277.262	456.44
277.494	490.44
277.726	501.44
277.957	530.44
278.189	470.44
278.421	423.44
278.652	420.44
278.884	439.44
279.115	399.44
279.347	439.44
279.579	432.44
279.81	438.44
280.042	449.44
280.273	484.44
280.505	485.44
280.736	497.44
280.968	466.44
281.199	435.44
281.431	408.44
281.662	405.44
281.894	413.44
282.125	420.44
282.356	444.44
282.588	449.44
282.819	459.44
283.051	463.44
283.282	505.44
283.513	482.44
283.745	423.44
283.976	413.44
284.207	417.44
284.439	424.44
284.67	433.44
284.901	454.44
285.132	431.44
285.364	437.44
285.595	451.44
285.826	445.44
286.057	437.44
286.288	434.44
286.52	454.44
286.751	468.44
286.982	496.44
287.213	452.44
287.444	439.44
287.675	428.44
287.906	453.44
288.138	466.44
288.369	448.44
288.6	438.44
288.831	420.44
289.062	419.44
289.293	447.44
289.524	464.44
289.755	457.44
289.986	467.44
290.217	419.44
290.448	415.44
290.679	431.44
290.91	469.44
291.141	473.44
291.371	471.44
291.602	468.44
291.833	467.44
292.064	487.44
292.295	495.44
292.526	487.44
292.757	505.44
292.987	463.44
293.218	455.44
293.449	520.44
293.68	566.44
293.91	581.44
294.141	538.44
294.372	530.44
294.603	554.44
294.833	559.44
295.064	524.44
295.295	479.44
295.525	448.44
295.756	442.44
295.987	418.44
296.217	461.44
296.448	450.44
296.679	463.44
296.909	446.44
297.14	441.44
297.37	472.44
297.601	480.44
297.831	512.44
298.062	512.44
298.292	463.44
298.523	444.44
298.753	475.44
298.984	451.44
299.214	488.44
299.445	486.44
299.675	491.44
299.905	471.44
300.136	474.44
300.366	454.44
300.597	451.44
300.827	470.44
301.057	477.44
301.288	504.44
301.518	491.44
301.748	512.44
301.979	516.44
302.209	540.44
302.439	565.44
302.669	584.44
302.9	511.44
303.13	510.44
303.36	500.44
303.59	509.44
303.82	513.44
304.051	507.44
304.281	532.44
304.511	529.44
304.741	559.44
304.971	591.44
305.201	599.44
305.431	536.44
305.661	466.44
305.891	427.44
306.121	443.44
306.352	481.44
306.582	516.44
306.812	536.44
307.042	530.44
307.272	529.44
307.502	559.44
307.731	598.44
307.961	644.44
308.191	551.44
308.421	517.44
308.651	507.44
308.881	504.44
309.111	493.44
309.341	480.44
309.571	490.44
309.8	519.44
310.03	481.44
310.26	496.44
310.49	469.44
310.72	495.44
310.949	484.44
311.179	515.44
311.409	515.44
311.639	491.44
311.868	486.44
312.098	507.44
312.328	480.44
312.557	496.44
312.787	510.44
313.017	503.44
313.246	512.44
313.476	518.44
313.706	525.44
313.935	512.44
314.165	529.44
314.394	547.44
314.624	574.44
314.853	589.44
315.083	630.44
315.312	623.44
315.542	561.44
315.771	543.44
316.001	540.44
316.23	557.44
316.46	560.44
316.689	533.44
316.919	511.44
317.148	507.44
317.377	525.44
317.607	546.44
317.836	631.44
318.065	624.44
318.295	595.44
318.524	573.44
318.753	553.44
318.983	567.44
319.212	527.44
319.441	539.44
319.67	522.44
319.9	557.44
320.129	565.44
320.358	606.44
320.587	614.44
320.816	595.44
321.046	602.44
321.275	606.44
321.504	587.44
321.733	607.44
321.962	565.44
322.191	545.44
322.42	558.44
322.649	543.44
322.878	534.44
323.108	532.44
323.337	566.44
323.566	563.44
323.795	551.44
324.024	553.44
324.253	569.44
324.482	568.44
324.71	529.44
324.939	538.44
325.168	527.44
325.397	562.44
325.626	561.44
325.855	560.44
326.084	562.44
326.313	573.44
326.542	561.44
326.77	580.44
326.999	578.44
327.228	552.44
327.457	493.44
327.686	521.44
327.914	529.44
328.143	534.44
328.372	532.44
328.6	578.44
328.829	549.44
329.058	530.44
329.287	565.44
329.515	582.44
329.744	565.44
329.972	582.44
330.201	628.44
330.43	600.44
330.658	587.44
330.887	580.44
331.115	587.44
331.344	584.44
331.572	577.44
331.801	569.44
332.03	562.44
332.258	587.44
332.486	608.44
332.715	603.44
332.943	580.44
333.172	592.44
333.4	569.44
333.629	627.44
333.857	672.44
334.085	735.44
334.314	821.44
334.542	829.44
334.771	741.44
334.999	680.44
335.227	642.44
335.455	644.44
335.684	641.44
335.912	643.44
336.14	645.44
336.369	626.44
336.597	590.44
336.825	602.44
337.053	621.44
337.281	661.44
337.51	662.44
337.738	691.44
337.966	671.44
338.194	609.44
338.422	593.44
338.65	590.44
338.878	579.44
339.106	568.44
339.334	580.44
339.562	564.44
339.79	588.44
340.018	602.44
340.246	606.44
340.474	612.44
340.702	616.44
340.93	615.44
341.158	625.44
341.386	594.44
341.614	608.44
341.842	601.44
342.07	589.44
342.298	607.44
342.526	594.44
342.754	572.44
342.981	584.44
343.209	607.44
343.437	576.44
343.665	578.44
343.893	609.44
344.12	639.44
344.348	643.44
344.576	605.44
344.804	606.44
345.031	584.44
345.259	594.44
345.487	577.44
345.714	535.44
345.942	555.44
346.17	555.44
346.397	575.44
346.625	564.44
346.853	523.44
347.08	527.44
347.308	521.44
347.535	542.44
347.763	572.44
347.99	541.44
348.218	537.44
348.445	545.44
348.673	552.44
348.9	556.44
349.128	594.44
349.355	602.44
349.583	597.44
349.81	573.44
350.037	524.44
350.265	527.44
350.492	548.44
350.72	540.44
350.947	565.44
351.174	568.44
351.402	545.44
351.629	547.44
351.856	542.44
352.083	512.44
352.311	542.44
352.538	545.44
352.765	578.44
352.992	563.44
353.22	552.44
353.447	550.44
353.674	580.44
353.901	562.44
354.128	547.44
354.355	559.44
354.583	581.44
354.81	568.44
355.037	568.44
355.264	575.44
355.491	565.44
355.718	564.44
355.945	550.44
356.172	520.44
356.399	532.44
356.626	545.44
356.853	579.44
357.08	632.44
357.307	650.44
357.534	640.44
357.761	558.44
357.988	536.44
358.215	495.44
358.441	527.44
358.668	528.44
358.895	540.44
359.122	606.44
359.349	641.44
359.576	603.44
359.802	571.44
360.029	558.44
360.256	558.44
360.483	559.44
360.709	582.44
360.936	611.44
361.163	624.44
361.39	683.44
361.616	704.44
361.843	700.44
362.07	639.44
362.296	569.44
362.523	543.44
362.749	562.44
362.976	597.44
363.203	574.44
363.429	549.44
363.656	538.44
363.882	572.44
364.109	625.44
364.335	666.44
364.562	632.44
364.788	584.44
365.015	581.44
365.241	542.44
365.468	555.44
365.694	610.44
365.92	606.44
366.147	573.44
366.373	559.44
366.599	562.44
366.826	555.44
367.052	561.44
367.278	555.44
367.505	578.44
367.731	574.44
367.957	583.44
368.184	637.44
368.41	645.44
368.636	642.44
368.862	647.44
369.089	647.44
369.315	640.44
369.541	584.44
369.767	590.44
369.993	579.44
370.219	584.44
370.445	609.44
370.672	645.44
370.898	678.44
371.124	621.44
371.35	627.44
371.576	666.44
371.802	650.44
372.028	636.44
372.254	610.44
372.48	601.44
372.706	598.44
372.932	587.44
373.158	598.44
373.384	600.44
373.61	646.44
373.835	639.44
374.061	624.44
374.287	660.44
374.513	631.44
374.739	627.44
374.965	608.44
375.191	629.44
375.416	647.44
375.642	665.44
375.868	694.44
376.094	695.44
376.319	660.44
376.545	655.44
376.771	672.44
376.997	687.44
377.222	707.44
377.448	663.44
377.674	661.44
377.899	710.44
378.125	689.44
378.35	697.44
378.576	649.44
378.802	628.44
379.027	624.44
379.253	632.44
379.478	628.44
379.704	625.44
379.929	623.44
380.155	660.44
380.38	653.44
380.606	655.44
380.831	684.44
381.057	705.44
381.282	684.44
381.507	691.44
381.733	733.44
381.958	725.44
382.184	686.44
382.409	671.44
382.634	671.44
382.86	690.44
383.085	675.44
383.31	687.44
383.535	770.44
383.761	795.44
383.986	756.44
384.211	730.44
384.436	714.44
384.662	774.44
384.887	787.44
385.112	742.44
385.337	724.44
385.562	741.44
385.787	740.44
386.013	743.44
386.238	771.44
386.463	775.44
386.688	817.44
386.913	852.44
387.138	831.44
387.363	765.44
387.588	763.44
387.813	767.44
388.038	784.44
388.263	830.44
388.488	777.44
388.713	703.44
388.938	685.44
389.163	707.44
389.387	733.44
389.612	743.44
389.837	771.44
390.062	759.44
390.287	780.44
390.512	734.44
390.736	703.44
390.961	739.44
391.186	720.44
391.411	730.44
391.636	739.44
391.86	730.44
392.085	744.44
392.31	766.44
392.534	744.44
392.759	775.44
392.984	749.44
393.208	786.44
393.433	785.44
393.658	797.44
393.882	805.44
394.107	772.44
394.331	776.44
394.556	764.44
394.78	776.44
395.005	837.44
395.229	830.44
395.454	861.44
395.678	854.44
395.903	818.44
396.127	829.44
396.352	834.44
396.576	856.44
396.801	832.44
397.025	832.44
397.249	835.44
397.474	827.44
397.698	812.44
397.922	843.44
398.147	890.44
398.371	945.44
398.595	904.44
398.82	881.44
399.044	891.44
399.268	923.44
399.492	954.44
399.717	982.44
399.941	995.44
400.165	965.44
400.389	956.44
400.613	978.44
400.837	1124.44
401.062	1203.44
401.286	1036.44
401.51	975.44
401.734	959.44
401.958	914.44
402.182	906.44
402.406	892.44
402.63	876.44
402.854	877.44
403.078	903.44
403.302	909.44
403.526	904.44
403.75	928.44
403.974	954.44
404.198	932.44
404.422	976.44
404.645	1026.44
404.869	983.44
405.093	904.44
405.317	921.44
405.541	918.44
405.765	937.44
405.988	927.44
406.212	920.44
406.436	957.44
406.66	1000.44
406.883	1013.44
407.107	1111.44
407.331	1201.44
407.555	1241.44
407.778	1102.44
408.002	969.44
408.226	973.44
408.449	948.44
408.673	953.44
408.896	960.44
409.12	953.44
409.344	921.44
409.567	918.44
409.791	932.44
410.014	985.44
410.238	1024.44
410.461	1046.44
410.685	953.44
410.908	940.44
411.132	980.44
411.355	928.44
411.578	934.44
411.802	905.44
412.025	937.44
412.249	936.44
412.472	912.44
412.695	921.44
412.919	927.44
413.142	903.44
413.365	946.44
413.589	968.44
413.812	1023.44
414.035	1009.44
414.258	957.44
414.482	946.44
414.705	921.44
414.928	925.44
415.151	908.44
415.374	905.44
415.597	939.44
415.821	928.44
416.044	943.44
416.267	926.44
416.49	912.44
416.713	913.44
416.936	926.44
417.159	978.44
417.382	970.44
417.605	920.44
417.828	928.44
418.051	959.44
418.274	947.44
418.497	923.44
418.72	944.44
418.943	931.44
419.166	937.44
419.389	991.44
419.611	941.44
419.834	928.44
420.057	948.44
420.28	909.44
420.503	947.44
420.726	962.44
420.948	954.44
421.171	894.44
421.394	952.44
421.617	990.44
421.839	986.44
422.062	1008.44
422.285	946.44
422.507	952.44
422.73	899.44
422.953	845.44
423.175	876.44
423.398	915.44
423.621	934.44
423.843	932.44
424.066	964.44
424.288	988.44
424.511	1025.44
424.733	998.44
424.956	941.44
425.178	936.44
425.401	942.44
425.623	956.44
425.846	926.44
426.068	948.44
426.291	968.44
426.513	942.44
426.735	969.44
426.958	1051.44
427.18	1053.44
427.402	998.44
427.625	1015.44
427.847	1006.44
428.069	925.44
428.292	897.44
428.514	892.44
428.736	901.44
428.958	920.44
429.181	928.44
429.403	1058.44
429.625	1234.44
429.847	1033.44
430.069	945.44
430.292	1037.44
430.514	1042.44
430.736	948.44
430.958	970.44
431.18	917.44
431.402	866.44
431.624	860.44
431.846	777.44
432.068	710.44
432.29	727.44
432.512	785.44
432.734	891.44
432.956	939.44
433.178	975.44
433.4	970.44
433.622	937.44
433.844	902.44
434.066	879.44
434.287	799.44
434.509	801.44
434.731	806.44
434.953	893.44
435.175	918.44
435.397	913.44
435.618	881.44
435.84	821.44
436.062	823.44
436.284	870.44
436.505	907.44
436.727	945.44
436.949	923.44
437.17	891.44
437.392	912.44
437.614	845.44
437.835	790.44
438.057	806.44
438.278	839.44
438.5	854.44
438.721	897.44
438.943	933.44
439.165	909.44
439.386	942.44
439.608	945.44
439.829	973.44
440.05	937.44
440.272	962.44
440.493	968.44
440.715	972.44
440.936	1004.44
441.158	1040.44
441.379	1048.44
441.6	1053.44
441.822	1003.44
442.043	1021.44
442.264	996.44
442.486	967.44
442.707	947.44
442.928	989.44
443.149	964.44
443.371	978.44
443.592	1033.44
443.813	1032.44
444.034	985.44
444.255	1012.44
444.476	1025.44
444.698	1029.44
444.919	1069.44
445.14	1116.44
445.361	1094.44
445.582	1062.44
445.803	1064.44
446.024	1037.44
446.245	1076.44
446.466	1084.44
446.687	984.44
446.908	1048.44
447.129	1031.44
447.35	1021.44
447.571	980.44
447.792	955.44
448.013	933.44
448.234	953.44
448.455	992.44
448.675	959.44
448.896	930.44
449.117	914.44
449.338	947.44
449.559	991.44
449.779	967.44
450	1011.44
450.221	1041.44
450.442	1007.44
450.662	947.44
450.883	893.44
451.104	879.44
451.324	909.44
451.545	879.44
451.766	860.44
451.986	815.44
452.207	823.44
452.428	792.44
452.648	794.44
452.869	792.44
453.089	784.44
453.31	776.44
453.53	785.44
453.751	718.44
453.971	699.44
454.192	726.44
454.412	775.44
454.633	789.44
454.853	739.44
455.073	759.44
455.294	781.44
455.514	778.44
455.734	774.44
455.955	767.44
456.175	743.44
456.395	733.44
456.616	735.44
456.836	727.44
457.056	741.44
457.276	707.44
457.497	720.44
457.717	673.44
457.937	725.44
458.157	698.44
458.377	687.44
458.598	693.44
458.818	654.44
459.038	687.44
459.258	712.44
459.478	707.44
459.698	680.44
459.918	735.44
460.138	799.44
460.358	832.44
460.578	815.44
460.798	836.44
461.018	903.44
461.238	875.44
461.458	872.44
461.678	823.44
461.898	833.44
462.118	794.44
462.338	841.44
462.558	841.44
462.777	844.44
462.997	883.44
463.217	881.44
463.437	872.44
463.657	835.44
463.876	838.44
464.096	830.44
464.316	820.44
464.536	855.44
464.755	891.44
464.975	901.44
465.195	850.44
465.414	865.44
465.634	876.44
465.854	895.44
466.073	978.44
466.293	917.44
466.512	864.44
466.732	846.44
466.951	892.44
467.171	913.44
467.391	878.44
467.61	890.44
467.829	914.44
468.049	969.44
468.268	1033.44
468.488	956.44
468.707	932.44
468.927	889.44
469.146	885.44
469.365	914.44
469.585	953.44
469.804	904.44
470.023	918.44
470.243	935.44
470.462	936.44
470.681	911.44
470.901	929.44
471.12	917.44
471.339	951.44
471.558	882.44
471.777	884.44
471.997	883.44
472.216	858.44
472.435	763.44
472.654	746.44
472.873	783.44
473.092	832.44
473.311	816.44
473.53	817.44
473.749	812.44
473.968	826.44
474.187	855.44
474.406	856.44
474.625	842.44
474.844	858.44
475.063	892.44
475.282	859.44
475.501	839.44
475.72	840.44
475.939	881.44
476.158	870.44
476.377	862.44
476.596	849.44
476.814	820.44
477.033	821.44
477.252	845.44
477.471	911.44
477.69	914.44
477.908	945.44
478.127	1004.44
478.346	1013.44
478.564	989.44
478.783	984.44
479.002	1009.44
479.22	987.44
479.439	1004.44
479.658	1041.44
479.876	980.44
480.095	931.44
480.313	895.44
480.532	902.44
480.751	854.44
480.969	793.44
481.188	786.44
481.406	760.44
481.624	747.44
481.843	791.44
482.061	821.44
482.28	875.44
482.498	895.44
482.717	876.44
482.935	894.44
483.153	986.44
483.372	1019.44
483.59	1024.44
483.808	975.44
484.027	912.44
484.245	969.44
484.463	1234.44
484.681	1311.44
484.9	1023.44
485.118	995.44
485.336	919.44
485.554	905.44
485.772	882.44
485.99	856.44
486.209	896.44
486.427	895.44
486.645	932.44
486.863	992.44
487.081	1045.44
487.299	1016.44
487.517	1009.44
487.735	1099.44
487.953	1185.44
488.171	1189.44
488.389	1159.44
488.607	1104.44
488.825	1126.44
489.043	1065.44
489.261	991.44
489.479	1051.44
489.696	1051.44
489.914	1061.44
490.132	1052.44
490.35	1086.44
490.568	1152.44
490.786	1206.44
491.003	1172.44
491.221	1250.44
491.439	1297.44
491.657	1307.44
491.874	1405.44
492.092	1466.44
492.31	1514.44
492.527	1482.44
492.745	1411.44
492.963	1327.44
493.18	1325.44
493.398	1327.44
493.615	1317.44
493.833	1261.44
494.05	1206.44
494.268	1218.44
494.485	1206.44
494.703	1224.44
494.92	1241.44
495.138	1232.44
495.355	1238.44
495.573	1262.44
495.79	1311.44
496.008	1266.44
496.225	1213.44
496.442	1239.44
496.66	1244.44
496.877	1217.44
497.094	1217.44
497.312	1230.44
497.529	1197.44
497.746	1217.44
497.963	1284.44
498.181	1304.44
498.398	1267.44
498.615	1191.44
498.832	1141.44
499.049	1160.44
499.267	1161.44
499.484	1241.44
499.701	1334.44
499.918	1405.44
500.135	1478.44
500.352	1601.44
