Data from WStandard_LampEnergy8_LIBS07252019.E.O._I.C._HRD10591_15-59-06-929.txt Node
Date: Thu Jul 25 15:59:06 EDT 2019
User: cochatt
Spectrometer: HR+D1059
Trigger mode: 1
Integration Time (sec): 1.000000E-1
Scans to average: 1
Electric dark correction enabled: true
Nonlinearity correction enabled: false
Boxcar width: 0
XAxis mode: Wavelengths
Number of Pixels in Spectrum: 2048
>>>>>Begin Spectral Data<<<<<
223.165	-19.38
223.4	-19.38
223.635	-19.38
223.869	-8.38
224.104	-15.38
224.338	-24.38
224.573	-10.38
224.808	-9.38
225.042	-7.38
225.277	-1.38
225.511	11.62
225.746	2.62
225.98	7.62
226.215	-3.38
226.449	12.62
226.683	16.62
226.918	17.62
227.152	30.62
227.387	31.62
227.621	32.62
227.856	40.62
228.09	55.62
228.324	57.62
228.559	51.62
228.793	101.62
229.027	186.62
229.262	195.62
229.496	217.62
229.73	232.62
229.964	255.62
230.199	268.62
230.433	272.62
230.667	272.62
230.901	297.62
231.136	256.62
231.37	268.62
231.604	247.62
231.838	272.62
232.072	285.62
232.306	260.62
232.541	262.62
232.775	305.62
233.009	322.62
233.243	309.62
233.477	305.62
233.711	304.62
233.945	298.62
234.179	314.62
234.413	318.62
234.647	352.62
234.881	304.62
235.115	291.62
235.349	315.62
235.583	298.62
235.817	286.62
236.051	299.62
236.285	295.62
236.519	338.62
236.753	353.62
236.987	372.62
237.221	378.62
237.455	388.62
237.689	371.62
237.922	358.62
238.156	343.62
238.39	346.62
238.624	378.62
238.858	360.62
239.091	382.62
239.325	405.62
239.559	454.62
239.793	478.62
240.027	525.62
240.26	500.62
240.494	412.62
240.728	369.62
240.961	376.62
241.195	384.62
241.429	408.62
241.662	417.62
241.896	402.62
242.13	429.62
242.363	449.62
242.597	470.62
242.83	458.62
243.064	461.62
243.298	464.62
243.531	465.62
243.765	462.62
243.998	456.62
244.232	424.62
244.465	399.62
244.699	423.62
244.932	450.62
245.166	498.62
245.399	489.62
245.633	473.62
245.866	470.62
246.099	471.62
246.333	480.62
246.566	500.62
246.8	527.62
247.033	617.62
247.266	554.62
247.5	519.62
247.733	544.62
247.966	566.62
248.2	618.62
248.433	603.62
248.666	612.62
248.899	662.62
249.133	780.62
249.366	838.62
249.599	658.62
249.832	640.62
250.066	660.62
250.299	645.62
250.532	588.62
250.765	578.62
250.998	571.62
251.231	594.62
251.465	596.62
251.698	564.62
251.931	590.62
252.164	603.62
252.397	616.62
252.63	604.62
252.863	573.62
253.096	552.62
253.329	589.62
253.562	606.62
253.795	618.62
254.028	626.62
254.261	586.62
254.494	564.62
254.727	543.62
254.96	591.62
255.193	627.62
255.426	728.62
255.659	802.62
255.892	824.62
256.124	680.62
256.357	666.62
256.59	708.62
256.823	744.62
257.056	710.62
257.289	811.62
257.521	912.62
257.754	838.62
257.987	789.62
258.22	849.62
258.452	802.62
258.685	681.62
258.918	669.62
259.151	690.62
259.383	638.62
259.616	580.62
259.849	617.62
260.081	706.62
260.314	763.62
260.547	822.62
260.779	829.62
261.012	779.62
261.244	680.62
261.477	688.62
261.71	713.62
261.942	705.62
262.175	690.62
262.407	724.62
262.64	683.62
262.872	620.62
263.105	627.62
263.337	644.62
263.57	646.62
263.802	670.62
264.035	608.62
264.267	588.62
264.499	594.62
264.732	622.62
264.964	660.62
265.197	664.62
265.429	706.62
265.661	814.62
265.894	861.62
266.126	896.62
266.358	807.62
266.591	847.62
266.823	866.62
267.055	799.62
267.287	810.62
267.52	761.62
267.752	768.62
267.984	776.62
268.216	827.62
268.448	800.62
268.681	787.62
268.913	741.62
269.145	712.62
269.377	698.62
269.609	777.62
269.841	918.62
270.073	1008.62
270.306	1074.62
270.538	1130.62
270.77	964.62
271.002	876.62
271.234	842.62
271.466	848.62
271.698	916.62
271.93	1082.62
272.162	1084.62
272.394	960.62
272.626	909.62
272.858	838.62
273.09	697.62
273.322	718.62
273.553	679.62
273.785	680.62
274.017	741.62
274.249	767.62
274.481	746.62
274.713	694.62
274.945	708.62
275.176	692.62
275.408	682.62
275.64	686.62
275.872	698.62
276.104	770.62
276.335	840.62
276.567	910.62
276.799	914.62
277.031	843.62
277.262	834.62
277.494	867.62
277.726	932.62
277.957	872.62
278.189	809.62
278.421	756.62
278.652	732.62
278.884	739.62
279.115	730.62
279.347	738.62
279.579	737.62
279.81	795.62
280.042	838.62
280.273	903.62
280.505	886.62
280.736	912.62
280.968	848.62
281.199	749.62
281.431	730.62
281.662	718.62
281.894	738.62
282.125	749.62
282.356	771.62
282.588	787.62
282.819	772.62
283.051	820.62
283.282	911.62
283.513	862.62
283.745	743.62
283.976	720.62
284.207	748.62
284.439	750.62
284.67	757.62
284.901	762.62
285.132	796.62
285.364	772.62
285.595	772.62
285.826	750.62
286.057	780.62
286.288	772.62
286.52	813.62
286.751	860.62
286.982	869.62
287.213	810.62
287.444	731.62
287.675	729.62
287.906	797.62
288.138	836.62
288.369	800.62
288.6	774.62
288.831	745.62
289.062	754.62
289.293	779.62
289.524	790.62
289.755	816.62
289.986	776.62
290.217	759.62
290.448	754.62
290.679	779.62
290.91	791.62
291.141	829.62
291.371	819.62
291.602	803.62
291.833	822.62
292.064	854.62
292.295	853.62
292.526	867.62
292.757	900.62
292.987	837.62
293.218	828.62
293.449	901.62
293.68	981.62
293.91	1066.62
294.141	967.62
294.372	945.62
294.603	957.62
294.833	1011.62
295.064	902.62
295.295	845.62
295.525	796.62
295.756	754.62
295.987	738.62
296.217	751.62
296.448	796.62
296.679	788.62
296.909	780.62
297.14	780.62
297.37	801.62
297.601	870.62
297.831	904.62
298.062	896.62
298.292	825.62
298.523	772.62
298.753	824.62
298.984	786.62
299.214	831.62
299.445	824.62
299.675	835.62
299.905	854.62
300.136	845.62
300.366	804.62
300.597	803.62
300.827	841.62
301.057	845.62
301.288	847.62
301.518	865.62
301.748	883.62
301.979	928.62
302.209	937.62
302.439	985.62
302.669	1038.62
302.9	938.62
303.13	877.62
303.36	876.62
303.59	902.62
303.82	869.62
304.051	890.62
304.281	862.62
304.511	881.62
304.741	949.62
304.971	1033.62
305.201	1064.62
305.431	952.62
305.661	818.62
305.891	766.62
306.121	756.62
306.352	804.62
306.582	847.62
306.812	922.62
307.042	950.62
307.272	965.62
307.502	1014.62
307.731	1068.62
307.961	1098.62
308.191	1033.62
308.421	882.62
308.651	833.62
308.881	848.62
309.111	827.62
309.341	841.62
309.571	850.62
309.8	837.62
310.03	837.62
310.26	838.62
310.49	850.62
310.72	872.62
310.949	877.62
311.179	893.62
311.409	876.62
311.639	853.62
311.868	813.62
312.098	866.62
312.328	868.62
312.557	846.62
312.787	868.62
313.017	918.62
313.246	881.62
313.476	885.62
313.706	913.62
313.935	893.62
314.165	905.62
314.394	937.62
314.624	991.62
314.853	1029.62
315.083	1060.62
315.312	1066.62
315.542	1000.62
315.771	906.62
316.001	966.62
316.23	967.62
316.46	985.62
316.689	916.62
316.919	906.62
317.148	870.62
317.377	927.62
317.607	988.62
317.836	1069.62
318.065	1118.62
318.295	1049.62
318.524	997.62
318.753	996.62
318.983	968.62
319.212	930.62
319.441	937.62
319.67	956.62
319.9	945.62
320.129	987.62
320.358	1012.62
320.587	1066.62
320.816	1039.62
321.046	1001.62
321.275	1003.62
321.504	1012.62
321.733	1044.62
321.962	1019.62
322.191	939.62
322.42	901.62
322.649	922.62
322.878	943.62
323.108	944.62
323.337	979.62
323.566	979.62
323.795	977.62
324.024	974.62
324.253	992.62
324.482	954.62
324.71	897.62
324.939	880.62
325.168	912.62
325.397	933.62
325.626	966.62
325.855	972.62
326.084	953.62
326.313	922.62
326.542	974.62
326.77	1004.62
326.999	988.62
327.228	922.62
327.457	909.62
327.686	911.62
327.914	940.62
328.143	943.62
328.372	928.62
328.6	949.62
328.829	934.62
329.058	927.62
329.287	948.62
329.515	949.62
329.744	963.62
329.972	1027.62
330.201	1051.62
330.43	1057.62
330.658	1014.62
330.887	1021.62
331.115	999.62
331.344	1035.62
331.572	976.62
331.801	984.62
332.03	965.62
332.258	992.62
332.486	1036.62
332.715	1033.62
332.943	1033.62
333.172	1012.62
333.4	1020.62
333.629	1020.62
333.857	1101.62
334.085	1261.62
334.314	1431.62
334.542	1445.62
334.771	1288.62
334.999	1159.62
335.227	1090.62
335.455	1049.62
335.684	1081.62
335.912	1082.62
336.14	1088.62
336.369	1097.62
336.597	1036.62
336.825	983.62
337.053	1058.62
337.281	1142.62
337.51	1162.62
337.738	1161.62
337.966	1124.62
338.194	1017.62
338.422	999.62
338.65	995.62
338.878	985.62
339.106	935.62
339.334	938.62
339.562	934.62
339.79	974.62
340.018	1041.62
340.246	1047.62
340.474	1073.62
340.702	1012.62
340.93	1004.62
341.158	1022.62
341.386	1008.62
341.614	1038.62
341.842	986.62
342.07	997.62
342.298	995.62
342.526	1000.62
342.754	959.62
342.981	982.62
343.209	964.62
343.437	977.62
343.665	978.62
343.893	1018.62
344.12	1046.62
344.348	1078.62
344.576	1019.62
344.804	965.62
345.031	987.62
345.259	983.62
345.487	942.62
345.714	934.62
345.942	933.62
346.17	901.62
346.397	947.62
346.625	933.62
346.853	921.62
347.08	911.62
347.308	889.62
347.535	924.62
347.763	988.62
347.99	914.62
348.218	926.62
348.445	924.62
348.673	923.62
348.9	984.62
349.128	971.62
349.355	1001.62
349.583	957.62
349.81	953.62
350.037	862.62
350.265	904.62
350.492	893.62
350.72	920.62
350.947	984.62
351.174	986.62
351.402	915.62
351.629	881.62
351.856	855.62
352.083	873.62
352.311	922.62
352.538	936.62
352.765	947.62
352.992	955.62
353.22	918.62
353.447	884.62
353.674	896.62
353.901	919.62
354.128	917.62
354.355	922.62
354.583	958.62
354.81	997.62
355.037	967.62
355.264	940.62
355.491	923.62
355.718	946.62
355.945	937.62
356.172	903.62
356.399	892.62
356.626	936.62
356.853	940.62
357.08	1041.62
357.307	1110.62
357.534	1070.62
357.761	987.62
357.988	904.62
358.215	878.62
358.441	898.62
358.668	869.62
358.895	928.62
359.122	958.62
359.349	1086.62
359.576	1027.62
359.802	930.62
360.029	884.62
360.256	907.62
360.483	929.62
360.709	948.62
360.936	1011.62
361.163	1051.62
361.39	1138.62
361.616	1168.62
361.843	1139.62
362.07	1068.62
362.296	913.62
362.523	944.62
362.749	928.62
362.976	972.62
363.203	960.62
363.429	933.62
363.656	902.62
363.882	968.62
364.109	1088.62
364.335	1097.62
364.562	1028.62
364.788	993.62
365.015	935.62
365.241	937.62
365.468	954.62
365.694	994.62
365.92	1028.62
366.147	968.62
366.373	919.62
366.599	907.62
366.826	909.62
367.052	919.62
367.278	924.62
367.505	953.62
367.731	961.62
367.957	985.62
368.184	1014.62
368.41	1084.62
368.636	1097.62
368.862	1069.62
369.089	1084.62
369.315	1028.62
369.541	996.62
369.767	984.62
369.993	922.62
370.219	937.62
370.445	966.62
370.672	1054.62
370.898	1084.62
371.124	1048.62
371.35	1012.62
371.576	1028.62
371.802	1074.62
372.028	1004.62
372.254	1000.62
372.48	951.62
372.706	938.62
372.932	966.62
373.158	977.62
373.384	1015.62
373.61	1013.62
373.835	1016.62
374.061	1002.62
374.287	995.62
374.513	1022.62
374.739	1009.62
374.965	1012.62
375.191	1006.62
375.416	1064.62
375.642	1058.62
375.868	1099.62
376.094	1120.62
376.319	1064.62
376.545	1031.62
376.771	1044.62
376.997	1085.62
377.222	1068.62
377.448	1042.62
377.674	1086.62
377.899	1064.62
378.125	1117.62
378.35	1086.62
378.576	1027.62
378.802	954.62
379.027	948.62
379.253	1006.62
379.478	1014.62
379.704	998.62
379.929	971.62
380.155	1017.62
380.38	1010.62
380.606	1023.62
380.831	1002.62
381.057	1084.62
381.282	1092.62
381.507	1072.62
381.733	1142.62
381.958	1166.62
382.184	1055.62
382.409	1043.62
382.634	1059.62
382.86	1088.62
383.085	1031.62
383.31	1117.62
383.535	1180.62
383.761	1254.62
383.986	1161.62
384.211	1133.62
384.436	1118.62
384.662	1185.62
384.887	1221.62
385.112	1160.62
385.337	1180.62
385.562	1140.62
385.787	1167.62
386.013	1221.62
386.238	1190.62
386.463	1196.62
386.688	1252.62
386.913	1339.62
387.138	1271.62
387.363	1175.62
387.588	1175.62
387.813	1157.62
388.038	1216.62
388.263	1249.62
388.488	1164.62
388.713	1109.62
388.938	1103.62
389.163	1118.62
389.387	1123.62
389.612	1164.62
389.837	1166.62
390.062	1161.62
390.287	1165.62
390.512	1132.62
390.736	1120.62
390.961	1095.62
391.186	1088.62
391.411	1094.62
391.636	1125.62
391.86	1141.62
392.085	1112.62
392.31	1118.62
392.534	1133.62
392.759	1168.62
392.984	1134.62
393.208	1167.62
393.433	1195.62
393.658	1216.62
393.882	1238.62
394.107	1181.62
394.331	1177.62
394.556	1109.62
394.78	1174.62
395.005	1209.62
395.229	1230.62
395.454	1350.62
395.678	1302.62
395.903	1238.62
396.127	1207.62
396.352	1223.62
396.576	1235.62
396.801	1258.62
397.025	1264.62
397.249	1282.62
397.474	1243.62
397.698	1244.62
397.922	1250.62
398.147	1333.62
398.371	1393.62
398.595	1355.62
398.82	1316.62
399.044	1348.62
399.268	1410.62
399.492	1491.62
399.717	1497.62
399.941	1527.62
400.165	1453.62
400.389	1445.62
400.613	1454.62
400.837	1662.62
401.062	1796.62
401.286	1561.62
401.51	1448.62
401.734	1480.62
401.958	1448.62
402.182	1330.62
402.406	1288.62
402.63	1291.62
402.854	1316.62
403.078	1302.62
403.302	1320.62
403.526	1356.62
403.75	1382.62
403.974	1407.62
404.198	1380.62
404.422	1432.62
404.645	1522.62
404.869	1458.62
405.093	1359.62
405.317	1338.62
405.541	1361.62
405.765	1376.62
405.988	1369.62
406.212	1405.62
406.436	1418.62
406.66	1458.62
406.883	1468.62
407.107	1711.62
407.331	1829.62
407.555	1939.62
407.778	1729.62
408.002	1451.62
408.226	1395.62
408.449	1434.62
408.673	1415.62
408.896	1404.62
409.12	1417.62
409.344	1398.62
409.567	1336.62
409.791	1358.62
410.014	1388.62
410.238	1484.62
410.461	1584.62
410.685	1405.62
410.908	1366.62
411.132	1354.62
411.355	1360.62
411.578	1347.62
411.802	1342.62
412.025	1358.62
412.249	1347.62
412.472	1324.62
412.695	1319.62
412.919	1280.62
413.142	1317.62
413.365	1328.62
413.589	1366.62
413.812	1396.62
414.035	1427.62
414.258	1343.62
414.482	1309.62
414.705	1330.62
414.928	1346.62
415.151	1352.62
415.374	1311.62
415.597	1368.62
415.821	1355.62
416.044	1372.62
416.267	1346.62
416.49	1281.62
416.713	1250.62
416.936	1330.62
417.159	1407.62
417.382	1385.62
417.605	1310.62
417.828	1342.62
418.051	1329.62
418.274	1335.62
418.497	1238.62
418.72	1305.62
418.943	1299.62
419.166	1353.62
419.389	1382.62
419.611	1298.62
419.834	1292.62
420.057	1355.62
420.28	1268.62
420.503	1329.62
420.726	1338.62
420.948	1301.62
421.171	1268.62
421.394	1300.62
421.617	1343.62
421.839	1371.62
422.062	1312.62
422.285	1281.62
422.507	1274.62
422.73	1254.62
422.953	1244.62
423.175	1243.62
423.398	1285.62
423.621	1275.62
423.843	1333.62
424.066	1360.62
424.288	1429.62
424.511	1404.62
424.733	1382.62
424.956	1246.62
425.178	1273.62
425.401	1252.62
425.623	1267.62
425.846	1286.62
426.068	1362.62
426.291	1356.62
426.513	1336.62
426.735	1341.62
426.958	1442.62
427.18	1524.62
427.402	1390.62
427.625	1444.62
427.847	1384.62
428.069	1298.62
428.292	1272.62
428.514	1240.62
428.736	1241.62
428.958	1269.62
429.181	1296.62
429.403	1481.62
429.625	1780.62
429.847	1506.62
430.069	1307.62
430.292	1460.62
430.514	1439.62
430.736	1377.62
430.958	1380.62
431.18	1314.62
431.402	1230.62
431.624	1235.62
431.846	1178.62
432.068	1148.62
432.29	1149.62
432.512	1227.62
432.734	1262.62
432.956	1307.62
433.178	1359.62
433.4	1308.62
433.622	1345.62
433.844	1248.62
434.066	1230.62
434.287	1197.62
434.509	1230.62
434.731	1310.62
434.953	1394.62
435.175	1356.62
435.397	1270.62
435.618	1307.62
435.84	1275.62
436.062	1223.62
436.284	1273.62
436.505	1332.62
436.727	1322.62
436.949	1286.62
437.17	1257.62
437.392	1236.62
437.614	1256.62
437.835	1195.62
438.057	1254.62
438.278	1263.62
438.5	1260.62
438.721	1252.62
438.943	1234.62
439.165	1252.62
439.386	1244.62
439.608	1289.62
439.829	1250.62
440.05	1248.62
440.272	1249.62
440.493	1247.62
440.715	1258.62
440.936	1365.62
441.158	1473.62
441.379	1396.62
441.6	1368.62
441.822	1362.62
442.043	1322.62
442.264	1336.62
442.486	1254.62
442.707	1272.62
442.928	1256.62
443.149	1290.62
443.371	1392.62
443.592	1412.62
443.813	1394.62
444.034	1388.62
444.255	1352.62
444.476	1373.62
444.698	1428.62
444.919	1406.62
445.14	1524.62
445.361	1459.62
445.582	1449.62
445.803	1423.62
446.024	1405.62
446.245	1439.62
446.466	1413.62
446.687	1334.62
446.908	1337.62
447.129	1309.62
447.35	1314.62
447.571	1328.62
447.792	1290.62
448.013	1258.62
448.234	1274.62
448.455	1332.62
448.675	1370.62
448.896	1207.62
449.117	1213.62
449.338	1267.62
449.559	1274.62
449.779	1357.62
450	1432.62
450.221	1494.62
450.442	1443.62
450.662	1305.62
450.883	1188.62
451.104	1175.62
451.324	1188.62
451.545	1228.62
451.766	1203.62
451.986	1149.62
452.207	1156.62
452.428	1122.62
452.648	1097.62
452.869	1105.62
453.089	1162.62
453.31	1162.62
453.53	1150.62
453.751	1145.62
453.971	1084.62
454.192	1101.62
454.412	1141.62
454.633	1189.62
454.853	1127.62
455.073	1065.62
455.294	1084.62
455.514	1095.62
455.734	1078.62
455.955	1069.62
456.175	1099.62
456.395	1072.62
456.616	1122.62
456.836	1116.62
457.056	1107.62
457.276	1085.62
457.497	1041.62
457.717	1040.62
457.937	1054.62
458.157	1058.62
458.377	1031.62
458.598	1042.62
458.818	1070.62
459.038	1109.62
459.258	1170.62
459.478	1138.62
459.698	1122.62
459.918	1145.62
460.138	1238.62
460.358	1241.62
460.578	1264.62
460.798	1322.62
461.018	1378.62
461.238	1326.62
461.458	1264.62
461.678	1249.62
461.898	1238.62
462.118	1214.62
462.338	1301.62
462.558	1294.62
462.777	1288.62
462.997	1348.62
463.217	1396.62
463.437	1320.62
463.657	1300.62
463.876	1291.62
464.096	1275.62
464.316	1265.62
464.536	1321.62
464.755	1292.62
464.975	1301.62
465.195	1300.62
465.414	1354.62
465.634	1286.62
465.854	1310.62
466.073	1371.62
466.293	1368.62
466.512	1234.62
466.732	1228.62
466.951	1259.62
467.171	1219.62
467.391	1194.62
467.61	1208.62
467.829	1243.62
468.049	1355.62
468.268	1474.62
468.488	1352.62
468.707	1307.62
468.927	1253.62
469.146	1194.62
469.365	1229.62
469.585	1249.62
469.804	1239.62
470.023	1260.62
470.243	1280.62
470.462	1219.62
470.681	1213.62
470.901	1237.62
471.12	1252.62
471.339	1236.62
471.558	1218.62
471.777	1216.62
471.997	1210.62
472.216	1210.62
472.435	1148.62
472.654	1141.62
472.873	1190.62
473.092	1238.62
473.311	1196.62
473.53	1145.62
473.749	1180.62
473.968	1182.62
474.187	1226.62
474.406	1240.62
474.625	1222.62
474.844	1245.62
475.063	1233.62
475.282	1212.62
475.501	1203.62
475.72	1188.62
475.939	1331.62
476.158	1278.62
476.377	1257.62
476.596	1216.62
476.814	1216.62
477.033	1227.62
477.252	1271.62
477.471	1312.62
477.69	1266.62
477.908	1306.62
478.127	1377.62
478.346	1420.62
478.564	1392.62
478.783	1405.62
479.002	1441.62
479.22	1433.62
479.439	1514.62
479.658	1580.62
479.876	1534.62
480.095	1389.62
480.313	1341.62
480.532	1300.62
480.751	1340.62
480.969	1304.62
481.188	1301.62
481.406	1270.62
481.624	1245.62
481.843	1272.62
482.061	1330.62
482.28	1372.62
482.498	1345.62
482.717	1308.62
482.935	1344.62
483.153	1355.62
483.372	1378.62
483.59	1354.62
483.808	1383.62
484.027	1389.62
484.245	1444.62
484.463	1769.62
484.681	1906.62
484.9	1468.62
485.118	1376.62
485.336	1367.62
485.554	1387.62
485.772	1412.62
485.99	1369.62
486.209	1395.62
486.427	1422.62
486.645	1433.62
486.863	1442.62
487.081	1482.62
487.299	1476.62
487.517	1449.62
487.735	1426.62
487.953	1561.62
488.171	1521.62
488.389	1485.62
488.607	1466.62
488.825	1625.62
489.043	1575.62
489.261	1426.62
489.479	1466.62
489.696	1501.62
489.914	1492.62
490.132	1451.62
490.35	1490.62
490.568	1572.62
490.786	1508.62
491.003	1482.62
491.221	1530.62
491.439	1595.62
491.657	1580.62
491.874	1638.62
492.092	1674.62
492.31	1698.62
492.527	1691.62
492.745	1623.62
492.963	1602.62
493.18	1614.62
493.398	1685.62
