Data from WStandard_LampEnergy8_LIBS07252019.E.O._I.C._HRD10591_16-00-19-929.txt Node
Date: Thu Jul 25 16:00:19 EDT 2019
User: cochatt
Spectrometer: HR+D1059
Trigger mode: 1
Integration Time (sec): 1.000000E-1
Scans to average: 1
Electric dark correction enabled: true
Nonlinearity correction enabled: false
Boxcar width: 0
XAxis mode: Wavelengths
Number of Pixels in Spectrum: 2048
>>>>>Begin Spectral Data<<<<<
223.165	-6.88
223.4	-6.88
223.635	-6.88
223.869	-25.88
224.104	-20.88
224.338	-7.88
224.573	-21.88
224.808	-10.88
225.042	-13.88
225.277	-4.88
225.511	4.12
225.746	3.12
225.98	1.12
226.215	14.12
226.449	13.12
226.683	22.12
226.918	22.12
227.152	33.12
227.387	10.12
227.621	25.12
227.856	36.12
228.09	47.12
228.324	40.12
228.559	50.12
228.793	95.12
229.027	185.12
229.262	207.12
229.496	219.12
229.73	233.12
229.964	217.12
230.199	264.12
230.433	237.12
230.667	262.12
230.901	271.12
231.136	249.12
231.37	250.12
231.604	248.12
231.838	251.12
232.072	262.12
232.306	251.12
232.541	286.12
232.775	302.12
233.009	333.12
233.243	317.12
233.477	291.12
233.711	322.12
233.945	293.12
234.179	294.12
234.413	310.12
234.647	310.12
234.881	313.12
235.115	294.12
235.349	299.12
235.583	283.12
235.817	301.12
236.051	308.12
236.285	303.12
236.519	321.12
236.753	350.12
236.987	365.12
237.221	349.12
237.455	371.12
237.689	373.12
237.922	347.12
238.156	336.12
238.39	349.12
238.624	371.12
238.858	377.12
239.091	420.12
239.325	426.12
239.559	450.12
239.793	481.12
240.027	470.12
240.26	477.12
240.494	371.12
240.728	356.12
240.961	371.12
241.195	369.12
241.429	400.12
241.662	385.12
241.896	384.12
242.13	401.12
242.363	427.12
242.597	444.12
242.83	431.12
243.064	442.12
243.298	454.12
243.531	447.12
243.765	437.12
243.998	449.12
244.232	398.12
244.465	389.12
244.699	411.12
244.932	448.12
245.166	503.12
245.399	491.12
245.633	468.12
245.866	465.12
246.099	440.12
246.333	464.12
246.566	505.12
246.8	541.12
247.033	572.12
247.266	526.12
247.5	519.12
247.733	515.12
247.966	540.12
248.2	605.12
248.433	589.12
248.666	599.12
248.899	675.12
249.133	748.12
249.366	811.12
249.599	675.12
249.832	582.12
250.066	621.12
250.299	621.12
250.532	569.12
250.765	536.12
250.998	565.12
251.231	574.12
251.465	603.12
251.698	569.12
251.931	579.12
252.164	576.12
252.397	586.12
252.63	587.12
252.863	541.12
253.096	545.12
253.329	547.12
253.562	574.12
253.795	617.12
254.028	608.12
254.261	574.12
254.494	564.12
254.727	551.12
254.96	570.12
255.193	631.12
255.426	708.12
255.659	819.12
255.892	765.12
256.124	653.12
256.357	627.12
256.59	695.12
256.823	689.12
257.056	708.12
257.289	828.12
257.521	887.12
257.754	787.12
257.987	745.12
258.22	837.12
258.452	805.12
258.685	689.12
258.918	631.12
259.151	677.12
259.383	615.12
259.616	567.12
259.849	629.12
260.081	697.12
260.314	757.12
260.547	800.12
260.779	818.12
261.012	756.12
261.244	699.12
261.477	670.12
261.71	679.12
261.942	695.12
262.175	651.12
262.407	689.12
262.64	651.12
262.872	624.12
263.105	610.12
263.337	633.12
263.57	633.12
263.802	618.12
264.035	609.12
264.267	575.12
264.499	561.12
264.732	608.12
264.964	633.12
265.197	666.12
265.429	704.12
265.661	773.12
265.894	847.12
266.126	866.12
266.358	777.12
266.591	789.12
266.823	847.12
267.055	802.12
267.287	775.12
267.52	765.12
267.752	766.12
267.984	753.12
268.216	774.12
268.448	801.12
268.681	784.12
268.913	713.12
269.145	699.12
269.377	700.12
269.609	746.12
269.841	865.12
270.073	985.12
270.306	1073.12
270.538	1107.12
270.77	946.12
271.002	835.12
271.234	827.12
271.466	844.12
271.698	925.12
271.93	1068.12
272.162	1023.12
272.394	945.12
272.626	897.12
272.858	795.12
273.09	689.12
273.322	694.12
273.553	657.12
273.785	691.12
274.017	718.12
274.249	749.12
274.481	761.12
274.713	675.12
274.945	693.12
275.176	686.12
275.408	690.12
275.64	685.12
275.872	700.12
276.104	738.12
276.335	815.12
276.567	910.12
276.799	921.12
277.031	814.12
277.262	797.12
277.494	817.12
277.726	901.12
277.957	869.12
278.189	819.12
278.421	745.12
278.652	717.12
278.884	739.12
279.115	739.12
279.347	748.12
279.579	739.12
279.81	723.12
280.042	814.12
280.273	891.12
280.505	870.12
280.736	861.12
280.968	822.12
281.199	759.12
281.431	694.12
281.662	690.12
281.894	732.12
282.125	747.12
282.356	763.12
282.588	771.12
282.819	779.12
283.051	819.12
283.282	902.12
283.513	813.12
283.745	740.12
283.976	718.12
284.207	725.12
284.439	729.12
284.67	732.12
284.901	770.12
285.132	776.12
285.364	765.12
285.595	765.12
285.826	729.12
286.057	777.12
286.288	746.12
286.52	799.12
286.751	852.12
286.982	853.12
287.213	773.12
287.444	696.12
287.675	723.12
287.906	782.12
288.138	839.12
288.369	791.12
288.6	749.12
288.831	730.12
289.062	745.12
289.293	735.12
289.524	751.12
289.755	791.12
289.986	758.12
290.217	722.12
290.448	755.12
290.679	784.12
290.91	775.12
291.141	793.12
291.371	837.12
291.602	809.12
291.833	806.12
292.064	845.12
292.295	811.12
292.526	826.12
292.757	859.12
292.987	803.12
293.218	802.12
293.449	857.12
293.68	962.12
293.91	982.12
294.141	942.12
294.372	909.12
294.603	935.12
294.833	957.12
295.064	911.12
295.295	843.12
295.525	779.12
295.756	771.12
295.987	746.12
296.217	739.12
296.448	749.12
296.679	769.12
296.909	794.12
297.14	761.12
297.37	811.12
297.601	862.12
297.831	864.12
298.062	864.12
298.292	791.12
298.523	788.12
298.753	780.12
298.984	797.12
299.214	797.12
299.445	852.12
299.675	825.12
299.905	822.12
300.136	832.12
300.366	784.12
300.597	742.12
300.827	756.12
301.057	795.12
301.288	830.12
301.518	849.12
301.748	861.12
301.979	897.12
302.209	919.12
302.439	964.12
302.669	1009.12
302.9	945.12
303.13	849.12
303.36	841.12
303.59	873.12
303.82	881.12
304.051	833.12
304.281	838.12
304.511	887.12
304.741	964.12
304.971	1006.12
305.201	1065.12
305.431	948.12
305.661	801.12
305.891	747.12
306.121	775.12
306.352	799.12
306.582	849.12
306.812	901.12
307.042	930.12
307.272	941.12
307.502	983.12
307.731	1070.12
307.961	1088.12
308.191	983.12
308.421	884.12
308.651	839.12
308.881	851.12
309.111	857.12
309.341	849.12
309.571	817.12
309.8	835.12
310.03	822.12
310.26	829.12
310.49	820.12
310.72	843.12
310.949	893.12
311.179	886.12
311.409	835.12
311.639	843.12
311.868	846.12
312.098	839.12
312.328	845.12
312.557	827.12
312.787	868.12
313.017	875.12
313.246	883.12
313.476	861.12
313.706	864.12
313.935	901.12
314.165	897.12
314.394	915.12
314.624	969.12
314.853	990.12
315.083	1049.12
315.312	1045.12
315.542	986.12
315.771	908.12
316.001	935.12
316.23	939.12
316.46	934.12
316.689	911.12
316.919	878.12
317.148	860.12
317.377	888.12
317.607	947.12
317.836	1037.12
318.065	1065.12
318.295	1041.12
318.524	1004.12
318.753	924.12
318.983	945.12
319.212	931.12
319.441	893.12
319.67	909.12
319.9	937.12
320.129	971.12
320.358	1025.12
320.587	1057.12
320.816	1008.12
321.046	985.12
321.275	941.12
321.504	971.12
321.733	1031.12
321.962	1028.12
322.191	940.12
322.42	905.12
322.649	913.12
322.878	899.12
323.108	920.12
323.337	955.12
323.566	946.12
323.795	948.12
324.024	939.12
324.253	921.12
324.482	924.12
324.71	921.12
324.939	892.12
325.168	886.12
325.397	916.12
325.626	941.12
325.855	958.12
326.084	945.12
326.313	948.12
326.542	948.12
326.77	973.12
326.999	1021.12
327.228	920.12
327.457	862.12
327.686	885.12
327.914	888.12
328.143	927.12
328.372	915.12
328.6	905.12
328.829	910.12
329.058	863.12
329.287	913.12
329.515	934.12
329.744	939.12
329.972	999.12
330.201	1021.12
330.43	1013.12
330.658	971.12
330.887	982.12
331.115	1001.12
331.344	989.12
331.572	982.12
331.801	995.12
332.03	986.12
332.258	988.12
332.486	995.12
332.715	1030.12
332.943	962.12
333.172	960.12
333.4	1021.12
333.629	1037.12
333.857	1084.12
334.085	1190.12
334.314	1365.12
334.542	1421.12
334.771	1298.12
334.999	1123.12
335.227	1072.12
335.455	1030.12
335.684	1072.12
335.912	1095.12
336.14	1097.12
336.369	1052.12
336.597	999.12
336.825	1015.12
337.053	1019.12
337.281	1133.12
337.51	1149.12
337.738	1155.12
337.966	1102.12
338.194	1033.12
338.422	971.12
338.65	965.12
338.878	953.12
339.106	945.12
339.334	927.12
339.562	949.12
339.79	940.12
340.018	1003.12
340.246	1044.12
340.474	1039.12
340.702	995.12
340.93	1027.12
341.158	1021.12
341.386	990.12
341.614	1013.12
341.842	947.12
342.07	1003.12
342.298	1014.12
342.526	988.12
342.754	977.12
342.981	951.12
343.209	974.12
343.437	963.12
343.665	993.12
343.893	978.12
344.12	1060.12
344.348	1053.12
344.576	1013.12
344.804	995.12
345.031	994.12
345.259	983.12
345.487	948.12
345.714	905.12
345.942	891.12
346.17	926.12
346.397	951.12
346.625	951.12
346.853	901.12
347.08	868.12
347.308	889.12
347.535	889.12
347.763	929.12
347.99	951.12
348.218	888.12
348.445	893.12
348.673	909.12
348.9	979.12
349.128	984.12
349.355	1017.12
349.583	958.12
349.81	903.12
350.037	856.12
350.265	867.12
350.492	889.12
350.72	902.12
350.947	950.12
351.174	934.12
351.402	866.12
351.629	862.12
351.856	873.12
352.083	833.12
352.311	878.12
352.538	883.12
352.765	940.12
352.992	933.12
353.22	887.12
353.447	883.12
353.674	906.12
353.901	931.12
354.128	885.12
354.355	923.12
354.583	915.12
354.81	965.12
355.037	928.12
355.264	912.12
355.491	918.12
355.718	898.12
355.945	909.12
356.172	915.12
356.399	889.12
356.626	895.12
356.853	957.12
357.08	1022.12
357.307	1124.12
357.534	1069.12
357.761	941.12
357.988	895.12
358.215	865.12
358.441	879.12
358.668	867.12
358.895	886.12
359.122	949.12
359.349	1042.12
359.576	996.12
359.802	911.12
360.029	877.12
360.256	891.12
360.483	910.12
360.709	940.12
360.936	963.12
361.163	1021.12
361.39	1103.12
361.616	1169.12
361.843	1145.12
362.07	1035.12
362.296	912.12
362.523	889.12
362.749	909.12
362.976	939.12
363.203	955.12
363.429	920.12
363.656	886.12
363.882	960.12
364.109	1045.12
364.335	1099.12
364.562	1010.12
364.788	959.12
365.015	893.12
365.241	915.12
365.468	959.12
365.694	975.12
365.92	979.12
366.147	943.12
366.373	890.12
366.599	921.12
366.826	893.12
367.052	909.12
367.278	902.12
367.505	933.12
367.731	953.12
367.957	959.12
368.184	1025.12
368.41	1062.12
368.636	1076.12
368.862	1063.12
369.089	1052.12
369.315	982.12
369.541	964.12
369.767	941.12
369.993	919.12
370.219	906.12
370.445	956.12
370.672	1043.12
370.898	1063.12
371.124	1034.12
371.35	980.12
371.576	1039.12
371.802	1049.12
372.028	1014.12
372.254	969.12
372.48	941.12
372.706	921.12
372.932	958.12
373.158	953.12
373.384	960.12
373.61	991.12
373.835	1043.12
374.061	1012.12
374.287	990.12
374.513	958.12
374.739	1014.12
374.965	990.12
375.191	1027.12
375.416	990.12
375.642	1032.12
375.868	1109.12
376.094	1111.12
376.319	1060.12
376.545	961.12
376.771	1024.12
376.997	1068.12
377.222	1029.12
377.448	1003.12
377.674	1036.12
377.899	1012.12
378.125	1097.12
378.35	1080.12
378.576	986.12
378.802	947.12
379.027	963.12
379.253	985.12
379.478	1001.12
379.704	997.12
379.929	967.12
380.155	978.12
380.38	989.12
380.606	993.12
380.831	1007.12
381.057	1045.12
381.282	1044.12
381.507	1065.12
381.733	1149.12
381.958	1163.12
382.184	1065.12
382.409	1003.12
382.634	1054.12
382.86	1036.12
383.085	1027.12
383.31	1063.12
383.535	1165.12
383.761	1227.12
383.986	1143.12
384.211	1118.12
384.436	1119.12
384.662	1165.12
384.887	1171.12
385.112	1139.12
385.337	1162.12
385.562	1106.12
385.787	1124.12
386.013	1159.12
386.238	1137.12
386.463	1149.12
386.688	1233.12
386.913	1293.12
387.138	1238.12
387.363	1169.12
387.588	1123.12
387.813	1182.12
388.038	1193.12
388.263	1205.12
388.488	1138.12
388.713	1094.12
388.938	1081.12
389.163	1097.12
389.387	1120.12
389.612	1131.12
389.837	1149.12
390.062	1131.12
390.287	1155.12
390.512	1140.12
390.736	1089.12
390.961	1081.12
391.186	1107.12
391.411	1072.12
391.636	1082.12
391.86	1103.12
392.085	1133.12
392.31	1083.12
392.534	1099.12
392.759	1149.12
392.984	1139.12
393.208	1126.12
393.433	1177.12
393.658	1214.12
393.882	1203.12
394.107	1180.12
394.331	1145.12
394.556	1117.12
394.78	1131.12
395.005	1186.12
395.229	1234.12
395.454	1306.12
395.678	1284.12
395.903	1239.12
396.127	1198.12
396.352	1178.12
396.576	1238.12
396.801	1241.12
397.025	1201.12
397.249	1227.12
397.474	1216.12
397.698	1211.12
397.922	1252.12
398.147	1321.12
398.371	1328.12
398.595	1330.12
398.82	1313.12
399.044	1347.12
399.268	1391.12
399.492	1449.12
399.717	1494.12
399.941	1482.12
400.165	1443.12
400.389	1455.12
400.613	1476.12
400.837	1657.12
401.062	1784.12
401.286	1547.12
401.51	1413.12
401.734	1499.12
401.958	1401.12
402.182	1328.12
402.406	1266.12
402.63	1300.12
402.854	1300.12
403.078	1317.12
403.302	1336.12
403.526	1329.12
403.75	1356.12
403.974	1363.12
404.198	1378.12
404.422	1421.12
404.645	1480.12
404.869	1440.12
405.093	1313.12
405.317	1309.12
405.541	1315.12
405.765	1363.12
405.988	1347.12
406.212	1370.12
406.436	1397.12
406.66	1443.12
406.883	1466.12
407.107	1639.12
407.331	1782.12
407.555	1911.12
407.778	1659.12
408.002	1430.12
408.226	1401.12
408.449	1383.12
408.673	1379.12
408.896	1356.12
409.12	1413.12
409.344	1362.12
409.567	1318.12
409.791	1343.12
410.014	1381.12
410.238	1484.12
410.461	1555.12
410.685	1378.12
410.908	1342.12
411.132	1408.12
411.355	1329.12
411.578	1281.12
411.802	1356.12
412.025	1330.12
412.249	1314.12
412.472	1306.12
412.695	1261.12
412.919	1323.12
413.142	1276.12
413.365	1303.12
413.589	1348.12
413.812	1387.12
414.035	1394.12
414.258	1323.12
414.482	1304.12
414.705	1306.12
414.928	1290.12
415.151	1266.12
415.374	1306.12
415.597	1299.12
415.821	1329.12
416.044	1351.12
416.267	1389.12
416.49	1255.12
416.713	1262.12
416.936	1304.12
417.159	1366.12
417.382	1334.12
417.605	1273.12
417.828	1329.12
418.051	1343.12
418.274	1289.12
418.497	1290.12
418.72	1277.12
418.943	1250.12
419.166	1325.12
419.389	1393.12
419.611	1310.12
419.834	1302.12
420.057	1289.12
420.28	1282.12
420.503	1282.12
420.726	1316.12
420.948	1275.12
421.171	1250.12
421.394	1282.12
421.617	1294.12
421.839	1343.12
422.062	1300.12
422.285	1249.12
422.507	1316.12
422.73	1222.12
422.953	1224.12
423.175	1199.12
423.398	1290.12
423.621	1302.12
423.843	1315.12
424.066	1288.12
424.288	1369.12
424.511	1414.12
424.733	1361.12
424.956	1230.12
425.178	1235.12
425.401	1248.12
425.623	1261.12
425.846	1277.12
426.068	1317.12
426.291	1343.12
426.513	1298.12
426.735	1297.12
426.958	1455.12
427.18	1483.12
427.402	1365.12
427.625	1409.12
427.847	1377.12
428.069	1259.12
428.292	1255.12
428.514	1205.12
428.736	1238.12
428.958	1245.12
429.181	1278.12
429.403	1496.12
429.625	1745.12
429.847	1450.12
430.069	1298.12
430.292	1479.12
430.514	1459.12
430.736	1334.12
430.958	1366.12
431.18	1279.12
431.402	1214.12
431.624	1181.12
431.846	1177.12
432.068	1137.12
432.29	1176.12
432.512	1187.12
432.734	1258.12
432.956	1283.12
433.178	1347.12
433.4	1329.12
433.622	1315.12
433.844	1244.12
434.066	1205.12
434.287	1162.12
434.509	1184.12
434.731	1255.12
434.953	1357.12
435.175	1330.12
435.397	1287.12
435.618	1296.12
435.84	1281.12
436.062	1216.12
436.284	1257.12
436.505	1279.12
436.727	1306.12
436.949	1263.12
437.17	1220.12
437.392	1214.12
437.614	1212.12
437.835	1178.12
438.057	1195.12
438.278	1269.12
438.5	1201.12
438.721	1231.12
438.943	1237.12
439.165	1247.12
439.386	1213.12
439.608	1230.12
439.829	1259.12
440.05	1257.12
440.272	1214.12
440.493	1241.12
440.715	1250.12
440.936	1366.12
441.158	1439.12
441.379	1417.12
441.6	1389.12
441.822	1384.12
442.043	1339.12
442.264	1277.12
442.486	1251.12
442.707	1242.12
442.928	1239.12
443.149	1277.12
443.371	1345.12
443.592	1393.12
443.813	1366.12
444.034	1405.12
444.255	1376.12
444.476	1379.12
444.698	1372.12
444.919	1369.12
445.14	1472.12
445.361	1457.12
445.582	1426.12
445.803	1407.12
446.024	1348.12
446.245	1372.12
446.466	1378.12
446.687	1335.12
446.908	1335.12
447.129	1303.12
447.35	1326.12
447.571	1329.12
447.792	1223.12
448.013	1219.12
448.234	1225.12
448.455	1349.12
448.675	1279.12
448.896	1191.12
449.117	1180.12
449.338	1222.12
449.559	1277.12
449.779	1341.12
450	1447.12
450.221	1477.12
450.442	1420.12
450.662	1275.12
450.883	1191.12
451.104	1174.12
451.324	1182.12
451.545	1227.12
451.766	1189.12
451.986	1136.12
452.207	1126.12
452.428	1109.12
452.648	1081.12
452.869	1136.12
453.089	1153.12
453.31	1154.12
453.53	1126.12
453.751	1118.12
453.971	1053.12
454.192	1081.12
454.412	1148.12
454.633	1150.12
454.853	1091.12
455.073	1053.12
455.294	1048.12
455.514	1069.12
455.734	1077.12
455.955	1071.12
456.175	1030.12
456.395	1061.12
456.616	1092.12
456.836	1087.12
457.056	1064.12
457.276	1082.12
457.497	1061.12
457.717	1027.12
457.937	1032.12
458.157	1028.12
458.377	1058.12
458.598	1023.12
458.818	1059.12
459.038	1109.12
459.258	1181.12
459.478	1153.12
459.698	1074.12
459.918	1147.12
460.138	1195.12
460.358	1253.12
460.578	1219.12
460.798	1267.12
461.018	1333.12
461.238	1315.12
461.458	1263.12
461.678	1218.12
461.898	1240.12
462.118	1216.12
462.338	1277.12
462.558	1261.12
462.777	1247.12
462.997	1323.12
463.217	1380.12
463.437	1335.12
463.657	1266.12
463.876	1231.12
464.096	1255.12
464.316	1251.12
464.536	1308.12
464.755	1339.12
464.975	1312.12
465.195	1251.12
465.414	1290.12
465.634	1286.12
465.854	1300.12
466.073	1360.12
466.293	1305.12
466.512	1197.12
466.732	1213.12
466.951	1220.12
467.171	1237.12
467.391	1167.12
467.61	1172.12
467.829	1215.12
468.049	1315.12
468.268	1437.12
468.488	1312.12
468.707	1219.12
468.927	1217.12
469.146	1195.12
469.365	1217.12
469.585	1254.12
469.804	1215.12
470.023	1221.12
470.243	1271.12
470.462	1224.12
470.681	1211.12
470.901	1204.12
471.12	1217.12
471.339	1214.12
471.558	1181.12
471.777	1205.12
471.997	1199.12
472.216	1173.12
472.435	1128.12
472.654	1107.12
472.873	1125.12
473.092	1253.12
473.311	1183.12
473.53	1157.12
473.749	1130.12
473.968	1187.12
474.187	1220.12
474.406	1227.12
474.625	1193.12
474.844	1190.12
475.063	1202.12
475.282	1227.12
475.501	1203.12
475.72	1195.12
475.939	1295.12
476.158	1208.12
476.377	1201.12
476.596	1218.12
476.814	1229.12
477.033	1226.12
477.252	1253.12
477.471	1318.12
477.69	1285.12
477.908	1247.12
478.127	1371.12
478.346	1425.12
478.564	1403.12
478.783	1381.12
479.002	1457.12
479.22	1395.12
479.439	1463.12
479.658	1575.12
479.876	1508.12
480.095	1358.12
480.313	1330.12
480.532	1268.12
480.751	1285.12
480.969	1285.12
481.188	1280.12
481.406	1287.12
481.624	1233.12
481.843	1275.12
482.061	1311.12
482.28	1293.12
482.498	1333.12
482.717	1344.12
482.935	1311.12
483.153	1346.12
483.372	1348.12
483.59	1361.12
483.808	1361.12
484.027	1338.12
484.245	1447.12
484.463	1705.12
484.681	1882.12
484.9	1445.12
485.118	1389.12
485.336	1360.12
485.554	1348.12
485.772	1414.12
485.99	1353.12
486.209	1378.12
486.427	1393.12
486.645	1373.12
486.863	1457.12
487.081	1487.12
487.299	1444.12
487.517	1446.12
487.735	1438.12
487.953	1536.12
488.171	1513.12
488.389	1464.12
488.607	1434.12
488.825	1630.12
489.043	1499.12
489.261	1421.12
489.479	1464.12
489.696	1477.12
489.914	1481.12
490.132	1438.12
490.35	1403.12
490.568	1530.12
490.786	1486.12
491.003	1476.12
491.221	1548.12
491.439	1565.12
491.657	1596.12
491.874	1622.12
492.092	1656.12
492.31	1659.12
492.527	1646.12
492.745	1618.12
492.963	1589.12
493.18	1600.12
493.398	1706.12
493.615	1692.12
493.833	1579.12
