Data from WStandard_LampEnergy5.5LIBS07252019.E.O._I.C._HRD10591_16-06-36-919.txt Node
Date: Thu Jul 25 16:06:36 EDT 2019
User: cochatt
Spectrometer: HR+D1059
Trigger mode: 1
Integration Time (sec): 1.000000E-1
Scans to average: 1
Electric dark correction enabled: true
Nonlinearity correction enabled: false
Boxcar width: 0
XAxis mode: Wavelengths
Number of Pixels in Spectrum: 2048
>>>>>Begin Spectral Data<<<<<
223.165	-21.88
223.4	-21.88
223.635	-21.88
223.869	-29.88
224.104	-8.88
224.338	-14.88
224.573	-14.88
224.808	-3.88
225.042	-11.88
225.277	-2.88
225.511	-5.88
225.746	-1.88
225.98	8.12
226.215	20.12
226.449	11.12
226.683	26.12
226.918	25.12
227.152	26.12
227.387	39.12
227.621	43.12
227.856	45.12
228.09	41.12
228.324	39.12
228.559	52.12
228.793	143.12
229.027	346.12
229.262	362.12
229.496	389.12
229.73	393.12
229.964	456.12
230.199	470.12
230.433	472.12
230.667	505.12
230.901	535.12
231.136	469.12
231.37	459.12
231.604	454.12
231.838	479.12
232.072	472.12
232.306	441.12
232.541	463.12
232.775	554.12
233.009	604.12
233.243	591.12
233.477	547.12
233.711	552.12
233.945	559.12
234.179	551.12
234.413	586.12
234.647	639.12
234.881	609.12
235.115	537.12
235.349	542.12
235.583	566.12
235.817	566.12
236.051	537.12
236.285	555.12
236.519	611.12
236.753	693.12
236.987	686.12
237.221	665.12
237.455	746.12
237.689	733.12
237.922	674.12
238.156	686.12
238.39	683.12
238.624	689.12
238.858	746.12
239.091	777.12
239.325	787.12
239.559	915.12
239.793	955.12
240.027	1032.12
240.26	1044.12
240.494	744.12
240.728	714.12
240.961	725.12
241.195	753.12
241.429	805.12
241.662	835.12
241.896	771.12
242.13	771.12
242.363	834.12
242.597	905.12
242.83	837.12
243.064	881.12
243.298	928.12
243.531	932.12
243.765	900.12
243.998	913.12
244.232	809.12
244.465	760.12
244.699	789.12
244.932	899.12
245.166	1062.12
245.399	988.12
245.633	915.12
245.866	887.12
246.099	934.12
246.333	946.12
246.566	942.12
246.8	1046.12
247.033	1184.12
247.266	1079.12
247.5	1018.12
247.733	1034.12
247.966	1086.12
248.2	1213.12
248.433	1180.12
248.666	1191.12
248.899	1336.12
249.133	1510.12
249.366	1742.12
249.599	1379.12
249.832	1233.12
250.066	1278.12
250.299	1300.12
250.532	1209.12
250.765	1081.12
250.998	1130.12
251.231	1180.12
251.465	1240.12
251.698	1171.12
251.931	1175.12
252.164	1206.12
252.397	1255.12
252.63	1238.12
252.863	1081.12
253.096	1101.12
253.329	1155.12
253.562	1181.12
253.795	1287.12
254.028	1258.12
254.261	1161.12
254.494	1148.12
254.727	1111.12
254.96	1154.12
255.193	1242.12
255.426	1406.12
255.659	1660.12
255.892	1683.12
256.124	1381.12
256.357	1304.12
256.59	1387.12
256.823	1471.12
257.056	1422.12
257.289	1665.12
257.521	1867.12
257.754	1707.12
257.987	1562.12
258.22	1768.12
258.452	1733.12
258.685	1413.12
258.918	1363.12
259.151	1365.12
259.383	1339.12
259.616	1185.12
259.849	1241.12
260.081	1361.12
260.314	1517.12
260.547	1683.12
260.779	1753.12
261.012	1603.12
261.244	1426.12
261.477	1349.12
261.71	1429.12
261.942	1421.12
262.175	1374.12
262.407	1457.12
262.64	1367.12
262.872	1290.12
263.105	1230.12
263.337	1261.12
263.57	1280.12
263.802	1283.12
264.035	1197.12
264.267	1167.12
264.499	1126.12
264.732	1191.12
264.964	1271.12
265.197	1335.12
265.429	1409.12
265.661	1531.12
265.894	1742.12
266.126	1804.12
266.358	1564.12
266.591	1610.12
266.823	1803.12
267.055	1601.12
267.287	1574.12
267.52	1562.12
267.752	1534.12
267.984	1522.12
268.216	1590.12
268.448	1650.12
268.681	1606.12
268.913	1496.12
269.145	1440.12
269.377	1387.12
269.609	1453.12
269.841	1747.12
270.073	2013.12
270.306	2204.12
270.538	2363.12
270.77	2038.12
271.002	1705.12
271.234	1653.12
271.466	1601.12
271.698	1791.12
271.93	2159.12
272.162	2225.12
272.394	1935.12
272.626	1877.12
272.858	1698.12
273.09	1475.12
273.322	1436.12
273.553	1371.12
273.785	1395.12
274.017	1453.12
274.249	1564.12
274.481	1542.12
274.713	1439.12
274.945	1396.12
275.176	1422.12
275.408	1405.12
275.64	1374.12
275.872	1349.12
276.104	1430.12
276.335	1627.12
276.567	1866.12
276.799	1884.12
277.031	1697.12
277.262	1582.12
277.494	1627.12
277.726	1859.12
277.957	1845.12
278.189	1663.12
278.421	1499.12
278.652	1481.12
278.884	1453.12
279.115	1440.12
279.347	1528.12
279.579	1444.12
279.81	1450.12
280.042	1627.12
280.273	1783.12
280.505	1749.12
280.736	1788.12
280.968	1745.12
281.199	1502.12
281.431	1413.12
281.662	1423.12
281.894	1438.12
282.125	1476.12
282.356	1537.12
282.588	1547.12
282.819	1534.12
283.051	1618.12
283.282	1779.12
283.513	1701.12
283.745	1489.12
283.976	1387.12
284.207	1409.12
284.439	1411.12
284.67	1479.12
284.901	1497.12
285.132	1551.12
285.364	1553.12
285.595	1541.12
285.826	1504.12
286.057	1471.12
286.288	1461.12
286.52	1490.12
286.751	1676.12
286.982	1703.12
287.213	1604.12
287.444	1457.12
287.675	1470.12
287.906	1500.12
288.138	1627.12
288.369	1595.12
288.6	1490.12
288.831	1476.12
289.062	1463.12
289.293	1523.12
289.524	1505.12
289.755	1571.12
289.986	1582.12
290.217	1456.12
290.448	1460.12
290.679	1486.12
290.91	1516.12
291.141	1534.12
291.371	1613.12
291.602	1575.12
291.833	1595.12
292.064	1643.12
292.295	1608.12
292.526	1658.12
292.757	1767.12
292.987	1646.12
293.218	1547.12
293.449	1676.12
293.68	1851.12
293.91	1998.12
294.141	1868.12
294.372	1726.12
294.603	1791.12
294.833	1884.12
295.064	1808.12
295.295	1642.12
295.525	1585.12
295.756	1445.12
295.987	1420.12
296.217	1435.12
296.448	1485.12
296.679	1503.12
296.909	1483.12
297.14	1495.12
297.37	1493.12
297.601	1603.12
297.831	1709.12
298.062	1718.12
298.292	1579.12
298.523	1502.12
298.753	1516.12
298.984	1559.12
299.214	1527.12
299.445	1585.12
299.675	1598.12
299.905	1613.12
300.136	1518.12
300.366	1544.12
300.597	1477.12
300.827	1484.12
301.057	1514.12
301.288	1614.12
301.518	1594.12
301.748	1626.12
301.979	1741.12
302.209	1744.12
302.439	1834.12
302.669	1899.12
302.9	1797.12
303.13	1649.12
303.36	1610.12
303.59	1665.12
303.82	1659.12
304.051	1651.12
304.281	1665.12
304.511	1634.12
304.741	1695.12
304.971	1873.12
305.201	2076.12
305.431	1936.12
305.661	1604.12
305.891	1430.12
306.121	1457.12
306.352	1481.12
306.582	1546.12
306.812	1660.12
307.042	1811.12
307.272	1793.12
307.502	1813.12
307.731	1988.12
307.961	2133.12
308.191	2013.12
308.421	1687.12
308.651	1603.12
308.881	1577.12
309.111	1593.12
309.341	1535.12
309.571	1597.12
309.8	1592.12
310.03	1573.12
310.26	1529.12
310.49	1557.12
310.72	1590.12
310.949	1664.12
311.179	1652.12
311.409	1671.12
311.639	1619.12
311.868	1565.12
312.098	1595.12
312.328	1601.12
312.557	1553.12
312.787	1622.12
313.017	1676.12
313.246	1615.12
313.476	1630.12
313.706	1647.12
313.935	1687.12
314.165	1713.12
314.394	1730.12
314.624	1839.12
314.853	1917.12
315.083	1991.12
315.312	2053.12
315.542	1886.12
315.771	1687.12
316.001	1689.12
316.23	1793.12
316.46	1777.12
316.689	1730.12
316.919	1666.12
317.148	1605.12
317.377	1603.12
317.607	1778.12
317.836	1945.12
318.065	2006.12
318.295	1941.12
318.524	1852.12
318.753	1784.12
318.983	1767.12
319.212	1721.12
319.441	1707.12
319.67	1714.12
319.9	1740.12
320.129	1774.12
320.358	1890.12
320.587	1939.12
320.816	1877.12
321.046	1878.12
321.275	1764.12
321.504	1815.12
321.733	1950.12
321.962	1887.12
322.191	1725.12
322.42	1709.12
322.649	1704.12
322.878	1710.12
323.108	1702.12
323.337	1775.12
323.566	1780.12
323.795	1787.12
324.024	1816.12
324.253	1705.12
324.482	1796.12
324.71	1745.12
324.939	1623.12
325.168	1662.12
325.397	1699.12
325.626	1763.12
325.855	1752.12
326.084	1734.12
326.313	1673.12
326.542	1765.12
326.77	1806.12
326.999	1815.12
327.228	1727.12
327.457	1634.12
327.686	1649.12
327.914	1676.12
328.143	1749.12
328.372	1749.12
328.6	1758.12
328.829	1693.12
329.058	1671.12
329.287	1719.12
329.515	1735.12
329.744	1743.12
329.972	1819.12
330.201	1915.12
330.43	1879.12
330.658	1814.12
330.887	1843.12
331.115	1865.12
331.344	1862.12
331.572	1813.12
331.801	1754.12
332.03	1787.12
332.258	1837.12
332.486	1864.12
332.715	1847.12
332.943	1857.12
333.172	1805.12
333.4	1868.12
333.629	1875.12
333.857	2019.12
334.085	2172.12
334.314	2429.12
334.542	2748.12
334.771	2540.12
334.999	2211.12
335.227	2111.12
335.455	2005.12
335.684	1986.12
335.912	1981.12
336.14	2102.12
336.369	2000.12
336.597	1889.12
336.825	1846.12
337.053	1927.12
337.281	2012.12
337.51	2092.12
337.738	2181.12
337.966	2109.12
338.194	1905.12
338.422	1825.12
338.65	1845.12
338.878	1783.12
339.106	1836.12
339.334	1715.12
339.562	1681.12
339.79	1735.12
340.018	1870.12
340.246	1919.12
340.474	1953.12
340.702	1878.12
340.93	1916.12
341.158	1839.12
341.386	1832.12
341.614	1826.12
341.842	1854.12
342.07	1818.12
342.298	1831.12
342.526	1841.12
342.754	1801.12
342.981	1768.12
343.209	1827.12
343.437	1784.12
343.665	1799.12
343.893	1843.12
344.12	1928.12
344.348	1993.12
344.576	1883.12
344.804	1803.12
345.031	1797.12
345.259	1810.12
345.487	1725.12
345.714	1664.12
345.942	1683.12
346.17	1693.12
346.397	1698.12
346.625	1724.12
346.853	1687.12
347.08	1644.12
347.308	1587.12
347.535	1690.12
347.763	1766.12
347.99	1710.12
348.218	1615.12
348.445	1655.12
348.673	1658.12
348.9	1710.12
349.128	1779.12
349.355	1827.12
349.583	1810.12
349.81	1710.12
350.037	1569.12
350.265	1577.12
350.492	1590.12
350.72	1598.12
350.947	1678.12
351.174	1773.12
351.402	1660.12
351.629	1587.12
351.856	1548.12
352.083	1516.12
352.311	1583.12
352.538	1638.12
352.765	1701.12
352.992	1700.12
353.22	1666.12
353.447	1631.12
353.674	1661.12
353.901	1663.12
354.128	1640.12
354.355	1634.12
354.583	1689.12
354.81	1756.12
355.037	1745.12
355.264	1711.12
355.491	1664.12
355.718	1660.12
355.945	1656.12
356.172	1650.12
356.399	1639.12
356.626	1603.12
356.853	1690.12
357.08	1790.12
357.307	1966.12
357.534	2021.12
357.761	1745.12
357.988	1603.12
358.215	1564.12
358.441	1560.12
358.668	1567.12
358.895	1625.12
359.122	1687.12
359.349	1869.12
359.576	1837.12
359.802	1671.12
360.029	1612.12
360.256	1577.12
360.483	1615.12
360.709	1662.12
360.936	1717.12
361.163	1743.12
361.39	1908.12
361.616	2102.12
361.843	2051.12
362.07	1930.12
362.296	1662.12
362.523	1609.12
362.749	1632.12
362.976	1658.12
363.203	1697.12
363.429	1647.12
363.656	1625.12
363.882	1650.12
364.109	1815.12
364.335	1957.12
364.562	1821.12
364.788	1774.12
365.015	1695.12
365.241	1624.12
365.468	1689.12
365.694	1728.12
365.92	1800.12
366.147	1707.12
366.373	1601.12
366.599	1537.12
366.826	1595.12
367.052	1639.12
367.278	1637.12
367.505	1653.12
367.731	1687.12
367.957	1680.12
368.184	1705.12
368.41	1784.12
368.636	1854.12
368.862	1860.12
369.089	1863.12
369.315	1791.12
369.541	1752.12
369.767	1686.12
369.993	1624.12
370.219	1659.12
370.445	1698.12
370.672	1796.12
370.898	1887.12
371.124	1845.12
371.35	1729.12
371.576	1763.12
371.802	1823.12
372.028	1785.12
372.254	1715.12
372.48	1698.12
372.706	1663.12
372.932	1683.12
373.158	1693.12
373.384	1699.12
373.61	1732.12
373.835	1852.12
374.061	1805.12
374.287	1747.12
374.513	1732.12
374.739	1725.12
374.965	1778.12
375.191	1809.12
375.416	1785.12
375.642	1798.12
375.868	1846.12
376.094	1924.12
376.319	1850.12
376.545	1724.12
376.771	1767.12
376.997	1866.12
377.222	1848.12
377.448	1778.12
377.674	1827.12
377.899	1819.12
378.125	1899.12
378.35	1890.12
378.576	1727.12
378.802	1682.12
379.027	1669.12
379.253	1697.12
379.478	1751.12
379.704	1746.12
379.929	1697.12
380.155	1749.12
380.38	1748.12
380.606	1767.12
380.831	1719.12
381.057	1825.12
381.282	1850.12
381.507	1830.12
381.733	1908.12
381.958	1970.12
382.184	1825.12
382.409	1821.12
382.634	1796.12
382.86	1800.12
383.085	1792.12
383.31	1877.12
383.535	1961.12
383.761	2133.12
383.986	2017.12
384.211	1976.12
384.436	1921.12
384.662	2004.12
384.887	2110.12
385.112	1957.12
385.337	2014.12
385.562	1943.12
385.787	1974.12
386.013	2004.12
386.238	2016.12
386.463	1982.12
386.688	2137.12
386.913	2278.12
387.138	2221.12
387.363	2060.12
387.588	2060.12
387.813	2033.12
388.038	2059.12
388.263	2123.12
388.488	2043.12
388.713	1910.12
388.938	1925.12
389.163	1843.12
389.387	1928.12
389.612	1949.12
389.837	2036.12
390.062	2028.12
390.287	2029.12
390.512	1992.12
390.736	1975.12
390.961	1932.12
391.186	1895.12
391.411	1885.12
391.636	2004.12
391.86	2011.12
392.085	2003.12
392.31	1999.12
392.534	1977.12
392.759	2037.12
392.984	1992.12
393.208	2013.12
393.433	2117.12
393.658	2231.12
393.882	2156.12
394.107	2038.12
394.331	1976.12
394.556	1953.12
394.78	1981.12
395.005	2070.12
395.229	2155.12
395.454	2303.12
395.678	2280.12
395.903	2192.12
396.127	2078.12
396.352	2100.12
396.576	2122.12
396.801	2196.12
397.025	2177.12
397.249	2150.12
397.474	2147.12
397.698	2135.12
397.922	2223.12
398.147	2266.12
398.371	2323.12
398.595	2399.12
398.82	2306.12
399.044	2310.12
399.268	2348.12
399.492	2573.12
399.717	2664.12
399.941	2701.12
400.165	2613.12
400.389	2591.12
400.613	2548.12
400.837	2753.12
401.062	3101.12
401.286	2717.12
401.51	2509.12
401.734	2584.12
401.958	2496.12
402.182	2313.12
402.406	2257.12
402.63	2225.12
402.854	2261.12
403.078	2301.12
403.302	2330.12
403.526	2346.12
403.75	2362.12
403.974	2401.12
404.198	2362.12
404.422	2423.12
404.645	2533.12
404.869	2538.12
405.093	2342.12
405.317	2277.12
405.541	2377.12
405.765	2423.12
405.988	2373.12
406.212	2433.12
406.436	2470.12
406.66	2547.12
406.883	2550.12
407.107	2792.12
407.331	3091.12
407.555	3290.12
407.778	3091.12
408.002	2568.12
408.226	2491.12
408.449	2466.12
408.673	2407.12
408.896	2415.12
409.12	2454.12
409.344	2396.12
409.567	2350.12
409.791	2360.12
410.014	2429.12
410.238	2525.12
410.461	2678.12
410.685	2408.12
410.908	2273.12
411.132	2362.12
411.355	2378.12
411.578	2278.12
411.802	2297.12
412.025	2361.12
412.249	2284.12
412.472	2218.12
412.695	2215.12
412.919	2268.12
413.142	2184.12
413.365	2236.12
413.589	2317.12
413.812	2334.12
414.035	2497.12
414.258	2318.12
414.482	2269.12
414.705	2314.12
414.928	2177.12
415.151	2218.12
415.374	2269.12
415.597	2258.12
415.821	2267.12
416.044	2397.12
416.267	2389.12
416.49	2162.12
416.713	2174.12
416.936	2214.12
417.159	2286.12
417.382	2298.12
417.605	2170.12
417.828	2311.12
418.051	2337.12
418.274	2252.12
418.497	2140.12
418.72	2184.12
418.943	2201.12
419.166	2306.12
419.389	2446.12
419.611	2317.12
419.834	2236.12
420.057	2216.12
420.28	2198.12
420.503	2144.12
420.726	2204.12
420.948	2215.12
421.171	2171.12
421.394	2176.12
421.617	2266.12
421.839	2251.12
422.062	2197.12
422.285	2125.12
422.507	2139.12
422.73	2109.12
422.953	2123.12
423.175	2085.12
423.398	2169.12
423.621	2184.12
423.843	2150.12
424.066	2190.12
424.288	2263.12
424.511	2346.12
424.733	2275.12
424.956	2077.12
425.178	2058.12
425.401	2065.12
425.623	2102.12
425.846	2146.12
426.068	2182.12
426.291	2286.12
426.513	2211.12
426.735	2232.12
426.958	2357.12
427.18	2481.12
427.402	2239.12
427.625	2334.12
427.847	2368.12
428.069	2167.12
428.292	2120.12
428.514	2061.12
428.736	2063.12
428.958	2085.12
429.181	2082.12
429.403	2350.12
429.625	2900.12
429.847	2542.12
430.069	2138.12
430.292	2365.12
430.514	2486.12
430.736	2275.12
430.958	2387.12
431.18	2233.12
431.402	2093.12
431.624	2089.12
431.846	2077.12
432.068	2000.12
432.29	2113.12
432.512	2122.12
432.734	2177.12
432.956	2183.12
433.178	2297.12
433.4	2242.12
433.622	2286.12
433.844	2162.12
434.066	2036.12
434.287	2095.12
434.509	2126.12
434.731	2235.12
434.953	2426.12
435.175	2380.12
435.397	2213.12
435.618	2186.12
435.84	2229.12
436.062	2141.12
436.284	2177.12
436.505	2214.12
436.727	2262.12
436.949	2151.12
437.17	2091.12
437.392	2133.12
437.614	2124.12
437.835	2043.12
438.057	2178.12
438.278	2321.12
438.5	2122.12
438.721	2092.12
438.943	2102.12
439.165	2088.12
439.386	2004.12
439.608	2105.12
439.829	2059.12
440.05	2077.12
440.272	2059.12
440.493	2019.12
440.715	2085.12
440.936	2241.12
441.158	2445.12
441.379	2383.12
441.6	2318.12
441.822	2284.12
442.043	2282.12
442.264	2215.12
442.486	2125.12
442.707	2062.12
442.928	2108.12
443.149	2169.12
443.371	2297.12
443.592	2373.12
443.813	2353.12
444.034	2290.12
444.255	2301.12
444.476	2381.12
444.698	2427.12
444.919	2357.12
445.14	2428.12
445.361	2441.12
445.582	2493.12
445.803	2387.12
446.024	2287.12
446.245	2381.12
446.466	2301.12
446.687	2210.12
446.908	2151.12
447.129	2177.12
447.35	2174.12
447.571	2175.12
447.792	2090.12
448.013	2091.12
448.234	2118.12
448.455	2209.12
448.675	2179.12
448.896	1972.12
449.117	1957.12
449.338	2062.12
449.559	2110.12
449.779	2236.12
450	2498.12
450.221	2643.12
450.442	2612.12
450.662	2205.12
450.883	2012.12
451.104	1938.12
451.324	2022.12
451.545	2103.12
451.766	2038.12
451.986	1972.12
452.207	1949.12
452.428	1886.12
452.648	1852.12
452.869	1943.12
453.089	2050.12
453.31	2023.12
453.53	2101.12
453.751	1981.12
453.971	1941.12
454.192	1960.12
454.412	2051.12
454.633	2012.12
454.853	1925.12
455.073	1789.12
455.294	1819.12
455.514	1839.12
455.734	1806.12
455.955	1871.12
456.175	1856.12
456.395	1872.12
456.616	1944.12
456.836	1953.12
457.056	1908.12
457.276	1914.12
457.497	1913.12
457.717	1812.12
457.937	1849.12
458.157	1887.12
458.377	1838.12
458.598	1900.12
458.818	1948.12
459.038	1949.12
459.258	2132.12
459.478	2162.12
459.698	2049.12
459.918	2091.12
460.138	2201.12
460.358	2220.12
460.578	2225.12
460.798	2326.12
461.018	2463.12
461.238	2387.12
461.458	2229.12
461.678	2237.12
461.898	2211.12
462.118	2152.12
462.338	2252.12
462.558	2237.12
462.777	2256.12
462.997	2301.12
463.217	2499.12
463.437	2478.12
463.657	2275.12
463.876	2268.12
464.096	2229.12
464.316	2232.12
464.536	2312.12
464.755	2345.12
464.975	2366.12
465.195	2294.12
465.414	2388.12
465.634	2374.12
465.854	2251.12
466.073	2370.12
466.293	2326.12
466.512	2021.12
466.732	2030.12
466.951	2100.12
467.171	2124.12
467.391	2022.12
467.61	1987.12
467.829	1965.12
468.049	2165.12
468.268	2462.12
468.488	2260.12
468.707	2188.12
468.927	2134.12
469.146	2051.12
469.365	1970.12
469.585	2047.12
469.804	2009.12
470.023	2052.12
470.243	2088.12
470.462	2033.12
470.681	2000.12
470.901	2018.12
471.12	2068.12
471.339	2011.12
471.558	1975.12
471.777	1984.12
471.997	2014.12
472.216	2009.12
472.435	1927.12
472.654	1955.12
472.873	2071.12
473.092	2173.12
473.311	2052.12
473.53	1950.12
473.749	1952.12
473.968	2013.12
474.187	2116.12
474.406	2247.12
474.625	2102.12
474.844	2049.12
475.063	2062.12
475.282	2146.12
475.501	2068.12
475.72	2067.12
475.939	2187.12
476.158	2113.12
476.377	2068.12
476.596	2103.12
476.814	2172.12
477.033	2123.12
477.252	2230.12
477.471	2270.12
477.69	2174.12
477.908	2147.12
478.127	2330.12
478.346	2455.12
478.564	2469.12
478.783	2456.12
479.002	2507.12
479.22	2469.12
479.439	2561.12
479.658	2862.12
479.876	2833.12
480.095	2521.12
480.313	2387.12
480.532	2319.12
480.751	2291.12
480.969	2373.12
481.188	2333.12
481.406	2300.12
481.624	2232.12
481.843	2245.12
482.061	2309.12
482.28	2350.12
482.498	2410.12
482.717	2371.12
482.935	2283.12
483.153	2283.12
483.372	2244.12
483.59	2259.12
483.808	2275.12
484.027	2315.12
484.245	2471.12
484.463	2809.12
484.681	3237.12
484.9	2532.12
485.118	2333.12
485.336	2316.12
485.554	2380.12
485.772	2527.12
485.99	2382.12
486.209	2448.12
486.427	2405.12
486.645	2494.12
486.863	2405.12
487.081	2449.12
487.299	2550.12
