Data from WStandard_LampEnergy5.5LIBS07252019.E.O._I.C._HRD10591_16-08-12-921.txt Node
Date: Thu Jul 25 16:08:12 EDT 2019
User: cochatt
Spectrometer: HR+D1059
Trigger mode: 1
Integration Time (sec): 1.000000E-1
Scans to average: 1
Electric dark correction enabled: true
Nonlinearity correction enabled: false
Boxcar width: 0
XAxis mode: Wavelengths
Number of Pixels in Spectrum: 2048
>>>>>Begin Spectral Data<<<<<
223.165	-13.62
223.4	-13.62
223.635	-13.62
223.869	-13.62
224.104	-16.62
224.338	-14.62
224.573	-18.62
224.808	-10.62
225.042	-2.62
225.277	-10.62
225.511	-1.62
225.746	1.38
225.98	-5.62
226.215	11.38
226.449	24.38
226.683	15.38
226.918	20.38
227.152	35.38
227.387	38.38
227.621	46.38
227.856	33.38
228.09	50.38
228.324	62.38
228.559	60.38
228.793	142.38
229.027	363.38
229.262	365.38
229.496	378.38
229.73	399.38
229.964	439.38
230.199	474.38
230.433	478.38
230.667	504.38
230.901	542.38
231.136	488.38
231.37	455.38
231.604	460.38
231.838	475.38
232.072	469.38
232.306	451.38
232.541	469.38
232.775	552.38
233.009	618.38
233.243	572.38
233.477	558.38
233.711	555.38
233.945	586.38
234.179	579.38
234.413	587.38
234.647	655.38
234.881	620.38
235.115	560.38
235.349	578.38
235.583	586.38
235.817	570.38
236.051	532.38
236.285	590.38
236.519	583.38
236.753	679.38
236.987	680.38
237.221	677.38
237.455	752.38
237.689	713.38
237.922	686.38
238.156	660.38
238.39	673.38
238.624	720.38
238.858	754.38
239.091	794.38
239.325	809.38
239.559	908.38
239.793	963.38
240.027	1078.38
240.26	1056.38
240.494	759.38
240.728	710.38
240.961	750.38
241.195	752.38
241.429	840.38
241.662	830.38
241.896	763.38
242.13	793.38
242.363	853.38
242.597	949.38
242.83	874.38
243.064	913.38
243.298	972.38
243.531	958.38
243.765	919.38
243.998	938.38
244.232	815.38
244.465	770.38
244.699	803.38
244.932	904.38
245.166	1071.38
245.399	1006.38
245.633	905.38
245.866	902.38
246.099	956.38
246.333	994.38
246.566	982.38
246.8	1076.38
247.033	1186.38
247.266	1105.38
247.5	1056.38
247.733	1072.38
247.966	1115.38
248.2	1241.38
248.433	1175.38
248.666	1247.38
248.899	1330.38
249.133	1540.38
249.366	1809.38
249.599	1475.38
249.832	1242.38
250.066	1270.38
250.299	1337.38
250.532	1220.38
250.765	1118.38
250.998	1154.38
251.231	1204.38
251.465	1252.38
251.698	1150.38
251.931	1180.38
252.164	1231.38
252.397	1306.38
252.63	1290.38
252.863	1137.38
253.096	1117.38
253.329	1178.38
253.562	1184.38
253.795	1298.38
254.028	1297.38
254.261	1195.38
254.494	1206.38
254.727	1076.38
254.96	1158.38
255.193	1300.38
255.426	1424.38
255.659	1629.38
255.892	1710.38
256.124	1375.38
256.357	1332.38
256.59	1433.38
256.823	1432.38
257.056	1429.38
257.289	1706.38
257.521	1933.38
257.754	1732.38
257.987	1623.38
258.22	1820.38
258.452	1785.38
258.685	1434.38
258.918	1407.38
259.151	1364.38
259.383	1350.38
259.616	1204.38
259.849	1272.38
260.081	1414.38
260.314	1592.38
260.547	1765.38
260.779	1737.38
261.012	1636.38
261.244	1470.38
261.477	1346.38
261.71	1474.38
261.942	1448.38
262.175	1394.38
262.407	1522.38
262.64	1411.38
262.872	1333.38
263.105	1256.38
263.337	1290.38
263.57	1326.38
263.802	1337.38
264.035	1248.38
264.267	1162.38
264.499	1138.38
264.732	1215.38
264.964	1334.38
265.197	1363.38
265.429	1438.38
265.661	1579.38
265.894	1769.38
266.126	1804.38
266.358	1634.38
266.591	1671.38
266.823	1802.38
267.055	1647.38
267.287	1597.38
267.52	1587.38
267.752	1598.38
267.984	1574.38
268.216	1651.38
268.448	1690.38
268.681	1683.38
268.913	1511.38
269.145	1436.38
269.377	1398.38
269.609	1493.38
269.841	1750.38
270.073	2058.38
270.306	2313.38
270.538	2486.38
270.77	2108.38
271.002	1742.38
271.234	1669.38
271.466	1631.38
271.698	1826.38
271.93	2268.38
272.162	2244.38
272.394	1982.38
272.626	1955.38
272.858	1685.38
273.09	1474.38
273.322	1456.38
273.553	1386.38
273.785	1418.38
274.017	1456.38
274.249	1587.38
274.481	1596.38
274.713	1469.38
274.945	1430.38
275.176	1454.38
275.408	1435.38
275.64	1393.38
275.872	1376.38
276.104	1456.38
276.335	1675.38
276.567	1922.38
276.799	1952.38
277.031	1732.38
277.262	1621.38
277.494	1682.38
277.726	1875.38
277.957	1874.38
278.189	1703.38
278.421	1602.38
278.652	1538.38
278.884	1496.38
279.115	1478.38
279.347	1545.38
279.579	1481.38
279.81	1482.38
280.042	1638.38
280.273	1810.38
280.505	1827.38
280.736	1863.38
280.968	1730.38
281.199	1535.38
281.431	1444.38
281.662	1438.38
281.894	1430.38
282.125	1512.38
282.356	1565.38
282.588	1588.38
282.819	1547.38
283.051	1695.38
283.282	1846.38
283.513	1782.38
283.745	1584.38
283.976	1430.38
284.207	1425.38
284.439	1484.38
284.67	1514.38
284.901	1568.38
285.132	1589.38
285.364	1550.38
285.595	1614.38
285.826	1524.38
286.057	1510.38
286.288	1520.38
286.52	1559.38
286.751	1712.38
286.982	1768.38
287.213	1659.38
287.444	1470.38
287.675	1504.38
287.906	1546.38
288.138	1640.38
288.369	1632.38
288.6	1549.38
288.831	1486.38
289.062	1469.38
289.293	1538.38
289.524	1528.38
289.755	1609.38
289.986	1594.38
290.217	1455.38
290.448	1486.38
290.679	1564.38
290.91	1519.38
291.141	1586.38
291.371	1687.38
291.602	1638.38
291.833	1627.38
292.064	1678.38
292.295	1661.38
292.526	1672.38
292.757	1763.38
292.987	1698.38
293.218	1580.38
293.449	1668.38
293.68	1881.38
293.91	2087.38
294.141	1911.38
294.372	1814.38
294.603	1865.38
294.833	1945.38
295.064	1843.38
295.295	1647.38
295.525	1611.38
295.756	1528.38
295.987	1415.38
296.217	1463.38
296.448	1528.38
296.679	1537.38
296.909	1535.38
297.14	1489.38
297.37	1514.38
297.601	1609.38
297.831	1715.38
298.062	1759.38
298.292	1601.38
298.523	1518.38
298.753	1534.38
298.984	1564.38
299.214	1568.38
299.445	1568.38
299.675	1615.38
299.905	1611.38
300.136	1599.38
300.366	1562.38
300.597	1498.38
300.827	1519.38
301.057	1577.38
301.288	1664.38
301.518	1662.38
301.748	1676.38
301.979	1741.38
302.209	1743.38
302.439	1866.38
302.669	1993.38
302.9	1879.38
303.13	1657.38
303.36	1654.38
303.59	1691.38
303.82	1678.38
304.051	1648.38
304.281	1656.38
304.511	1627.38
304.741	1729.38
304.971	1913.38
305.201	2110.38
305.431	1982.38
305.661	1600.38
305.891	1456.38
306.121	1415.38
306.352	1489.38
306.582	1565.38
306.812	1710.38
307.042	1866.38
307.272	1880.38
307.502	1875.38
307.731	2012.38
307.961	2190.38
308.191	2007.38
308.421	1716.38
308.651	1610.38
308.881	1601.38
309.111	1615.38
309.341	1580.38
309.571	1591.38
309.8	1573.38
310.03	1583.38
310.26	1572.38
310.49	1567.38
310.72	1618.38
310.949	1662.38
311.179	1720.38
311.409	1654.38
311.639	1635.38
311.868	1562.38
312.098	1654.38
312.328	1610.38
312.557	1616.38
312.787	1658.38
313.017	1678.38
313.246	1674.38
313.476	1658.38
313.706	1696.38
313.935	1692.38
314.165	1697.38
314.394	1764.38
314.624	1836.38
314.853	1931.38
315.083	1993.38
315.312	2091.38
315.542	1918.38
315.771	1727.38
316.001	1691.38
316.23	1835.38
316.46	1820.38
316.689	1775.38
316.919	1684.38
317.148	1640.38
317.377	1634.38
317.607	1785.38
317.836	1991.38
318.065	2064.38
318.295	1971.38
318.524	1906.38
318.753	1807.38
318.983	1788.38
319.212	1786.38
319.441	1719.38
319.67	1710.38
319.9	1738.38
320.129	1807.38
320.358	1914.38
320.587	1971.38
320.816	1975.38
321.046	1902.38
321.275	1802.38
321.504	1812.38
321.733	1972.38
321.962	1908.38
322.191	1750.38
322.42	1796.38
322.649	1719.38
322.878	1758.38
323.108	1721.38
323.337	1856.38
323.566	1816.38
323.795	1752.38
324.024	1815.38
324.253	1779.38
324.482	1764.38
324.71	1731.38
324.939	1622.38
325.168	1666.38
325.397	1732.38
325.626	1839.38
325.855	1831.38
326.084	1744.38
326.313	1758.38
326.542	1770.38
326.77	1809.38
326.999	1858.38
327.228	1737.38
327.457	1655.38
327.686	1649.38
327.914	1707.38
328.143	1770.38
328.372	1750.38
328.6	1784.38
328.829	1717.38
329.058	1714.38
329.287	1710.38
329.515	1743.38
329.744	1792.38
329.972	1836.38
330.201	1970.38
330.43	1866.38
330.658	1858.38
330.887	1854.38
331.115	1840.38
331.344	1851.38
331.572	1850.38
331.801	1846.38
332.03	1838.38
332.258	1858.38
332.486	1881.38
332.715	1868.38
332.943	1886.38
333.172	1833.38
333.4	1877.38
333.629	1922.38
333.857	1989.38
334.085	2155.38
334.314	2487.38
334.542	2766.38
334.771	2552.38
334.999	2249.38
335.227	2110.38
335.455	1996.38
335.684	1949.38
335.912	2036.38
336.14	2078.38
336.369	2054.38
336.597	1925.38
336.825	1867.38
337.053	1939.38
337.281	2044.38
337.51	2129.38
337.738	2189.38
337.966	2123.38
338.194	1928.38
338.422	1824.38
338.65	1833.38
338.878	1810.38
339.106	1809.38
339.334	1743.38
339.562	1742.38
339.79	1776.38
340.018	1851.38
340.246	1990.38
340.474	1947.38
340.702	1947.38
340.93	1947.38
341.158	1891.38
341.386	1845.38
341.614	1833.38
341.842	1833.38
342.07	1805.38
342.298	1851.38
342.526	1833.38
342.754	1785.38
342.981	1761.38
343.209	1798.38
343.437	1794.38
343.665	1818.38
343.893	1871.38
344.12	1960.38
344.348	2007.38
344.576	1893.38
344.804	1861.38
345.031	1808.38
345.259	1805.38
345.487	1754.38
345.714	1702.38
345.942	1659.38
346.17	1658.38
346.397	1730.38
346.625	1736.38
346.853	1657.38
347.08	1635.38
347.308	1644.38
347.535	1694.38
347.763	1745.38
347.99	1735.38
348.218	1630.38
348.445	1633.38
348.673	1714.38
348.9	1763.38
349.128	1791.38
349.355	1836.38
349.583	1806.38
349.81	1755.38
350.037	1584.38
350.265	1580.38
350.492	1592.38
350.72	1640.38
350.947	1727.38
351.174	1751.38
351.402	1615.38
351.629	1616.38
351.856	1585.38
352.083	1557.38
352.311	1587.38
352.538	1630.38
352.765	1678.38
352.992	1724.38
353.22	1712.38
353.447	1625.38
353.674	1687.38
353.901	1692.38
354.128	1668.38
354.355	1607.38
354.583	1726.38
354.81	1734.38
355.037	1755.38
355.264	1720.38
355.491	1668.38
355.718	1691.38
355.945	1719.38
356.172	1628.38
356.399	1631.38
356.626	1618.38
356.853	1665.38
357.08	1769.38
357.307	1995.38
357.534	1977.38
357.761	1773.38
357.988	1632.38
358.215	1559.38
358.441	1625.38
358.668	1548.38
358.895	1602.38
359.122	1708.38
359.349	1905.38
359.576	1851.38
359.802	1659.38
360.029	1616.38
360.256	1582.38
360.483	1628.38
360.709	1668.38
360.936	1761.38
361.163	1766.38
361.39	1946.38
361.616	2062.38
361.843	2028.38
362.07	1910.38
362.296	1668.38
362.523	1645.38
362.749	1658.38
362.976	1676.38
363.203	1733.38
363.429	1657.38
363.656	1586.38
363.882	1658.38
364.109	1796.38
364.335	1984.38
364.562	1861.38
364.788	1773.38
365.015	1708.38
365.241	1646.38
365.468	1650.38
365.694	1732.38
365.92	1807.38
366.147	1736.38
366.373	1656.38
366.599	1628.38
366.826	1620.38
367.052	1626.38
367.278	1606.38
367.505	1647.38
367.731	1718.38
367.957	1699.38
368.184	1740.38
368.41	1869.38
368.636	1842.38
368.862	1864.38
369.089	1871.38
369.315	1816.38
369.541	1762.38
369.767	1692.38
369.993	1610.38
370.219	1635.38
370.445	1699.38
370.672	1796.38
370.898	1888.38
371.124	1864.38
371.35	1750.38
371.576	1803.38
371.802	1850.38
372.028	1786.38
372.254	1733.38
372.48	1676.38
372.706	1686.38
372.932	1711.38
373.158	1721.38
373.384	1722.38
373.61	1763.38
373.835	1868.38
374.061	1788.38
374.287	1717.38
374.513	1727.38
374.739	1722.38
374.965	1769.38
375.191	1768.38
375.416	1779.38
375.642	1810.38
375.868	1885.38
376.094	1961.38
376.319	1902.38
376.545	1791.38
376.771	1755.38
376.997	1882.38
377.222	1846.38
377.448	1807.38
377.674	1835.38
377.899	1811.38
378.125	1849.38
378.35	1910.38
378.576	1761.38
378.802	1709.38
379.027	1753.38
379.253	1747.38
379.478	1722.38
379.704	1753.38
379.929	1740.38
380.155	1748.38
380.38	1775.38
380.606	1815.38
380.831	1752.38
381.057	1834.38
381.282	1882.38
381.507	1807.38
381.733	1910.38
381.958	2011.38
382.184	1861.38
382.409	1789.38
382.634	1866.38
382.86	1825.38
383.085	1792.38
383.31	1847.38
383.535	2023.38
383.761	2131.38
383.986	2075.38
384.211	1962.38
384.436	1939.38
384.662	2026.38
384.887	2150.38
385.112	2037.38
385.337	2028.38
385.562	2017.38
385.787	1984.38
386.013	2037.38
386.238	2054.38
386.463	2031.38
386.688	2143.38
386.913	2292.38
387.138	2262.38
387.363	2058.38
387.588	2060.38
387.813	2022.38
388.038	2047.38
388.263	2100.38
388.488	2088.38
388.713	1893.38
388.938	1943.38
389.163	1862.38
389.387	1967.38
389.612	1961.38
389.837	2005.38
390.062	2033.38
390.287	2000.38
390.512	1989.38
390.736	1962.38
390.961	1949.38
391.186	1885.38
391.411	1933.38
391.636	1983.38
391.86	2028.38
392.085	2005.38
392.31	2010.38
392.534	2012.38
392.759	2047.38
392.984	1949.38
393.208	2014.38
393.433	2052.38
393.658	2151.38
393.882	2152.38
394.107	2036.38
394.331	1960.38
394.556	1968.38
394.78	2014.38
395.005	2071.38
395.229	2157.38
395.454	2256.38
395.678	2264.38
395.903	2209.38
396.127	2107.38
396.352	2086.38
396.576	2169.38
396.801	2216.38
397.025	2162.38
397.249	2158.38
397.474	2177.38
397.698	2090.38
397.922	2232.38
398.147	2288.38
398.371	2388.38
398.595	2380.38
398.82	2255.38
399.044	2315.38
399.268	2419.38
399.492	2568.38
399.717	2683.38
399.941	2703.38
400.165	2647.38
400.389	2599.38
400.613	2571.38
400.837	2774.38
401.062	3166.38
401.286	2786.38
401.51	2496.38
401.734	2619.38
401.958	2537.38
402.182	2334.38
402.406	2247.38
402.63	2250.38
402.854	2228.38
403.078	2302.38
403.302	2345.38
403.526	2367.38
403.75	2327.38
403.974	2387.38
404.198	2353.38
404.422	2419.38
404.645	2556.38
404.869	2536.38
405.093	2329.38
405.317	2293.38
405.541	2393.38
405.765	2378.38
405.988	2382.38
406.212	2431.38
406.436	2458.38
406.66	2504.38
406.883	2542.38
407.107	2779.38
407.331	3099.38
407.555	3337.38
407.778	3089.38
408.002	2627.38
408.226	2518.38
408.449	2500.38
408.673	2411.38
408.896	2414.38
409.12	2503.38
409.344	2408.38
409.567	2373.38
409.791	2408.38
410.014	2421.38
410.238	2528.38
410.461	2681.38
410.685	2467.38
410.908	2326.38
411.132	2413.38
411.355	2366.38
411.578	2301.38
411.802	2350.38
412.025	2422.38
412.249	2310.38
412.472	2268.38
412.695	2230.38
412.919	2227.38
413.142	2254.38
413.365	2291.38
413.589	2308.38
413.812	2411.38
414.035	2534.38
414.258	2314.38
414.482	2258.38
414.705	2321.38
414.928	2218.38
415.151	2206.38
415.374	2298.38
415.597	2314.38
415.821	2324.38
416.044	2423.38
416.267	2427.38
416.49	2188.38
416.713	2119.38
416.936	2244.38
417.159	2339.38
417.382	2351.38
417.605	2202.38
417.828	2304.38
418.051	2345.38
418.274	2302.38
418.497	2214.38
418.72	2216.38
418.943	2195.38
419.166	2330.38
419.389	2466.38
419.611	2277.38
419.834	2232.38
420.057	2257.38
420.28	2214.38
420.503	2165.38
420.726	2237.38
420.948	2216.38
421.171	2165.38
421.394	2196.38
421.617	2261.38
421.839	2220.38
422.062	2213.38
422.285	2190.38
422.507	2160.38
422.73	2111.38
422.953	2096.38
423.175	2084.38
423.398	2155.38
423.621	2146.38
423.843	2229.38
424.066	2235.38
424.288	2270.38
424.511	2340.38
424.733	2292.38
424.956	2104.38
425.178	2031.38
425.401	2145.38
425.623	2145.38
425.846	2122.38
426.068	2252.38
426.291	2259.38
426.513	2226.38
426.735	2229.38
426.958	2327.38
427.18	2519.38
427.402	2235.38
427.625	2324.38
427.847	2376.38
428.069	2217.38
428.292	2110.38
428.514	2137.38
428.736	2118.38
428.958	2088.38
429.181	2184.38
429.403	2362.38
429.625	2966.38
429.847	2610.38
430.069	2157.38
430.292	2432.38
430.514	2507.38
430.736	2309.38
430.958	2376.38
431.18	2286.38
431.402	2090.38
431.624	2095.38
431.846	2095.38
432.068	2104.38
432.29	2088.38
432.512	2131.38
432.734	2120.38
432.956	2226.38
433.178	2259.38
433.4	2277.38
433.622	2255.38
433.844	2163.38
434.066	2104.38
434.287	2052.38
434.509	2167.38
434.731	2275.38
434.953	2422.38
435.175	2371.38
435.397	2267.38
435.618	2186.38
435.84	2225.38
436.062	2187.38
436.284	2194.38
436.505	2198.38
436.727	2272.38
436.949	2182.38
437.17	2150.38
437.392	2132.38
437.614	2155.38
437.835	2069.38
438.057	2228.38
438.278	2341.38
438.5	2144.38
438.721	2136.38
438.943	2126.38
439.165	2130.38
439.386	2060.38
439.608	2078.38
439.829	2091.38
440.05	2091.38
440.272	2076.38
440.493	2062.38
440.715	2101.38
440.936	2238.38
441.158	2484.38
441.379	2432.38
441.6	2320.38
441.822	2287.38
442.043	2267.38
442.264	2184.38
442.486	2119.38
442.707	2110.38
442.928	2092.38
443.149	2159.38
443.371	2324.38
443.592	2410.38
443.813	2354.38
444.034	2342.38
444.255	2308.38
444.476	2366.38
444.698	2419.38
444.919	2378.38
445.14	2474.38
445.361	2458.38
445.582	2484.38
445.803	2444.38
446.024	2309.38
446.245	2363.38
446.466	2325.38
446.687	2220.38
446.908	2220.38
447.129	2118.38
447.35	2167.38
447.571	2163.38
447.792	2080.38
448.013	2026.38
448.234	2148.38
448.455	2221.38
448.675	2246.38
448.896	2054.38
449.117	2014.38
449.338	2078.38
449.559	2131.38
449.779	2263.38
450	2489.38
450.221	2753.38
450.442	2655.38
450.662	2257.38
450.883	2049.38
451.104	1945.38
451.324	2011.38
451.545	2112.38
451.766	2052.38
451.986	1948.38
452.207	1961.38
452.428	1919.38
452.648	1856.38
452.869	1936.38
453.089	2064.38
453.31	2086.38
453.53	2145.38
453.751	2025.38
453.971	1892.38
454.192	1953.38
454.412	2142.38
454.633	2052.38
454.853	1980.38
455.073	1838.38
455.294	1796.38
455.514	1830.38
455.734	1854.38
455.955	1850.38
456.175	1899.38
456.395	1885.38
456.616	1927.38
456.836	1979.38
457.056	1946.38
457.276	1932.38
457.497	1891.38
457.717	1816.38
457.937	1842.38
458.157	1920.38
458.377	1872.38
458.598	1852.38
458.818	1920.38
459.038	2035.38
459.258	2135.38
459.478	2146.38
459.698	2132.38
459.918	2132.38
460.138	2175.38
460.358	2262.38
460.578	2206.38
460.798	2321.38
461.018	2537.38
461.238	2415.38
461.458	2302.38
461.678	2258.38
461.898	2220.38
462.118	2188.38
462.338	2271.38
462.558	2262.38
462.777	2231.38
462.997	2347.38
463.217	2560.38
463.437	2526.38
463.657	2308.38
463.876	2262.38
464.096	2315.38
464.316	2200.38
464.536	2354.38
464.755	2359.38
464.975	2372.38
465.195	2318.38
465.414	2408.38
465.634	2367.38
465.854	2215.38
466.073	2408.38
466.293	2372.38
466.512	2058.38
466.732	2079.38
466.951	2174.38
467.171	2115.38
467.391	2062.38
467.61	2001.38
467.829	2042.38
468.049	2163.38
468.268	2446.38
468.488	2279.38
468.707	2171.38
468.927	2079.38
469.146	2043.38
469.365	2053.38
469.585	2083.38
469.804	2065.38
470.023	2078.38
470.243	2072.38
470.462	2095.38
470.681	2039.38
470.901	2068.38
471.12	2050.38
471.339	2074.38
471.558	1974.38
471.777	1969.38
471.997	2036.38
472.216	2024.38
472.435	1938.38
472.654	1971.38
472.873	2055.38
473.092	2231.38
473.311	2165.38
473.53	1963.38
473.749	1984.38
473.968	2073.38
474.187	2160.38
474.406	2306.38
474.625	2121.38
474.844	2091.38
475.063	2073.38
475.282	2167.38
475.501	2098.38
475.72	2100.38
475.939	2198.38
476.158	2149.38
476.377	2087.38
476.596	2106.38
476.814	2172.38
477.033	2186.38
477.252	2244.38
477.471	2295.38
477.69	2244.38
477.908	2200.38
478.127	2281.38
478.346	2406.38
478.564	2432.38
478.783	2475.38
479.002	2574.38
479.22	2486.38
479.439	2565.38
479.658	2934.38
479.876	2945.38
480.095	2496.38
480.313	2441.38
480.532	2275.38
480.751	2314.38
480.969	2400.38
481.188	2394.38
481.406	2336.38
481.624	2263.38
481.843	2304.38
482.061	2395.38
482.28	2378.38
482.498	2473.38
482.717	2400.38
482.935	2284.38
483.153	2305.38
483.372	2337.38
483.59	2276.38
483.808	2307.38
484.027	2368.38
484.245	2505.38
484.463	2850.38
484.681	3337.38
484.9	2588.38
485.118	2325.38
485.336	2323.38
485.554	2402.38
485.772	2554.38
485.99	2520.38
486.209	2517.38
486.427	2448.38
486.645	2446.38
486.863	2423.38
487.081	2468.38
487.299	2602.38
