Data from WStandard_LampEnergy5.5LIBS07252019.E.O._I.C._HRD10591_16-08-16-920.txt Node
Date: Thu Jul 25 16:08:16 EDT 2019
User: cochatt
Spectrometer: HR+D1059
Trigger mode: 1
Integration Time (sec): 1.000000E-1
Scans to average: 1
Electric dark correction enabled: true
Nonlinearity correction enabled: false
Boxcar width: 0
XAxis mode: Wavelengths
Number of Pixels in Spectrum: 2048
>>>>>Begin Spectral Data<<<<<
223.165	-15
223.4	-15
223.635	-15
223.869	-9
224.104	-5
224.338	-12
224.573	-8
224.808	-11
225.042	-21
225.277	-14
225.511	10
225.746	3
225.98	6
226.215	6
226.449	21
226.683	16
226.918	12
227.152	21
227.387	38
227.621	42
227.856	59
228.09	46
228.324	58
228.559	75
228.793	145
229.027	367
229.262	366
229.496	380
229.73	414
229.964	440
230.199	466
230.433	463
230.667	479
230.901	536
231.136	469
231.37	455
231.604	458
231.838	475
232.072	471
232.306	425
232.541	485
232.775	570
233.009	594
233.243	586
233.477	511
233.711	526
233.945	552
234.179	542
234.413	586
234.647	639
234.881	604
235.115	549
235.349	562
235.583	565
235.817	550
236.051	552
236.285	563
236.519	605
236.753	658
236.987	692
237.221	680
237.455	726
237.689	712
237.922	684
238.156	676
238.39	685
238.624	676
238.858	770
239.091	751
239.325	803
239.559	906
239.793	964
240.027	1067
240.26	1042
240.494	736
240.728	712
240.961	727
241.195	732
241.429	819
241.662	840
241.896	748
242.13	772
242.363	854
242.597	907
242.83	869
243.064	872
243.298	940
243.531	910
243.765	901
243.998	924
244.232	808
244.465	781
244.699	771
244.932	876
245.166	1046
245.399	998
245.633	901
245.866	890
246.099	929
246.333	968
246.566	973
246.8	1027
247.033	1168
247.266	1082
247.5	1047
247.733	1071
247.966	1118
248.2	1242
248.433	1157
248.666	1225
248.899	1274
249.133	1516
249.366	1736
249.599	1410
249.832	1236
250.066	1275
250.299	1287
250.532	1194
250.765	1062
250.998	1163
251.231	1216
251.465	1238
251.698	1173
251.931	1159
252.164	1218
252.397	1247
252.63	1227
252.863	1121
253.096	1086
253.329	1120
253.562	1197
253.795	1309
254.028	1259
254.261	1175
254.494	1178
254.727	1114
254.96	1102
255.193	1252
255.426	1386
255.659	1607
255.892	1696
256.124	1358
256.357	1345
256.59	1432
256.823	1436
257.056	1389
257.289	1702
257.521	1900
257.754	1700
257.987	1609
258.22	1762
258.452	1714
258.685	1394
258.918	1353
259.151	1382
259.383	1311
259.616	1155
259.849	1225
260.081	1404
260.314	1514
260.547	1650
260.779	1718
261.012	1606
261.244	1422
261.477	1365
261.71	1433
261.942	1380
262.175	1407
262.407	1475
262.64	1359
262.872	1264
263.105	1251
263.337	1266
263.57	1279
263.802	1279
264.035	1228
264.267	1169
264.499	1143
264.732	1216
264.964	1308
265.197	1377
265.429	1406
265.661	1560
265.894	1734
266.126	1800
266.358	1571
266.591	1650
266.823	1822
267.055	1619
267.287	1590
267.52	1550
267.752	1540
267.984	1547
268.216	1636
268.448	1645
268.681	1617
268.913	1518
269.145	1414
269.377	1399
269.609	1469
269.841	1698
270.073	1978
270.306	2259
270.538	2371
270.77	2013
271.002	1750
271.234	1646
271.466	1622
271.698	1839
271.93	2176
272.162	2142
272.394	1944
272.626	1897
272.858	1651
273.09	1462
273.322	1422
273.553	1355
273.785	1370
274.017	1440
274.249	1551
274.481	1597
274.713	1466
274.945	1417
275.176	1403
275.408	1392
275.64	1403
275.872	1352
276.104	1432
276.335	1620
276.567	1876
276.799	1881
277.031	1694
277.262	1589
277.494	1640
277.726	1859
277.957	1835
278.189	1641
278.421	1503
278.652	1464
278.884	1461
279.115	1454
279.347	1522
279.579	1462
279.81	1416
280.042	1581
280.273	1726
280.505	1744
280.736	1798
280.968	1720
281.199	1523
281.431	1451
281.662	1434
281.894	1418
282.125	1443
282.356	1549
282.588	1497
282.819	1516
283.051	1628
283.282	1789
283.513	1732
283.745	1558
283.976	1366
284.207	1409
284.439	1432
284.67	1464
284.901	1499
285.132	1533
285.364	1490
285.595	1530
285.826	1514
286.057	1481
286.288	1480
286.52	1554
286.751	1680
286.982	1735
287.213	1587
287.444	1483
287.675	1444
287.906	1522
288.138	1631
288.369	1622
288.6	1499
288.831	1476
289.062	1447
289.293	1472
289.524	1480
289.755	1558
289.986	1574
290.217	1413
290.448	1462
290.679	1544
290.91	1524
291.141	1571
291.371	1645
291.602	1622
291.833	1573
292.064	1678
292.295	1611
292.526	1639
292.757	1724
292.987	1638
293.218	1547
293.449	1653
293.68	1888
293.91	2022
294.141	1890
294.372	1738
294.603	1830
294.833	1931
295.064	1808
295.295	1606
295.525	1603
295.756	1454
295.987	1417
296.217	1462
296.448	1469
296.679	1497
296.909	1478
297.14	1479
297.37	1500
297.601	1591
297.831	1701
298.062	1710
298.292	1576
298.523	1500
298.753	1501
298.984	1519
299.214	1518
299.445	1559
299.675	1621
299.905	1606
300.136	1560
300.366	1540
300.597	1475
300.827	1526
301.057	1566
301.288	1655
301.518	1631
301.748	1615
301.979	1729
302.209	1722
302.439	1847
302.669	1927
302.9	1832
303.13	1679
303.36	1671
303.59	1676
303.82	1686
304.051	1628
304.281	1638
304.511	1611
304.741	1716
304.971	1911
305.201	2086
305.431	1926
305.661	1596
305.891	1473
306.121	1420
306.352	1479
306.582	1556
306.812	1691
307.042	1835
307.272	1832
307.502	1822
307.731	2003
307.961	2143
308.191	2007
308.421	1735
308.651	1612
308.881	1591
309.111	1605
309.341	1519
309.571	1580
309.8	1581
310.03	1561
310.26	1553
310.49	1556
310.72	1595
310.949	1662
311.179	1710
311.409	1616
311.639	1616
311.868	1590
312.098	1630
312.328	1569
312.557	1568
312.787	1614
313.017	1628
313.246	1675
313.476	1654
313.706	1680
313.935	1663
314.165	1666
314.394	1722
314.624	1785
314.853	1908
315.083	2002
315.312	2018
315.542	1937
315.771	1695
316.001	1718
316.23	1794
316.46	1777
316.689	1771
316.919	1671
317.148	1619
317.377	1629
317.607	1709
317.836	1961
318.065	2032
318.295	1926
318.524	1878
318.753	1798
318.983	1802
319.212	1737
319.441	1678
319.67	1666
319.9	1701
320.129	1832
320.358	1888
320.587	1934
320.816	1883
321.046	1878
321.275	1767
321.504	1800
321.733	1967
321.962	1914
322.191	1726
322.42	1738
322.649	1711
322.878	1685
323.108	1728
323.337	1786
323.566	1772
323.795	1792
324.024	1756
324.253	1701
324.482	1754
324.71	1679
324.939	1623
325.168	1655
325.397	1699
325.626	1776
325.855	1784
326.084	1682
326.313	1711
326.542	1739
326.77	1774
326.999	1800
327.228	1727
327.457	1674
327.686	1633
327.914	1666
328.143	1713
328.372	1746
328.6	1741
328.829	1722
329.058	1691
329.287	1695
329.515	1725
329.744	1757
329.972	1815
330.201	1895
330.43	1858
330.658	1818
330.887	1812
331.115	1826
331.344	1778
331.572	1803
331.801	1764
332.03	1782
332.258	1810
332.486	1832
332.715	1870
332.943	1836
333.172	1771
333.4	1865
333.629	1878
333.857	1975
334.085	2151
334.314	2421
334.542	2720
334.771	2489
334.999	2186
335.227	2066
335.455	1958
335.684	1918
335.912	2001
336.14	2064
336.369	1970
336.597	1887
336.825	1826
337.053	1872
337.281	1964
337.51	2088
337.738	2186
337.966	2048
338.194	1867
338.422	1814
338.65	1789
338.878	1808
339.106	1778
339.334	1794
339.562	1749
339.79	1755
340.018	1830
340.246	1924
340.474	1885
340.702	1888
340.93	1883
341.158	1857
341.386	1847
341.614	1827
341.842	1799
342.07	1825
342.298	1820
342.526	1847
342.754	1797
342.981	1730
343.209	1757
343.437	1763
343.665	1783
343.893	1838
344.12	1892
344.348	1978
344.576	1866
344.804	1809
345.031	1805
345.259	1808
345.487	1819
345.714	1696
345.942	1616
346.17	1696
346.397	1703
346.625	1739
346.853	1664
347.08	1618
347.308	1653
347.535	1637
347.763	1718
347.99	1668
348.218	1581
348.445	1632
348.673	1628
348.9	1706
349.128	1758
349.355	1855
349.583	1767
349.81	1678
350.037	1581
350.265	1561
350.492	1591
350.72	1599
350.947	1664
351.174	1703
351.402	1612
351.629	1583
351.856	1554
352.083	1550
352.311	1576
352.538	1623
352.765	1675
352.992	1736
353.22	1663
353.447	1569
353.674	1632
353.901	1656
354.128	1598
354.355	1594
354.583	1674
354.81	1708
355.037	1734
355.264	1726
355.491	1662
355.718	1675
355.945	1675
356.172	1658
356.399	1588
356.626	1578
356.853	1667
357.08	1785
357.307	1923
357.534	1980
357.761	1755
357.988	1627
358.215	1528
358.441	1553
358.668	1551
358.895	1588
359.122	1681
359.349	1875
359.576	1867
359.802	1711
360.029	1593
360.256	1560
360.483	1604
360.709	1641
360.936	1737
361.163	1711
361.39	1888
361.616	2083
361.843	2010
362.07	1928
362.296	1721
362.523	1628
362.749	1606
362.976	1676
363.203	1672
363.429	1668
363.656	1601
363.882	1640
364.109	1796
364.335	1967
364.562	1840
364.788	1750
365.015	1680
365.241	1624
365.468	1629
365.694	1726
365.92	1778
366.147	1717
366.373	1582
366.599	1594
366.826	1570
367.052	1559
367.278	1615
367.505	1663
367.731	1674
367.957	1686
368.184	1714
368.41	1816
368.636	1831
368.862	1835
369.089	1815
369.315	1827
369.541	1778
369.767	1692
369.993	1627
370.219	1635
370.445	1667
370.672	1766
370.898	1862
371.124	1881
371.35	1720
371.576	1755
371.802	1820
372.028	1802
372.254	1706
372.48	1666
372.706	1650
372.932	1677
373.158	1672
373.384	1694
373.61	1739
373.835	1839
374.061	1759
374.287	1739
374.513	1737
374.739	1704
374.965	1713
375.191	1801
375.416	1808
375.642	1830
375.868	1881
376.094	1906
376.319	1838
376.545	1738
376.771	1783
376.997	1836
377.222	1794
377.448	1759
377.674	1802
377.899	1784
378.125	1920
378.35	1863
378.576	1756
378.802	1692
379.027	1666
379.253	1666
379.478	1707
379.704	1698
379.929	1669
380.155	1742
380.38	1734
380.606	1772
380.831	1711
381.057	1843
381.282	1869
381.507	1792
381.733	1903
381.958	2022
382.184	1842
382.409	1806
382.634	1787
382.86	1784
383.085	1790
383.31	1865
383.535	2002
383.761	2114
383.986	2022
384.211	1954
384.436	1918
384.662	1990
384.887	2093
385.112	1980
385.337	2031
385.562	1964
385.787	1966
386.013	2056
386.238	2035
386.463	1986
386.688	2087
386.913	2266
387.138	2220
387.363	2062
387.588	2079
387.813	2015
388.038	2049
388.263	2059
388.488	2027
388.713	1880
388.938	1866
389.163	1891
389.387	1958
389.612	1932
389.837	1975
390.062	2021
390.287	1982
390.512	1958
390.736	1939
390.961	1922
391.186	1849
391.411	1938
391.636	1941
391.86	1973
392.085	2014
392.31	1978
392.534	1991
392.759	2018
392.984	1955
393.208	1974
393.433	2012
393.658	2080
393.882	2122
394.107	2036
394.331	1960
394.556	1955
394.78	1973
395.005	2058
395.229	2127
395.454	2216
395.678	2282
395.903	2186
396.127	2065
396.352	2084
396.576	2164
396.801	2135
397.025	2092
397.249	2153
397.474	2125
397.698	2135
397.922	2204
398.147	2285
398.371	2344
398.595	2326
398.82	2276
399.044	2294
399.268	2382
399.492	2563
399.717	2670
399.941	2674
400.165	2614
400.389	2522
400.613	2505
400.837	2735
401.062	3181
401.286	2716
401.51	2428
401.734	2525
401.958	2498
402.182	2322
402.406	2290
402.63	2231
402.854	2264
403.078	2299
403.302	2308
403.526	2326
403.75	2371
403.974	2354
404.198	2340
404.422	2378
404.645	2531
404.869	2537
405.093	2323
405.317	2300
405.541	2387
405.765	2430
405.988	2333
406.212	2383
406.436	2468
406.66	2550
406.883	2543
407.107	2791
407.331	3040
407.555	3247
407.778	3075
408.002	2577
408.226	2485
408.449	2482
408.673	2400
408.896	2380
409.12	2448
409.344	2384
409.567	2375
409.791	2358
410.014	2404
410.238	2474
410.461	2674
410.685	2391
410.908	2262
411.132	2347
411.355	2325
411.578	2298
411.802	2345
412.025	2356
412.249	2262
412.472	2220
412.695	2212
412.919	2216
413.142	2258
413.365	2294
413.589	2340
413.812	2366
414.035	2480
414.258	2266
414.482	2209
414.705	2238
414.928	2253
415.151	2247
415.374	2246
415.597	2296
415.821	2299
416.044	2411
416.267	2428
416.49	2198
416.713	2187
416.936	2210
417.159	2297
417.382	2330
417.605	2209
417.828	2253
418.051	2300
418.274	2186
418.497	2132
418.72	2125
418.943	2130
419.166	2319
419.389	2425
419.611	2266
419.834	2208
420.057	2246
420.28	2197
420.503	2173
420.726	2185
420.948	2234
421.171	2142
421.394	2139
421.617	2222
421.839	2205
422.062	2184
422.285	2139
422.507	2127
422.73	2086
422.953	2056
423.175	2062
423.398	2182
423.621	2180
423.843	2165
424.066	2222
424.288	2231
424.511	2306
424.733	2248
424.956	2078
425.178	1998
425.401	2072
425.623	2116
425.846	2078
426.068	2202
426.291	2231
426.513	2182
426.735	2217
426.958	2293
427.18	2430
427.402	2231
427.625	2368
427.847	2306
428.069	2186
428.292	2095
428.514	2058
428.736	2052
428.958	2075
429.181	2087
429.403	2399
429.625	2948
429.847	2574
430.069	2174
430.292	2366
430.514	2480
430.736	2234
430.958	2326
431.18	2220
431.402	2067
431.624	2065
431.846	2090
432.068	2085
432.29	2066
432.512	2111
432.734	2118
432.956	2162
433.178	2278
433.4	2226
433.622	2265
433.844	2169
434.066	2066
434.287	2059
434.509	2180
434.731	2231
434.953	2391
435.175	2349
435.397	2223
435.618	2163
435.84	2199
436.062	2163
436.284	2237
436.505	2181
436.727	2194
436.949	2147
437.17	2113
437.392	2104
437.614	2102
437.835	2016
438.057	2187
438.278	2308
438.5	2125
438.721	2052
438.943	2073
439.165	2091
439.386	2061
439.608	2052
439.829	2093
440.05	2077
440.272	2026
440.493	2033
440.715	2085
440.936	2167
441.158	2404
441.379	2403
441.6	2276
441.822	2259
442.043	2232
442.264	2200
442.486	2105
442.707	2112
442.928	2073
443.149	2172
443.371	2327
443.592	2370
443.813	2295
444.034	2261
444.255	2304
444.476	2356
444.698	2326
444.919	2378
445.14	2469
445.361	2459
445.582	2488
445.803	2351
446.024	2296
446.245	2358
446.466	2262
446.687	2201
446.908	2155
447.129	2084
447.35	2148
447.571	2101
447.792	2022
448.013	1990
448.234	2053
448.455	2208
448.675	2214
448.896	2051
449.117	1943
449.338	1988
449.559	2118
449.779	2261
450	2495
450.221	2645
450.442	2566
450.662	2243
450.883	2022
451.104	1930
451.324	2005
451.545	2066
451.766	2036
451.986	1926
452.207	1959
452.428	1860
452.648	1855
452.869	1942
453.089	2031
453.31	2038
453.53	2098
453.751	1977
453.971	1893
454.192	2011
454.412	2073
454.633	2014
454.853	1925
455.073	1822
455.294	1793
455.514	1836
455.734	1797
455.955	1853
456.175	1895
456.395	1824
456.616	1943
456.836	1950
457.056	1910
457.276	1879
457.497	1869
457.717	1755
457.937	1776
458.157	1839
458.377	1882
458.598	1861
458.818	1859
459.038	1983
459.258	2098
459.478	2081
459.698	2062
459.918	2075
460.138	2211
460.358	2234
460.578	2218
460.798	2310
461.018	2424
461.238	2355
461.458	2261
461.678	2226
461.898	2224
462.118	2154
462.338	2209
462.558	2282
462.777	2237
462.997	2359
463.217	2530
463.437	2415
463.657	2263
463.876	2244
464.096	2258
464.316	2220
464.536	2350
464.755	2326
464.975	2367
465.195	2306
465.414	2363
465.634	2379
465.854	2227
466.073	2333
466.293	2348
466.512	2097
466.732	2019
466.951	2163
467.171	2139
467.391	2047
467.61	1967
467.829	1995
468.049	2164
468.268	2376
468.488	2255
468.707	2126
468.927	2066
469.146	2058
469.365	2061
469.585	2042
469.804	1981
470.023	2029
470.243	2041
470.462	2018
470.681	1952
470.901	2015
471.12	2043
471.339	1994
471.558	1948
471.777	1976
471.997	1997
472.216	1996
472.435	1968
472.654	1955
472.873	2031
473.092	2190
473.311	2076
473.53	1923
473.749	1950
473.968	1997
474.187	2110
474.406	2199
474.625	2066
474.844	2044
475.063	2030
475.282	2090
475.501	2049
475.72	2071
475.939	2190
476.158	2131
476.377	2050
476.596	2112
476.814	2136
477.033	2163
477.252	2252
477.471	2290
477.69	2145
477.908	2101
478.127	2248
478.346	2440
478.564	2503
478.783	2410
479.002	2500
479.22	2435
479.439	2539
479.658	2853
479.876	2856
480.095	2479
480.313	2363
480.532	2277
480.751	2303
480.969	2358
481.188	2313
481.406	2319
481.624	2279
481.843	2245
482.061	2272
482.28	2318
482.498	2360
482.717	2382
482.935	2239
483.153	2248
483.372	2276
483.59	2196
483.808	2284
484.027	2332
484.245	2434
484.463	2846
484.681	3250
484.9	2521
485.118	2355
485.336	2277
485.554	2382
485.772	2506
485.99	2514
486.209	2430
486.427	2381
486.645	2477
486.863	2400
487.081	2466
487.299	2511
487.517	2540
487.735	2388
487.953	2328
488.171	2363
488.389	2343
488.607	2344
488.825	2568
489.043	2630
489.261	2366
489.479	2527
489.696	2576
489.914	2525
490.132	2432
490.35	2392
490.568	2508
490.786	2421
491.003	2328
491.221	2402
491.439	2488
491.657	2473
491.874	2478
492.092	2547
492.31	2489
492.527	2478
492.745	2443
492.963	2407
493.18	2541
493.398	2710
493.615	2776
493.833	2522
494.05	2471
494.268	2474
494.485	2562
494.703	2459
494.92	2431
495.138	2407
495.355	2501
495.573	2572
495.79	2757
496.008	2777
496.225	2605
496.442	2618
496.66	2650
496.877	2568
497.094	2704
497.312	2672
497.529	2687
497.746	2760
497.963	3209
498.181	3588
498.398	3360
498.615	3323
498.832	3139
499.049	3135
499.267	3170
499.484	3404
499.701	3649
499.918	3702
500.135	3943
500.352	4250
500.569	4154
500.786	4408
501.003	4170
501.22	3785
501.437	3658
501.654	3660
501.871	3573
502.088	3140
502.305	3180
502.522	3006
502.739	2828
502.956	2798
503.172	2732
503.389	2680
503.606	2654
503.823	2590
504.04	2581
504.256	2678
504.473	2650
504.69	2702
504.907	2619
505.123	2429
505.34	2592
505.557	3331
505.773	2802
505.99	2382
506.207	2293
506.423	2246
506.64	2222
506.856	2221
507.073	2512
507.289	2718
507.506	2596
507.722	2268
507.939	2163
508.155	2189
508.372	2210
508.588	2137
508.805	2054
509.021	2061
509.238	2014
509.454	2067
509.67	2061
509.887	2005
510.103	2027
510.319	2026
510.536	2135
510.752	2182
510.968	2170
511.184	2346
511.401	2306
511.617	2030
511.833	1948
512.049	1944
512.265	1962
512.481	1991
512.698	2034
512.914	2186
513.13	2098
513.346	2003
513.562	1942
513.778	1994
513.994	2094
514.21	2180
514.426	2203
514.642	2370
514.858	2248
515.074	2071
515.29	1972
515.506	2078
515.721	2121
515.937	2133
516.153	2405
516.369	2328
516.585	2166
516.801	2096
517.016	2076
517.232	2133
517.448	2178
517.664	2233
517.879	2240
518.095	2284
518.311	2229
518.527	2132
518.742	2095
518.958	1991
519.173	2024
519.389	2050
519.605	1994
519.82	2039
520.036	2107
520.251	2015
520.467	1999
520.682	2175
520.898	2307
521.113	2027
521.329	1974
521.544	2097
521.76	2037
521.975	1946
522.19	1901
522.406	1846
522.621	2289
522.836	2293
523.052	1900
523.267	1876
523.482	1870
523.698	1837
523.913	1719
524.128	1850
524.343	1946
524.559	1954
524.774	1855
524.989	1814
525.204	1837
525.419	1805
525.634	1746
525.849	1820
526.064	1878
526.28	1874
526.495	1719
526.71	1749
526.925	1756
527.14	1740
527.355	1716
527.57	1742
527.785	1775
527.999	1739
528.214	1718
528.429	1671
528.644	1692
528.859	1763
529.074	1727
529.289	1745
529.503	1742
529.718	1768
529.933	1731
530.148	1684
530.363	1675
530.577	1707
530.792	1730
531.007	1724
531.221	1742
531.436	1753
531.651	1808
531.865	1896
532.08	1812
532.295	1719
532.509	1652
532.724	1679
532.938	1742
533.153	1870
533.367	1760
533.582	1716
533.796	1716
534.011	1734
534.225	1780
534.44	1702
534.654	1688
534.868	1670
535.083	1722
535.297	1754
535.511	1671
535.726	1670
535.94	1690
536.154	1672
536.369	1695
536.583	1650
536.797	1629
537.011	1711
537.225	1627
537.44	1570
537.654	1710
537.868	1610
538.082	1564
538.296	1560
538.51	1563
538.724	1577
538.938	1574
539.153	1611
539.367	1611
539.581	1621
539.795	1659
540.009	1686
540.222	1636
540.436	1687
540.65	1788
540.864	1832
541.078	1705
541.292	1622
541.506	1598
541.72	1633
541.934	1619
