Data from WStandard_LampEnergy10_LIBS07252019.E.O._I.C._HRD10591_15-52-57-928.txt Node
Date: Thu Jul 25 15:52:57 EDT 2019
User: cochatt
Spectrometer: HR+D1059
Trigger mode: 1
Integration Time (sec): 1.000000E-1
Scans to average: 1
Electric dark correction enabled: true
Nonlinearity correction enabled: false
Boxcar width: 0
XAxis mode: Wavelengths
Number of Pixels in Spectrum: 2048
>>>>>Begin Spectral Data<<<<<
223.165	-21.94
223.4	-21.94
223.635	-21.94
223.869	-19.94
224.104	-15.94
224.338	-2.94
224.573	4.06
224.808	-9.94
225.042	-9.94
225.277	-11.94
225.511	-2.94
225.746	-2.94
225.98	3.06
226.215	-3.94
226.449	10.06
226.683	26.06
226.918	35.06
227.152	24.06
227.387	40.06
227.621	17.06
227.856	40.06
228.09	51.06
228.324	52.06
228.559	69.06
228.793	81.06
229.027	139.06
229.262	148.06
229.496	140.06
229.73	153.06
229.964	170.06
230.199	171.06
230.433	176.06
230.667	188.06
230.901	189.06
231.136	192.06
231.37	185.06
231.604	173.06
231.838	176.06
232.072	184.06
232.306	180.06
232.541	196.06
232.775	204.06
233.009	199.06
233.243	214.06
233.477	199.06
233.711	208.06
233.945	196.06
234.179	216.06
234.413	224.06
234.647	219.06
234.881	218.06
235.115	206.06
235.349	203.06
235.583	192.06
235.817	197.06
236.051	191.06
236.285	193.06
236.519	203.06
236.753	229.06
236.987	225.06
237.221	208.06
237.455	225.06
237.689	246.06
237.922	220.06
238.156	237.06
238.39	226.06
238.624	247.06
238.858	247.06
239.091	268.06
239.325	270.06
239.559	304.06
239.793	324.06
240.027	321.06
240.26	306.06
240.494	248.06
240.728	241.06
240.961	246.06
241.195	258.06
241.429	256.06
241.662	252.06
241.896	271.06
242.13	249.06
242.363	283.06
242.597	276.06
242.83	271.06
243.064	270.06
243.298	293.06
243.531	295.06
243.765	301.06
243.998	291.06
244.232	256.06
244.465	254.06
244.699	274.06
244.932	293.06
245.166	328.06
245.399	312.06
245.633	268.06
245.866	276.06
246.099	300.06
246.333	308.06
246.566	315.06
246.8	312.06
247.033	370.06
247.266	326.06
247.5	321.06
247.733	328.06
247.966	352.06
248.2	364.06
248.433	365.06
248.666	395.06
248.899	419.06
249.133	445.06
249.366	478.06
249.599	394.06
249.832	363.06
250.066	363.06
250.299	388.06
250.532	374.06
250.765	345.06
250.998	349.06
251.231	375.06
251.465	362.06
251.698	358.06
251.931	340.06
252.164	353.06
252.397	389.06
252.63	369.06
252.863	344.06
253.096	346.06
253.329	360.06
253.562	357.06
253.795	384.06
254.028	359.06
254.261	344.06
254.494	340.06
254.727	323.06
254.96	360.06
255.193	385.06
255.426	434.06
255.659	477.06
255.892	444.06
256.124	402.06
256.357	409.06
256.59	425.06
256.823	432.06
257.056	428.06
257.289	475.06
257.521	506.06
257.754	477.06
257.987	454.06
258.22	498.06
258.452	477.06
258.685	408.06
258.918	396.06
259.151	385.06
259.383	369.06
259.616	359.06
259.849	388.06
260.081	419.06
260.314	466.06
260.547	477.06
260.779	489.06
261.012	476.06
261.244	417.06
261.477	405.06
261.71	412.06
261.942	414.06
262.175	406.06
262.407	414.06
262.64	384.06
262.872	364.06
263.105	372.06
263.337	359.06
263.57	392.06
263.802	389.06
264.035	358.06
264.267	343.06
264.499	344.06
264.732	380.06
264.964	390.06
265.197	389.06
265.429	428.06
265.661	466.06
265.894	484.06
266.126	510.06
266.358	460.06
266.591	488.06
266.823	538.06
267.055	474.06
267.287	476.06
267.52	466.06
267.752	467.06
267.984	471.06
268.216	481.06
268.448	487.06
268.681	450.06
268.913	441.06
269.145	427.06
269.377	432.06
269.609	462.06
269.841	517.06
270.073	585.06
270.306	646.06
270.538	640.06
270.77	549.06
271.002	481.06
271.234	497.06
271.466	498.06
271.698	554.06
271.93	626.06
272.162	611.06
272.394	583.06
272.626	529.06
272.858	484.06
273.09	418.06
273.322	410.06
273.553	403.06
273.785	419.06
274.017	448.06
274.249	438.06
274.481	462.06
274.713	428.06
274.945	443.06
275.176	417.06
275.408	413.06
275.64	400.06
275.872	418.06
276.104	466.06
276.335	510.06
276.567	548.06
276.799	548.06
277.031	485.06
277.262	476.06
277.494	531.06
277.726	526.06
277.957	520.06
278.189	479.06
278.421	462.06
278.652	434.06
278.884	446.06
279.115	464.06
279.347	463.06
279.579	459.06
279.81	440.06
280.042	482.06
280.273	532.06
280.505	525.06
280.736	523.06
280.968	488.06
281.199	433.06
281.431	429.06
281.662	415.06
281.894	436.06
282.125	452.06
282.356	470.06
282.588	454.06
282.819	461.06
283.051	512.06
283.282	517.06
283.513	521.06
283.745	438.06
283.976	432.06
284.207	451.06
284.439	452.06
284.67	467.06
284.901	469.06
285.132	466.06
285.364	455.06
285.595	458.06
285.826	456.06
286.057	461.06
286.288	446.06
286.52	492.06
286.751	519.06
286.982	516.06
287.213	475.06
287.444	438.06
287.675	447.06
287.906	470.06
288.138	473.06
288.369	476.06
288.6	465.06
288.831	441.06
289.062	471.06
289.293	450.06
289.524	473.06
289.755	458.06
289.986	485.06
290.217	467.06
290.448	454.06
290.679	464.06
290.91	465.06
291.141	474.06
291.371	484.06
291.602	511.06
291.833	485.06
292.064	502.06
292.295	513.06
292.526	512.06
292.757	500.06
292.987	512.06
293.218	489.06
293.449	546.06
293.68	586.06
293.91	621.06
294.141	581.06
294.372	535.06
294.603	579.06
294.833	588.06
295.064	574.06
295.295	480.06
295.525	508.06
295.756	470.06
295.987	468.06
296.217	485.06
296.448	466.06
296.679	458.06
296.909	482.06
297.14	466.06
297.37	489.06
297.601	525.06
297.831	552.06
298.062	533.06
298.292	500.06
298.523	481.06
298.753	495.06
298.984	477.06
299.214	493.06
299.445	520.06
299.675	527.06
299.905	490.06
300.136	489.06
300.366	483.06
300.597	473.06
300.827	510.06
301.057	499.06
301.288	512.06
301.518	520.06
301.748	517.06
301.979	560.06
302.209	564.06
302.439	625.06
302.669	606.06
302.9	570.06
303.13	536.06
303.36	536.06
303.59	509.06
303.82	506.06
304.051	546.06
304.281	539.06
304.511	553.06
304.741	565.06
304.971	630.06
305.201	654.06
305.431	588.06
305.661	512.06
305.891	465.06
306.121	464.06
306.352	493.06
306.582	513.06
306.812	554.06
307.042	596.06
307.272	585.06
307.502	596.06
307.731	655.06
307.961	660.06
308.191	588.06
308.421	527.06
308.651	498.06
308.881	517.06
309.111	496.06
309.341	477.06
309.571	524.06
309.8	507.06
310.03	506.06
310.26	500.06
310.49	519.06
310.72	539.06
310.949	564.06
311.179	530.06
311.409	537.06
311.639	527.06
311.868	547.06
312.098	516.06
312.328	506.06
312.557	520.06
312.787	537.06
313.017	530.06
313.246	530.06
313.476	523.06
313.706	560.06
313.935	554.06
314.165	556.06
314.394	567.06
314.624	608.06
314.853	630.06
315.083	656.06
315.312	650.06
315.542	588.06
315.771	561.06
316.001	553.06
316.23	581.06
316.46	574.06
316.689	571.06
316.919	550.06
317.148	513.06
317.377	553.06
317.607	599.06
317.836	659.06
318.065	656.06
318.295	621.06
318.524	580.06
318.753	580.06
318.983	593.06
319.212	579.06
319.441	545.06
319.67	581.06
319.9	582.06
320.129	619.06
320.358	664.06
320.587	657.06
320.816	651.06
321.046	618.06
321.275	582.06
321.504	628.06
321.733	660.06
321.962	604.06
322.191	549.06
322.42	562.06
322.649	552.06
322.878	555.06
323.108	578.06
323.337	582.06
323.566	584.06
323.795	600.06
324.024	575.06
324.253	589.06
324.482	583.06
324.71	553.06
324.939	536.06
325.168	561.06
325.397	588.06
325.626	609.06
325.855	581.06
326.084	557.06
326.313	577.06
326.542	573.06
326.77	598.06
326.999	602.06
327.228	552.06
327.457	569.06
327.686	557.06
327.914	560.06
328.143	571.06
328.372	556.06
328.6	582.06
328.829	588.06
329.058	555.06
329.287	597.06
329.515	570.06
329.744	585.06
329.972	602.06
330.201	634.06
330.43	619.06
330.658	600.06
330.887	596.06
331.115	622.06
331.344	623.06
331.572	602.06
331.801	602.06
332.03	616.06
332.258	605.06
332.486	611.06
332.715	611.06
332.943	598.06
333.172	608.06
333.4	592.06
333.629	621.06
333.857	651.06
334.085	770.06
334.314	830.06
334.542	830.06
334.771	792.06
334.999	725.06
335.227	635.06
335.455	637.06
335.684	655.06
335.912	665.06
336.14	672.06
336.369	658.06
336.597	636.06
336.825	600.06
337.053	669.06
337.281	668.06
337.51	681.06
337.738	725.06
337.966	663.06
338.194	630.06
338.422	617.06
338.65	588.06
338.878	593.06
339.106	581.06
339.334	569.06
339.562	568.06
339.79	606.06
340.018	626.06
340.246	645.06
340.474	652.06
340.702	637.06
340.93	603.06
341.158	632.06
341.386	600.06
341.614	609.06
341.842	614.06
342.07	616.06
342.298	619.06
342.526	629.06
342.754	590.06
342.981	596.06
343.209	589.06
343.437	594.06
343.665	599.06
343.893	649.06
344.12	655.06
344.348	644.06
344.576	625.06
344.804	607.06
345.031	591.06
345.259	609.06
345.487	593.06
345.714	571.06
345.942	545.06
346.17	587.06
346.397	576.06
346.625	586.06
346.853	544.06
347.08	556.06
347.308	565.06
347.535	560.06
347.763	592.06
347.99	567.06
348.218	587.06
348.445	570.06
348.673	580.06
348.9	582.06
349.128	621.06
349.355	614.06
349.583	595.06
349.81	580.06
350.037	534.06
350.265	524.06
350.492	549.06
350.72	556.06
350.947	589.06
351.174	579.06
351.402	562.06
351.629	537.06
351.856	537.06
352.083	536.06
352.311	549.06
352.538	552.06
352.765	597.06
352.992	588.06
353.22	589.06
353.447	544.06
353.674	570.06
353.901	588.06
354.128	566.06
354.355	560.06
354.583	615.06
354.81	606.06
355.037	576.06
355.264	576.06
355.491	574.06
355.718	561.06
355.945	564.06
356.172	576.06
356.399	559.06
356.626	567.06
356.853	600.06
357.08	654.06
357.307	704.06
357.534	667.06
357.761	578.06
357.988	565.06
358.215	546.06
358.441	546.06
358.668	545.06
358.895	562.06
359.122	606.06
359.349	643.06
359.576	624.06
359.802	566.06
360.029	554.06
360.256	556.06
360.483	563.06
360.709	627.06
360.936	636.06
361.163	654.06
361.39	697.06
361.616	730.06
361.843	691.06
362.07	654.06
362.296	571.06
362.523	574.06
362.749	598.06
362.976	601.06
363.203	594.06
363.429	571.06
363.656	565.06
363.882	608.06
364.109	678.06
364.335	683.06
364.562	635.06
364.788	622.06
365.015	553.06
365.241	585.06
365.468	587.06
365.694	612.06
365.92	612.06
366.147	616.06
366.373	578.06
366.599	577.06
366.826	553.06
367.052	569.06
367.278	575.06
367.505	594.06
367.731	630.06
367.957	592.06
368.184	632.06
368.41	673.06
368.636	689.06
368.862	706.06
369.089	681.06
369.315	650.06
369.541	619.06
369.767	612.06
369.993	588.06
370.219	613.06
370.445	606.06
370.672	653.06
370.898	710.06
371.124	640.06
371.35	637.06
371.576	677.06
371.802	661.06
372.028	670.06
372.254	627.06
372.48	621.06
372.706	591.06
372.932	598.06
373.158	601.06
373.384	645.06
373.61	660.06
373.835	677.06
374.061	647.06
374.287	644.06
374.513	628.06
374.739	636.06
374.965	640.06
375.191	652.06
375.416	657.06
375.642	701.06
375.868	710.06
376.094	760.06
376.319	692.06
376.545	665.06
376.771	686.06
376.997	722.06
377.222	693.06
377.448	654.06
377.674	676.06
377.899	682.06
378.125	708.06
378.35	692.06
378.576	634.06
378.802	613.06
379.027	629.06
379.253	665.06
379.478	636.06
379.704	640.06
379.929	660.06
380.155	650.06
380.38	651.06
380.606	663.06
380.831	679.06
381.057	700.06
381.282	705.06
381.507	681.06
381.733	754.06
381.958	744.06
382.184	698.06
382.409	696.06
382.634	666.06
382.86	706.06
383.085	691.06
383.31	733.06
383.535	793.06
383.761	817.06
383.986	754.06
384.211	715.06
384.436	729.06
384.662	780.06
384.887	797.06
385.112	736.06
385.337	761.06
385.562	761.06
385.787	745.06
386.013	765.06
386.238	779.06
386.463	805.06
386.688	850.06
386.913	857.06
387.138	817.06
387.363	788.06
387.588	768.06
387.813	757.06
388.038	811.06
388.263	820.06
388.488	759.06
388.713	743.06
388.938	723.06
389.163	737.06
389.387	764.06
389.612	748.06
389.837	787.06
390.062	782.06
390.287	752.06
390.512	761.06
390.736	753.06
390.961	760.06
391.186	736.06
391.411	768.06
391.636	775.06
391.86	769.06
392.085	775.06
392.31	763.06
392.534	792.06
392.759	803.06
392.984	798.06
393.208	807.06
393.433	802.06
393.658	846.06
393.882	821.06
394.107	824.06
394.331	789.06
394.556	798.06
394.78	761.06
395.005	819.06
395.229	844.06
395.454	904.06
395.678	917.06
395.903	822.06
396.127	823.06
396.352	849.06
396.576	865.06
396.801	847.06
397.025	848.06
397.249	864.06
397.474	852.06
397.698	845.06
397.922	859.06
398.147	893.06
398.371	929.06
398.595	927.06
398.82	860.06
399.044	930.06
399.268	931.06
399.492	976.06
399.717	1027.06
399.941	986.06
400.165	1014.06
400.389	1005.06
400.613	999.06
400.837	1139.06
401.062	1210.06
401.286	1030.06
401.51	993.06
401.734	999.06
401.958	964.06
402.182	905.06
402.406	907.06
402.63	880.06
402.854	892.06
403.078	917.06
403.302	905.06
403.526	898.06
403.75	941.06
403.974	948.06
404.198	964.06
404.422	966.06
404.645	1026.06
404.869	988.06
405.093	898.06
405.317	914.06
405.541	912.06
405.765	950.06
405.988	931.06
406.212	999.06
406.436	957.06
406.66	1037.06
406.883	1044.06
407.107	1168.06
407.331	1243.06
407.555	1301.06
407.778	1138.06
408.002	994.06
408.226	970.06
408.449	958.06
408.673	952.06
408.896	976.06
409.12	997.06
409.344	971.06
409.567	947.06
409.791	963.06
410.014	986.06
410.238	1049.06
410.461	1085.06
410.685	993.06
410.908	949.06
411.132	949.06
411.355	934.06
411.578	928.06
411.802	919.06
412.025	978.06
412.249	960.06
412.472	926.06
412.695	926.06
412.919	913.06
413.142	944.06
413.365	948.06
413.589	994.06
413.812	1010.06
414.035	1009.06
414.258	966.06
414.482	923.06
414.705	932.06
414.928	914.06
415.151	924.06
415.374	970.06
415.597	970.06
415.821	966.06
416.044	961.06
416.267	995.06
416.49	915.06
416.713	921.06
416.936	986.06
417.159	988.06
417.382	973.06
417.605	924.06
417.828	963.06
418.051	940.06
418.274	960.06
418.497	944.06
418.72	943.06
418.943	955.06
419.166	979.06
419.389	1007.06
419.611	957.06
419.834	970.06
420.057	966.06
420.28	972.06
420.503	939.06
420.726	973.06
420.948	956.06
421.171	940.06
421.394	965.06
421.617	1006.06
421.839	1045.06
422.062	1026.06
422.285	937.06
422.507	919.06
422.73	916.06
422.953	923.06
423.175	942.06
423.398	932.06
423.621	938.06
423.843	988.06
424.066	962.06
424.288	1036.06
424.511	1051.06
424.733	1020.06
424.956	958.06
425.178	932.06
425.401	932.06
425.623	965.06
425.846	953.06
426.068	964.06
426.291	1003.06
426.513	985.06
426.735	973.06
426.958	1060.06
427.18	1102.06
427.402	1010.06
427.625	1069.06
427.847	1019.06
428.069	923.06
428.292	924.06
428.514	923.06
428.736	917.06
428.958	926.06
429.181	928.06
429.403	1072.06
429.625	1229.06
429.847	1046.06
430.069	955.06
430.292	1079.06
430.514	1044.06
430.736	1002.06
430.958	987.06
431.18	946.06
431.402	897.06
431.624	877.06
431.846	793.06
432.068	749.06
432.29	756.06
432.512	816.06
432.734	880.06
432.956	950.06
433.178	974.06
433.4	958.06
433.622	964.06
433.844	925.06
434.066	845.06
434.287	793.06
434.509	775.06
434.731	813.06
434.953	921.06
435.175	961.06
435.397	922.06
435.618	906.06
435.84	852.06
436.062	863.06
436.284	905.06
436.505	925.06
436.727	958.06
436.949	920.06
437.17	956.06
437.392	905.06
437.614	887.06
437.835	834.06
438.057	810.06
438.278	824.06
438.5	883.06
438.721	906.06
438.943	934.06
439.165	938.06
439.386	947.06
439.608	972.06
439.829	971.06
440.05	1012.06
440.272	984.06
440.493	962.06
440.715	1014.06
440.936	1040.06
441.158	1075.06
441.379	1068.06
441.6	1045.06
441.822	1052.06
442.043	1028.06
442.264	1014.06
442.486	963.06
442.707	974.06
442.928	939.06
443.149	1004.06
443.371	1023.06
443.592	1043.06
443.813	1046.06
444.034	1053.06
444.255	1021.06
444.476	1053.06
444.698	1068.06
444.919	1058.06
445.14	1181.06
445.361	1076.06
445.582	1084.06
445.803	1062.06
446.024	1052.06
446.245	1095.06
446.466	1040.06
446.687	1060.06
446.908	1078.06
447.129	1044.06
447.35	1047.06
447.571	1042.06
447.792	980.06
448.013	971.06
448.234	1008.06
448.455	980.06
448.675	993.06
448.896	934.06
449.117	920.06
449.338	949.06
449.559	954.06
449.779	984.06
450	1029.06
450.221	1082.06
450.442	1047.06
450.662	979.06
450.883	918.06
451.104	886.06
451.324	881.06
451.545	900.06
451.766	876.06
451.986	845.06
452.207	847.06
452.428	806.06
452.648	820.06
452.869	821.06
453.089	812.06
453.31	793.06
453.53	755.06
453.751	764.06
453.971	726.06
454.192	772.06
454.412	790.06
454.633	805.06
454.853	775.06
455.073	782.06
455.294	796.06
455.514	770.06
455.734	779.06
455.955	758.06
456.175	776.06
456.395	733.06
456.616	745.06
456.836	754.06
457.056	748.06
457.276	750.06
457.497	739.06
457.717	702.06
457.937	717.06
458.157	725.06
458.377	705.06
458.598	690.06
458.818	671.06
459.038	728.06
459.258	717.06
459.478	730.06
459.698	724.06
459.918	745.06
460.138	835.06
460.358	828.06
460.578	856.06
460.798	876.06
461.018	906.06
461.238	891.06
461.458	897.06
461.678	839.06
461.898	835.06
462.118	809.06
462.338	857.06
462.558	846.06
462.777	869.06
462.997	885.06
463.217	904.06
463.437	902.06
463.657	857.06
463.876	837.06
464.096	820.06
464.316	844.06
464.536	873.06
464.755	908.06
464.975	898.06
465.195	856.06
465.414	917.06
465.634	898.06
465.854	917.06
466.073	963.06
466.293	956.06
466.512	873.06
466.732	883.06
466.951	924.06
467.171	927.06
467.391	874.06
467.61	901.06
467.829	918.06
468.049	1005.06
468.268	1065.06
468.488	974.06
468.707	921.06
468.927	942.06
469.146	905.06
469.365	922.06
469.585	940.06
469.804	909.06
470.023	944.06
470.243	950.06
470.462	955.06
470.681	948.06
470.901	938.06
471.12	916.06
471.339	963.06
471.558	912.06
471.777	912.06
471.997	931.06
472.216	890.06
472.435	809.06
472.654	800.06
472.873	794.06
473.092	864.06
473.311	849.06
473.53	839.06
473.749	854.06
473.968	857.06
474.187	835.06
474.406	867.06
474.625	892.06
474.844	911.06
475.063	888.06
475.282	862.06
475.501	824.06
475.72	834.06
475.939	904.06
476.158	898.06
476.377	911.06
476.596	866.06
476.814	853.06
477.033	833.06
477.252	845.06
477.471	922.06
477.69	922.06
477.908	970.06
478.127	1011.06
478.346	1050.06
478.564	1021.06
478.783	990.06
479.002	1042.06
479.22	1024.06
479.439	1038.06
479.658	1068.06
479.876	986.06
480.095	909.06
480.313	898.06
480.532	880.06
480.751	888.06
480.969	832.06
481.188	800.06
481.406	777.06
481.624	757.06
481.843	812.06
482.061	828.06
482.28	876.06
482.498	906.06
482.717	890.06
482.935	906.06
483.153	995.06
483.372	1042.06
483.59	1023.06
483.808	985.06
484.027	976.06
484.245	1030.06
484.463	1212.06
484.681	1322.06
484.9	1048.06
485.118	963.06
485.336	921.06
485.554	888.06
485.772	918.06
485.99	896.06
486.209	921.06
486.427	918.06
486.645	961.06
486.863	1022.06
487.081	1071.06
487.299	1045.06
487.517	1030.06
487.735	1089.06
487.953	1200.06
488.171	1235.06
488.389	1155.06
488.607	1124.06
488.825	1180.06
489.043	1090.06
489.261	992.06
489.479	1030.06
489.696	1066.06
489.914	1082.06
490.132	1043.06
490.35	1119.06
490.568	1212.06
490.786	1195.06
491.003	1187.06
491.221	1266.06
491.439	1308.06
491.657	1322.06
491.874	1373.06
492.092	1485.06
492.31	1526.06
492.527	1469.06
492.745	1395.06
492.963	1370.06
493.18	1353.06
493.398	1402.06
493.615	1392.06
493.833	1302.06
494.05	1284.06
494.268	1240.06
494.485	1277.06
494.703	1297.06
494.92	1253.06
495.138	1228.06
495.355	1280.06
495.573	1307.06
495.79	1300.06
496.008	1332.06
496.225	1251.06
496.442	1243.06
496.66	1263.06
496.877	1240.06
497.094	1240.06
497.312	1265.06
497.529	1205.06
497.746	1213.06
497.963	1297.06
498.181	1351.06
498.398	1272.06
498.615	1242.06
498.832	1184.06
499.049	1166.06
499.267	1170.06
499.484	1280.06
499.701	1378.06
499.918	1400.06
500.135	1516.06
