Data from WStandard_LampEnergy5.5LIBS07252019.E.O._I.C._HRD10591_16-08-02-920.txt Node
Date: Thu Jul 25 16:08:02 EDT 2019
User: cochatt
Spectrometer: HR+D1059
Trigger mode: 1
Integration Time (sec): 1.000000E-1
Scans to average: 1
Electric dark correction enabled: true
Nonlinearity correction enabled: false
Boxcar width: 0
XAxis mode: Wavelengths
Number of Pixels in Spectrum: 2048
>>>>>Begin Spectral Data<<<<<
223.165	-6.5
223.4	-6.5
223.635	-6.5
223.869	-21.5
224.104	-10.5
224.338	-15.5
224.573	-3.5
224.808	-14.5
225.042	-23.5
225.277	6.5
225.511	-1.5
225.746	2.5
225.98	6.5
226.215	7.5
226.449	16.5
226.683	14.5
226.918	15.5
227.152	27.5
227.387	28.5
227.621	40.5
227.856	43.5
228.09	47.5
228.324	50.5
228.559	74.5
228.793	136.5
229.027	370.5
229.262	379.5
229.496	378.5
229.73	413.5
229.964	438.5
230.199	453.5
230.433	476.5
230.667	484.5
230.901	534.5
231.136	493.5
231.37	468.5
231.604	460.5
231.838	456.5
232.072	467.5
232.306	455.5
232.541	482.5
232.775	565.5
233.009	610.5
233.243	579.5
233.477	533.5
233.711	568.5
233.945	583.5
234.179	550.5
234.413	592.5
234.647	627.5
234.881	605.5
235.115	540.5
235.349	567.5
235.583	563.5
235.817	582.5
236.051	534.5
236.285	547.5
236.519	607.5
236.753	680.5
236.987	679.5
237.221	672.5
237.455	766.5
237.689	713.5
237.922	691.5
238.156	660.5
238.39	679.5
238.624	725.5
238.858	750.5
239.091	789.5
239.325	799.5
239.559	939.5
239.793	972.5
240.027	1104.5
240.26	1063.5
240.494	777.5
240.728	710.5
240.961	742.5
241.195	747.5
241.429	824.5
241.662	835.5
241.896	779.5
242.13	792.5
242.363	876.5
242.597	924.5
242.83	895.5
243.064	882.5
243.298	962.5
243.531	952.5
243.765	949.5
243.998	939.5
244.232	832.5
244.465	784.5
244.699	811.5
244.932	910.5
245.166	1087.5
245.399	986.5
245.633	901.5
245.866	886.5
246.099	958.5
246.333	956.5
246.566	973.5
246.8	1054.5
247.033	1196.5
247.266	1092.5
247.5	1065.5
247.733	1069.5
247.966	1084.5
248.2	1246.5
248.433	1181.5
248.666	1239.5
248.899	1330.5
249.133	1510.5
249.366	1765.5
249.599	1423.5
249.832	1299.5
250.066	1265.5
250.299	1320.5
250.532	1207.5
250.765	1099.5
250.998	1169.5
251.231	1208.5
251.465	1265.5
251.698	1189.5
251.931	1171.5
252.164	1225.5
252.397	1297.5
252.63	1258.5
252.863	1127.5
253.096	1140.5
253.329	1170.5
253.562	1186.5
253.795	1316.5
254.028	1285.5
254.261	1217.5
254.494	1171.5
254.727	1110.5
254.96	1149.5
255.193	1291.5
255.426	1425.5
255.659	1633.5
255.892	1705.5
256.124	1368.5
256.357	1323.5
256.59	1415.5
256.823	1450.5
257.056	1427.5
257.289	1734.5
257.521	1960.5
257.754	1696.5
257.987	1617.5
258.22	1803.5
258.452	1763.5
258.685	1419.5
258.918	1414.5
259.151	1447.5
259.383	1349.5
259.616	1192.5
259.849	1283.5
260.081	1403.5
260.314	1569.5
260.547	1761.5
260.779	1745.5
261.012	1600.5
261.244	1480.5
261.477	1380.5
261.71	1451.5
261.942	1417.5
262.175	1413.5
262.407	1507.5
262.64	1421.5
262.872	1287.5
263.105	1241.5
263.337	1309.5
263.57	1337.5
263.802	1287.5
264.035	1233.5
264.267	1164.5
264.499	1159.5
264.732	1205.5
264.964	1329.5
265.197	1360.5
265.429	1393.5
265.661	1575.5
265.894	1763.5
266.126	1843.5
266.358	1636.5
266.591	1669.5
266.823	1832.5
267.055	1678.5
267.287	1634.5
267.52	1575.5
267.752	1571.5
267.984	1532.5
268.216	1652.5
268.448	1692.5
268.681	1691.5
268.913	1525.5
269.145	1449.5
269.377	1397.5
269.609	1549.5
269.841	1763.5
270.073	2062.5
270.306	2325.5
270.538	2463.5
270.77	2079.5
271.002	1762.5
271.234	1672.5
271.466	1621.5
271.698	1834.5
271.93	2217.5
272.162	2267.5
272.394	1994.5
272.626	1943.5
272.858	1715.5
273.09	1486.5
273.322	1472.5
273.553	1393.5
273.785	1421.5
274.017	1465.5
274.249	1571.5
274.481	1593.5
274.713	1435.5
274.945	1439.5
275.176	1457.5
275.408	1428.5
275.64	1415.5
275.872	1393.5
276.104	1474.5
276.335	1643.5
276.567	1915.5
276.799	1939.5
277.031	1756.5
277.262	1635.5
277.494	1664.5
277.726	1871.5
277.957	1883.5
278.189	1728.5
278.421	1565.5
278.652	1525.5
278.884	1489.5
279.115	1525.5
279.347	1540.5
279.579	1505.5
279.81	1475.5
280.042	1609.5
280.273	1818.5
280.505	1760.5
280.736	1845.5
280.968	1748.5
281.199	1539.5
281.431	1448.5
281.662	1471.5
281.894	1457.5
282.125	1526.5
282.356	1545.5
282.588	1564.5
282.819	1553.5
283.051	1696.5
283.282	1780.5
283.513	1793.5
283.745	1508.5
283.976	1447.5
284.207	1432.5
284.439	1490.5
284.67	1514.5
284.901	1563.5
285.132	1588.5
285.364	1552.5
285.595	1546.5
285.826	1541.5
286.057	1520.5
286.288	1524.5
286.52	1544.5
286.751	1709.5
286.982	1794.5
287.213	1622.5
287.444	1487.5
287.675	1479.5
287.906	1575.5
288.138	1657.5
288.369	1658.5
288.6	1543.5
288.831	1465.5
289.062	1496.5
289.293	1543.5
289.524	1511.5
289.755	1589.5
289.986	1619.5
290.217	1460.5
290.448	1497.5
290.679	1580.5
290.91	1566.5
291.141	1589.5
291.371	1644.5
291.602	1639.5
291.833	1643.5
292.064	1706.5
292.295	1624.5
292.526	1644.5
292.757	1760.5
292.987	1685.5
293.218	1548.5
293.449	1655.5
293.68	1884.5
293.91	2085.5
294.141	1925.5
294.372	1828.5
294.603	1889.5
294.833	1964.5
295.064	1847.5
295.295	1645.5
295.525	1626.5
295.756	1514.5
295.987	1435.5
296.217	1487.5
296.448	1512.5
296.679	1522.5
296.909	1540.5
297.14	1522.5
297.37	1549.5
297.601	1608.5
297.831	1762.5
298.062	1744.5
298.292	1589.5
298.523	1549.5
298.753	1535.5
298.984	1603.5
299.214	1599.5
299.445	1647.5
299.675	1640.5
299.905	1622.5
300.136	1585.5
300.366	1539.5
300.597	1508.5
300.827	1498.5
301.057	1595.5
301.288	1652.5
301.518	1683.5
301.748	1698.5
301.979	1775.5
302.209	1765.5
302.439	1900.5
302.669	1986.5
302.9	1859.5
303.13	1682.5
303.36	1654.5
303.59	1746.5
303.82	1652.5
304.051	1698.5
304.281	1680.5
304.511	1665.5
304.741	1760.5
304.971	1967.5
305.201	2123.5
305.431	1973.5
305.661	1622.5
305.891	1494.5
306.121	1473.5
306.352	1529.5
306.582	1569.5
306.812	1744.5
307.042	1829.5
307.272	1864.5
307.502	1894.5
307.731	1999.5
307.961	2205.5
308.191	2055.5
308.421	1741.5
308.651	1615.5
308.881	1611.5
309.111	1589.5
309.341	1587.5
309.571	1585.5
309.8	1614.5
310.03	1575.5
310.26	1629.5
310.49	1605.5
310.72	1633.5
310.949	1660.5
311.179	1723.5
311.409	1689.5
311.639	1650.5
311.868	1616.5
312.098	1637.5
312.328	1616.5
312.557	1607.5
312.787	1627.5
313.017	1701.5
313.246	1679.5
313.476	1686.5
313.706	1760.5
313.935	1692.5
314.165	1699.5
314.394	1716.5
314.624	1869.5
314.853	1921.5
315.083	1969.5
315.312	2096.5
315.542	1994.5
315.771	1717.5
316.001	1732.5
316.23	1862.5
316.46	1839.5
316.689	1791.5
316.919	1738.5
317.148	1639.5
317.377	1637.5
317.607	1785.5
317.836	2005.5
318.065	2049.5
318.295	2002.5
318.524	1891.5
318.753	1863.5
318.983	1843.5
319.212	1758.5
319.441	1772.5
319.67	1754.5
319.9	1746.5
320.129	1835.5
320.358	1941.5
320.587	1991.5
320.816	1967.5
321.046	1951.5
321.275	1828.5
321.504	1802.5
321.733	2010.5
321.962	1979.5
322.191	1754.5
322.42	1734.5
322.649	1736.5
322.878	1751.5
323.108	1756.5
323.337	1828.5
323.566	1827.5
323.795	1796.5
324.024	1833.5
324.253	1770.5
324.482	1824.5
324.71	1727.5
324.939	1669.5
325.168	1677.5
325.397	1759.5
325.626	1835.5
325.855	1824.5
326.084	1764.5
326.313	1771.5
326.542	1782.5
326.77	1848.5
326.999	1832.5
327.228	1780.5
327.457	1672.5
327.686	1661.5
327.914	1694.5
328.143	1776.5
328.372	1739.5
328.6	1763.5
328.829	1750.5
329.058	1735.5
329.287	1787.5
329.515	1772.5
329.744	1805.5
329.972	1894.5
330.201	1912.5
330.43	1916.5
330.658	1839.5
330.887	1839.5
331.115	1833.5
331.344	1910.5
331.572	1851.5
331.801	1795.5
332.03	1819.5
332.258	1873.5
332.486	1890.5
332.715	1931.5
332.943	1923.5
333.172	1846.5
333.4	1889.5
333.629	1939.5
333.857	2012.5
334.085	2233.5
334.314	2479.5
334.542	2777.5
334.771	2543.5
334.999	2249.5
335.227	2119.5
335.455	1994.5
335.684	1984.5
335.912	2039.5
336.14	2111.5
336.369	2040.5
336.597	1939.5
336.825	1863.5
337.053	1947.5
337.281	2051.5
337.51	2120.5
337.738	2236.5
337.966	2139.5
338.194	1937.5
338.422	1865.5
338.65	1895.5
338.878	1855.5
339.106	1808.5
339.334	1753.5
339.562	1726.5
339.79	1758.5
340.018	1959.5
340.246	1953.5
340.474	2016.5
340.702	1916.5
340.93	1941.5
341.158	1914.5
341.386	1864.5
341.614	1867.5
341.842	1827.5
342.07	1833.5
342.298	1872.5
342.526	1875.5
342.754	1817.5
342.981	1810.5
343.209	1834.5
343.437	1829.5
343.665	1868.5
343.893	1873.5
344.12	1942.5
344.348	2035.5
344.576	1867.5
344.804	1822.5
345.031	1867.5
345.259	1859.5
345.487	1808.5
345.714	1729.5
345.942	1694.5
346.17	1691.5
346.397	1731.5
346.625	1791.5
346.853	1690.5
347.08	1655.5
347.308	1685.5
347.535	1701.5
347.763	1778.5
347.99	1729.5
348.218	1649.5
348.445	1660.5
348.673	1717.5
348.9	1770.5
349.128	1826.5
349.355	1897.5
349.583	1822.5
349.81	1769.5
350.037	1636.5
350.265	1609.5
350.492	1597.5
350.72	1664.5
350.947	1743.5
351.174	1764.5
351.402	1697.5
351.629	1587.5
351.856	1601.5
352.083	1576.5
352.311	1601.5
352.538	1656.5
352.765	1684.5
352.992	1750.5
353.22	1695.5
353.447	1627.5
353.674	1667.5
353.901	1703.5
354.128	1661.5
354.355	1628.5
354.583	1707.5
354.81	1747.5
355.037	1732.5
355.264	1737.5
355.491	1707.5
355.718	1694.5
355.945	1692.5
356.172	1667.5
356.399	1649.5
356.626	1644.5
356.853	1687.5
357.08	1793.5
357.307	1970.5
357.534	2074.5
357.761	1778.5
357.988	1624.5
358.215	1598.5
358.441	1612.5
358.668	1601.5
358.895	1619.5
359.122	1738.5
359.349	1885.5
359.576	1871.5
359.802	1687.5
360.029	1605.5
360.256	1583.5
360.483	1649.5
360.709	1676.5
360.936	1731.5
361.163	1795.5
361.39	1988.5
361.616	2110.5
361.843	2069.5
362.07	1969.5
362.296	1705.5
362.523	1644.5
362.749	1683.5
362.976	1692.5
363.203	1735.5
363.429	1695.5
363.656	1603.5
363.882	1650.5
364.109	1868.5
364.335	2008.5
364.562	1904.5
364.788	1814.5
365.015	1740.5
365.241	1638.5
365.468	1690.5
365.694	1747.5
365.92	1849.5
366.147	1771.5
366.373	1631.5
366.599	1630.5
366.826	1632.5
367.052	1626.5
367.278	1676.5
367.505	1690.5
367.731	1716.5
367.957	1730.5
368.184	1703.5
368.41	1864.5
368.636	1892.5
368.862	1875.5
369.089	1883.5
369.315	1864.5
369.541	1765.5
369.767	1691.5
369.993	1672.5
370.219	1673.5
370.445	1665.5
370.672	1762.5
370.898	1883.5
371.124	1885.5
371.35	1770.5
371.576	1839.5
371.802	1908.5
372.028	1847.5
372.254	1768.5
372.48	1721.5
372.706	1690.5
372.932	1650.5
373.158	1713.5
373.384	1775.5
373.61	1796.5
373.835	1879.5
374.061	1733.5
374.287	1745.5
374.513	1764.5
374.739	1795.5
374.965	1818.5
375.191	1791.5
375.416	1815.5
375.642	1833.5
375.868	1913.5
376.094	1993.5
376.319	1885.5
376.545	1776.5
376.771	1780.5
376.997	1885.5
377.222	1861.5
377.448	1792.5
377.674	1863.5
377.899	1818.5
378.125	1967.5
378.35	1933.5
378.576	1775.5
378.802	1711.5
379.027	1694.5
379.253	1727.5
379.478	1751.5
379.704	1750.5
379.929	1737.5
380.155	1741.5
380.38	1785.5
380.606	1773.5
380.831	1772.5
381.057	1922.5
381.282	1881.5
381.507	1827.5
381.733	1914.5
381.958	2031.5
382.184	1855.5
382.409	1843.5
382.634	1821.5
382.86	1844.5
383.085	1837.5
383.31	1892.5
383.535	2014.5
383.761	2143.5
383.986	2062.5
384.211	2000.5
384.436	1983.5
384.662	2049.5
384.887	2161.5
385.112	2043.5
385.337	2060.5
385.562	2030.5
385.787	2031.5
386.013	2085.5
386.238	2069.5
386.463	2041.5
386.688	2163.5
386.913	2343.5
387.138	2256.5
387.363	2095.5
387.588	2080.5
387.813	2078.5
388.038	2051.5
388.263	2171.5
388.488	2104.5
388.713	1943.5
388.938	1979.5
389.163	1944.5
389.387	1983.5
389.612	1987.5
389.837	2025.5
390.062	2019.5
390.287	2011.5
390.512	1997.5
390.736	1983.5
390.961	1971.5
391.186	1928.5
391.411	1941.5
391.636	1954.5
391.86	2057.5
392.085	2052.5
392.31	2058.5
392.534	2004.5
392.759	2056.5
392.984	1998.5
393.208	2065.5
393.433	2091.5
393.658	2189.5
393.882	2183.5
394.107	2052.5
394.331	1994.5
394.556	2008.5
394.78	2017.5
395.005	2076.5
395.229	2153.5
395.454	2329.5
395.678	2317.5
395.903	2220.5
396.127	2136.5
396.352	2113.5
396.576	2179.5
396.801	2200.5
397.025	2181.5
397.249	2227.5
397.474	2220.5
397.698	2202.5
397.922	2243.5
398.147	2333.5
398.371	2436.5
398.595	2374.5
398.82	2344.5
399.044	2363.5
399.268	2433.5
399.492	2577.5
399.717	2723.5
399.941	2742.5
400.165	2703.5
400.389	2563.5
400.613	2548.5
400.837	2762.5
401.062	3241.5
401.286	2793.5
401.51	2585.5
401.734	2677.5
401.958	2548.5
402.182	2415.5
402.406	2292.5
402.63	2287.5
402.854	2313.5
403.078	2337.5
403.302	2389.5
403.526	2404.5
403.75	2394.5
403.974	2431.5
404.198	2432.5
404.422	2490.5
404.645	2618.5
404.869	2603.5
405.093	2371.5
405.317	2337.5
405.541	2382.5
405.765	2443.5
405.988	2397.5
406.212	2451.5
406.436	2483.5
406.66	2561.5
406.883	2502.5
407.107	2883.5
407.331	3142.5
407.555	3381.5
407.778	3152.5
408.002	2630.5
408.226	2499.5
408.449	2563.5
408.673	2421.5
408.896	2461.5
409.12	2516.5
409.344	2479.5
409.567	2393.5
409.791	2375.5
410.014	2463.5
410.238	2549.5
410.461	2735.5
410.685	2509.5
410.908	2345.5
411.132	2427.5
411.355	2380.5
411.578	2347.5
411.802	2348.5
412.025	2397.5
412.249	2321.5
412.472	2303.5
412.695	2279.5
412.919	2269.5
413.142	2263.5
413.365	2306.5
413.589	2359.5
413.812	2395.5
414.035	2536.5
414.258	2349.5
414.482	2317.5
414.705	2298.5
414.928	2303.5
415.151	2284.5
415.374	2284.5
415.597	2338.5
415.821	2309.5
416.044	2460.5
416.267	2430.5
416.49	2197.5
416.713	2179.5
416.936	2237.5
417.159	2364.5
417.382	2374.5
417.605	2229.5
417.828	2290.5
418.051	2353.5
418.274	2311.5
418.497	2216.5
418.72	2200.5
418.943	2220.5
419.166	2353.5
419.389	2485.5
419.611	2315.5
419.834	2227.5
420.057	2268.5
420.28	2194.5
420.503	2193.5
420.726	2252.5
420.948	2254.5
421.171	2205.5
421.394	2207.5
421.617	2295.5
421.839	2304.5
422.062	2219.5
422.285	2181.5
422.507	2179.5
422.73	2151.5
422.953	2135.5
423.175	2131.5
423.398	2226.5
423.621	2204.5
423.843	2200.5
424.066	2250.5
424.288	2364.5
424.511	2385.5
424.733	2317.5
424.956	2073.5
425.178	2103.5
425.401	2147.5
425.623	2127.5
425.846	2144.5
426.068	2226.5
426.291	2307.5
426.513	2266.5
426.735	2242.5
426.958	2354.5
427.18	2549.5
427.402	2305.5
427.625	2369.5
427.847	2423.5
428.069	2231.5
428.292	2162.5
428.514	2081.5
428.736	2101.5
428.958	2181.5
429.181	2164.5
429.403	2385.5
429.625	3051.5
429.847	2632.5
430.069	2219.5
430.292	2387.5
430.514	2510.5
430.736	2279.5
430.958	2431.5
431.18	2330.5
431.402	2208.5
431.624	2093.5
431.846	2122.5
432.068	2079.5
432.29	2147.5
432.512	2137.5
432.734	2201.5
432.956	2235.5
433.178	2303.5
433.4	2268.5
433.622	2280.5
433.844	2195.5
434.066	2098.5
434.287	2115.5
434.509	2169.5
434.731	2289.5
434.953	2461.5
435.175	2347.5
435.397	2253.5
435.618	2253.5
435.84	2260.5
436.062	2223.5
436.284	2223.5
436.505	2249.5
436.727	2269.5
436.949	2195.5
437.17	2137.5
437.392	2184.5
437.614	2173.5
437.835	2097.5
438.057	2262.5
438.278	2363.5
438.5	2131.5
438.721	2106.5
438.943	2114.5
439.165	2110.5
439.386	2055.5
439.608	2074.5
439.829	2130.5
440.05	2133.5
440.272	2092.5
440.493	2065.5
440.715	2164.5
440.936	2279.5
441.158	2473.5
441.379	2437.5
441.6	2395.5
441.822	2284.5
442.043	2269.5
442.264	2248.5
442.486	2115.5
442.707	2089.5
442.928	2081.5
443.149	2232.5
443.371	2309.5
443.592	2388.5
443.813	2288.5
444.034	2316.5
444.255	2346.5
444.476	2361.5
444.698	2449.5
444.919	2410.5
445.14	2479.5
445.361	2445.5
445.582	2545.5
445.803	2451.5
446.024	2329.5
446.245	2437.5
446.466	2361.5
446.687	2220.5
446.908	2260.5
447.129	2134.5
447.35	2168.5
447.571	2184.5
447.792	2118.5
448.013	2080.5
448.234	2088.5
448.455	2226.5
448.675	2244.5
448.896	2037.5
449.117	1996.5
449.338	2073.5
449.559	2180.5
449.779	2258.5
450	2504.5
450.221	2721.5
450.442	2630.5
450.662	2277.5
450.883	2026.5
451.104	1993.5
451.324	2062.5
451.545	2099.5
451.766	2052.5
451.986	1986.5
452.207	1960.5
452.428	1900.5
452.648	1843.5
452.869	1963.5
453.089	2076.5
453.31	2065.5
453.53	2145.5
453.751	2073.5
453.971	1920.5
454.192	1980.5
454.412	2113.5
454.633	2049.5
454.853	1966.5
455.073	1880.5
455.294	1878.5
455.514	1857.5
455.734	1862.5
455.955	1931.5
456.175	1912.5
456.395	1887.5
456.616	1951.5
456.836	2015.5
457.056	1905.5
457.276	1978.5
457.497	1893.5
457.717	1805.5
457.937	1874.5
458.157	1910.5
458.377	1911.5
458.598	1885.5
458.818	1924.5
459.038	2031.5
459.258	2180.5
459.478	2161.5
459.698	2097.5
459.918	2124.5
460.138	2263.5
460.358	2315.5
460.578	2289.5
460.798	2397.5
461.018	2505.5
461.238	2383.5
461.458	2261.5
461.678	2304.5
461.898	2249.5
462.118	2162.5
462.338	2312.5
462.558	2277.5
462.777	2320.5
462.997	2410.5
463.217	2613.5
463.437	2533.5
463.657	2348.5
463.876	2323.5
464.096	2301.5
464.316	2282.5
464.536	2376.5
464.755	2376.5
464.975	2386.5
465.195	2291.5
465.414	2414.5
465.634	2431.5
465.854	2263.5
466.073	2416.5
466.293	2419.5
466.512	2093.5
466.732	2037.5
466.951	2198.5
467.171	2185.5
467.391	2090.5
467.61	1996.5
467.829	2070.5
468.049	2195.5
468.268	2530.5
468.488	2282.5
468.707	2219.5
468.927	2135.5
469.146	2086.5
469.365	2064.5
469.585	2093.5
469.804	2023.5
470.023	2086.5
470.243	2120.5
470.462	2068.5
470.681	2034.5
470.901	2049.5
471.12	2066.5
471.339	2078.5
471.558	1974.5
471.777	1959.5
471.997	2020.5
472.216	2069.5
472.435	1990.5
472.654	2035.5
472.873	2133.5
473.092	2246.5
473.311	2115.5
473.53	2002.5
473.749	1943.5
473.968	2087.5
474.187	2143.5
474.406	2275.5
474.625	2118.5
474.844	2082.5
475.063	2055.5
475.282	2194.5
475.501	2116.5
475.72	2103.5
475.939	2223.5
476.158	2192.5
476.377	2095.5
476.596	2141.5
476.814	2208.5
477.033	2183.5
477.252	2245.5
477.471	2431.5
477.69	2243.5
477.908	2180.5
478.127	2356.5
478.346	2537.5
478.564	2508.5
478.783	2491.5
479.002	2594.5
479.22	2460.5
479.439	2559.5
479.658	2936.5
479.876	2887.5
480.095	2595.5
480.313	2503.5
480.532	2303.5
480.751	2377.5
480.969	2445.5
481.188	2354.5
481.406	2385.5
481.624	2271.5
481.843	2323.5
482.061	2349.5
482.28	2387.5
482.498	2441.5
482.717	2426.5
482.935	2313.5
483.153	2345.5
483.372	2355.5
483.59	2311.5
483.808	2378.5
484.027	2374.5
484.245	2530.5
484.463	2886.5
484.681	3306.5
484.9	2569.5
485.118	2431.5
485.336	2339.5
485.554	2484.5
485.772	2565.5
485.99	2479.5
486.209	2517.5
486.427	2488.5
486.645	2495.5
486.863	2480.5
487.081	2513.5
487.299	2595.5
487.517	2584.5
487.735	2464.5
487.953	2386.5
488.171	2399.5
488.389	2379.5
488.607	2417.5
488.825	2652.5
489.043	2720.5
489.261	2439.5
489.479	2559.5
489.696	2642.5
489.914	2574.5
490.132	2527.5
490.35	2423.5
490.568	2556.5
490.786	2481.5
491.003	2389.5
491.221	2397.5
491.439	2557.5
491.657	2515.5
491.874	2540.5
492.092	2570.5
492.31	2533.5
492.527	2468.5
492.745	2466.5
492.963	2496.5
493.18	2578.5
493.398	2756.5
493.615	2884.5
493.833	2596.5
494.05	2511.5
494.268	2548.5
494.485	2596.5
494.703	2621.5
494.92	2461.5
495.138	2522.5
495.355	2532.5
495.573	2651.5
495.79	2776.5
496.008	2801.5
496.225	2645.5
496.442	2653.5
496.66	2742.5
496.877	2616.5
497.094	2791.5
497.312	2787.5
497.529	2714.5
497.746	2845.5
497.963	3278.5
498.181	3639.5
498.398	3428.5
498.615	3375.5
498.832	3252.5
499.049	3308.5
499.267	3217.5
499.484	3482.5
499.701	3702.5
499.918	3719.5
500.135	4071.5
500.352	4420.5
500.569	4342.5
500.786	4581.5
501.003	4308.5
501.22	3865.5
501.437	3765.5
501.654	3756.5
501.871	3642.5
502.088	3226.5
502.305	3219.5
502.522	3119.5
502.739	2955.5
502.956	2798.5
503.172	2801.5
503.389	2749.5
