Data from WStandard_LampEnergy10_LIBS07252019.E.O._I.C._HRD10591_15-53-48-928.txt Node
Date: Thu Jul 25 15:53:48 EDT 2019
User: cochatt
Spectrometer: HR+D1059
Trigger mode: 1
Integration Time (sec): 1.000000E-1
Scans to average: 1
Electric dark correction enabled: true
Nonlinearity correction enabled: false
Boxcar width: 0
XAxis mode: Wavelengths
Number of Pixels in Spectrum: 2048
>>>>>Begin Spectral Data<<<<<
223.165	-20.31
223.4	-20.31
223.635	-20.31
223.869	-30.31
224.104	-13.31
224.338	-23.31
224.573	-12.31
224.808	-11.31
225.042	5.69
225.277	-1.31
225.511	3.69
225.746	-3.31
225.98	-0.31
226.215	25.69
226.449	13.69
226.683	12.69
226.918	23.69
227.152	30.69
227.387	26.69
227.621	36.69
227.856	42.69
228.09	48.69
228.324	55.69
228.559	59.69
228.793	82.69
229.027	127.69
229.262	137.69
229.496	142.69
229.73	151.69
229.964	157.69
230.199	187.69
230.433	169.69
230.667	201.69
230.901	188.69
231.136	169.69
231.37	186.69
231.604	169.69
231.838	168.69
232.072	188.69
232.306	174.69
232.541	177.69
232.775	184.69
233.009	205.69
233.243	186.69
233.477	190.69
233.711	197.69
233.945	202.69
234.179	203.69
234.413	210.69
234.647	209.69
234.881	221.69
235.115	201.69
235.349	205.69
235.583	188.69
235.817	177.69
236.051	204.69
236.285	194.69
236.519	210.69
236.753	229.69
236.987	215.69
237.221	218.69
237.455	238.69
237.689	234.69
237.922	214.69
238.156	205.69
238.39	224.69
238.624	234.69
238.858	229.69
239.091	250.69
239.325	281.69
239.559	270.69
239.793	298.69
240.027	305.69
240.26	300.69
240.494	255.69
240.728	227.69
240.961	232.69
241.195	241.69
241.429	245.69
241.662	243.69
241.896	252.69
242.13	248.69
242.363	260.69
242.597	285.69
242.83	279.69
243.064	275.69
243.298	304.69
243.531	284.69
243.765	268.69
243.998	278.69
244.232	268.69
244.465	258.69
244.699	258.69
244.932	267.69
245.166	315.69
245.399	296.69
245.633	304.69
245.866	268.69
246.099	273.69
246.333	302.69
246.566	305.69
246.8	332.69
247.033	341.69
247.266	329.69
247.5	316.69
247.733	329.69
247.966	338.69
248.2	367.69
248.433	347.69
248.666	369.69
248.899	386.69
249.133	437.69
249.366	462.69
249.599	398.69
249.832	356.69
250.066	383.69
250.299	360.69
250.532	342.69
250.765	327.69
250.998	325.69
251.231	342.69
251.465	359.69
251.698	318.69
251.931	354.69
252.164	363.69
252.397	359.69
252.63	357.69
252.863	325.69
253.096	324.69
253.329	312.69
253.562	346.69
253.795	367.69
254.028	348.69
254.261	341.69
254.494	351.69
254.727	344.69
254.96	356.69
255.193	380.69
255.426	426.69
255.659	429.69
255.892	454.69
256.124	401.69
256.357	387.69
256.59	404.69
256.823	401.69
257.056	424.69
257.289	483.69
257.521	491.69
257.754	457.69
257.987	433.69
258.22	453.69
258.452	456.69
258.685	387.69
258.918	399.69
259.151	385.69
259.383	384.69
259.616	345.69
259.849	372.69
260.081	399.69
260.314	447.69
260.547	484.69
260.779	458.69
261.012	439.69
261.244	415.69
261.477	401.69
261.71	395.69
261.942	389.69
262.175	395.69
262.407	393.69
262.64	397.69
262.872	355.69
263.105	367.69
263.337	379.69
263.57	374.69
263.802	372.69
264.035	370.69
264.267	345.69
264.499	341.69
264.732	371.69
264.964	395.69
265.197	395.69
265.429	407.69
265.661	459.69
265.894	484.69
266.126	493.69
266.358	456.69
266.591	464.69
266.823	480.69
267.055	445.69
267.287	440.69
267.52	451.69
267.752	464.69
267.984	451.69
268.216	468.69
268.448	469.69
268.681	438.69
268.913	433.69
269.145	410.69
269.377	391.69
269.609	457.69
269.841	516.69
270.073	578.69
270.306	629.69
270.538	623.69
270.77	522.69
271.002	473.69
271.234	471.69
271.466	490.69
271.698	517.69
271.93	592.69
272.162	585.69
272.394	527.69
272.626	507.69
272.858	452.69
273.09	413.69
273.322	396.69
273.553	387.69
273.785	399.69
274.017	415.69
274.249	438.69
274.481	439.69
274.713	432.69
274.945	413.69
275.176	403.69
275.408	411.69
275.64	384.69
275.872	412.69
276.104	433.69
276.335	502.69
276.567	543.69
276.799	507.69
277.031	475.69
277.262	451.69
277.494	478.69
277.726	537.69
277.957	508.69
278.189	458.69
278.421	431.69
278.652	410.69
278.884	430.69
279.115	443.69
279.347	435.69
279.579	424.69
279.81	451.69
280.042	486.69
280.273	515.69
280.505	505.69
280.736	522.69
280.968	470.69
281.199	421.69
281.431	405.69
281.662	421.69
281.894	444.69
282.125	427.69
282.356	454.69
282.588	463.69
282.819	451.69
283.051	479.69
283.282	524.69
283.513	467.69
283.745	430.69
283.976	437.69
284.207	429.69
284.439	432.69
284.67	461.69
284.901	458.69
285.132	478.69
285.364	451.69
285.595	462.69
285.826	439.69
286.057	462.69
286.288	459.69
286.52	454.69
286.751	490.69
286.982	508.69
287.213	452.69
287.444	430.69
287.675	461.69
287.906	483.69
288.138	481.69
288.369	455.69
288.6	450.69
288.831	450.69
289.062	459.69
289.293	448.69
289.524	457.69
289.755	472.69
289.986	464.69
290.217	436.69
290.448	454.69
290.679	467.69
290.91	473.69
291.141	447.69
291.371	472.69
291.602	469.69
291.833	505.69
292.064	508.69
292.295	488.69
292.526	470.69
292.757	512.69
292.987	476.69
293.218	480.69
293.449	528.69
293.68	553.69
293.91	606.69
294.141	547.69
294.372	537.69
294.603	562.69
294.833	564.69
295.064	552.69
295.295	477.69
295.525	473.69
295.756	452.69
295.987	432.69
296.217	443.69
296.448	458.69
296.679	453.69
296.909	467.69
297.14	464.69
297.37	488.69
297.601	486.69
297.831	530.69
298.062	509.69
298.292	489.69
298.523	472.69
298.753	473.69
298.984	461.69
299.214	489.69
299.445	511.69
299.675	484.69
299.905	487.69
300.136	474.69
300.366	456.69
300.597	455.69
300.827	467.69
301.057	467.69
301.288	492.69
301.518	484.69
301.748	522.69
301.979	544.69
302.209	545.69
302.439	587.69
302.669	582.69
302.9	547.69
303.13	509.69
303.36	523.69
303.59	512.69
303.82	498.69
304.051	534.69
304.281	528.69
304.511	546.69
304.741	577.69
304.971	612.69
305.201	624.69
305.431	561.69
305.661	472.69
305.891	454.69
306.121	448.69
306.352	452.69
306.582	515.69
306.812	545.69
307.042	546.69
307.272	570.69
307.502	578.69
307.731	625.69
307.961	639.69
308.191	585.69
308.421	529.69
308.651	477.69
308.881	504.69
309.111	501.69
309.341	502.69
309.571	482.69
309.8	476.69
310.03	492.69
310.26	488.69
310.49	466.69
310.72	515.69
310.949	514.69
311.179	553.69
311.409	507.69
311.639	509.69
311.868	507.69
312.098	517.69
312.328	503.69
312.557	535.69
312.787	517.69
313.017	511.69
313.246	522.69
313.476	542.69
313.706	541.69
313.935	532.69
314.165	543.69
314.394	571.69
314.624	614.69
314.853	602.69
315.083	631.69
315.312	617.69
315.542	598.69
315.771	538.69
316.001	557.69
316.23	589.69
316.46	575.69
316.689	538.69
316.919	519.69
317.148	521.69
317.377	539.69
317.607	586.69
317.836	629.69
318.065	668.69
318.295	612.69
318.524	604.69
318.753	586.69
318.983	575.69
319.212	551.69
319.441	550.69
319.67	554.69
319.9	571.69
320.129	593.69
320.358	608.69
320.587	634.69
320.816	630.69
321.046	570.69
321.275	590.69
321.504	582.69
321.733	628.69
321.962	603.69
322.191	559.69
322.42	581.69
322.649	543.69
322.878	544.69
323.108	546.69
323.337	553.69
323.566	557.69
323.795	579.69
324.024	556.69
324.253	557.69
324.482	568.69
324.71	529.69
324.939	528.69
325.168	552.69
325.397	575.69
325.626	583.69
325.855	582.69
326.084	551.69
326.313	560.69
326.542	586.69
326.77	563.69
326.999	555.69
327.228	547.69
327.457	527.69
327.686	553.69
327.914	535.69
328.143	581.69
328.372	569.69
328.6	548.69
328.829	575.69
329.058	555.69
329.287	555.69
329.515	559.69
329.744	585.69
329.972	595.69
330.201	631.69
330.43	604.69
330.658	579.69
330.887	602.69
331.115	587.69
331.344	613.69
331.572	593.69
331.801	585.69
332.03	585.69
332.258	595.69
332.486	601.69
332.715	616.69
332.943	596.69
333.172	584.69
333.4	595.69
333.629	643.69
333.857	666.69
334.085	741.69
334.314	807.69
334.542	846.69
334.771	777.69
334.999	729.69
335.227	664.69
335.455	629.69
335.684	635.69
335.912	664.69
336.14	640.69
336.369	621.69
336.597	603.69
336.825	627.69
337.053	642.69
337.281	657.69
337.51	698.69
337.738	695.69
337.966	672.69
338.194	615.69
338.422	605.69
338.65	588.69
338.878	599.69
339.106	559.69
339.334	553.69
339.562	571.69
339.79	583.69
340.018	627.69
340.246	647.69
340.474	627.69
340.702	637.69
340.93	611.69
341.158	627.69
341.386	615.69
341.614	607.69
341.842	584.69
342.07	575.69
342.298	595.69
342.526	602.69
342.754	611.69
342.981	611.69
343.209	595.69
343.437	589.69
343.665	584.69
343.893	616.69
344.12	651.69
344.348	637.69
344.576	608.69
344.804	611.69
345.031	595.69
345.259	597.69
345.487	570.69
345.714	571.69
345.942	569.69
346.17	580.69
346.397	596.69
346.625	571.69
346.853	522.69
347.08	529.69
347.308	567.69
347.535	554.69
347.763	586.69
347.99	582.69
348.218	540.69
348.445	563.69
348.673	576.69
348.9	593.69
349.128	617.69
349.355	638.69
349.583	591.69
349.81	573.69
350.037	539.69
350.265	545.69
350.492	567.69
350.72	583.69
350.947	594.69
351.174	570.69
351.402	547.69
351.629	541.69
351.856	536.69
352.083	509.69
352.311	537.69
352.538	521.69
352.765	565.69
352.992	564.69
353.22	552.69
353.447	573.69
353.674	580.69
353.901	570.69
354.128	543.69
354.355	559.69
354.583	595.69
354.81	600.69
355.037	587.69
355.264	571.69
355.491	564.69
355.718	575.69
355.945	562.69
356.172	555.69
356.399	578.69
356.626	550.69
356.853	575.69
357.08	643.69
357.307	681.69
357.534	652.69
357.761	588.69
357.988	538.69
358.215	543.69
358.441	532.69
358.668	540.69
358.895	555.69
359.122	600.69
359.349	639.69
359.576	608.69
359.802	563.69
360.029	546.69
360.256	548.69
360.483	569.69
360.709	603.69
360.936	597.69
361.163	640.69
361.39	673.69
361.616	697.69
361.843	698.69
362.07	667.69
362.296	584.69
362.523	564.69
362.749	563.69
362.976	567.69
363.203	596.69
363.429	567.69
363.656	552.69
363.882	581.69
364.109	637.69
364.335	657.69
364.562	631.69
364.788	608.69
365.015	581.69
365.241	559.69
365.468	592.69
365.694	604.69
365.92	635.69
366.147	597.69
366.373	566.69
366.599	533.69
366.826	553.69
367.052	566.69
367.278	575.69
367.505	563.69
367.731	579.69
367.957	624.69
368.184	631.69
368.41	688.69
368.636	673.69
368.862	665.69
369.089	670.69
369.315	640.69
369.541	601.69
369.767	604.69
369.993	591.69
370.219	607.69
370.445	630.69
370.672	669.69
370.898	691.69
371.124	651.69
371.35	631.69
371.576	643.69
371.802	647.69
372.028	643.69
372.254	623.69
372.48	600.69
372.706	605.69
372.932	607.69
373.158	645.69
373.384	638.69
373.61	645.69
373.835	664.69
374.061	610.69
374.287	620.69
374.513	624.69
374.739	623.69
374.965	629.69
375.191	642.69
375.416	667.69
375.642	687.69
375.868	691.69
376.094	712.69
376.319	687.69
376.545	632.69
376.771	668.69
376.997	736.69
377.222	674.69
377.448	673.69
377.674	668.69
377.899	695.69
378.125	710.69
378.35	691.69
378.576	657.69
378.802	632.69
379.027	620.69
379.253	632.69
379.478	662.69
379.704	631.69
379.929	648.69
380.155	649.69
380.38	648.69
380.606	659.69
380.831	671.69
381.057	696.69
381.282	700.69
381.507	696.69
381.733	731.69
381.958	756.69
382.184	671.69
382.409	687.69
382.634	667.69
382.86	672.69
383.085	675.69
383.31	704.69
383.535	755.69
383.761	817.69
383.986	765.69
384.211	701.69
384.436	713.69
384.662	777.69
384.887	774.69
385.112	738.69
385.337	727.69
385.562	738.69
385.787	726.69
386.013	759.69
386.238	771.69
386.463	779.69
386.688	842.69
386.913	854.69
387.138	828.69
387.363	785.69
387.588	786.69
387.813	765.69
388.038	792.69
388.263	803.69
388.488	782.69
388.713	726.69
388.938	729.69
389.163	728.69
389.387	753.69
389.612	721.69
389.837	755.69
390.062	779.69
390.287	752.69
390.512	728.69
390.736	731.69
390.961	724.69
391.186	747.69
391.411	748.69
391.636	731.69
391.86	764.69
392.085	739.69
392.31	744.69
392.534	742.69
392.759	771.69
392.984	755.69
393.208	795.69
393.433	801.69
393.658	805.69
393.882	812.69
394.107	766.69
394.331	772.69
394.556	769.69
394.78	793.69
395.005	785.69
395.229	836.69
395.454	895.69
395.678	860.69
395.903	826.69
396.127	819.69
396.352	808.69
396.576	831.69
396.801	860.69
397.025	850.69
397.249	818.69
397.474	826.69
397.698	811.69
397.922	872.69
398.147	893.69
398.371	945.69
398.595	934.69
398.82	883.69
399.044	891.69
399.268	954.69
399.492	971.69
399.717	972.69
399.941	984.69
400.165	964.69
400.389	956.69
400.613	1005.69
400.837	1111.69
401.062	1185.69
401.286	1024.69
401.51	994.69
401.734	998.69
401.958	955.69
402.182	897.69
402.406	868.69
402.63	870.69
402.854	880.69
403.078	875.69
403.302	903.69
403.526	909.69
403.75	927.69
403.974	921.69
404.198	958.69
404.422	995.69
404.645	1014.69
404.869	963.69
405.093	945.69
405.317	904.69
405.541	924.69
405.765	939.69
405.988	920.69
406.212	939.69
406.436	963.69
406.66	991.69
406.883	1023.69
407.107	1132.69
407.331	1233.69
407.555	1271.69
407.778	1115.69
408.002	1025.69
408.226	965.69
408.449	961.69
408.673	968.69
408.896	945.69
409.12	970.69
409.344	933.69
409.567	931.69
409.791	957.69
410.014	987.69
410.238	1025.69
410.461	1045.69
410.685	937.69
410.908	932.69
411.132	951.69
411.355	947.69
411.578	940.69
411.802	931.69
412.025	967.69
412.249	933.69
412.472	911.69
412.695	916.69
412.919	908.69
413.142	917.69
413.365	929.69
413.589	970.69
413.812	978.69
414.035	993.69
414.258	945.69
414.482	892.69
414.705	938.69
414.928	915.69
415.151	913.69
415.374	925.69
415.597	948.69
415.821	950.69
416.044	927.69
416.267	915.69
416.49	910.69
416.713	895.69
416.936	966.69
417.159	972.69
417.382	947.69
417.605	963.69
417.828	971.69
418.051	966.69
418.274	946.69
418.497	932.69
418.72	917.69
418.943	897.69
419.166	993.69
419.389	1024.69
419.611	983.69
419.834	938.69
420.057	962.69
420.28	923.69
420.503	907.69
420.726	963.69
420.948	977.69
421.171	914.69
421.394	940.69
421.617	980.69
421.839	995.69
422.062	980.69
422.285	947.69
422.507	919.69
422.73	931.69
422.953	874.69
423.175	913.69
423.398	929.69
423.621	927.69
423.843	957.69
424.066	962.69
424.288	1009.69
424.511	1064.69
424.733	1000.69
424.956	948.69
425.178	937.69
425.401	949.69
425.623	962.69
425.846	943.69
426.068	982.69
426.291	1005.69
426.513	954.69
426.735	956.69
426.958	1064.69
427.18	1073.69
427.402	994.69
427.625	1047.69
427.847	979.69
428.069	910.69
428.292	914.69
428.514	912.69
428.736	909.69
428.958	917.69
429.181	937.69
429.403	1069.69
429.625	1221.69
429.847	1049.69
430.069	981.69
430.292	1061.69
430.514	1029.69
430.736	964.69
430.958	989.69
431.18	924.69
431.402	860.69
431.624	865.69
431.846	797.69
432.068	717.69
432.29	732.69
432.512	822.69
432.734	891.69
432.956	931.69
433.178	956.69
433.4	953.69
433.622	937.69
433.844	909.69
434.066	880.69
434.287	791.69
434.509	774.69
434.731	840.69
434.953	910.69
435.175	921.69
435.397	913.69
435.618	903.69
435.84	867.69
436.062	823.69
436.284	891.69
436.505	939.69
436.727	955.69
436.949	933.69
437.17	907.69
437.392	896.69
437.614	887.69
437.835	789.69
438.057	815.69
438.278	840.69
438.5	897.69
438.721	870.69
438.943	901.69
439.165	907.69
439.386	939.69
439.608	931.69
439.829	962.69
440.05	967.69
440.272	954.69
440.493	969.69
440.715	983.69
440.936	1011.69
441.158	1061.69
441.379	1034.69
441.6	1034.69
441.822	1039.69
442.043	1008.69
442.264	1001.69
442.486	951.69
442.707	971.69
442.928	959.69
443.149	1004.69
443.371	1007.69
443.592	1016.69
443.813	1024.69
444.034	1017.69
444.255	985.69
444.476	1049.69
444.698	1046.69
444.919	1030.69
445.14	1120.69
445.361	1108.69
445.582	1069.69
445.803	1061.69
446.024	1031.69
446.245	1069.69
446.466	1076.69
446.687	1030.69
446.908	1051.69
447.129	1031.69
447.35	996.69
447.571	1021.69
447.792	953.69
448.013	950.69
448.234	951.69
448.455	1004.69
448.675	987.69
448.896	947.69
449.117	926.69
449.338	913.69
449.559	933.69
449.779	957.69
450	1016.69
450.221	1079.69
450.442	1035.69
450.662	957.69
450.883	877.69
451.104	886.69
451.324	880.69
451.545	864.69
451.766	871.69
451.986	836.69
452.207	828.69
452.428	823.69
452.648	801.69
452.869	782.69
453.089	799.69
453.31	776.69
453.53	784.69
453.751	768.69
453.971	704.69
454.192	739.69
454.412	778.69
454.633	780.69
454.853	795.69
455.073	762.69
455.294	773.69
455.514	797.69
455.734	769.69
455.955	764.69
456.175	748.69
456.395	735.69
456.616	746.69
456.836	719.69
457.056	743.69
457.276	735.69
457.497	727.69
457.717	714.69
457.937	721.69
458.157	724.69
458.377	716.69
458.598	675.69
458.818	675.69
459.038	721.69
459.258	719.69
459.478	715.69
459.698	704.69
459.918	739.69
460.138	790.69
460.358	852.69
460.578	843.69
460.798	869.69
461.018	903.69
461.238	895.69
461.458	852.69
461.678	850.69
461.898	835.69
462.118	790.69
462.338	840.69
462.558	860.69
462.777	830.69
462.997	851.69
463.217	875.69
463.437	889.69
463.657	854.69
463.876	837.69
464.096	822.69
464.316	833.69
464.536	866.69
464.755	900.69
464.975	897.69
465.195	872.69
465.414	905.69
465.634	889.69
465.854	906.69
466.073	941.69
466.293	930.69
466.512	856.69
466.732	863.69
466.951	905.69
467.171	931.69
467.391	862.69
467.61	876.69
467.829	913.69
468.049	991.69
468.268	1056.69
468.488	986.69
468.707	908.69
468.927	920.69
469.146	874.69
469.365	913.69
469.585	913.69
469.804	912.69
470.023	921.69
470.243	930.69
470.462	947.69
470.681	932.69
470.901	968.69
471.12	957.69
471.339	932.69
471.558	899.69
471.777	907.69
471.997	890.69
472.216	865.69
472.435	813.69
472.654	769.69
472.873	781.69
473.092	854.69
473.311	879.69
473.53	829.69
473.749	846.69
473.968	836.69
474.187	849.69
474.406	849.69
474.625	861.69
474.844	892.69
475.063	881.69
475.282	858.69
475.501	833.69
475.72	841.69
475.939	882.69
476.158	921.69
476.377	878.69
476.596	851.69
476.814	818.69
477.033	819.69
477.252	860.69
477.471	912.69
477.69	897.69
477.908	963.69
478.127	1011.69
478.346	1016.69
478.564	988.69
478.783	1008.69
479.002	1029.69
479.22	1011.69
479.439	1036.69
479.658	1061.69
479.876	984.69
480.095	897.69
480.313	897.69
480.532	893.69
480.751	867.69
480.969	852.69
481.188	781.69
481.406	769.69
481.624	753.69
481.843	822.69
482.061	832.69
482.28	865.69
482.498	885.69
482.717	857.69
482.935	895.69
483.153	959.69
483.372	1049.69
483.59	1016.69
483.808	973.69
484.027	953.69
484.245	1033.69
484.463	1223.69
484.681	1309.69
484.9	1002.69
485.118	949.69
485.336	909.69
485.554	925.69
485.772	895.69
485.99	876.69
486.209	903.69
486.427	881.69
486.645	955.69
486.863	1027.69
487.081	1066.69
487.299	1012.69
487.517	1006.69
487.735	1104.69
487.953	1202.69
488.171	1179.69
488.389	1139.69
488.607	1114.69
488.825	1148.69
489.043	1068.69
489.261	993.69
489.479	1045.69
489.696	1061.69
489.914	1051.69
490.132	1034.69
490.35	1101.69
490.568	1194.69
490.786	1193.69
491.003	1181.69
491.221	1272.69
491.439	1356.69
491.657	1327.69
491.874	1359.69
492.092	1423.69
492.31	1513.69
492.527	1490.69
492.745	1427.69
492.963	1337.69
493.18	1334.69
493.398	1378.69
493.615	1328.69
493.833	1279.69
494.05	1255.69
494.268	1238.69
494.485	1240.69
494.703	1224.69
494.92	1222.69
495.138	1246.69
495.355	1283.69
495.573	1252.69
495.79	1320.69
496.008	1297.69
496.225	1233.69
496.442	1244.69
496.66	1243.69
496.877	1180.69
497.094	1257.69
497.312	1251.69
497.529	1213.69
497.746	1191.69
497.963	1287.69
498.181	1318.69
498.398	1244.69
498.615	1164.69
498.832	1163.69
499.049	1144.69
499.267	1149.69
499.484	1281.69
499.701	1362.69
499.918	1392.69
500.135	1485.69
