Data from WStandard_LampEnergy10_LIBS07252019.E.O._I.C._HRD10591_15-53-06-927.txt Node
Date: Thu Jul 25 15:53:06 EDT 2019
User: cochatt
Spectrometer: HR+D1059
Trigger mode: 1
Integration Time (sec): 1.000000E-1
Scans to average: 1
Electric dark correction enabled: true
Nonlinearity correction enabled: false
Boxcar width: 0
XAxis mode: Wavelengths
Number of Pixels in Spectrum: 2048
>>>>>Begin Spectral Data<<<<<
223.165	-17.62
223.4	-17.62
223.635	-17.62
223.869	-20.62
224.104	-22.62
224.338	-21.62
224.573	-11.62
224.808	-14.62
225.042	-9.62
225.277	-7.62
225.511	-0.62
225.746	-3.62
225.98	6.38
226.215	25.38
226.449	21.38
226.683	21.38
226.918	27.38
227.152	28.38
227.387	35.38
227.621	30.38
227.856	57.38
228.09	49.38
228.324	42.38
228.559	68.38
228.793	87.38
229.027	143.38
229.262	153.38
229.496	149.38
229.73	149.38
229.964	177.38
230.199	184.38
230.433	175.38
230.667	201.38
230.901	201.38
231.136	186.38
231.37	189.38
231.604	193.38
231.838	183.38
232.072	189.38
232.306	175.38
232.541	170.38
232.775	219.38
233.009	226.38
233.243	214.38
233.477	199.38
233.711	214.38
233.945	185.38
234.179	207.38
234.413	230.38
234.647	214.38
234.881	214.38
235.115	202.38
235.349	210.38
235.583	212.38
235.817	212.38
236.051	200.38
236.285	197.38
236.519	220.38
236.753	235.38
236.987	229.38
237.221	235.38
237.455	245.38
237.689	251.38
237.922	217.38
238.156	228.38
238.39	225.38
238.624	224.38
238.858	255.38
239.091	260.38
239.325	279.38
239.559	293.38
239.793	303.38
240.027	308.38
240.26	303.38
240.494	242.38
240.728	238.38
240.961	241.38
241.195	249.38
241.429	258.38
241.662	266.38
241.896	260.38
242.13	262.38
242.363	266.38
242.597	281.38
242.83	289.38
243.064	289.38
243.298	305.38
243.531	284.38
243.765	277.38
243.998	297.38
244.232	261.38
244.465	253.38
244.699	280.38
244.932	305.38
245.166	330.38
245.399	295.38
245.633	296.38
245.866	298.38
246.099	307.38
246.333	309.38
246.566	308.38
246.8	322.38
247.033	363.38
247.266	332.38
247.5	323.38
247.733	352.38
247.966	335.38
248.2	379.38
248.433	370.38
248.666	397.38
248.899	398.38
249.133	449.38
249.366	492.38
249.599	411.38
249.832	367.38
250.066	362.38
250.299	364.38
250.532	353.38
250.765	355.38
250.998	373.38
251.231	365.38
251.465	368.38
251.698	360.38
251.931	362.38
252.164	375.38
252.397	375.38
252.63	371.38
252.863	353.38
253.096	330.38
253.329	385.38
253.562	363.38
253.795	374.38
254.028	384.38
254.261	369.38
254.494	354.38
254.727	356.38
254.96	353.38
255.193	392.38
255.426	430.38
255.659	474.38
255.892	452.38
256.124	401.38
256.357	406.38
256.59	413.38
256.823	422.38
257.056	418.38
257.289	495.38
257.521	537.38
257.754	478.38
257.987	468.38
258.22	517.38
258.452	488.38
258.685	417.38
258.918	431.38
259.151	408.38
259.383	384.38
259.616	380.38
259.849	382.38
260.081	422.38
260.314	466.38
260.547	480.38
260.779	493.38
261.012	482.38
261.244	412.38
261.477	410.38
261.71	429.38
261.942	417.38
262.175	414.38
262.407	416.38
262.64	403.38
262.872	387.38
263.105	391.38
263.337	399.38
263.57	376.38
263.802	411.38
264.035	375.38
264.267	353.38
264.499	352.38
264.732	402.38
264.964	424.38
265.197	415.38
265.429	436.38
265.661	494.38
265.894	517.38
266.126	506.38
266.358	477.38
266.591	485.38
266.823	521.38
267.055	460.38
267.287	471.38
267.52	472.38
267.752	459.38
267.984	464.38
268.216	504.38
268.448	493.38
268.681	472.38
268.913	441.38
269.145	430.38
269.377	431.38
269.609	474.38
269.841	529.38
270.073	601.38
270.306	637.38
270.538	615.38
270.77	563.38
271.002	523.38
271.234	505.38
271.466	519.38
271.698	572.38
271.93	624.38
272.162	601.38
272.394	563.38
272.626	525.38
272.858	482.38
273.09	443.38
273.322	422.38
273.553	398.38
273.785	441.38
274.017	440.38
274.249	442.38
274.481	452.38
274.713	422.38
274.945	430.38
275.176	435.38
275.408	417.38
275.64	393.38
275.872	408.38
276.104	452.38
276.335	491.38
276.567	561.38
276.799	559.38
277.031	503.38
277.262	492.38
277.494	513.38
277.726	545.38
277.957	551.38
278.189	502.38
278.421	468.38
278.652	439.38
278.884	455.38
279.115	451.38
279.347	465.38
279.579	456.38
279.81	447.38
280.042	500.38
280.273	533.38
280.505	524.38
280.736	538.38
280.968	475.38
281.199	457.38
281.431	439.38
281.662	424.38
281.894	433.38
282.125	473.38
282.356	465.38
282.588	516.38
282.819	492.38
283.051	504.38
283.282	523.38
283.513	508.38
283.745	443.38
283.976	444.38
284.207	461.38
284.439	455.38
284.67	457.38
284.901	490.38
285.132	485.38
285.364	476.38
285.595	471.38
285.826	476.38
286.057	471.38
286.288	449.38
286.52	498.38
286.751	505.38
286.982	514.38
287.213	477.38
287.444	451.38
287.675	467.38
287.906	487.38
288.138	507.38
288.369	488.38
288.6	463.38
288.831	435.38
289.062	442.38
289.293	472.38
289.524	460.38
289.755	490.38
289.986	453.38
290.217	448.38
290.448	457.38
290.679	473.38
290.91	481.38
291.141	485.38
291.371	501.38
291.602	503.38
291.833	510.38
292.064	515.38
292.295	508.38
292.526	524.38
292.757	503.38
292.987	515.38
293.218	482.38
293.449	527.38
293.68	591.38
293.91	609.38
294.141	599.38
294.372	537.38
294.603	568.38
294.833	584.38
295.064	549.38
295.295	542.38
295.525	489.38
295.756	458.38
295.987	463.38
296.217	482.38
296.448	478.38
296.679	472.38
296.909	469.38
297.14	477.38
297.37	493.38
297.601	535.38
297.831	547.38
298.062	520.38
298.292	514.38
298.523	492.38
298.753	462.38
298.984	497.38
299.214	507.38
299.445	534.38
299.675	515.38
299.905	499.38
300.136	481.38
300.366	497.38
300.597	474.38
300.827	475.38
301.057	499.38
301.288	506.38
301.518	516.38
301.748	525.38
301.979	570.38
302.209	598.38
302.439	617.38
302.669	600.38
302.9	578.38
303.13	533.38
303.36	521.38
303.59	547.38
303.82	503.38
304.051	527.38
304.281	534.38
304.511	555.38
304.741	587.38
304.971	641.38
305.201	661.38
305.431	564.38
305.661	516.38
305.891	481.38
306.121	487.38
306.352	501.38
306.582	535.38
306.812	562.38
307.042	612.38
307.272	610.38
307.502	609.38
307.731	644.38
307.961	656.38
308.191	620.38
308.421	520.38
308.651	512.38
308.881	500.38
309.111	522.38
309.341	505.38
309.571	490.38
309.8	510.38
310.03	510.38
310.26	511.38
310.49	510.38
310.72	532.38
310.949	538.38
311.179	533.38
311.409	524.38
311.639	519.38
311.868	510.38
312.098	533.38
312.328	532.38
312.557	528.38
312.787	531.38
313.017	552.38
313.246	539.38
313.476	534.38
313.706	551.38
313.935	548.38
314.165	571.38
314.394	581.38
314.624	600.38
314.853	645.38
315.083	644.38
315.312	611.38
315.542	601.38
315.771	558.38
316.001	568.38
316.23	583.38
316.46	582.38
316.689	578.38
316.919	537.38
317.148	532.38
317.377	532.38
317.607	595.38
317.836	683.38
318.065	667.38
318.295	637.38
318.524	604.38
318.753	588.38
318.983	599.38
319.212	575.38
319.441	571.38
319.67	560.38
319.9	589.38
320.129	607.38
320.358	634.38
320.587	655.38
320.816	632.38
321.046	609.38
321.275	616.38
321.504	617.38
321.733	640.38
321.962	632.38
322.191	587.38
322.42	567.38
322.649	562.38
322.878	567.38
323.108	581.38
323.337	603.38
323.566	604.38
323.795	593.38
324.024	580.38
324.253	607.38
324.482	589.38
324.71	534.38
324.939	536.38
325.168	556.38
325.397	580.38
325.626	598.38
325.855	600.38
326.084	582.38
326.313	581.38
326.542	583.38
326.77	603.38
326.999	601.38
327.228	570.38
327.457	544.38
327.686	553.38
327.914	550.38
328.143	577.38
328.372	575.38
328.6	588.38
328.829	592.38
329.058	559.38
329.287	561.38
329.515	578.38
329.744	583.38
329.972	635.38
330.201	651.38
330.43	628.38
330.658	605.38
330.887	621.38
331.115	618.38
331.344	614.38
331.572	615.38
331.801	620.38
332.03	627.38
332.258	617.38
332.486	658.38
332.715	637.38
332.943	629.38
333.172	629.38
333.4	614.38
333.629	628.38
333.857	681.38
334.085	752.38
334.314	853.38
334.542	881.38
334.771	811.38
334.999	707.38
335.227	690.38
335.455	651.38
335.684	648.38
335.912	697.38
336.14	669.38
336.369	643.38
336.597	611.38
336.825	636.38
337.053	662.38
337.281	725.38
337.51	718.38
337.738	730.38
337.966	684.38
338.194	610.38
338.422	613.38
338.65	600.38
338.878	577.38
339.106	579.38
339.334	582.38
339.562	570.38
339.79	610.38
340.018	645.38
340.246	647.38
340.474	651.38
340.702	647.38
340.93	635.38
341.158	622.38
341.386	600.38
341.614	627.38
341.842	608.38
342.07	638.38
342.298	595.38
342.526	622.38
342.754	614.38
342.981	620.38
343.209	616.38
343.437	606.38
343.665	615.38
343.893	634.38
344.12	657.38
344.348	661.38
344.576	617.38
344.804	606.38
345.031	603.38
345.259	611.38
345.487	610.38
345.714	600.38
345.942	572.38
346.17	603.38
346.397	591.38
346.625	578.38
346.853	574.38
347.08	547.38
347.308	551.38
347.535	604.38
347.763	604.38
347.99	611.38
348.218	575.38
348.445	571.38
348.673	570.38
348.9	588.38
349.128	656.38
349.355	613.38
349.583	605.38
349.81	573.38
350.037	537.38
350.265	563.38
350.492	558.38
350.72	590.38
350.947	587.38
351.174	600.38
351.402	561.38
351.629	546.38
351.856	550.38
352.083	559.38
352.311	577.38
352.538	584.38
352.765	605.38
352.992	602.38
353.22	578.38
353.447	564.38
353.674	586.38
353.901	578.38
354.128	554.38
354.355	579.38
354.583	597.38
354.81	596.38
355.037	609.38
355.264	584.38
355.491	587.38
355.718	586.38
355.945	573.38
356.172	581.38
356.399	539.38
356.626	574.38
356.853	606.38
357.08	661.38
357.307	692.38
357.534	641.38
357.761	606.38
357.988	569.38
358.215	549.38
358.441	557.38
358.668	574.38
358.895	609.38
359.122	611.38
359.349	641.38
359.576	621.38
359.802	610.38
360.029	534.38
360.256	550.38
360.483	568.38
360.709	606.38
360.936	611.38
361.163	647.38
361.39	708.38
361.616	714.38
361.843	717.38
362.07	663.38
362.296	597.38
362.523	559.38
362.749	567.38
362.976	582.38
363.203	596.38
363.429	578.38
363.656	549.38
363.882	592.38
364.109	668.38
364.335	663.38
364.562	660.38
364.788	626.38
365.015	590.38
365.241	587.38
365.468	589.38
365.694	627.38
365.92	635.38
366.147	606.38
366.373	577.38
366.599	567.38
366.826	564.38
367.052	578.38
367.278	594.38
367.505	611.38
367.731	629.38
367.957	613.38
368.184	655.38
368.41	689.38
368.636	673.38
368.862	717.38
369.089	703.38
369.315	652.38
369.541	625.38
369.767	590.38
369.993	599.38
370.219	610.38
370.445	628.38
370.672	673.38
370.898	703.38
371.124	691.38
371.35	680.38
371.576	653.38
371.802	682.38
372.028	653.38
372.254	639.38
372.48	606.38
372.706	597.38
372.932	633.38
373.158	633.38
373.384	658.38
373.61	665.38
373.835	679.38
374.061	649.38
374.287	661.38
374.513	637.38
374.739	620.38
374.965	669.38
375.191	667.38
375.416	665.38
375.642	663.38
375.868	741.38
376.094	715.38
376.319	693.38
376.545	658.38
376.771	685.38
376.997	716.38
377.222	699.38
377.448	688.38
377.674	681.38
377.899	705.38
378.125	748.38
378.35	686.38
378.576	633.38
378.802	645.38
379.027	623.38
379.253	643.38
379.478	665.38
379.704	670.38
379.929	659.38
380.155	658.38
380.38	653.38
380.606	684.38
380.831	682.38
381.057	737.38
381.282	718.38
381.507	707.38
381.733	754.38
381.958	740.38
382.184	714.38
382.409	706.38
382.634	682.38
382.86	689.38
383.085	700.38
383.31	727.38
383.535	823.38
383.761	839.38
383.986	758.38
384.211	745.38
384.436	758.38
384.662	804.38
384.887	815.38
385.112	793.38
385.337	787.38
385.562	761.38
385.787	735.38
386.013	746.38
386.238	769.38
386.463	811.38
386.688	875.38
386.913	866.38
387.138	829.38
387.363	805.38
387.588	766.38
387.813	777.38
388.038	789.38
388.263	802.38
388.488	802.38
388.713	723.38
388.938	723.38
389.163	747.38
389.387	770.38
389.612	760.38
389.837	771.38
390.062	775.38
390.287	778.38
390.512	772.38
390.736	757.38
390.961	759.38
391.186	767.38
391.411	757.38
391.636	743.38
391.86	784.38
392.085	793.38
392.31	764.38
392.534	780.38
392.759	802.38
392.984	782.38
393.208	783.38
393.433	809.38
393.658	836.38
393.882	830.38
394.107	807.38
394.331	797.38
394.556	782.38
394.78	795.38
395.005	831.38
395.229	863.38
395.454	889.38
395.678	892.38
395.903	857.38
396.127	847.38
396.352	855.38
396.576	879.38
396.801	858.38
397.025	861.38
397.249	828.38
397.474	827.38
397.698	836.38
397.922	887.38
398.147	919.38
398.371	940.38
398.595	919.38
398.82	897.38
399.044	918.38
399.268	956.38
399.492	978.38
399.717	1012.38
399.941	999.38
400.165	995.38
400.389	985.38
400.613	1038.38
400.837	1158.38
401.062	1255.38
401.286	1065.38
401.51	1002.38
401.734	982.38
401.958	945.38
402.182	911.38
402.406	895.38
402.63	871.38
402.854	917.38
403.078	945.38
403.302	933.38
403.526	947.38
403.75	952.38
403.974	973.38
404.198	950.38
404.422	996.38
404.645	1014.38
404.869	1002.38
405.093	940.38
405.317	921.38
405.541	942.38
405.765	961.38
405.988	932.38
406.212	965.38
406.436	973.38
406.66	1031.38
406.883	1057.38
407.107	1197.38
407.331	1266.38
407.555	1294.38
407.778	1162.38
408.002	1025.38
408.226	976.38
408.449	991.38
408.673	957.38
408.896	965.38
409.12	991.38
409.344	949.38
409.567	935.38
409.791	931.38
410.014	1027.38
410.238	1060.38
410.461	1061.38
410.685	982.38
410.908	964.38
411.132	961.38
411.355	946.38
411.578	964.38
411.802	950.38
412.025	986.38
412.249	961.38
412.472	939.38
412.695	936.38
412.919	955.38
413.142	951.38
413.365	958.38
413.589	990.38
413.812	1011.38
414.035	1027.38
414.258	959.38
414.482	962.38
414.705	932.38
414.928	925.38
415.151	935.38
415.374	959.38
415.597	966.38
415.821	943.38
416.044	954.38
416.267	959.38
416.49	956.38
416.713	946.38
416.936	976.38
417.159	1011.38
417.382	975.38
417.605	967.38
417.828	956.38
418.051	977.38
418.274	958.38
418.497	961.38
418.72	984.38
418.943	945.38
419.166	990.38
419.389	1026.38
419.611	981.38
419.834	1003.38
420.057	955.38
420.28	945.38
420.503	949.38
420.726	981.38
420.948	956.38
421.171	966.38
421.394	954.38
421.617	1037.38
421.839	1017.38
422.062	991.38
422.285	974.38
422.507	946.38
422.73	892.38
422.953	886.38
423.175	887.38
423.398	948.38
423.621	940.38
423.843	951.38
424.066	1025.38
424.288	1068.38
424.511	1066.38
424.733	1050.38
424.956	951.38
425.178	951.38
425.401	938.38
425.623	971.38
425.846	950.38
426.068	1015.38
426.291	1033.38
426.513	985.38
426.735	1002.38
426.958	1070.38
427.18	1089.38
427.402	1023.38
427.625	1058.38
427.847	999.38
428.069	957.38
428.292	916.38
428.514	927.38
428.736	898.38
428.958	947.38
429.181	953.38
429.403	1092.38
429.625	1275.38
429.847	1075.38
430.069	970.38
430.292	1069.38
430.514	1083.38
430.736	979.38
430.958	1021.38
431.18	983.38
431.402	909.38
431.624	859.38
431.846	819.38
432.068	726.38
432.29	767.38
432.512	827.38
432.734	915.38
432.956	937.38
433.178	986.38
433.4	982.38
433.622	984.38
433.844	937.38
434.066	863.38
434.287	795.38
434.509	774.38
434.731	854.38
434.953	926.38
435.175	939.38
435.397	924.38
435.618	890.38
435.84	861.38
436.062	861.38
436.284	931.38
436.505	963.38
436.727	978.38
436.949	943.38
437.17	925.38
437.392	909.38
437.614	872.38
437.835	808.38
438.057	855.38
438.278	867.38
438.5	909.38
438.721	923.38
438.943	930.38
439.165	949.38
439.386	976.38
439.608	956.38
439.829	972.38
440.05	967.38
440.272	985.38
440.493	1012.38
440.715	1025.38
440.936	1091.38
441.158	1102.38
441.379	1057.38
441.6	1061.38
441.822	1060.38
442.043	1061.38
442.264	1015.38
442.486	981.38
442.707	971.38
442.928	990.38
443.149	1057.38
443.371	1037.38
443.592	1053.38
443.813	1042.38
444.034	1045.38
444.255	1034.38
444.476	1053.38
444.698	1068.38
444.919	1062.38
445.14	1137.38
445.361	1124.38
445.582	1081.38
445.803	1094.38
446.024	1072.38
446.245	1085.38
446.466	1092.38
446.687	1057.38
446.908	1060.38
447.129	1026.38
447.35	1064.38
447.571	1018.38
447.792	1000.38
448.013	979.38
448.234	997.38
448.455	1031.38
448.675	1040.38
448.896	959.38
449.117	952.38
449.338	962.38
449.559	968.38
449.779	1030.38
450	1080.38
450.221	1068.38
450.442	1068.38
450.662	989.38
450.883	922.38
451.104	897.38
451.324	913.38
451.545	911.38
451.766	897.38
451.986	874.38
452.207	847.38
452.428	815.38
452.648	798.38
452.869	831.38
453.089	814.38
453.31	799.38
453.53	791.38
453.751	732.38
453.971	705.38
454.192	774.38
454.412	799.38
454.633	814.38
454.853	790.38
455.073	791.38
455.294	803.38
455.514	782.38
455.734	778.38
455.955	794.38
456.175	774.38
456.395	742.38
456.616	738.38
456.836	749.38
457.056	759.38
457.276	761.38
457.497	747.38
457.717	717.38
457.937	729.38
458.157	753.38
458.377	715.38
458.598	681.38
458.818	687.38
459.038	711.38
459.258	750.38
459.478	740.38
459.698	730.38
459.918	774.38
460.138	813.38
460.358	865.38
460.578	859.38
460.798	878.38
461.018	920.38
461.238	915.38
461.458	871.38
461.678	870.38
461.898	867.38
462.118	846.38
462.338	869.38
462.558	882.38
462.777	871.38
462.997	881.38
463.217	910.38
463.437	895.38
463.657	862.38
463.876	845.38
464.096	834.38
464.316	867.38
464.536	895.38
464.755	906.38
464.975	900.38
465.195	898.38
465.414	894.38
465.634	901.38
465.854	915.38
466.073	1017.38
466.293	976.38
466.512	901.38
466.732	915.38
466.951	938.38
467.171	941.38
467.391	893.38
467.61	889.38
467.829	928.38
468.049	1009.38
468.268	1083.38
468.488	1005.38
468.707	943.38
468.927	937.38
469.146	924.38
469.365	916.38
469.585	969.38
469.804	943.38
470.023	953.38
470.243	966.38
470.462	938.38
470.681	967.38
470.901	952.38
471.12	965.38
471.339	977.38
471.558	940.38
471.777	925.38
471.997	931.38
472.216	883.38
472.435	806.38
472.654	812.38
472.873	790.38
473.092	859.38
473.311	862.38
473.53	830.38
473.749	826.38
473.968	872.38
474.187	871.38
474.406	866.38
474.625	874.38
474.844	907.38
475.063	896.38
475.282	895.38
475.501	853.38
475.72	844.38
475.939	949.38
476.158	926.38
476.377	875.38
476.596	855.38
476.814	841.38
477.033	821.38
477.252	871.38
477.471	942.38
477.69	911.38
477.908	957.38
478.127	1021.38
478.346	1053.38
478.564	998.38
478.783	1032.38
479.002	1038.38
479.22	1044.38
479.439	1057.38
479.658	1087.38
479.876	987.38
480.095	922.38
480.313	922.38
480.532	914.38
480.751	889.38
480.969	844.38
481.188	833.38
481.406	817.38
481.624	782.38
481.843	827.38
482.061	864.38
482.28	919.38
482.498	888.38
482.717	871.38
482.935	886.38
483.153	997.38
483.372	1053.38
483.59	1062.38
483.808	1006.38
484.027	975.38
484.245	1030.38
484.463	1273.38
484.681	1335.38
484.9	1092.38
485.118	1015.38
485.336	956.38
485.554	939.38
485.772	922.38
485.99	894.38
486.209	919.38
486.427	924.38
486.645	971.38
486.863	1045.38
487.081	1057.38
487.299	1009.38
487.517	1015.38
487.735	1154.38
487.953	1219.38
488.171	1214.38
488.389	1146.38
488.607	1137.38
488.825	1201.38
489.043	1089.38
489.261	1011.38
489.479	1061.38
489.696	1051.38
489.914	1038.38
490.132	1066.38
490.35	1140.38
490.568	1198.38
490.786	1238.38
491.003	1231.38
491.221	1274.38
491.439	1345.38
491.657	1337.38
491.874	1379.38
492.092	1486.38
492.31	1531.38
492.527	1483.38
492.745	1391.38
492.963	1365.38
493.18	1334.38
493.398	1404.38
493.615	1369.38
493.833	1286.38
494.05	1254.38
494.268	1268.38
494.485	1269.38
494.703	1241.38
494.92	1255.38
495.138	1256.38
495.355	1253.38
495.573	1301.38
495.79	1308.38
496.008	1322.38
496.225	1304.38
496.442	1291.38
496.66	1244.38
496.877	1240.38
497.094	1278.38
497.312	1258.38
497.529	1205.38
497.746	1234.38
497.963	1344.38
498.181	1354.38
498.398	1317.38
498.615	1241.38
498.832	1203.38
499.049	1172.38
499.267	1180.38
499.484	1248.38
499.701	1383.38
499.918	1385.38
