Data from WStandard_LampEnergy8_LIBS07252019.E.O._I.C._HRD10591_16-00-00-930.txt Node
Date: Thu Jul 25 16:00:00 EDT 2019
User: cochatt
Spectrometer: HR+D1059
Trigger mode: 1
Integration Time (sec): 1.000000E-1
Scans to average: 1
Electric dark correction enabled: true
Nonlinearity correction enabled: false
Boxcar width: 0
XAxis mode: Wavelengths
Number of Pixels in Spectrum: 2048
>>>>>Begin Spectral Data<<<<<
223.165	-14.44
223.4	-14.44
223.635	-14.44
223.869	-18.44
224.104	-16.44
224.338	-14.44
224.573	-11.44
224.808	-2.44
225.042	-12.44
225.277	-2.44
225.511	0.56
225.746	-6.44
225.98	-5.44
226.215	14.56
226.449	29.56
226.683	9.56
226.918	23.56
227.152	26.56
227.387	21.56
227.621	35.56
227.856	35.56
228.09	50.56
228.324	48.56
228.559	64.56
228.793	110.56
229.027	200.56
229.262	209.56
229.496	212.56
229.73	214.56
229.964	224.56
230.199	243.56
230.433	254.56
230.667	268.56
230.901	282.56
231.136	256.56
231.37	256.56
231.604	245.56
231.838	239.56
232.072	260.56
232.306	244.56
232.541	258.56
232.775	312.56
233.009	324.56
233.243	309.56
233.477	271.56
233.711	317.56
233.945	293.56
234.179	301.56
234.413	312.56
234.647	336.56
234.881	319.56
235.115	295.56
235.349	284.56
235.583	287.56
235.817	294.56
236.051	300.56
236.285	320.56
236.519	316.56
236.753	366.56
236.987	355.56
237.221	356.56
237.455	361.56
237.689	375.56
237.922	361.56
238.156	356.56
238.39	354.56
238.624	373.56
238.858	371.56
239.091	426.56
239.325	420.56
239.559	483.56
239.793	477.56
240.027	505.56
240.26	512.56
240.494	385.56
240.728	356.56
240.961	378.56
241.195	391.56
241.429	410.56
241.662	421.56
241.896	394.56
242.13	394.56
242.363	416.56
242.597	451.56
242.83	453.56
243.064	466.56
243.298	484.56
243.531	471.56
243.765	438.56
243.998	471.56
244.232	396.56
244.465	386.56
244.699	405.56
244.932	466.56
245.166	510.56
245.399	484.56
245.633	476.56
245.866	436.56
246.099	477.56
246.333	496.56
246.566	485.56
246.8	517.56
247.033	572.56
247.266	546.56
247.5	521.56
247.733	529.56
247.966	554.56
248.2	600.56
248.433	615.56
248.666	601.56
248.899	672.56
249.133	748.56
249.366	837.56
249.599	676.56
249.832	622.56
250.066	604.56
250.299	611.56
250.532	579.56
250.765	544.56
250.998	576.56
251.231	564.56
251.465	600.56
251.698	574.56
251.931	594.56
252.164	599.56
252.397	619.56
252.63	622.56
252.863	535.56
253.096	558.56
253.329	564.56
253.562	579.56
253.795	616.56
254.028	604.56
254.261	584.56
254.494	552.56
254.727	524.56
254.96	566.56
255.193	631.56
255.426	693.56
255.659	746.56
255.892	796.56
256.124	666.56
256.357	625.56
256.59	693.56
256.823	691.56
257.056	708.56
257.289	810.56
257.521	910.56
257.754	804.56
257.987	749.56
258.22	841.56
258.452	821.56
258.685	687.56
258.918	638.56
259.151	650.56
259.383	648.56
259.616	595.56
259.849	633.56
260.081	704.56
260.314	764.56
260.547	790.56
260.779	812.56
261.012	787.56
261.244	679.56
261.477	647.56
261.71	673.56
261.942	714.56
262.175	665.56
262.407	694.56
262.64	660.56
262.872	647.56
263.105	596.56
263.337	615.56
263.57	655.56
263.802	618.56
264.035	580.56
264.267	560.56
264.499	548.56
264.732	621.56
264.964	668.56
265.197	692.56
265.429	705.56
265.661	773.56
265.894	833.56
266.126	848.56
266.358	782.56
266.591	810.56
266.823	868.56
267.055	804.56
267.287	764.56
267.52	757.56
267.752	767.56
267.984	755.56
268.216	809.56
268.448	798.56
268.681	785.56
268.913	722.56
269.145	697.56
269.377	734.56
269.609	732.56
269.841	853.56
270.073	1019.56
270.306	1081.56
270.538	1094.56
270.77	940.56
271.002	834.56
271.234	806.56
271.466	806.56
271.698	904.56
271.93	1078.56
272.162	1045.56
272.394	912.56
272.626	898.56
272.858	791.56
273.09	725.56
273.322	693.56
273.553	672.56
273.785	717.56
274.017	735.56
274.249	751.56
274.481	774.56
274.713	706.56
274.945	666.56
275.176	716.56
275.408	693.56
275.64	686.56
275.872	673.56
276.104	748.56
276.335	844.56
276.567	906.56
276.799	928.56
277.031	829.56
277.262	809.56
277.494	846.56
277.726	922.56
277.957	900.56
278.189	810.56
278.421	748.56
278.652	730.56
278.884	695.56
279.115	728.56
279.347	741.56
279.579	737.56
279.81	764.56
280.042	832.56
280.273	850.56
280.505	864.56
280.736	870.56
280.968	814.56
281.199	742.56
281.431	721.56
281.662	713.56
281.894	705.56
282.125	751.56
282.356	774.56
282.588	781.56
282.819	781.56
283.051	830.56
283.282	871.56
283.513	856.56
283.745	752.56
283.976	702.56
284.207	725.56
284.439	732.56
284.67	744.56
284.901	778.56
285.132	782.56
285.364	759.56
285.595	783.56
285.826	751.56
286.057	756.56
286.288	767.56
286.52	816.56
286.751	866.56
286.982	861.56
287.213	792.56
287.444	775.56
287.675	748.56
287.906	788.56
288.138	819.56
288.369	800.56
288.6	781.56
288.831	750.56
289.062	737.56
289.293	746.56
289.524	761.56
289.755	774.56
289.986	765.56
290.217	741.56
290.448	752.56
290.679	770.56
290.91	783.56
291.141	818.56
291.371	815.56
291.602	816.56
291.833	822.56
292.064	852.56
292.295	818.56
292.526	859.56
292.757	869.56
292.987	830.56
293.218	830.56
293.449	864.56
293.68	983.56
293.91	1030.56
294.141	968.56
294.372	930.56
294.603	955.56
294.833	988.56
295.064	929.56
295.295	837.56
295.525	821.56
295.756	777.56
295.987	739.56
296.217	755.56
296.448	744.56
296.679	752.56
296.909	778.56
297.14	775.56
297.37	793.56
297.601	857.56
297.831	870.56
298.062	866.56
298.292	807.56
298.523	780.56
298.753	807.56
298.984	793.56
299.214	794.56
299.445	827.56
299.675	873.56
299.905	872.56
300.136	823.56
300.366	796.56
300.597	788.56
300.827	788.56
301.057	821.56
301.288	839.56
301.518	854.56
301.748	871.56
301.979	938.56
302.209	927.56
302.439	965.56
302.669	996.56
302.9	964.56
303.13	860.56
303.36	864.56
303.59	848.56
303.82	847.56
304.051	846.56
304.281	869.56
304.511	893.56
304.741	975.56
304.971	1024.56
305.201	1080.56
305.431	979.56
305.661	812.56
305.891	786.56
306.121	768.56
306.352	823.56
306.582	859.56
306.812	871.56
307.042	957.56
307.272	966.56
307.502	989.56
307.731	1039.56
307.961	1102.56
308.191	1013.56
308.421	884.56
308.651	849.56
308.881	839.56
309.111	824.56
309.341	852.56
309.571	828.56
309.8	841.56
310.03	805.56
310.26	815.56
310.49	820.56
310.72	857.56
310.949	897.56
311.179	876.56
311.409	870.56
311.639	851.56
311.868	814.56
312.098	860.56
312.328	831.56
312.557	855.56
312.787	864.56
313.017	879.56
313.246	884.56
313.476	887.56
313.706	897.56
313.935	886.56
314.165	914.56
314.394	918.56
314.624	985.56
314.853	1006.56
315.083	1049.56
315.312	1041.56
315.542	1005.56
315.771	884.56
316.001	915.56
316.23	967.56
316.46	926.56
316.689	930.56
316.919	869.56
317.148	847.56
317.377	880.56
317.607	953.56
317.836	1070.56
318.065	1088.56
318.295	1029.56
318.524	981.56
318.753	962.56
318.983	968.56
319.212	935.56
319.441	928.56
319.67	894.56
319.9	938.56
320.129	975.56
320.358	996.56
320.587	1035.56
320.816	1046.56
321.046	1014.56
321.275	991.56
321.504	970.56
321.733	1017.56
321.962	986.56
322.191	966.56
322.42	907.56
322.649	928.56
322.878	919.56
323.108	931.56
323.337	947.56
323.566	962.56
323.795	967.56
324.024	946.56
324.253	923.56
324.482	964.56
324.71	892.56
324.939	851.56
325.168	892.56
325.397	919.56
325.626	954.56
325.855	969.56
326.084	963.56
326.313	934.56
326.542	965.56
326.77	952.56
326.999	926.56
327.228	924.56
327.457	888.56
327.686	885.56
327.914	896.56
328.143	917.56
328.372	905.56
328.6	920.56
328.829	910.56
329.058	891.56
329.287	906.56
329.515	948.56
329.744	976.56
329.972	999.56
330.201	1041.56
330.43	1013.56
330.658	956.56
330.887	996.56
331.115	1009.56
331.344	1006.56
331.572	958.56
331.801	963.56
332.03	989.56
332.258	960.56
332.486	984.56
332.715	1004.56
332.943	1008.56
333.172	999.56
333.4	1021.56
333.629	1009.56
333.857	1124.56
334.085	1211.56
334.314	1348.56
334.542	1426.56
334.771	1294.56
334.999	1173.56
335.227	1140.56
335.455	1057.56
335.684	1056.56
335.912	1072.56
336.14	1087.56
336.369	1046.56
336.597	1001.56
336.825	984.56
337.053	1068.56
337.281	1119.56
337.51	1161.56
337.738	1158.56
337.966	1078.56
338.194	1013.56
338.422	983.56
338.65	999.56
338.878	974.56
339.106	961.56
339.334	949.56
339.562	951.56
339.79	950.56
340.018	1005.56
340.246	1062.56
340.474	1032.56
340.702	1021.56
340.93	1030.56
341.158	1044.56
341.386	992.56
341.614	982.56
341.842	991.56
342.07	975.56
342.298	983.56
342.526	1032.56
342.754	990.56
342.981	952.56
343.209	944.56
343.437	968.56
343.665	972.56
343.893	998.56
344.12	1069.56
344.348	1058.56
344.576	1001.56
344.804	1000.56
345.031	984.56
345.259	989.56
345.487	924.56
345.714	903.56
345.942	923.56
346.17	898.56
346.397	949.56
346.625	931.56
346.853	905.56
347.08	871.56
347.308	905.56
347.535	911.56
347.763	956.56
347.99	912.56
348.218	892.56
348.445	879.56
348.673	914.56
348.9	950.56
349.128	990.56
349.355	1038.56
349.583	961.56
349.81	927.56
350.037	842.56
350.265	875.56
350.492	894.56
350.72	897.56
350.947	954.56
351.174	946.56
351.402	910.56
351.629	862.56
351.856	870.56
352.083	851.56
352.311	888.56
352.538	890.56
352.765	929.56
352.992	929.56
353.22	897.56
353.447	891.56
353.674	907.56
353.901	906.56
354.128	882.56
354.355	910.56
354.583	974.56
354.81	966.56
355.037	974.56
355.264	960.56
355.491	950.56
355.718	940.56
355.945	914.56
356.172	932.56
356.399	871.56
356.626	902.56
356.853	948.56
357.08	1038.56
357.307	1086.56
357.534	1081.56
357.761	942.56
357.988	884.56
358.215	882.56
358.441	855.56
358.668	897.56
358.895	911.56
359.122	970.56
359.349	1048.56
359.576	1000.56
359.802	937.56
360.029	885.56
360.256	897.56
360.483	927.56
360.709	933.56
360.936	978.56
361.163	1001.56
361.39	1121.56
361.616	1155.56
361.843	1145.56
362.07	1037.56
362.296	938.56
362.523	898.56
362.749	921.56
362.976	941.56
363.203	977.56
363.429	927.56
363.656	924.56
363.882	961.56
364.109	1053.56
364.335	1113.56
364.562	1044.56
364.788	976.56
365.015	933.56
365.241	916.56
365.468	962.56
365.694	991.56
365.92	1014.56
366.147	934.56
366.373	913.56
366.599	916.56
366.826	900.56
367.052	901.56
367.278	917.56
367.505	910.56
367.731	930.56
367.957	953.56
368.184	988.56
368.41	1045.56
368.636	1052.56
368.862	1079.56
369.089	1068.56
369.315	1053.56
369.541	979.56
369.767	940.56
369.993	905.56
370.219	923.56
370.445	956.56
370.672	1008.56
370.898	1073.56
371.124	1033.56
371.35	973.56
371.576	1043.56
371.802	1022.56
372.028	1001.56
372.254	948.56
372.48	954.56
372.706	946.56
372.932	983.56
373.158	966.56
373.384	981.56
373.61	1029.56
373.835	1050.56
374.061	986.56
374.287	994.56
374.513	995.56
374.739	1010.56
374.965	976.56
375.191	995.56
375.416	1031.56
375.642	1017.56
375.868	1109.56
376.094	1105.56
376.319	1048.56
376.545	990.56
376.771	1026.56
376.997	1060.56
377.222	1064.56
377.448	1021.56
377.674	1025.56
377.899	1020.56
378.125	1121.56
378.35	1091.56
378.576	1002.56
378.802	929.56
379.027	945.56
379.253	978.56
379.478	1008.56
379.704	996.56
379.929	982.56
380.155	1020.56
380.38	996.56
380.606	1040.56
380.831	1007.56
381.057	1057.56
381.282	1048.56
381.507	1032.56
381.733	1141.56
381.958	1143.56
382.184	1074.56
382.409	1022.56
382.634	1050.56
382.86	1032.56
383.085	1043.56
383.31	1106.56
383.535	1172.56
383.761	1250.56
383.986	1156.56
384.211	1088.56
384.436	1122.56
384.662	1201.56
384.887	1177.56
385.112	1146.56
385.337	1134.56
385.562	1110.56
385.787	1113.56
386.013	1160.56
386.238	1158.56
386.463	1134.56
386.688	1261.56
386.913	1299.56
387.138	1252.56
387.363	1185.56
387.588	1196.56
387.813	1161.56
388.038	1194.56
388.263	1236.56
388.488	1192.56
388.713	1080.56
388.938	1135.56
389.163	1096.56
389.387	1130.56
389.612	1155.56
389.837	1138.56
390.062	1144.56
390.287	1127.56
390.512	1117.56
390.736	1123.56
390.961	1089.56
391.186	1077.56
391.411	1106.56
391.636	1130.56
391.86	1148.56
392.085	1122.56
392.31	1096.56
392.534	1143.56
392.759	1170.56
392.984	1162.56
393.208	1177.56
393.433	1184.56
393.658	1227.56
393.882	1231.56
394.107	1150.56
394.331	1143.56
394.556	1126.56
394.78	1162.56
395.005	1192.56
395.229	1225.56
395.454	1316.56
395.678	1289.56
395.903	1214.56
396.127	1235.56
396.352	1226.56
396.576	1288.56
396.801	1226.56
397.025	1242.56
397.249	1233.56
397.474	1222.56
397.698	1225.56
397.922	1306.56
398.147	1356.56
398.371	1375.56
398.595	1357.56
398.82	1281.56
399.044	1366.56
399.268	1373.56
399.492	1450.56
399.717	1482.56
399.941	1487.56
400.165	1469.56
400.389	1454.56
400.613	1453.56
400.837	1672.56
401.062	1814.56
401.286	1532.56
401.51	1444.56
401.734	1456.56
401.958	1406.56
402.182	1342.56
402.406	1316.56
402.63	1265.56
402.854	1289.56
403.078	1316.56
403.302	1334.56
403.526	1343.56
403.75	1341.56
403.974	1343.56
404.198	1394.56
404.422	1441.56
404.645	1487.56
404.869	1433.56
405.093	1309.56
405.317	1300.56
405.541	1343.56
405.765	1348.56
405.988	1365.56
406.212	1392.56
406.436	1422.56
406.66	1447.56
406.883	1492.56
407.107	1674.56
407.331	1791.56
407.555	1929.56
407.778	1704.56
408.002	1446.56
408.226	1389.56
408.449	1434.56
408.673	1400.56
408.896	1375.56
409.12	1386.56
409.344	1362.56
409.567	1317.56
409.791	1346.56
410.014	1407.56
410.238	1456.56
410.461	1560.56
410.685	1385.56
410.908	1312.56
411.132	1375.56
411.355	1355.56
411.578	1308.56
411.802	1357.56
412.025	1329.56
412.249	1309.56
412.472	1300.56
412.695	1304.56
412.919	1305.56
413.142	1313.56
413.365	1322.56
413.589	1328.56
413.812	1420.56
414.035	1429.56
414.258	1343.56
414.482	1319.56
414.705	1342.56
414.928	1322.56
415.151	1293.56
415.374	1316.56
415.597	1332.56
415.821	1336.56
416.044	1361.56
416.267	1320.56
416.49	1276.56
416.713	1255.56
416.936	1324.56
417.159	1377.56
417.382	1393.56
417.605	1301.56
417.828	1325.56
418.051	1348.56
418.274	1345.56
418.497	1280.56
418.72	1271.56
418.943	1290.56
419.166	1337.56
419.389	1348.56
419.611	1334.56
419.834	1296.56
420.057	1323.56
420.28	1301.56
420.503	1261.56
420.726	1350.56
420.948	1320.56
421.171	1247.56
421.394	1314.56
421.617	1338.56
421.839	1356.56
422.062	1311.56
422.285	1282.56
422.507	1300.56
422.73	1234.56
422.953	1224.56
423.175	1230.56
423.398	1286.56
423.621	1283.56
423.843	1316.56
424.066	1372.56
424.288	1379.56
424.511	1368.56
424.733	1350.56
424.956	1245.56
425.178	1268.56
425.401	1231.56
425.623	1232.56
425.846	1249.56
426.068	1354.56
426.291	1350.56
426.513	1322.56
426.735	1342.56
426.958	1446.56
427.18	1477.56
427.402	1409.56
427.625	1406.56
427.847	1392.56
428.069	1336.56
428.292	1260.56
428.514	1225.56
428.736	1234.56
428.958	1253.56
429.181	1270.56
429.403	1444.56
429.625	1758.56
429.847	1498.56
430.069	1336.56
430.292	1471.56
430.514	1456.56
430.736	1347.56
430.958	1367.56
431.18	1313.56
431.402	1237.56
431.624	1217.56
431.846	1214.56
432.068	1105.56
432.29	1152.56
432.512	1172.56
432.734	1249.56
432.956	1255.56
433.178	1336.56
433.4	1333.56
433.622	1340.56
433.844	1274.56
434.066	1202.56
434.287	1186.56
434.509	1207.56
434.731	1264.56
434.953	1349.56
435.175	1332.56
435.397	1294.56
435.618	1293.56
435.84	1212.56
436.062	1251.56
436.284	1259.56
436.505	1285.56
436.727	1319.56
436.949	1247.56
437.17	1210.56
437.392	1231.56
437.614	1209.56
437.835	1172.56
438.057	1225.56
438.278	1241.56
438.5	1207.56
438.721	1222.56
438.943	1246.56
439.165	1224.56
439.386	1210.56
439.608	1233.56
439.829	1241.56
440.05	1238.56
440.272	1256.56
440.493	1200.56
440.715	1279.56
440.936	1372.56
441.158	1420.56
441.379	1401.56
441.6	1366.56
441.822	1348.56
442.043	1323.56
442.264	1289.56
442.486	1282.56
442.707	1262.56
442.928	1252.56
443.149	1298.56
443.371	1345.56
443.592	1385.56
443.813	1377.56
444.034	1360.56
444.255	1392.56
444.476	1388.56
444.698	1398.56
444.919	1381.56
445.14	1472.56
445.361	1433.56
445.582	1412.56
445.803	1352.56
446.024	1377.56
446.245	1401.56
446.466	1344.56
446.687	1336.56
446.908	1354.56
447.129	1329.56
447.35	1318.56
447.571	1286.56
447.792	1238.56
448.013	1233.56
448.234	1269.56
448.455	1318.56
448.675	1319.56
448.896	1244.56
449.117	1198.56
449.338	1207.56
449.559	1306.56
449.779	1345.56
450	1445.56
450.221	1472.56
450.442	1418.56
450.662	1265.56
450.883	1168.56
451.104	1190.56
451.324	1205.56
451.545	1219.56
451.766	1185.56
451.986	1143.56
452.207	1110.56
452.428	1106.56
452.648	1104.56
452.869	1118.56
453.089	1137.56
453.31	1113.56
453.53	1158.56
453.751	1114.56
453.971	1027.56
454.192	1068.56
454.412	1181.56
454.633	1156.56
454.853	1098.56
455.073	1114.56
455.294	1081.56
455.514	1062.56
455.734	1070.56
455.955	1081.56
456.175	1081.56
456.395	1081.56
456.616	1077.56
456.836	1082.56
457.056	1065.56
457.276	1068.56
457.497	1044.56
457.717	1027.56
457.937	1042.56
458.157	1040.56
458.377	1051.56
458.598	1027.56
458.818	1051.56
459.038	1127.56
459.258	1139.56
459.478	1133.56
459.698	1101.56
459.918	1168.56
460.138	1220.56
460.358	1233.56
460.578	1231.56
460.798	1266.56
461.018	1355.56
461.238	1301.56
461.458	1267.56
461.678	1228.56
461.898	1188.56
462.118	1182.56
462.338	1254.56
462.558	1266.56
462.777	1266.56
462.997	1327.56
463.217	1346.56
463.437	1354.56
463.657	1288.56
463.876	1258.56
464.096	1251.56
464.316	1285.56
464.536	1271.56
464.755	1258.56
464.975	1303.56
465.195	1279.56
465.414	1310.56
465.634	1290.56
465.854	1308.56
466.073	1421.56
466.293	1347.56
466.512	1200.56
466.732	1172.56
466.951	1255.56
467.171	1238.56
467.391	1193.56
467.61	1223.56
467.829	1236.56
468.049	1352.56
468.268	1440.56
468.488	1324.56
468.707	1256.56
468.927	1243.56
469.146	1189.56
469.365	1187.56
469.585	1244.56
469.804	1236.56
470.023	1253.56
470.243	1257.56
470.462	1230.56
470.681	1213.56
470.901	1233.56
471.12	1269.56
471.339	1271.56
471.558	1215.56
471.777	1196.56
471.997	1208.56
472.216	1169.56
472.435	1114.56
472.654	1118.56
472.873	1163.56
473.092	1230.56
473.311	1175.56
473.53	1146.56
473.749	1114.56
473.968	1150.56
474.187	1204.56
474.406	1235.56
474.625	1203.56
474.844	1220.56
475.063	1219.56
475.282	1232.56
475.501	1182.56
475.72	1188.56
475.939	1283.56
476.158	1242.56
476.377	1212.56
476.596	1200.56
476.814	1224.56
477.033	1236.56
477.252	1256.56
477.471	1302.56
477.69	1303.56
477.908	1315.56
478.127	1355.56
478.346	1422.56
478.564	1395.56
478.783	1406.56
479.002	1451.56
479.22	1416.56
479.439	1469.56
479.658	1592.56
479.876	1516.56
480.095	1382.56
480.313	1360.56
480.532	1298.56
480.751	1317.56
480.969	1317.56
481.188	1243.56
481.406	1270.56
481.624	1236.56
481.843	1235.56
482.061	1279.56
482.28	1344.56
482.498	1384.56
482.717	1286.56
482.935	1296.56
483.153	1379.56
483.372	1391.56
483.59	1391.56
483.808	1327.56
484.027	1400.56
484.245	1422.56
484.463	1719.56
484.681	1915.56
484.9	1482.56
485.118	1344.56
485.336	1371.56
485.554	1354.56
485.772	1391.56
485.99	1369.56
486.209	1394.56
486.427	1416.56
486.645	1413.56
486.863	1391.56
487.081	1453.56
487.299	1460.56
487.517	1432.56
487.735	1444.56
487.953	1493.56
488.171	1505.56
488.389	1439.56
488.607	1421.56
488.825	1586.56
489.043	1537.56
489.261	1400.56
489.479	1477.56
489.696	1472.56
489.914	1439.56
490.132	1426.56
490.35	1416.56
490.568	1521.56
490.786	1521.56
491.003	1475.56
491.221	1566.56
491.439	1579.56
491.657	1609.56
491.874	1636.56
492.092	1694.56
492.31	1661.56
492.527	1676.56
492.745	1610.56
492.963	1590.56
493.18	1634.56
493.398	1708.56
493.615	1698.56
