Data from WStandard_LampEnergy10_LIBS07252019.E.O._I.C._HRD10591_15-55-56-928.txt Node
Date: Thu Jul 25 15:55:56 EDT 2019
User: cochatt
Spectrometer: HR+D1059
Trigger mode: 1
Integration Time (sec): 1.000000E-1
Scans to average: 1
Electric dark correction enabled: true
Nonlinearity correction enabled: false
Boxcar width: 0
XAxis mode: Wavelengths
Number of Pixels in Spectrum: 2048
>>>>>Begin Spectral Data<<<<<
223.165	-16.81
223.4	-16.81
223.635	-16.81
223.869	-6.81
224.104	-22.81
224.338	-7.81
224.573	-26.81
224.808	-14.81
225.042	-22.81
225.277	4.19
225.511	-5.81
225.746	-0.81
225.98	26.19
226.215	19.19
226.449	5.19
226.683	20.19
226.918	26.19
227.152	24.19
227.387	45.19
227.621	37.19
227.856	53.19
228.09	44.19
228.324	70.19
228.559	54.19
228.793	72.19
229.027	139.19
229.262	109.19
229.496	140.19
229.73	151.19
229.964	157.19
230.199	165.19
230.433	170.19
230.667	197.19
230.901	186.19
231.136	189.19
231.37	168.19
231.604	166.19
231.838	162.19
232.072	172.19
232.306	199.19
232.541	180.19
232.775	196.19
233.009	198.19
233.243	210.19
233.477	186.19
233.711	197.19
233.945	204.19
234.179	174.19
234.413	203.19
234.647	221.19
234.881	209.19
235.115	189.19
235.349	187.19
235.583	187.19
235.817	196.19
236.051	178.19
236.285	192.19
236.519	200.19
236.753	212.19
236.987	227.19
237.221	219.19
237.455	233.19
237.689	232.19
237.922	224.19
238.156	215.19
238.39	206.19
238.624	228.19
238.858	242.19
239.091	240.19
239.325	256.19
239.559	296.19
239.793	274.19
240.027	300.19
240.26	286.19
240.494	237.19
240.728	223.19
240.961	234.19
241.195	234.19
241.429	238.19
241.662	259.19
241.896	237.19
242.13	254.19
242.363	253.19
242.597	274.19
242.83	274.19
243.064	271.19
243.298	288.19
243.531	264.19
243.765	266.19
243.998	275.19
244.232	261.19
244.465	241.19
244.699	267.19
244.932	272.19
245.166	306.19
245.399	274.19
245.633	264.19
245.866	276.19
246.099	301.19
246.333	305.19
246.566	300.19
246.8	327.19
247.033	315.19
247.266	304.19
247.5	328.19
247.733	316.19
247.966	341.19
248.2	339.19
248.433	337.19
248.666	361.19
248.899	373.19
249.133	425.19
249.366	462.19
249.599	416.19
249.832	364.19
250.066	364.19
250.299	359.19
250.532	332.19
250.765	339.19
250.998	338.19
251.231	348.19
251.465	347.19
251.698	343.19
251.931	335.19
252.164	356.19
252.397	379.19
252.63	340.19
252.863	320.19
253.096	318.19
253.329	334.19
253.562	329.19
253.795	381.19
254.028	373.19
254.261	349.19
254.494	330.19
254.727	333.19
254.96	350.19
255.193	382.19
255.426	402.19
255.659	456.19
255.892	452.19
256.124	373.19
256.357	392.19
256.59	414.19
256.823	408.19
257.056	422.19
257.289	474.19
257.521	505.19
257.754	455.19
257.987	440.19
258.22	469.19
258.452	443.19
258.685	404.19
258.918	374.19
259.151	380.19
259.383	362.19
259.616	342.19
259.849	339.19
260.081	397.19
260.314	440.19
260.547	440.19
260.779	450.19
261.012	422.19
261.244	389.19
261.477	388.19
261.71	388.19
261.942	399.19
262.175	375.19
262.407	393.19
262.64	372.19
262.872	361.19
263.105	370.19
263.337	354.19
263.57	371.19
263.802	357.19
264.035	340.19
264.267	330.19
264.499	334.19
264.732	366.19
264.964	390.19
265.197	389.19
265.429	407.19
265.661	440.19
265.894	483.19
266.126	477.19
266.358	460.19
266.591	464.19
266.823	483.19
267.055	444.19
267.287	424.19
267.52	444.19
267.752	436.19
267.984	413.19
268.216	454.19
268.448	457.19
268.681	451.19
268.913	413.19
269.145	426.19
269.377	401.19
269.609	433.19
269.841	484.19
270.073	574.19
270.306	620.19
270.538	610.19
270.77	542.19
271.002	482.19
271.234	467.19
271.466	475.19
271.698	500.19
271.93	590.19
272.162	578.19
272.394	532.19
272.626	496.19
272.858	472.19
273.09	418.19
273.322	396.19
273.553	394.19
273.785	402.19
274.017	411.19
274.249	436.19
274.481	439.19
274.713	413.19
274.945	415.19
275.176	405.19
275.408	419.19
275.64	409.19
275.872	399.19
276.104	449.19
276.335	492.19
276.567	523.19
276.799	512.19
277.031	460.19
277.262	473.19
277.494	493.19
277.726	523.19
277.957	515.19
278.189	453.19
278.421	435.19
278.652	421.19
278.884	395.19
279.115	435.19
279.347	434.19
279.579	427.19
279.81	436.19
280.042	450.19
280.273	493.19
280.505	490.19
280.736	496.19
280.968	466.19
281.199	414.19
281.431	412.19
281.662	419.19
281.894	419.19
282.125	456.19
282.356	450.19
282.588	451.19
282.819	460.19
283.051	480.19
283.282	524.19
283.513	476.19
283.745	446.19
283.976	441.19
284.207	446.19
284.439	425.19
284.67	444.19
284.901	448.19
285.132	456.19
285.364	441.19
285.595	452.19
285.826	450.19
286.057	445.19
286.288	446.19
286.52	484.19
286.751	494.19
286.982	491.19
287.213	451.19
287.444	435.19
287.675	423.19
287.906	473.19
288.138	489.19
288.369	463.19
288.6	423.19
288.831	413.19
289.062	428.19
289.293	438.19
289.524	458.19
289.755	465.19
289.986	471.19
290.217	430.19
290.448	472.19
290.679	459.19
290.91	467.19
291.141	467.19
291.371	486.19
291.602	492.19
291.833	492.19
292.064	479.19
292.295	478.19
292.526	500.19
292.757	528.19
292.987	469.19
293.218	474.19
293.449	535.19
293.68	554.19
293.91	577.19
294.141	525.19
294.372	535.19
294.603	560.19
294.833	547.19
295.064	532.19
295.295	487.19
295.525	469.19
295.756	456.19
295.987	424.19
296.217	449.19
296.448	443.19
296.679	450.19
296.909	461.19
297.14	453.19
297.37	480.19
297.601	496.19
297.831	514.19
298.062	516.19
298.292	472.19
298.523	462.19
298.753	462.19
298.984	476.19
299.214	471.19
299.445	473.19
299.675	499.19
299.905	490.19
300.136	476.19
300.366	488.19
300.597	483.19
300.827	489.19
301.057	487.19
301.288	500.19
301.518	500.19
301.748	528.19
301.979	537.19
302.209	544.19
302.439	577.19
302.669	595.19
302.9	544.19
303.13	509.19
303.36	506.19
303.59	519.19
303.82	527.19
304.051	503.19
304.281	517.19
304.511	522.19
304.741	572.19
304.971	594.19
305.201	576.19
305.431	518.19
305.661	472.19
305.891	455.19
306.121	448.19
306.352	486.19
306.582	498.19
306.812	534.19
307.042	575.19
307.272	578.19
307.502	596.19
307.731	635.19
307.961	631.19
308.191	580.19
308.421	516.19
308.651	499.19
308.881	500.19
309.111	480.19
309.341	499.19
309.571	470.19
309.8	478.19
310.03	490.19
310.26	499.19
310.49	464.19
310.72	493.19
310.949	510.19
311.179	542.19
311.409	512.19
311.639	500.19
311.868	481.19
312.098	497.19
312.328	497.19
312.557	493.19
312.787	524.19
313.017	510.19
313.246	530.19
313.476	503.19
313.706	503.19
313.935	540.19
314.165	562.19
314.394	536.19
314.624	587.19
314.853	601.19
315.083	609.19
315.312	624.19
315.542	572.19
315.771	533.19
316.001	542.19
316.23	570.19
316.46	580.19
316.689	543.19
316.919	538.19
317.148	511.19
317.377	559.19
317.607	586.19
317.836	636.19
318.065	641.19
318.295	585.19
318.524	582.19
318.753	541.19
318.983	564.19
319.212	562.19
319.441	561.19
319.67	545.19
319.9	551.19
320.129	564.19
320.358	621.19
320.587	593.19
320.816	594.19
321.046	573.19
321.275	557.19
321.504	562.19
321.733	620.19
321.962	570.19
322.191	544.19
322.42	563.19
322.649	547.19
322.878	548.19
323.108	534.19
323.337	574.19
323.566	592.19
323.795	581.19
324.024	576.19
324.253	563.19
324.482	565.19
324.71	553.19
324.939	518.19
325.168	555.19
325.397	576.19
325.626	580.19
325.855	588.19
326.084	560.19
326.313	573.19
326.542	564.19
326.77	556.19
326.999	558.19
327.228	554.19
327.457	509.19
327.686	521.19
327.914	545.19
328.143	572.19
328.372	552.19
328.6	549.19
328.829	527.19
329.058	540.19
329.287	534.19
329.515	544.19
329.744	578.19
329.972	585.19
330.201	614.19
330.43	592.19
330.658	582.19
330.887	580.19
331.115	580.19
331.344	600.19
331.572	586.19
331.801	584.19
332.03	594.19
332.258	604.19
332.486	608.19
332.715	602.19
332.943	596.19
333.172	602.19
333.4	597.19
333.629	635.19
333.857	664.19
334.085	750.19
334.314	803.19
334.542	820.19
334.771	749.19
334.999	669.19
335.227	644.19
335.455	644.19
335.684	625.19
335.912	653.19
336.14	650.19
336.369	630.19
336.597	598.19
336.825	588.19
337.053	612.19
337.281	675.19
337.51	686.19
337.738	698.19
337.966	658.19
338.194	629.19
338.422	602.19
338.65	582.19
338.878	592.19
339.106	570.19
339.334	592.19
339.562	554.19
339.79	572.19
340.018	620.19
340.246	633.19
340.474	618.19
340.702	602.19
340.93	622.19
341.158	625.19
341.386	594.19
341.614	612.19
341.842	589.19
342.07	593.19
342.298	616.19
342.526	596.19
342.754	581.19
342.981	598.19
343.209	588.19
343.437	593.19
343.665	599.19
343.893	616.19
344.12	634.19
344.348	619.19
344.576	619.19
344.804	596.19
345.031	579.19
345.259	584.19
345.487	572.19
345.714	544.19
345.942	554.19
346.17	552.19
346.397	557.19
346.625	562.19
346.853	541.19
347.08	544.19
347.308	566.19
347.535	557.19
347.763	582.19
347.99	558.19
348.218	531.19
348.445	553.19
348.673	572.19
348.9	578.19
349.128	606.19
349.355	599.19
349.583	582.19
349.81	580.19
350.037	527.19
350.265	537.19
350.492	526.19
350.72	561.19
350.947	572.19
351.174	556.19
351.402	539.19
351.629	525.19
351.856	532.19
352.083	516.19
352.311	533.19
352.538	554.19
352.765	569.19
352.992	573.19
353.22	552.19
353.447	530.19
353.674	569.19
353.901	580.19
354.128	565.19
354.355	574.19
354.583	584.19
354.81	600.19
355.037	566.19
355.264	552.19
355.491	577.19
355.718	548.19
355.945	559.19
356.172	531.19
356.399	539.19
356.626	555.19
356.853	577.19
357.08	649.19
357.307	650.19
357.534	634.19
357.761	578.19
357.988	534.19
358.215	528.19
358.441	533.19
358.668	547.19
358.895	562.19
359.122	591.19
359.349	614.19
359.576	601.19
359.802	569.19
360.029	540.19
360.256	536.19
360.483	552.19
360.709	599.19
360.936	584.19
361.163	626.19
361.39	696.19
361.616	703.19
361.843	683.19
362.07	636.19
362.296	564.19
362.523	549.19
362.749	561.19
362.976	581.19
363.203	594.19
363.429	572.19
363.656	576.19
363.882	602.19
364.109	667.19
364.335	665.19
364.562	614.19
364.788	575.19
365.015	566.19
365.241	550.19
365.468	562.19
365.694	614.19
365.92	602.19
366.147	582.19
366.373	544.19
366.599	542.19
366.826	565.19
367.052	558.19
367.278	566.19
367.505	565.19
367.731	604.19
367.957	612.19
368.184	631.19
368.41	670.19
368.636	664.19
368.862	654.19
369.089	663.19
369.315	626.19
369.541	609.19
369.767	634.19
369.993	587.19
370.219	599.19
370.445	596.19
370.672	645.19
370.898	648.19
371.124	650.19
371.35	618.19
371.576	645.19
371.802	630.19
372.028	634.19
372.254	624.19
372.48	593.19
372.706	580.19
372.932	596.19
373.158	605.19
373.384	630.19
373.61	638.19
373.835	650.19
374.061	622.19
374.287	644.19
374.513	640.19
374.739	633.19
374.965	613.19
375.191	652.19
375.416	658.19
375.642	659.19
375.868	712.19
376.094	728.19
376.319	665.19
376.545	607.19
376.771	668.19
376.997	674.19
377.222	690.19
377.448	668.19
377.674	676.19
377.899	658.19
378.125	712.19
378.35	684.19
378.576	626.19
378.802	613.19
379.027	638.19
379.253	642.19
379.478	628.19
379.704	644.19
379.929	630.19
380.155	639.19
380.38	621.19
380.606	621.19
380.831	643.19
381.057	705.19
381.282	685.19
381.507	706.19
381.733	748.19
381.958	717.19
382.184	637.19
382.409	686.19
382.634	668.19
382.86	677.19
383.085	668.19
383.31	696.19
383.535	772.19
383.761	786.19
383.986	768.19
384.211	731.19
384.436	720.19
384.662	744.19
384.887	764.19
385.112	724.19
385.337	740.19
385.562	718.19
385.787	726.19
386.013	749.19
386.238	733.19
386.463	762.19
386.688	799.19
386.913	828.19
387.138	813.19
387.363	749.19
387.588	797.19
387.813	742.19
388.038	770.19
388.263	796.19
388.488	766.19
388.713	707.19
388.938	710.19
389.163	712.19
389.387	731.19
389.612	715.19
389.837	757.19
390.062	747.19
390.287	755.19
390.512	744.19
390.736	734.19
390.961	707.19
391.186	690.19
391.411	724.19
391.636	752.19
391.86	766.19
392.085	766.19
392.31	765.19
392.534	748.19
392.759	780.19
392.984	743.19
393.208	772.19
393.433	776.19
393.658	825.19
393.882	817.19
394.107	763.19
394.331	742.19
394.556	755.19
394.78	777.19
395.005	777.19
395.229	831.19
395.454	876.19
395.678	850.19
395.903	802.19
396.127	792.19
396.352	800.19
396.576	835.19
396.801	850.19
397.025	843.19
397.249	844.19
397.474	811.19
397.698	819.19
397.922	823.19
398.147	884.19
398.371	920.19
398.595	898.19
398.82	844.19
399.044	864.19
399.268	932.19
399.492	926.19
399.717	967.19
399.941	972.19
400.165	975.19
400.389	931.19
400.613	953.19
400.837	1098.19
401.062	1147.19
401.286	1030.19
401.51	960.19
401.734	990.19
401.958	918.19
402.182	891.19
402.406	862.19
402.63	874.19
402.854	891.19
403.078	870.19
403.302	894.19
403.526	916.19
403.75	907.19
403.974	888.19
404.198	915.19
404.422	965.19
404.645	1009.19
404.869	977.19
405.093	923.19
405.317	900.19
405.541	904.19
405.765	912.19
405.988	898.19
406.212	937.19
406.436	946.19
406.66	1012.19
406.883	1029.19
407.107	1130.19
407.331	1202.19
407.555	1234.19
407.778	1109.19
408.002	966.19
408.226	964.19
408.449	944.19
408.673	934.19
408.896	937.19
409.12	936.19
409.344	949.19
409.567	939.19
409.791	939.19
410.014	961.19
410.238	1026.19
410.461	1058.19
410.685	932.19
410.908	918.19
411.132	949.19
411.355	933.19
411.578	931.19
411.802	911.19
412.025	958.19
412.249	917.19
412.472	904.19
412.695	918.19
412.919	917.19
413.142	929.19
413.365	905.19
413.589	941.19
413.812	966.19
414.035	970.19
414.258	907.19
414.482	910.19
414.705	893.19
414.928	894.19
415.151	894.19
415.374	924.19
415.597	911.19
415.821	907.19
416.044	958.19
416.267	934.19
416.49	905.19
416.713	890.19
416.936	935.19
417.159	1000.19
417.382	946.19
417.605	909.19
417.828	937.19
418.051	925.19
418.274	915.19
418.497	894.19
418.72	920.19
418.943	914.19
419.166	936.19
419.389	965.19
419.611	958.19
419.834	943.19
420.057	929.19
420.28	886.19
420.503	936.19
420.726	944.19
420.948	931.19
421.171	898.19
421.394	926.19
421.617	974.19
421.839	950.19
422.062	970.19
422.285	947.19
422.507	928.19
422.73	900.19
422.953	888.19
423.175	861.19
423.398	912.19
423.621	922.19
423.843	917.19
424.066	935.19
424.288	1024.19
424.511	1046.19
424.733	995.19
424.956	906.19
425.178	892.19
425.401	914.19
425.623	932.19
425.846	900.19
426.068	957.19
426.291	949.19
426.513	965.19
426.735	953.19
426.958	1045.19
427.18	1026.19
427.402	970.19
427.625	1016.19
427.847	987.19
428.069	902.19
428.292	912.19
428.514	898.19
428.736	889.19
428.958	890.19
429.181	899.19
429.403	1107.19
429.625	1240.19
429.847	1020.19
430.069	936.19
430.292	1027.19
430.514	1031.19
430.736	917.19
430.958	973.19
431.18	933.19
431.402	844.19
431.624	834.19
431.846	781.19
432.068	716.19
432.29	728.19
432.512	808.19
432.734	886.19
432.956	930.19
433.178	934.19
433.4	977.19
433.622	948.19
433.844	916.19
434.066	823.19
434.287	790.19
434.509	779.19
434.731	844.19
434.953	905.19
435.175	939.19
435.397	881.19
435.618	887.19
435.84	852.19
436.062	852.19
436.284	875.19
436.505	898.19
436.727	948.19
436.949	897.19
437.17	868.19
437.392	885.19
437.614	844.19
437.835	806.19
438.057	808.19
438.278	838.19
438.5	845.19
438.721	897.19
438.943	910.19
439.165	892.19
439.386	914.19
439.608	950.19
439.829	930.19
440.05	949.19
440.272	938.19
440.493	937.19
440.715	953.19
440.936	1015.19
441.158	1051.19
441.379	1023.19
441.6	1048.19
441.822	1012.19
442.043	972.19
442.264	984.19
442.486	958.19
442.707	958.19
442.928	936.19
443.149	979.19
443.371	1022.19
443.592	1017.19
443.813	1001.19
444.034	994.19
444.255	1006.19
444.476	1015.19
444.698	1021.19
444.919	1026.19
445.14	1109.19
445.361	1044.19
445.582	1076.19
445.803	1049.19
446.024	1041.19
446.245	1072.19
446.466	1044.19
446.687	1013.19
446.908	1040.19
447.129	998.19
447.35	1012.19
447.571	986.19
447.792	949.19
448.013	983.19
448.234	941.19
448.455	957.19
448.675	985.19
448.896	899.19
449.117	893.19
449.338	918.19
449.559	948.19
449.779	950.19
450	1034.19
450.221	1052.19
450.442	1000.19
450.662	926.19
450.883	868.19
451.104	857.19
451.324	876.19
451.545	885.19
451.766	854.19
451.986	843.19
452.207	822.19
452.428	786.19
452.648	797.19
452.869	785.19
453.089	768.19
453.31	797.19
453.53	789.19
453.751	730.19
453.971	705.19
454.192	702.19
454.412	736.19
454.633	786.19
454.853	781.19
455.073	744.19
455.294	781.19
455.514	774.19
455.734	745.19
455.955	752.19
456.175	744.19
456.395	737.19
456.616	750.19
456.836	744.19
457.056	739.19
457.276	717.19
457.497	697.19
457.717	682.19
457.937	720.19
458.157	713.19
458.377	704.19
458.598	671.19
458.818	655.19
459.038	685.19
459.258	705.19
459.478	717.19
459.698	685.19
459.918	737.19
460.138	786.19
460.358	836.19
460.578	836.19
460.798	864.19
461.018	888.19
461.238	868.19
461.458	843.19
461.678	855.19
461.898	828.19
462.118	800.19
462.338	822.19
462.558	829.19
462.777	836.19
462.997	891.19
463.217	882.19
463.437	865.19
463.657	841.19
463.876	812.19
464.096	813.19
464.316	854.19
464.536	872.19
464.755	859.19
464.975	851.19
465.195	859.19
465.414	874.19
465.634	868.19
465.854	884.19
466.073	943.19
466.293	937.19
466.512	850.19
466.732	870.19
466.951	876.19
467.171	882.19
467.391	896.19
467.61	875.19
467.829	892.19
468.049	964.19
468.268	1022.19
468.488	914.19
468.707	933.19
468.927	898.19
469.146	879.19
469.365	903.19
469.585	904.19
469.804	891.19
470.023	907.19
470.243	958.19
470.462	928.19
470.681	916.19
470.901	909.19
471.12	904.19
471.339	944.19
471.558	893.19
471.777	896.19
471.997	925.19
472.216	850.19
472.435	758.19
472.654	779.19
472.873	786.19
473.092	837.19
473.311	823.19
473.53	810.19
473.749	820.19
473.968	826.19
474.187	821.19
474.406	826.19
474.625	837.19
474.844	850.19
475.063	873.19
475.282	893.19
475.501	822.19
475.72	807.19
475.939	911.19
476.158	866.19
476.377	860.19
476.596	834.19
476.814	814.19
477.033	806.19
477.252	854.19
477.471	895.19
477.69	948.19
477.908	950.19
478.127	961.19
478.346	1006.19
478.564	981.19
478.783	979.19
479.002	1032.19
479.22	996.19
479.439	1008.19
479.658	1046.19
479.876	971.19
480.095	886.19
480.313	878.19
480.532	858.19
480.751	855.19
480.969	832.19
481.188	779.19
481.406	774.19
481.624	775.19
481.843	765.19
482.061	813.19
482.28	845.19
482.498	874.19
482.717	857.19
482.935	880.19
483.153	966.19
483.372	1038.19
483.59	1020.19
483.808	971.19
484.027	962.19
484.245	991.19
484.463	1229.19
484.681	1273.19
484.9	1003.19
485.118	946.19
485.336	928.19
485.554	911.19
485.772	896.19
485.99	873.19
486.209	897.19
486.427	893.19
486.645	933.19
486.863	1034.19
487.081	1021.19
487.299	1005.19
487.517	1003.19
487.735	1108.19
487.953	1187.19
488.171	1166.19
488.389	1130.19
488.607	1103.19
488.825	1138.19
489.043	1039.19
489.261	976.19
489.479	1012.19
489.696	1047.19
489.914	1020.19
490.132	1050.19
490.35	1092.19
490.568	1160.19
490.786	1164.19
491.003	1181.19
491.221	1230.19
491.439	1301.19
491.657	1288.19
491.874	1380.19
492.092	1443.19
492.31	1474.19
492.527	1442.19
492.745	1362.19
492.963	1292.19
493.18	1313.19
493.398	1321.19
493.615	1304.19
493.833	1252.19
494.05	1229.19
494.268	1250.19
494.485	1237.19
494.703	1233.19
494.92	1223.19
495.138	1195.19
495.355	1195.19
495.573	1281.19
495.79	1242.19
496.008	1252.19
496.225	1240.19
496.442	1204.19
496.66	1224.19
496.877	1210.19
497.094	1225.19
497.312	1210.19
497.529	1222.19
497.746	1216.19
497.963	1265.19
498.181	1268.19
498.398	1203.19
498.615	1189.19
498.832	1170.19
499.049	1158.19
499.267	1153.19
499.484	1266.19
499.701	1350.19
499.918	1396.19
500.135	1500.19
500.352	1513.19
