Data from WStandard_LampEnergy10_LIBS07252019.E.O._I.C._HRD10591_15-53-05-928.txt Node
Date: Thu Jul 25 15:53:05 EDT 2019
User: cochatt
Spectrometer: HR+D1059
Trigger mode: 1
Integration Time (sec): 1.000000E-1
Scans to average: 1
Electric dark correction enabled: true
Nonlinearity correction enabled: false
Boxcar width: 0
XAxis mode: Wavelengths
Number of Pixels in Spectrum: 2048
>>>>>Begin Spectral Data<<<<<
223.165	-20.38
223.4	-20.38
223.635	-20.38
223.869	-4.38
224.104	-14.38
224.338	-16.38
224.573	-8.38
224.808	-17.38
225.042	-12.38
225.277	-13.38
225.511	1.62
225.746	7.62
225.98	10.62
226.215	14.62
226.449	19.62
226.683	11.62
226.918	8.62
227.152	32.62
227.387	39.62
227.621	27.62
227.856	47.62
228.09	41.62
228.324	56.62
228.559	60.62
228.793	89.62
229.027	139.62
229.262	144.62
229.496	138.62
229.73	140.62
229.964	169.62
230.199	172.62
230.433	172.62
230.667	185.62
230.901	197.62
231.136	189.62
231.37	173.62
231.604	169.62
231.838	188.62
232.072	184.62
232.306	196.62
232.541	187.62
232.775	208.62
233.009	217.62
233.243	197.62
233.477	196.62
233.711	201.62
233.945	203.62
234.179	204.62
234.413	203.62
234.647	217.62
234.881	215.62
235.115	196.62
235.349	204.62
235.583	211.62
235.817	197.62
236.051	206.62
236.285	186.62
236.519	200.62
236.753	224.62
236.987	218.62
237.221	233.62
237.455	235.62
237.689	241.62
237.922	234.62
238.156	221.62
238.39	243.62
238.624	256.62
238.858	232.62
239.091	247.62
239.325	269.62
239.559	302.62
239.793	288.62
240.027	317.62
240.26	300.62
240.494	257.62
240.728	233.62
240.961	239.62
241.195	242.62
241.429	253.62
241.662	259.62
241.896	245.62
242.13	253.62
242.363	270.62
242.597	300.62
242.83	282.62
243.064	291.62
243.298	300.62
243.531	298.62
243.765	301.62
243.998	276.62
244.232	251.62
244.465	254.62
244.699	281.62
244.932	287.62
245.166	300.62
245.399	313.62
245.633	314.62
245.866	282.62
246.099	274.62
246.333	306.62
246.566	305.62
246.8	329.62
247.033	377.62
247.266	318.62
247.5	328.62
247.733	341.62
247.966	352.62
248.2	377.62
248.433	362.62
248.666	376.62
248.899	378.62
249.133	440.62
249.366	457.62
249.599	406.62
249.832	365.62
250.066	366.62
250.299	377.62
250.532	344.62
250.765	320.62
250.998	349.62
251.231	346.62
251.465	369.62
251.698	360.62
251.931	357.62
252.164	368.62
252.397	377.62
252.63	365.62
252.863	331.62
253.096	324.62
253.329	347.62
253.562	340.62
253.795	385.62
254.028	364.62
254.261	345.62
254.494	355.62
254.727	328.62
254.96	348.62
255.193	404.62
255.426	427.62
255.659	462.62
255.892	451.62
256.124	413.62
256.357	390.62
256.59	413.62
256.823	418.62
257.056	442.62
257.289	502.62
257.521	478.62
257.754	479.62
257.987	457.62
258.22	511.62
258.452	456.62
258.685	396.62
258.918	400.62
259.151	376.62
259.383	392.62
259.616	352.62
259.849	392.62
260.081	425.62
260.314	447.62
260.547	469.62
260.779	477.62
261.012	457.62
261.244	419.62
261.477	417.62
261.71	426.62
261.942	405.62
262.175	396.62
262.407	412.62
262.64	419.62
262.872	373.62
263.105	362.62
263.337	352.62
263.57	380.62
263.802	387.62
264.035	374.62
264.267	360.62
264.499	351.62
264.732	377.62
264.964	408.62
265.197	400.62
265.429	404.62
265.661	462.62
265.894	498.62
266.126	480.62
266.358	474.62
266.591	483.62
266.823	518.62
267.055	473.62
267.287	486.62
267.52	450.62
267.752	461.62
267.984	452.62
268.216	473.62
268.448	497.62
268.681	445.62
268.913	443.62
269.145	432.62
269.377	420.62
269.609	453.62
269.841	534.62
270.073	582.62
270.306	649.62
270.538	640.62
270.77	556.62
271.002	476.62
271.234	487.62
271.466	498.62
271.698	537.62
271.93	609.62
272.162	603.62
272.394	570.62
272.626	522.62
272.858	477.62
273.09	429.62
273.322	423.62
273.553	422.62
273.785	424.62
274.017	423.62
274.249	436.62
274.481	456.62
274.713	422.62
274.945	423.62
275.176	419.62
275.408	444.62
275.64	423.62
275.872	421.62
276.104	441.62
276.335	524.62
276.567	550.62
276.799	561.62
277.031	512.62
277.262	490.62
277.494	506.62
277.726	533.62
277.957	502.62
278.189	469.62
278.421	447.62
278.652	448.62
278.884	453.62
279.115	457.62
279.347	472.62
279.579	454.62
279.81	424.62
280.042	486.62
280.273	531.62
280.505	540.62
280.736	528.62
280.968	483.62
281.199	445.62
281.431	422.62
281.662	420.62
281.894	436.62
282.125	461.62
282.356	466.62
282.588	473.62
282.819	462.62
283.051	489.62
283.282	499.62
283.513	512.62
283.745	440.62
283.976	446.62
284.207	422.62
284.439	459.62
284.67	454.62
284.901	467.62
285.132	449.62
285.364	461.62
285.595	467.62
285.826	467.62
286.057	499.62
286.288	454.62
286.52	478.62
286.751	524.62
286.982	492.62
287.213	466.62
287.444	451.62
287.675	439.62
287.906	477.62
288.138	490.62
288.369	487.62
288.6	471.62
288.831	450.62
289.062	446.62
289.293	452.62
289.524	463.62
289.755	478.62
289.986	475.62
290.217	460.62
290.448	450.62
290.679	461.62
290.91	498.62
291.141	488.62
291.371	517.62
291.602	508.62
291.833	507.62
292.064	491.62
292.295	501.62
292.526	528.62
292.757	535.62
292.987	502.62
293.218	486.62
293.449	530.62
293.68	585.62
293.91	586.62
294.141	561.62
294.372	551.62
294.603	574.62
294.833	580.62
295.064	545.62
295.295	505.62
295.525	476.62
295.756	458.62
295.987	445.62
296.217	460.62
296.448	470.62
296.679	473.62
296.909	455.62
297.14	481.62
297.37	479.62
297.601	529.62
297.831	545.62
298.062	541.62
298.292	486.62
298.523	487.62
298.753	482.62
298.984	488.62
299.214	492.62
299.445	500.62
299.675	516.62
299.905	501.62
300.136	481.62
300.366	475.62
300.597	470.62
300.827	488.62
301.057	490.62
301.288	512.62
301.518	526.62
301.748	531.62
301.979	562.62
302.209	582.62
302.439	596.62
302.669	606.62
302.9	563.62
303.13	516.62
303.36	541.62
303.59	542.62
303.82	522.62
304.051	533.62
304.281	523.62
304.511	573.62
304.741	579.62
304.971	608.62
305.201	646.62
305.431	581.62
305.661	478.62
305.891	453.62
306.121	461.62
306.352	491.62
306.582	526.62
306.812	546.62
307.042	572.62
307.272	603.62
307.502	601.62
307.731	647.62
307.961	638.62
308.191	609.62
308.421	542.62
308.651	500.62
308.881	508.62
309.111	516.62
309.341	515.62
309.571	512.62
309.8	492.62
310.03	497.62
310.26	499.62
310.49	512.62
310.72	524.62
310.949	538.62
311.179	549.62
311.409	528.62
311.639	497.62
311.868	527.62
312.098	528.62
312.328	507.62
312.557	532.62
312.787	531.62
313.017	533.62
313.246	539.62
313.476	531.62
313.706	539.62
313.935	508.62
314.165	551.62
314.394	590.62
314.624	620.62
314.853	643.62
315.083	640.62
315.312	630.62
315.542	604.62
315.771	550.62
316.001	566.62
316.23	580.62
316.46	580.62
316.689	586.62
316.919	527.62
317.148	527.62
317.377	563.62
317.607	620.62
317.836	660.62
318.065	652.62
318.295	625.62
318.524	616.62
318.753	576.62
318.983	568.62
319.212	578.62
319.441	554.62
319.67	561.62
319.9	585.62
320.129	609.62
320.358	619.62
320.587	638.62
320.816	646.62
321.046	619.62
321.275	611.62
321.504	618.62
321.733	640.62
321.962	602.62
322.191	586.62
322.42	590.62
322.649	569.62
322.878	541.62
323.108	593.62
323.337	606.62
323.566	599.62
323.795	581.62
324.024	582.62
324.253	584.62
324.482	567.62
324.71	566.62
324.939	547.62
325.168	564.62
325.397	569.62
325.626	589.62
325.855	590.62
326.084	575.62
326.313	588.62
326.542	590.62
326.77	599.62
326.999	591.62
327.228	547.62
327.457	524.62
327.686	535.62
327.914	551.62
328.143	571.62
328.372	579.62
328.6	554.62
328.829	578.62
329.058	558.62
329.287	579.62
329.515	594.62
329.744	593.62
329.972	606.62
330.201	637.62
330.43	648.62
330.658	590.62
330.887	618.62
331.115	604.62
331.344	618.62
331.572	583.62
331.801	601.62
332.03	607.62
332.258	633.62
332.486	662.62
332.715	628.62
332.943	618.62
333.172	610.62
333.4	618.62
333.629	622.62
333.857	700.62
334.085	756.62
334.314	818.62
334.542	869.62
334.771	802.62
334.999	702.62
335.227	667.62
335.455	622.62
335.684	651.62
335.912	677.62
336.14	653.62
336.369	614.62
336.597	623.62
336.825	631.62
337.053	646.62
337.281	680.62
337.51	704.62
337.738	723.62
337.966	678.62
338.194	629.62
338.422	609.62
338.65	604.62
338.878	585.62
339.106	589.62
339.334	588.62
339.562	584.62
339.79	602.62
340.018	614.62
340.246	626.62
340.474	638.62
340.702	655.62
340.93	624.62
341.158	625.62
341.386	629.62
341.614	623.62
341.842	593.62
342.07	620.62
342.298	613.62
342.526	604.62
342.754	629.62
342.981	605.62
343.209	621.62
343.437	614.62
343.665	606.62
343.893	632.62
344.12	655.62
344.348	646.62
344.576	654.62
344.804	625.62
345.031	614.62
345.259	602.62
345.487	609.62
345.714	594.62
345.942	567.62
346.17	568.62
346.397	602.62
346.625	592.62
346.853	549.62
347.08	556.62
347.308	551.62
347.535	589.62
347.763	598.62
347.99	569.62
348.218	578.62
348.445	564.62
348.673	603.62
348.9	631.62
349.128	621.62
349.355	634.62
349.583	612.62
349.81	572.62
350.037	525.62
350.265	553.62
350.492	557.62
350.72	581.62
350.947	582.62
351.174	572.62
351.402	576.62
351.629	548.62
351.856	552.62
352.083	583.62
352.311	554.62
352.538	561.62
352.765	592.62
352.992	581.62
353.22	562.62
353.447	573.62
353.674	565.62
353.901	586.62
354.128	585.62
354.355	552.62
354.583	588.62
354.81	590.62
355.037	610.62
355.264	589.62
355.491	572.62
355.718	579.62
355.945	555.62
356.172	563.62
356.399	560.62
356.626	562.62
356.853	589.62
357.08	660.62
357.307	711.62
357.534	675.62
357.761	576.62
357.988	551.62
358.215	541.62
358.441	571.62
358.668	542.62
358.895	581.62
359.122	607.62
359.349	655.62
359.576	598.62
359.802	572.62
360.029	550.62
360.256	543.62
360.483	586.62
360.709	619.62
360.936	599.62
361.163	658.62
361.39	700.62
361.616	731.62
361.843	705.62
362.07	659.62
362.296	579.62
362.523	575.62
362.749	594.62
362.976	573.62
363.203	591.62
363.429	563.62
363.656	568.62
363.882	621.62
364.109	680.62
364.335	669.62
364.562	650.62
364.788	616.62
365.015	597.62
365.241	564.62
365.468	596.62
365.694	622.62
365.92	618.62
366.147	592.62
366.373	580.62
366.599	571.62
366.826	585.62
367.052	579.62
367.278	582.62
367.505	594.62
367.731	628.62
367.957	627.62
368.184	654.62
368.41	677.62
368.636	671.62
368.862	668.62
369.089	665.62
369.315	646.62
369.541	625.62
369.767	589.62
369.993	614.62
370.219	607.62
370.445	632.62
370.672	672.62
370.898	695.62
371.124	674.62
371.35	652.62
371.576	652.62
371.802	683.62
372.028	649.62
372.254	627.62
372.48	591.62
372.706	624.62
372.932	630.62
373.158	618.62
373.384	642.62
373.61	668.62
373.835	701.62
374.061	635.62
374.287	630.62
374.513	641.62
374.739	658.62
374.965	657.62
375.191	654.62
375.416	637.62
375.642	675.62
375.868	726.62
376.094	733.62
376.319	688.62
376.545	664.62
376.771	696.62
376.997	730.62
377.222	719.62
377.448	690.62
377.674	704.62
377.899	705.62
378.125	732.62
378.35	696.62
378.576	646.62
378.802	616.62
379.027	626.62
379.253	648.62
379.478	650.62
379.704	657.62
379.929	646.62
380.155	652.62
380.38	665.62
380.606	670.62
380.831	680.62
381.057	739.62
381.282	717.62
381.507	735.62
381.733	752.62
381.958	740.62
382.184	702.62
382.409	696.62
382.634	699.62
382.86	697.62
383.085	693.62
383.31	753.62
383.535	811.62
383.761	834.62
383.986	788.62
384.211	737.62
384.436	743.62
384.662	768.62
384.887	805.62
385.112	771.62
385.337	762.62
385.562	758.62
385.787	776.62
386.013	785.62
386.238	745.62
386.463	789.62
386.688	821.62
386.913	857.62
387.138	869.62
387.363	819.62
387.588	773.62
387.813	783.62
388.038	808.62
388.263	814.62
388.488	784.62
388.713	721.62
388.938	729.62
389.163	732.62
389.387	755.62
389.612	765.62
389.837	777.62
390.062	768.62
390.287	783.62
390.512	739.62
390.736	736.62
390.961	737.62
391.186	742.62
391.411	736.62
391.636	767.62
391.86	784.62
392.085	787.62
392.31	753.62
392.534	771.62
392.759	782.62
392.984	753.62
393.208	803.62
393.433	808.62
393.658	850.62
393.882	848.62
394.107	793.62
394.331	760.62
394.556	787.62
394.78	805.62
395.005	837.62
395.229	843.62
395.454	908.62
395.678	908.62
395.903	866.62
396.127	820.62
396.352	838.62
396.576	869.62
396.801	860.62
397.025	862.62
397.249	844.62
397.474	834.62
397.698	828.62
397.922	860.62
398.147	894.62
398.371	956.62
398.595	923.62
398.82	878.62
399.044	886.62
399.268	959.62
399.492	954.62
399.717	1002.62
399.941	1036.62
400.165	985.62
400.389	978.62
400.613	1002.62
400.837	1124.62
401.062	1204.62
401.286	1032.62
401.51	989.62
401.734	1008.62
401.958	952.62
402.182	875.62
402.406	900.62
402.63	882.62
402.854	920.62
403.078	915.62
403.302	921.62
403.526	931.62
403.75	940.62
403.974	935.62
404.198	934.62
404.422	1021.62
404.645	1063.62
404.869	995.62
405.093	928.62
405.317	886.62
405.541	918.62
405.765	936.62
405.988	916.62
406.212	960.62
406.436	994.62
406.66	1037.62
406.883	1046.62
407.107	1172.62
407.331	1251.62
407.555	1328.62
407.778	1166.62
408.002	1006.62
408.226	982.62
408.449	1004.62
408.673	965.62
408.896	960.62
409.12	964.62
409.344	929.62
409.567	960.62
409.791	978.62
410.014	986.62
410.238	1013.62
410.461	1083.62
410.685	960.62
410.908	939.62
411.132	968.62
411.355	936.62
411.578	941.62
411.802	950.62
412.025	956.62
412.249	976.62
412.472	945.62
412.695	909.62
412.919	898.62
413.142	935.62
413.365	941.62
413.589	965.62
413.812	1020.62
414.035	999.62
414.258	970.62
414.482	922.62
414.705	936.62
414.928	932.62
415.151	933.62
415.374	928.62
415.597	928.62
415.821	931.62
416.044	986.62
416.267	975.62
416.49	949.62
416.713	924.62
416.936	966.62
417.159	974.62
417.382	996.62
417.605	939.62
417.828	945.62
418.051	962.62
418.274	965.62
418.497	945.62
418.72	932.62
418.943	930.62
419.166	964.62
419.389	1005.62
419.611	976.62
419.834	928.62
420.057	964.62
420.28	977.62
420.503	956.62
420.726	978.62
420.948	966.62
421.171	947.62
421.394	981.62
421.617	989.62
421.839	1017.62
422.062	1009.62
422.285	942.62
422.507	938.62
422.73	904.62
422.953	880.62
423.175	874.62
423.398	948.62
423.621	936.62
423.843	961.62
424.066	997.62
424.288	1048.62
424.511	1076.62
424.733	981.62
424.956	969.62
425.178	966.62
425.401	948.62
425.623	986.62
425.846	959.62
426.068	994.62
426.291	992.62
426.513	987.62
426.735	976.62
426.958	1063.62
427.18	1093.62
427.402	1009.62
427.625	1088.62
427.847	1028.62
428.069	931.62
428.292	929.62
428.514	923.62
428.736	908.62
428.958	946.62
429.181	955.62
429.403	1096.62
429.625	1278.62
429.847	1052.62
430.069	960.62
430.292	1073.62
430.514	1055.62
430.736	986.62
430.958	978.62
431.18	955.62
431.402	888.62
431.624	860.62
431.846	793.62
432.068	740.62
432.29	760.62
432.512	814.62
432.734	896.62
432.956	953.62
433.178	986.62
433.4	985.62
433.622	946.62
433.844	950.62
434.066	871.62
434.287	818.62
434.509	807.62
434.731	852.62
434.953	914.62
435.175	938.62
435.397	923.62
435.618	912.62
435.84	853.62
436.062	858.62
436.284	914.62
436.505	949.62
436.727	970.62
436.949	924.62
437.17	894.62
437.392	894.62
437.614	850.62
437.835	838.62
438.057	849.62
438.278	889.62
438.5	881.62
438.721	905.62
438.943	940.62
439.165	974.62
439.386	947.62
439.608	993.62
439.829	965.62
440.05	979.62
440.272	986.62
440.493	973.62
440.715	1001.62
440.936	1031.62
441.158	1073.62
441.379	1063.62
441.6	1072.62
441.822	1073.62
442.043	1025.62
442.264	1007.62
442.486	959.62
442.707	990.62
442.928	970.62
443.149	1006.62
443.371	1015.62
443.592	1058.62
443.813	1034.62
444.034	1033.62
444.255	1043.62
444.476	1061.62
444.698	1079.62
444.919	1080.62
445.14	1150.62
445.361	1119.62
445.582	1086.62
445.803	1054.62
446.024	1050.62
446.245	1084.62
446.466	1053.62
446.687	1059.62
446.908	1063.62
447.129	1055.62
447.35	1058.62
447.571	1032.62
447.792	982.62
448.013	1016.62
448.234	994.62
448.455	1024.62
448.675	1010.62
448.896	944.62
449.117	913.62
449.338	954.62
449.559	985.62
449.779	1011.62
450	1051.62
450.221	1080.62
450.442	1044.62
450.662	957.62
450.883	902.62
451.104	908.62
451.324	898.62
451.545	935.62
451.766	886.62
451.986	859.62
452.207	834.62
452.428	806.62
452.648	775.62
452.869	798.62
453.089	810.62
453.31	789.62
453.53	781.62
453.751	752.62
453.971	720.62
454.192	739.62
454.412	772.62
454.633	819.62
454.853	822.62
455.073	779.62
455.294	780.62
455.514	794.62
455.734	780.62
455.955	746.62
456.175	765.62
456.395	752.62
456.616	763.62
456.836	764.62
457.056	741.62
457.276	722.62
457.497	727.62
457.717	705.62
457.937	718.62
458.157	726.62
458.377	704.62
458.598	688.62
458.818	673.62
459.038	728.62
459.258	724.62
459.478	717.62
459.698	713.62
459.918	742.62
460.138	817.62
460.358	844.62
460.578	855.62
460.798	888.62
461.018	889.62
461.238	876.62
461.458	906.62
461.678	857.62
461.898	838.62
462.118	837.62
462.338	855.62
462.558	874.62
462.777	861.62
462.997	902.62
463.217	900.62
463.437	913.62
463.657	865.62
463.876	834.62
464.096	860.62
464.316	867.62
464.536	924.62
464.755	880.62
464.975	890.62
465.195	864.62
465.414	903.62
465.634	887.62
465.854	920.62
466.073	1022.62
466.293	947.62
466.512	883.62
466.732	884.62
466.951	940.62
467.171	931.62
467.391	911.62
467.61	892.62
467.829	950.62
468.049	984.62
468.268	1075.62
468.488	974.62
468.707	965.62
468.927	926.62
469.146	926.62
469.365	945.62
469.585	943.62
469.804	968.62
470.023	961.62
470.243	949.62
470.462	968.62
470.681	934.62
470.901	929.62
471.12	959.62
471.339	967.62
471.558	939.62
471.777	923.62
471.997	911.62
472.216	866.62
472.435	808.62
472.654	779.62
472.873	790.62
473.092	864.62
473.311	856.62
473.53	829.62
473.749	820.62
473.968	860.62
474.187	863.62
474.406	870.62
474.625	896.62
474.844	918.62
475.063	900.62
475.282	896.62
475.501	822.62
475.72	875.62
475.939	932.62
476.158	916.62
476.377	901.62
476.596	892.62
476.814	858.62
477.033	837.62
477.252	898.62
477.471	905.62
477.69	910.62
477.908	972.62
478.127	975.62
478.346	1030.62
478.564	1036.62
478.783	1001.62
479.002	1037.62
479.22	1034.62
479.439	1042.62
479.658	1085.62
479.876	984.62
480.095	914.62
480.313	910.62
480.532	903.62
480.751	910.62
480.969	857.62
481.188	846.62
481.406	797.62
481.624	786.62
481.843	808.62
482.061	862.62
482.28	917.62
482.498	954.62
482.717	880.62
482.935	918.62
483.153	1029.62
483.372	1058.62
483.59	1047.62
483.808	1000.62
484.027	956.62
484.245	1016.62
484.463	1241.62
484.681	1345.62
484.9	1088.62
485.118	980.62
485.336	918.62
485.554	918.62
485.772	931.62
485.99	900.62
486.209	913.62
486.427	916.62
486.645	959.62
486.863	1029.62
487.081	1085.62
487.299	1046.62
487.517	1061.62
487.735	1154.62
487.953	1204.62
488.171	1220.62
488.389	1134.62
488.607	1118.62
488.825	1172.62
489.043	1101.62
489.261	1009.62
489.479	1088.62
489.696	1064.62
489.914	1060.62
490.132	1049.62
490.35	1122.62
490.568	1180.62
490.786	1204.62
491.003	1218.62
491.221	1304.62
491.439	1341.62
491.657	1366.62
491.874	1386.62
492.092	1451.62
492.31	1531.62
492.527	1484.62
492.745	1403.62
492.963	1378.62
493.18	1355.62
493.398	1387.62
493.615	1357.62
493.833	1302.62
494.05	1295.62
494.268	1254.62
494.485	1268.62
494.703	1259.62
494.92	1242.62
495.138	1262.62
495.355	1269.62
495.573	1291.62
495.79	1317.62
496.008	1332.62
496.225	1280.62
496.442	1247.62
496.66	1263.62
496.877	1238.62
497.094	1268.62
497.312	1237.62
497.529	1212.62
497.746	1210.62
497.963	1323.62
498.181	1342.62
498.398	1310.62
498.615	1216.62
498.832	1142.62
499.049	1160.62
499.267	1201.62
499.484	1272.62
499.701	1372.62
499.918	1396.62
