Data from WStandard_LampEnergy5.5LIBS07252019.E.O._I.C._HRD10591_16-07-44-920.txt Node
Date: Thu Jul 25 16:07:44 EDT 2019
User: cochatt
Spectrometer: HR+D1059
Trigger mode: 1
Integration Time (sec): 1.000000E-1
Scans to average: 1
Electric dark correction enabled: true
Nonlinearity correction enabled: false
Boxcar width: 0
XAxis mode: Wavelengths
Number of Pixels in Spectrum: 2048
>>>>>Begin Spectral Data<<<<<
223.165	-13.25
223.4	-13.25
223.635	-13.25
223.869	-12.25
224.104	-22.25
224.338	-25.25
224.573	-11.25
224.808	-9.25
225.042	-6.25
225.277	-10.25
225.511	1.75
225.746	-9.25
225.98	11.75
226.215	5.75
226.449	29.75
226.683	20.75
226.918	13.75
227.152	35.75
227.387	32.75
227.621	40.75
227.856	45.75
228.09	44.75
228.324	42.75
228.559	42.75
228.793	136.75
229.027	346.75
229.262	360.75
229.496	398.75
229.73	416.75
229.964	430.75
230.199	481.75
230.433	464.75
230.667	508.75
230.901	530.75
231.136	478.75
231.37	463.75
231.604	451.75
231.838	463.75
232.072	475.75
232.306	440.75
232.541	477.75
232.775	556.75
233.009	592.75
233.243	587.75
233.477	544.75
233.711	537.75
233.945	560.75
234.179	556.75
234.413	594.75
234.647	636.75
234.881	576.75
235.115	546.75
235.349	568.75
235.583	563.75
235.817	584.75
236.051	544.75
236.285	553.75
236.519	581.75
236.753	636.75
236.987	683.75
237.221	691.75
237.455	732.75
237.689	733.75
237.922	688.75
238.156	674.75
238.39	675.75
238.624	723.75
238.858	762.75
239.091	788.75
239.325	792.75
239.559	908.75
239.793	947.75
240.027	1043.75
240.26	1045.75
240.494	772.75
240.728	724.75
240.961	728.75
241.195	739.75
241.429	786.75
241.662	836.75
241.896	769.75
242.13	782.75
242.363	855.75
242.597	933.75
242.83	893.75
243.064	872.75
243.298	952.75
243.531	910.75
243.765	916.75
243.998	926.75
244.232	798.75
244.465	772.75
244.699	776.75
244.932	908.75
245.166	1033.75
245.399	967.75
245.633	926.75
245.866	900.75
246.099	945.75
246.333	968.75
246.566	983.75
246.8	1031.75
247.033	1209.75
247.266	1091.75
247.5	1074.75
247.733	1049.75
247.966	1139.75
248.2	1246.75
248.433	1192.75
248.666	1265.75
248.899	1349.75
249.133	1526.75
249.366	1758.75
249.599	1424.75
249.832	1246.75
250.066	1294.75
250.299	1313.75
250.532	1226.75
250.765	1080.75
250.998	1120.75
251.231	1217.75
251.465	1272.75
251.698	1176.75
251.931	1201.75
252.164	1217.75
252.397	1257.75
252.63	1257.75
252.863	1081.75
253.096	1106.75
253.329	1165.75
253.562	1225.75
253.795	1253.75
254.028	1268.75
254.261	1172.75
254.494	1183.75
254.727	1092.75
254.96	1168.75
255.193	1262.75
255.426	1414.75
255.659	1645.75
255.892	1674.75
256.124	1387.75
256.357	1317.75
256.59	1428.75
256.823	1448.75
257.056	1421.75
257.289	1716.75
257.521	1927.75
257.754	1716.75
257.987	1607.75
258.22	1760.75
258.452	1741.75
258.685	1398.75
258.918	1384.75
259.151	1404.75
259.383	1312.75
259.616	1196.75
259.849	1231.75
260.081	1401.75
260.314	1550.75
260.547	1673.75
260.779	1752.75
261.012	1610.75
261.244	1433.75
261.477	1378.75
261.71	1414.75
261.942	1424.75
262.175	1369.75
262.407	1448.75
262.64	1390.75
262.872	1317.75
263.105	1258.75
263.337	1265.75
263.57	1291.75
263.802	1329.75
264.035	1224.75
264.267	1168.75
264.499	1147.75
264.732	1200.75
264.964	1289.75
265.197	1344.75
265.429	1375.75
265.661	1564.75
265.894	1738.75
266.126	1840.75
266.358	1599.75
266.591	1626.75
266.823	1823.75
267.055	1612.75
267.287	1607.75
267.52	1543.75
267.752	1523.75
267.984	1597.75
268.216	1594.75
268.448	1680.75
268.681	1679.75
268.913	1532.75
269.145	1450.75
269.377	1388.75
269.609	1472.75
269.841	1752.75
270.073	2043.75
270.306	2283.75
270.538	2430.75
270.77	2089.75
271.002	1746.75
271.234	1677.75
271.466	1622.75
271.698	1816.75
271.93	2237.75
272.162	2238.75
272.394	1951.75
272.626	1899.75
272.858	1695.75
273.09	1481.75
273.322	1429.75
273.553	1366.75
273.785	1401.75
274.017	1444.75
274.249	1560.75
274.481	1566.75
274.713	1433.75
274.945	1390.75
275.176	1464.75
275.408	1414.75
275.64	1389.75
275.872	1372.75
276.104	1460.75
276.335	1648.75
276.567	1878.75
276.799	1964.75
277.031	1710.75
277.262	1611.75
277.494	1668.75
277.726	1850.75
277.957	1860.75
278.189	1671.75
278.421	1536.75
278.652	1484.75
278.884	1460.75
279.115	1453.75
279.347	1492.75
279.579	1489.75
279.81	1466.75
280.042	1635.75
280.273	1806.75
280.505	1758.75
280.736	1834.75
280.968	1719.75
281.199	1538.75
281.431	1434.75
281.662	1398.75
281.894	1429.75
282.125	1496.75
282.356	1528.75
282.588	1557.75
282.819	1563.75
283.051	1652.75
283.282	1806.75
283.513	1770.75
283.745	1503.75
283.976	1401.75
284.207	1437.75
284.439	1444.75
284.67	1499.75
284.901	1541.75
285.132	1559.75
285.364	1544.75
285.595	1540.75
285.826	1501.75
286.057	1464.75
286.288	1506.75
286.52	1549.75
286.751	1695.75
286.982	1727.75
287.213	1587.75
287.444	1448.75
287.675	1457.75
287.906	1512.75
288.138	1648.75
288.369	1601.75
288.6	1545.75
288.831	1444.75
289.062	1478.75
289.293	1509.75
289.524	1490.75
289.755	1568.75
289.986	1554.75
290.217	1448.75
290.448	1461.75
290.679	1527.75
290.91	1537.75
291.141	1594.75
291.371	1629.75
291.602	1632.75
291.833	1580.75
292.064	1665.75
292.295	1578.75
292.526	1622.75
292.757	1752.75
292.987	1626.75
293.218	1538.75
293.449	1703.75
293.68	1894.75
293.91	2068.75
294.141	1853.75
294.372	1760.75
294.603	1832.75
294.833	1916.75
295.064	1795.75
295.295	1633.75
295.525	1632.75
295.756	1478.75
295.987	1432.75
296.217	1460.75
296.448	1504.75
296.679	1490.75
296.909	1520.75
297.14	1485.75
297.37	1472.75
297.601	1594.75
297.831	1708.75
298.062	1706.75
298.292	1582.75
298.523	1522.75
298.753	1508.75
298.984	1517.75
299.214	1532.75
299.445	1548.75
299.675	1625.75
299.905	1612.75
300.136	1557.75
300.366	1545.75
300.597	1500.75
300.827	1462.75
301.057	1543.75
301.288	1624.75
301.518	1609.75
301.748	1623.75
301.979	1762.75
302.209	1755.75
302.439	1856.75
302.669	2010.75
302.9	1861.75
303.13	1654.75
303.36	1629.75
303.59	1674.75
303.82	1674.75
304.051	1637.75
304.281	1655.75
304.511	1630.75
304.741	1694.75
304.971	1885.75
305.201	2053.75
305.431	1945.75
305.661	1606.75
305.891	1430.75
306.121	1441.75
306.352	1479.75
306.582	1563.75
306.812	1667.75
307.042	1817.75
307.272	1780.75
307.502	1852.75
307.731	1997.75
307.961	2175.75
308.191	1968.75
308.421	1742.75
308.651	1609.75
308.881	1576.75
309.111	1562.75
309.341	1541.75
309.571	1595.75
309.8	1588.75
310.03	1559.75
310.26	1540.75
310.49	1572.75
310.72	1581.75
310.949	1700.75
311.179	1688.75
311.409	1600.75
311.639	1634.75
311.868	1557.75
312.098	1589.75
312.328	1603.75
312.557	1566.75
312.787	1609.75
313.017	1668.75
313.246	1646.75
313.476	1607.75
313.706	1704.75
313.935	1687.75
314.165	1674.75
314.394	1736.75
314.624	1798.75
314.853	1920.75
315.083	1974.75
315.312	2061.75
315.542	1944.75
315.771	1721.75
316.001	1692.75
316.23	1819.75
316.46	1782.75
316.689	1786.75
316.919	1697.75
317.148	1619.75
317.377	1648.75
317.607	1721.75
317.836	1932.75
318.065	2064.75
318.295	1980.75
318.524	1849.75
318.753	1777.75
318.983	1765.75
319.212	1753.75
319.441	1694.75
319.67	1701.75
319.9	1676.75
320.129	1826.75
320.358	1909.75
320.587	1944.75
320.816	1920.75
321.046	1931.75
321.275	1744.75
321.504	1774.75
321.733	1919.75
321.962	1871.75
322.191	1725.75
322.42	1730.75
322.649	1706.75
322.878	1704.75
323.108	1728.75
323.337	1800.75
323.566	1798.75
323.795	1790.75
324.024	1781.75
324.253	1724.75
324.482	1801.75
324.71	1712.75
324.939	1634.75
325.168	1652.75
325.397	1691.75
325.626	1753.75
325.855	1790.75
326.084	1754.75
326.313	1730.75
326.542	1760.75
326.77	1830.75
326.999	1835.75
327.228	1770.75
327.457	1664.75
327.686	1636.75
327.914	1680.75
328.143	1732.75
328.372	1742.75
328.6	1737.75
328.829	1734.75
329.058	1691.75
329.287	1676.75
329.515	1703.75
329.744	1748.75
329.972	1816.75
330.201	1890.75
330.43	1852.75
330.658	1834.75
330.887	1816.75
331.115	1801.75
331.344	1860.75
331.572	1825.75
331.801	1806.75
332.03	1812.75
332.258	1821.75
332.486	1833.75
332.715	1846.75
332.943	1876.75
333.172	1806.75
333.4	1848.75
333.629	1906.75
333.857	1972.75
334.085	2185.75
334.314	2426.75
334.542	2706.75
334.771	2515.75
334.999	2176.75
335.227	2076.75
335.455	1984.75
335.684	1952.75
335.912	2003.75
336.14	2104.75
336.369	2016.75
336.597	1882.75
336.825	1796.75
337.053	1916.75
337.281	2017.75
337.51	2079.75
337.738	2150.75
337.966	2040.75
338.194	1927.75
338.422	1836.75
338.65	1795.75
338.878	1789.75
339.106	1766.75
339.334	1767.75
339.562	1714.75
339.79	1742.75
340.018	1816.75
340.246	1909.75
340.474	1926.75
340.702	1847.75
340.93	1914.75
341.158	1862.75
341.386	1816.75
341.614	1830.75
341.842	1808.75
342.07	1801.75
342.298	1846.75
342.526	1819.75
342.754	1788.75
342.981	1767.75
343.209	1818.75
343.437	1732.75
343.665	1795.75
343.893	1832.75
344.12	1926.75
344.348	1952.75
344.576	1861.75
344.804	1805.75
345.031	1778.75
345.259	1784.75
345.487	1761.75
345.714	1676.75
345.942	1676.75
346.17	1696.75
346.397	1700.75
346.625	1725.75
346.853	1640.75
347.08	1588.75
347.308	1633.75
347.535	1656.75
347.763	1758.75
347.99	1689.75
348.218	1587.75
348.445	1634.75
348.673	1650.75
348.9	1720.75
349.128	1761.75
349.355	1837.75
349.583	1774.75
349.81	1716.75
350.037	1545.75
350.265	1542.75
350.492	1591.75
350.72	1600.75
350.947	1682.75
351.174	1704.75
351.402	1600.75
351.629	1564.75
351.856	1540.75
352.083	1562.75
352.311	1579.75
352.538	1611.75
352.765	1661.75
352.992	1739.75
353.22	1635.75
353.447	1626.75
353.674	1630.75
353.901	1662.75
354.128	1636.75
354.355	1580.75
354.583	1683.75
354.81	1716.75
355.037	1706.75
355.264	1695.75
355.491	1648.75
355.718	1719.75
355.945	1661.75
356.172	1618.75
356.399	1577.75
356.626	1605.75
356.853	1644.75
357.08	1789.75
357.307	1959.75
357.534	1987.75
357.761	1715.75
357.988	1576.75
358.215	1548.75
358.441	1541.75
358.668	1600.75
358.895	1596.75
359.122	1691.75
359.349	1882.75
359.576	1856.75
359.802	1658.75
360.029	1581.75
360.256	1552.75
360.483	1620.75
360.709	1653.75
360.936	1702.75
361.163	1754.75
361.39	1916.75
361.616	2084.75
361.843	2046.75
362.07	1972.75
362.296	1686.75
362.523	1630.75
362.749	1679.75
362.976	1656.75
363.203	1684.75
363.429	1638.75
363.656	1581.75
363.882	1653.75
364.109	1814.75
364.335	1966.75
364.562	1838.75
364.788	1734.75
365.015	1718.75
365.241	1589.75
365.468	1654.75
365.694	1706.75
365.92	1774.75
366.147	1755.75
366.373	1592.75
366.599	1610.75
366.826	1592.75
367.052	1590.75
367.278	1639.75
367.505	1656.75
367.731	1686.75
367.957	1698.75
368.184	1734.75
368.41	1780.75
368.636	1834.75
368.862	1862.75
369.089	1861.75
369.315	1814.75
369.541	1752.75
369.767	1700.75
369.993	1607.75
370.219	1621.75
370.445	1660.75
370.672	1724.75
370.898	1821.75
371.124	1859.75
371.35	1744.75
371.576	1771.75
371.802	1872.75
372.028	1762.75
372.254	1699.75
372.48	1660.75
372.706	1635.75
372.932	1624.75
373.158	1670.75
373.384	1674.75
373.61	1762.75
373.835	1803.75
374.061	1752.75
374.287	1702.75
374.513	1737.75
374.739	1739.75
374.965	1761.75
375.191	1764.75
375.416	1803.75
375.642	1771.75
375.868	1881.75
376.094	1931.75
376.319	1872.75
376.545	1754.75
376.771	1771.75
376.997	1844.75
377.222	1798.75
377.448	1767.75
377.674	1804.75
377.899	1791.75
378.125	1899.75
378.35	1911.75
378.576	1754.75
378.802	1703.75
379.027	1682.75
379.253	1680.75
379.478	1664.75
379.704	1709.75
379.929	1713.75
380.155	1714.75
380.38	1733.75
380.606	1790.75
380.831	1719.75
381.057	1802.75
381.282	1841.75
381.507	1806.75
381.733	1854.75
381.958	2008.75
382.184	1861.75
382.409	1752.75
382.634	1794.75
382.86	1794.75
383.085	1735.75
383.31	1830.75
383.535	1992.75
383.761	2092.75
383.986	1997.75
384.211	1934.75
384.436	1916.75
384.662	1998.75
384.887	2081.75
385.112	1975.75
385.337	1984.75
385.562	1954.75
385.787	1958.75
386.013	2016.75
386.238	2040.75
386.463	1980.75
386.688	2119.75
386.913	2238.75
387.138	2168.75
387.363	2037.75
387.588	2008.75
387.813	2012.75
388.038	1986.75
388.263	2074.75
388.488	2075.75
388.713	1929.75
388.938	1877.75
389.163	1899.75
389.387	1957.75
389.612	1963.75
389.837	2022.75
390.062	2021.75
390.287	1953.75
390.512	1942.75
390.736	1934.75
390.961	1922.75
391.186	1864.75
391.411	1888.75
391.636	1936.75
391.86	1958.75
392.085	1996.75
392.31	1931.75
392.534	2009.75
392.759	1989.75
392.984	1984.75
393.208	1956.75
393.433	1984.75
393.658	2127.75
393.882	2114.75
394.107	2014.75
394.331	1964.75
394.556	1948.75
394.78	1983.75
395.005	2050.75
395.229	2117.75
395.454	2217.75
395.678	2289.75
395.903	2178.75
396.127	2041.75
396.352	2066.75
396.576	2137.75
396.801	2160.75
397.025	2137.75
397.249	2149.75
397.474	2114.75
397.698	2106.75
397.922	2143.75
398.147	2286.75
398.371	2317.75
398.595	2332.75
398.82	2220.75
399.044	2318.75
399.268	2360.75
399.492	2528.75
399.717	2632.75
399.941	2594.75
400.165	2554.75
400.389	2495.75
400.613	2477.75
400.837	2722.75
401.062	3160.75
401.286	2700.75
401.51	2439.75
401.734	2560.75
401.958	2480.75
402.182	2315.75
402.406	2291.75
402.63	2229.75
402.854	2195.75
403.078	2233.75
403.302	2313.75
403.526	2325.75
403.75	2335.75
403.974	2307.75
404.198	2357.75
404.422	2398.75
404.645	2516.75
404.869	2503.75
405.093	2353.75
405.317	2273.75
405.541	2368.75
405.765	2370.75
405.988	2354.75
406.212	2429.75
406.436	2453.75
406.66	2532.75
406.883	2487.75
407.107	2793.75
407.331	3013.75
407.555	3296.75
407.778	3096.75
408.002	2546.75
408.226	2432.75
408.449	2456.75
408.673	2407.75
408.896	2422.75
409.12	2459.75
409.344	2378.75
409.567	2292.75
409.791	2312.75
410.014	2378.75
410.238	2542.75
410.461	2645.75
410.685	2414.75
410.908	2300.75
411.132	2296.75
411.355	2353.75
411.578	2271.75
411.802	2272.75
412.025	2341.75
412.249	2264.75
412.472	2261.75
412.695	2214.75
412.919	2216.75
413.142	2205.75
413.365	2205.75
413.589	2308.75
413.812	2349.75
414.035	2470.75
414.258	2279.75
414.482	2219.75
414.705	2246.75
414.928	2211.75
415.151	2196.75
415.374	2244.75
415.597	2264.75
415.821	2330.75
416.044	2368.75
416.267	2329.75
416.49	2169.75
416.713	2114.75
416.936	2201.75
417.159	2289.75
417.382	2331.75
417.605	2162.75
417.828	2204.75
418.051	2307.75
418.274	2208.75
418.497	2185.75
418.72	2187.75
418.943	2146.75
419.166	2277.75
419.389	2358.75
419.611	2251.75
419.834	2220.75
420.057	2246.75
420.28	2160.75
420.503	2140.75
420.726	2228.75
420.948	2196.75
421.171	2115.75
421.394	2193.75
421.617	2195.75
421.839	2225.75
422.062	2174.75
422.285	2129.75
422.507	2123.75
422.73	2093.75
422.953	2037.75
423.175	2062.75
423.398	2116.75
423.621	2158.75
423.843	2169.75
424.066	2212.75
424.288	2299.75
424.511	2335.75
424.733	2236.75
424.956	2076.75
425.178	2044.75
425.401	2061.75
425.623	2091.75
425.846	2070.75
426.068	2198.75
426.291	2264.75
426.513	2208.75
426.735	2218.75
426.958	2303.75
427.18	2407.75
427.402	2221.75
427.625	2321.75
427.847	2344.75
428.069	2163.75
428.292	2091.75
428.514	2021.75
428.736	2049.75
428.958	2108.75
429.181	2067.75
429.403	2312.75
429.625	2934.75
429.847	2570.75
430.069	2156.75
430.292	2344.75
430.514	2470.75
430.736	2278.75
430.958	2369.75
431.18	2253.75
431.402	2060.75
431.624	2100.75
431.846	2096.75
432.068	2029.75
432.29	2095.75
432.512	2102.75
432.734	2136.75
432.956	2149.75
433.178	2283.75
433.4	2258.75
433.622	2202.75
433.844	2117.75
434.066	2069.75
434.287	2042.75
434.509	2127.75
434.731	2248.75
434.953	2376.75
435.175	2336.75
435.397	2126.75
435.618	2169.75
435.84	2204.75
436.062	2167.75
436.284	2212.75
436.505	2200.75
436.727	2237.75
436.949	2192.75
437.17	2088.75
437.392	2104.75
437.614	2096.75
437.835	2075.75
438.057	2180.75
438.278	2290.75
438.5	2111.75
438.721	2081.75
438.943	2103.75
439.165	2068.75
439.386	2009.75
439.608	2049.75
439.829	2081.75
440.05	2082.75
440.272	2035.75
440.493	2005.75
440.715	2027.75
440.936	2177.75
441.158	2398.75
441.379	2381.75
441.6	2305.75
441.822	2210.75
442.043	2221.75
442.264	2197.75
442.486	2075.75
442.707	2085.75
442.928	2070.75
443.149	2128.75
443.371	2294.75
443.592	2344.75
443.813	2300.75
444.034	2270.75
444.255	2304.75
444.476	2336.75
444.698	2372.75
444.919	2329.75
445.14	2434.75
445.361	2447.75
445.582	2477.75
445.803	2387.75
446.024	2267.75
446.245	2384.75
446.466	2283.75
446.687	2172.75
446.908	2203.75
447.129	2093.75
447.35	2154.75
447.571	2139.75
447.792	2085.75
448.013	2035.75
448.234	2085.75
448.455	2174.75
448.675	2146.75
448.896	2026.75
449.117	1968.75
449.338	2050.75
449.559	2119.75
449.779	2256.75
450	2455.75
450.221	2632.75
450.442	2545.75
450.662	2240.75
450.883	2025.75
451.104	1914.75
451.324	1996.75
451.545	2070.75
451.766	2029.75
451.986	1939.75
452.207	1933.75
452.428	1882.75
452.648	1829.75
452.869	1919.75
453.089	2038.75
453.31	2040.75
453.53	2128.75
453.751	2048.75
453.971	1895.75
454.192	1957.75
454.412	2116.75
454.633	2006.75
454.853	1930.75
455.073	1826.75
455.294	1827.75
455.514	1810.75
455.734	1857.75
455.955	1906.75
456.175	1878.75
456.395	1860.75
456.616	1901.75
456.836	1980.75
457.056	1922.75
457.276	1904.75
457.497	1889.75
457.717	1780.75
457.937	1827.75
458.157	1856.75
458.377	1821.75
458.598	1826.75
458.818	1879.75
459.038	1990.75
459.258	2119.75
459.478	2147.75
459.698	2054.75
459.918	2107.75
460.138	2141.75
460.358	2221.75
460.578	2187.75
460.798	2323.75
461.018	2453.75
461.238	2328.75
461.458	2190.75
461.678	2272.75
461.898	2210.75
462.118	2120.75
462.338	2212.75
462.558	2214.75
462.777	2216.75
462.997	2339.75
463.217	2488.75
463.437	2496.75
463.657	2288.75
463.876	2257.75
464.096	2248.75
464.316	2225.75
464.536	2330.75
464.755	2304.75
464.975	2359.75
465.195	2307.75
465.414	2380.75
465.634	2365.75
465.854	2190.75
466.073	2346.75
466.293	2349.75
466.512	2048.75
466.732	2033.75
466.951	2102.75
467.171	2134.75
467.391	2055.75
467.61	2004.75
467.829	2022.75
468.049	2189.75
468.268	2416.75
468.488	2258.75
468.707	2196.75
468.927	2029.75
469.146	2054.75
469.365	2007.75
469.585	2049.75
469.804	2024.75
470.023	1988.75
470.243	2073.75
470.462	2011.75
470.681	1944.75
470.901	2026.75
471.12	2040.75
471.339	2018.75
471.558	1955.75
471.777	1893.75
471.997	1991.75
472.216	2007.75
472.435	1892.75
472.654	1948.75
472.873	2024.75
473.092	2149.75
473.311	2076.75
473.53	1933.75
473.749	1929.75
473.968	2018.75
474.187	2098.75
474.406	2190.75
474.625	2093.75
474.844	2081.75
475.063	2084.75
475.282	2120.75
475.501	2059.75
475.72	2101.75
475.939	2194.75
476.158	2139.75
476.377	2042.75
476.596	2083.75
476.814	2132.75
477.033	2131.75
477.252	2214.75
477.471	2288.75
477.69	2208.75
477.908	2153.75
478.127	2230.75
478.346	2421.75
478.564	2459.75
478.783	2384.75
479.002	2562.75
479.22	2388.75
479.439	2517.75
479.658	2814.75
479.876	2822.75
480.095	2466.75
480.313	2374.75
480.532	2267.75
480.751	2319.75
480.969	2375.75
481.188	2341.75
481.406	2264.75
481.624	2226.75
481.843	2264.75
482.061	2328.75
482.28	2332.75
482.498	2390.75
482.717	2331.75
482.935	2272.75
483.153	2264.75
483.372	2323.75
483.59	2236.75
483.808	2273.75
484.027	2352.75
484.245	2471.75
484.463	2791.75
484.681	3276.75
484.9	2544.75
485.118	2314.75
485.336	2294.75
485.554	2389.75
485.772	2505.75
485.99	2430.75
486.209	2469.75
486.427	2476.75
486.645	2478.75
486.863	2414.75
487.081	2517.75
487.299	2534.75
