Data from WStandard_LampEnergy10_LIBS07252019.E.O._I.C._HRD10591_15-54-01-928.txt Node
Date: Thu Jul 25 15:54:01 EDT 2019
User: cochatt
Spectrometer: HR+D1059
Trigger mode: 1
Integration Time (sec): 1.000000E-1
Scans to average: 1
Electric dark correction enabled: true
Nonlinearity correction enabled: false
Boxcar width: 0
XAxis mode: Wavelengths
Number of Pixels in Spectrum: 2048
>>>>>Begin Spectral Data<<<<<
223.165	-21.25
223.4	-21.25
223.635	-21.25
223.869	-15.25
224.104	-12.25
224.338	-13.25
224.573	-17.25
224.808	-3.25
225.042	-13.25
225.277	-2.25
225.511	0.75
225.746	7.75
225.98	-2.25
226.215	3.75
226.449	17.75
226.683	15.75
226.918	18.75
227.152	35.75
227.387	50.75
227.621	42.75
227.856	49.75
228.09	40.75
228.324	49.75
228.559	61.75
228.793	66.75
229.027	137.75
229.262	134.75
229.496	125.75
229.73	151.75
229.964	168.75
230.199	170.75
230.433	178.75
230.667	159.75
230.901	175.75
231.136	173.75
231.37	149.75
231.604	166.75
231.838	162.75
232.072	169.75
232.306	176.75
232.541	169.75
232.775	209.75
233.009	209.75
233.243	196.75
233.477	183.75
233.711	193.75
233.945	199.75
234.179	204.75
234.413	212.75
234.647	196.75
234.881	203.75
235.115	197.75
235.349	189.75
235.583	203.75
235.817	179.75
236.051	199.75
236.285	206.75
236.519	195.75
236.753	229.75
236.987	212.75
237.221	229.75
237.455	218.75
237.689	214.75
237.922	223.75
238.156	216.75
238.39	209.75
238.624	219.75
238.858	237.75
239.091	236.75
239.325	227.75
239.559	263.75
239.793	273.75
240.027	311.75
240.26	301.75
240.494	259.75
240.728	224.75
240.961	230.75
241.195	233.75
241.429	251.75
241.662	244.75
241.896	218.75
242.13	248.75
242.363	260.75
242.597	273.75
242.83	267.75
243.064	269.75
243.298	291.75
243.531	280.75
243.765	298.75
243.998	263.75
244.232	250.75
244.465	259.75
244.699	258.75
244.932	281.75
245.166	294.75
245.399	293.75
245.633	273.75
245.866	274.75
246.099	284.75
246.333	290.75
246.566	288.75
246.8	310.75
247.033	341.75
247.266	323.75
247.5	325.75
247.733	326.75
247.966	336.75
248.2	347.75
248.433	351.75
248.666	355.75
248.899	369.75
249.133	420.75
249.366	456.75
249.599	388.75
249.832	367.75
250.066	360.75
250.299	379.75
250.532	349.75
250.765	330.75
250.998	345.75
251.231	347.75
251.465	353.75
251.698	359.75
251.931	304.75
252.164	344.75
252.397	345.75
252.63	364.75
252.863	315.75
253.096	328.75
253.329	320.75
253.562	344.75
253.795	367.75
254.028	361.75
254.261	327.75
254.494	343.75
254.727	330.75
254.96	348.75
255.193	359.75
255.426	405.75
255.659	439.75
255.892	421.75
256.124	387.75
256.357	393.75
256.59	398.75
256.823	415.75
257.056	410.75
257.289	462.75
257.521	500.75
257.754	437.75
257.987	418.75
258.22	463.75
258.452	446.75
258.685	401.75
258.918	371.75
259.151	380.75
259.383	369.75
259.616	338.75
259.849	367.75
260.081	432.75
260.314	443.75
260.547	461.75
260.779	473.75
261.012	424.75
261.244	400.75
261.477	376.75
261.71	398.75
261.942	402.75
262.175	386.75
262.407	396.75
262.64	405.75
262.872	387.75
263.105	369.75
263.337	374.75
263.57	378.75
263.802	367.75
264.035	347.75
264.267	343.75
264.499	342.75
264.732	367.75
264.964	375.75
265.197	393.75
265.429	410.75
265.661	449.75
265.894	499.75
266.126	490.75
266.358	463.75
266.591	479.75
266.823	490.75
267.055	443.75
267.287	463.75
267.52	444.75
267.752	438.75
267.984	450.75
268.216	459.75
268.448	458.75
268.681	463.75
268.913	421.75
269.145	402.75
269.377	416.75
269.609	435.75
269.841	501.75
270.073	558.75
270.306	623.75
270.538	635.75
270.77	545.75
271.002	455.75
271.234	448.75
271.466	473.75
271.698	515.75
271.93	593.75
272.162	595.75
272.394	524.75
272.626	509.75
272.858	460.75
273.09	407.75
273.322	395.75
273.553	395.75
273.785	399.75
274.017	394.75
274.249	436.75
274.481	435.75
274.713	407.75
274.945	402.75
275.176	410.75
275.408	392.75
275.64	383.75
275.872	416.75
276.104	445.75
276.335	493.75
276.567	526.75
276.799	529.75
277.031	489.75
277.262	460.75
277.494	487.75
277.726	499.75
277.957	498.75
278.189	465.75
278.421	425.75
278.652	423.75
278.884	434.75
279.115	421.75
279.347	453.75
279.579	425.75
279.81	438.75
280.042	488.75
280.273	505.75
280.505	521.75
280.736	503.75
280.968	471.75
281.199	419.75
281.431	408.75
281.662	431.75
281.894	417.75
282.125	431.75
282.356	459.75
282.588	450.75
282.819	454.75
283.051	510.75
283.282	513.75
283.513	495.75
283.745	428.75
283.976	426.75
284.207	429.75
284.439	438.75
284.67	425.75
284.901	430.75
285.132	478.75
285.364	448.75
285.595	469.75
285.826	469.75
286.057	453.75
286.288	452.75
286.52	471.75
286.751	479.75
286.982	495.75
287.213	463.75
287.444	436.75
287.675	443.75
287.906	453.75
288.138	494.75
288.369	453.75
288.6	447.75
288.831	429.75
289.062	433.75
289.293	436.75
289.524	430.75
289.755	456.75
289.986	465.75
290.217	424.75
290.448	420.75
290.679	459.75
290.91	472.75
291.141	486.75
291.371	494.75
291.602	486.75
291.833	475.75
292.064	491.75
292.295	483.75
292.526	466.75
292.757	509.75
292.987	501.75
293.218	478.75
293.449	524.75
293.68	572.75
293.91	579.75
294.141	540.75
294.372	542.75
294.603	551.75
294.833	562.75
295.064	529.75
295.295	498.75
295.525	458.75
295.756	444.75
295.987	431.75
296.217	442.75
296.448	464.75
296.679	453.75
296.909	464.75
297.14	458.75
297.37	463.75
297.601	483.75
297.831	533.75
298.062	484.75
298.292	488.75
298.523	444.75
298.753	466.75
298.984	479.75
299.214	477.75
299.445	490.75
299.675	488.75
299.905	487.75
300.136	464.75
300.366	477.75
300.597	465.75
300.827	472.75
301.057	491.75
301.288	507.75
301.518	486.75
301.748	522.75
301.979	528.75
302.209	550.75
302.439	581.75
302.669	568.75
302.9	531.75
303.13	511.75
303.36	528.75
303.59	519.75
303.82	495.75
304.051	513.75
304.281	512.75
304.511	539.75
304.741	563.75
304.971	601.75
305.201	610.75
305.431	542.75
305.661	483.75
305.891	453.75
306.121	451.75
306.352	488.75
306.582	515.75
306.812	531.75
307.042	562.75
307.272	584.75
307.502	592.75
307.731	630.75
307.961	643.75
308.191	588.75
308.421	538.75
308.651	496.75
308.881	501.75
309.111	487.75
309.341	484.75
309.571	509.75
309.8	482.75
310.03	468.75
310.26	483.75
310.49	483.75
310.72	508.75
310.949	515.75
311.179	498.75
311.409	519.75
311.639	499.75
311.868	510.75
312.098	535.75
312.328	510.75
312.557	503.75
312.787	497.75
313.017	497.75
313.246	536.75
313.476	541.75
313.706	520.75
313.935	531.75
314.165	535.75
314.394	559.75
314.624	576.75
314.853	600.75
315.083	623.75
315.312	609.75
315.542	565.75
315.771	529.75
316.001	557.75
316.23	559.75
316.46	563.75
316.689	542.75
316.919	523.75
317.148	513.75
317.377	553.75
317.607	571.75
317.836	623.75
318.065	636.75
318.295	610.75
318.524	593.75
318.753	565.75
318.983	576.75
319.212	535.75
319.441	553.75
319.67	539.75
319.9	535.75
320.129	581.75
320.358	609.75
320.587	621.75
320.816	611.75
321.046	615.75
321.275	591.75
321.504	591.75
321.733	624.75
321.962	573.75
322.191	547.75
322.42	550.75
322.649	559.75
322.878	554.75
323.108	543.75
323.337	571.75
323.566	544.75
323.795	562.75
324.024	580.75
324.253	571.75
324.482	542.75
324.71	527.75
324.939	538.75
325.168	536.75
325.397	571.75
325.626	592.75
325.855	561.75
326.084	567.75
326.313	548.75
326.542	580.75
326.77	582.75
326.999	582.75
327.228	543.75
327.457	511.75
327.686	529.75
327.914	555.75
328.143	568.75
328.372	547.75
328.6	555.75
328.829	571.75
329.058	528.75
329.287	545.75
329.515	578.75
329.744	585.75
329.972	598.75
330.201	629.75
330.43	603.75
330.658	583.75
330.887	570.75
331.115	597.75
331.344	591.75
331.572	584.75
331.801	580.75
332.03	591.75
332.258	599.75
332.486	587.75
332.715	593.75
332.943	613.75
333.172	586.75
333.4	575.75
333.629	599.75
333.857	669.75
334.085	773.75
334.314	794.75
334.542	824.75
334.771	753.75
334.999	680.75
335.227	630.75
335.455	638.75
335.684	618.75
335.912	658.75
336.14	639.75
336.369	632.75
336.597	607.75
336.825	597.75
337.053	639.75
337.281	673.75
337.51	715.75
337.738	713.75
337.966	659.75
338.194	617.75
338.422	588.75
338.65	587.75
338.878	584.75
339.106	565.75
339.334	589.75
339.562	563.75
339.79	594.75
340.018	614.75
340.246	633.75
340.474	637.75
340.702	603.75
340.93	631.75
341.158	595.75
341.386	608.75
341.614	580.75
341.842	610.75
342.07	608.75
342.298	595.75
342.526	604.75
342.754	588.75
342.981	570.75
343.209	581.75
343.437	572.75
343.665	600.75
343.893	595.75
344.12	607.75
344.348	607.75
344.576	598.75
344.804	589.75
345.031	587.75
345.259	604.75
345.487	584.75
345.714	567.75
345.942	555.75
346.17	561.75
346.397	560.75
346.625	582.75
346.853	530.75
347.08	543.75
347.308	564.75
347.535	545.75
347.763	578.75
347.99	554.75
348.218	544.75
348.445	546.75
348.673	555.75
348.9	552.75
349.128	591.75
349.355	594.75
349.583	595.75
349.81	532.75
350.037	543.75
350.265	529.75
350.492	526.75
350.72	541.75
350.947	577.75
351.174	568.75
351.402	555.75
351.629	544.75
351.856	533.75
352.083	519.75
352.311	521.75
352.538	543.75
352.765	576.75
352.992	579.75
353.22	550.75
353.447	549.75
353.674	574.75
353.901	590.75
354.128	536.75
354.355	564.75
354.583	583.75
354.81	594.75
355.037	587.75
355.264	563.75
355.491	564.75
355.718	570.75
355.945	570.75
356.172	547.75
356.399	533.75
356.626	547.75
356.853	579.75
357.08	649.75
357.307	674.75
357.534	642.75
357.761	550.75
357.988	536.75
358.215	539.75
358.441	550.75
358.668	521.75
358.895	561.75
359.122	608.75
359.349	640.75
359.576	608.75
359.802	554.75
360.029	553.75
360.256	541.75
360.483	561.75
360.709	582.75
360.936	590.75
361.163	623.75
361.39	685.75
361.616	693.75
361.843	688.75
362.07	644.75
362.296	566.75
362.523	559.75
362.749	571.75
362.976	560.75
363.203	582.75
363.429	566.75
363.656	540.75
363.882	587.75
364.109	650.75
364.335	666.75
364.562	601.75
364.788	584.75
365.015	602.75
365.241	538.75
365.468	588.75
365.694	607.75
365.92	582.75
366.147	587.75
366.373	546.75
366.599	550.75
366.826	555.75
367.052	562.75
367.278	572.75
367.505	563.75
367.731	578.75
367.957	603.75
368.184	633.75
368.41	659.75
368.636	667.75
368.862	665.75
369.089	650.75
369.315	639.75
369.541	574.75
369.767	591.75
369.993	574.75
370.219	570.75
370.445	595.75
370.672	647.75
370.898	649.75
371.124	635.75
371.35	638.75
371.576	657.75
371.802	661.75
372.028	633.75
372.254	616.75
372.48	605.75
372.706	597.75
372.932	607.75
373.158	621.75
373.384	633.75
373.61	631.75
373.835	643.75
374.061	628.75
374.287	603.75
374.513	631.75
374.739	649.75
374.965	657.75
375.191	661.75
375.416	629.75
375.642	653.75
375.868	699.75
376.094	714.75
376.319	675.75
376.545	633.75
376.771	665.75
376.997	657.75
377.222	682.75
377.448	648.75
377.674	657.75
377.899	669.75
378.125	708.75
378.35	685.75
378.576	626.75
378.802	630.75
379.027	610.75
379.253	625.75
379.478	626.75
379.704	643.75
379.929	614.75
380.155	627.75
380.38	669.75
380.606	643.75
380.831	651.75
381.057	703.75
381.282	689.75
381.507	700.75
381.733	725.75
381.958	722.75
382.184	669.75
382.409	667.75
382.634	670.75
382.86	665.75
383.085	672.75
383.31	708.75
383.535	802.75
383.761	813.75
383.986	743.75
384.211	728.75
384.436	740.75
384.662	744.75
384.887	760.75
385.112	759.75
385.337	737.75
385.562	709.75
385.787	734.75
386.013	743.75
386.238	756.75
386.463	728.75
386.688	821.75
386.913	849.75
387.138	808.75
387.363	752.75
387.588	771.75
387.813	768.75
388.038	761.75
388.263	779.75
388.488	735.75
388.713	718.75
388.938	722.75
389.163	730.75
389.387	757.75
389.612	735.75
389.837	771.75
390.062	747.75
390.287	745.75
390.512	727.75
390.736	755.75
390.961	722.75
391.186	710.75
391.411	753.75
391.636	739.75
391.86	750.75
392.085	761.75
392.31	742.75
392.534	751.75
392.759	753.75
392.984	739.75
393.208	750.75
393.433	799.75
393.658	818.75
393.882	793.75
394.107	781.75
394.331	763.75
394.556	782.75
394.78	783.75
395.005	786.75
395.229	806.75
395.454	865.75
395.678	844.75
395.903	817.75
396.127	835.75
396.352	810.75
396.576	829.75
396.801	834.75
397.025	842.75
397.249	848.75
397.474	813.75
397.698	813.75
397.922	859.75
398.147	862.75
398.371	909.75
398.595	894.75
398.82	858.75
399.044	882.75
399.268	923.75
399.492	930.75
399.717	978.75
399.941	993.75
400.165	952.75
400.389	973.75
400.613	976.75
400.837	1106.75
401.062	1151.75
401.286	995.75
401.51	986.75
401.734	971.75
401.958	927.75
402.182	908.75
402.406	875.75
402.63	879.75
402.854	841.75
403.078	905.75
403.302	877.75
403.526	901.75
403.75	888.75
403.974	917.75
404.198	907.75
404.422	959.75
404.645	983.75
404.869	965.75
405.093	914.75
405.317	895.75
405.541	912.75
405.765	937.75
405.988	939.75
406.212	941.75
406.436	960.75
406.66	1013.75
406.883	1004.75
407.107	1130.75
407.331	1191.75
407.555	1274.75
407.778	1119.75
408.002	967.75
408.226	950.75
408.449	934.75
408.673	941.75
408.896	939.75
409.12	943.75
409.344	920.75
409.567	909.75
409.791	936.75
410.014	934.75
410.238	989.75
410.461	1048.75
410.685	954.75
410.908	943.75
411.132	948.75
411.355	933.75
411.578	914.75
411.802	921.75
412.025	974.75
412.249	909.75
412.472	920.75
412.695	926.75
412.919	894.75
413.142	890.75
413.365	937.75
413.589	933.75
413.812	963.75
414.035	975.75
414.258	943.75
414.482	911.75
414.705	915.75
414.928	899.75
415.151	924.75
415.374	937.75
415.597	913.75
415.821	923.75
416.044	958.75
416.267	935.75
416.49	887.75
416.713	889.75
416.936	961.75
417.159	977.75
417.382	952.75
417.605	946.75
417.828	923.75
418.051	965.75
418.274	948.75
418.497	957.75
418.72	912.75
418.943	917.75
419.166	947.75
419.389	979.75
419.611	946.75
419.834	928.75
420.057	928.75
420.28	918.75
420.503	926.75
420.726	936.75
420.948	927.75
421.171	884.75
421.394	941.75
421.617	978.75
421.839	998.75
422.062	977.75
422.285	910.75
422.507	928.75
422.73	888.75
422.953	886.75
423.175	884.75
423.398	913.75
423.621	939.75
423.843	947.75
424.066	977.75
424.288	988.75
424.511	1027.75
424.733	980.75
424.956	924.75
425.178	925.75
425.401	917.75
425.623	954.75
425.846	921.75
426.068	954.75
426.291	997.75
426.513	961.75
426.735	932.75
426.958	1064.75
427.18	1036.75
427.402	983.75
427.625	1007.75
427.847	994.75
428.069	958.75
428.292	913.75
428.514	881.75
428.736	869.75
428.958	920.75
429.181	891.75
429.403	1050.75
429.625	1216.75
429.847	1057.75
430.069	957.75
430.292	1059.75
430.514	1054.75
430.736	974.75
430.958	995.75
431.18	961.75
431.402	874.75
431.624	845.75
431.846	776.75
432.068	705.75
432.29	728.75
432.512	769.75
432.734	845.75
432.956	923.75
433.178	963.75
433.4	968.75
433.622	944.75
433.844	888.75
434.066	859.75
434.287	765.75
434.509	794.75
434.731	824.75
434.953	899.75
435.175	915.75
435.397	912.75
435.618	896.75
435.84	830.75
436.062	842.75
436.284	892.75
436.505	921.75
436.727	966.75
436.949	929.75
437.17	891.75
437.392	865.75
437.614	865.75
437.835	802.75
438.057	802.75
438.278	847.75
438.5	869.75
438.721	877.75
438.943	891.75
439.165	909.75
439.386	915.75
439.608	950.75
439.829	937.75
440.05	925.75
440.272	919.75
440.493	961.75
440.715	978.75
440.936	1040.75
441.158	1039.75
441.379	1054.75
441.6	1078.75
441.822	1025.75
442.043	993.75
442.264	981.75
442.486	952.75
442.707	958.75
442.928	957.75
443.149	978.75
443.371	995.75
443.592	984.75
443.813	1011.75
444.034	1024.75
444.255	1012.75
444.476	1021.75
444.698	1053.75
444.919	1051.75
445.14	1099.75
445.361	1095.75
445.582	1069.75
445.803	1039.75
446.024	1072.75
446.245	1078.75
446.466	1058.75
446.687	1021.75
446.908	1025.75
447.129	1017.75
447.35	1053.75
447.571	1011.75
447.792	998.75
448.013	958.75
448.234	962.75
448.455	1006.75
448.675	949.75
448.896	913.75
449.117	919.75
449.338	906.75
449.559	957.75
449.779	988.75
450	1006.75
450.221	1064.75
450.442	1019.75
450.662	929.75
450.883	868.75
451.104	869.75
451.324	889.75
451.545	884.75
451.766	839.75
451.986	839.75
452.207	822.75
452.428	777.75
452.648	791.75
452.869	769.75
453.089	797.75
453.31	785.75
453.53	763.75
453.751	697.75
453.971	696.75
454.192	759.75
454.412	769.75
454.633	780.75
454.853	769.75
455.073	713.75
455.294	775.75
455.514	765.75
455.734	768.75
455.955	750.75
456.175	769.75
456.395	730.75
456.616	735.75
456.836	754.75
457.056	724.75
457.276	739.75
457.497	718.75
457.717	707.75
457.937	714.75
458.157	694.75
458.377	695.75
458.598	711.75
458.818	667.75
459.038	692.75
459.258	685.75
459.478	701.75
459.698	690.75
459.918	739.75
460.138	783.75
460.358	831.75
460.578	862.75
460.798	855.75
461.018	881.75
461.238	867.75
461.458	837.75
461.678	813.75
461.898	816.75
462.118	821.75
462.338	826.75
462.558	865.75
462.777	824.75
462.997	873.75
463.217	891.75
463.437	879.75
463.657	845.75
463.876	841.75
464.096	807.75
464.316	855.75
464.536	869.75
464.755	897.75
464.975	872.75
465.195	849.75
465.414	882.75
465.634	835.75
465.854	891.75
466.073	957.75
466.293	913.75
466.512	865.75
466.732	867.75
466.951	899.75
467.171	888.75
467.391	874.75
467.61	870.75
467.829	882.75
468.049	972.75
468.268	1039.75
468.488	964.75
468.707	929.75
468.927	907.75
469.146	883.75
469.365	925.75
469.585	936.75
469.804	924.75
470.023	913.75
470.243	919.75
470.462	913.75
470.681	907.75
470.901	886.75
471.12	914.75
471.339	937.75
471.558	925.75
471.777	898.75
471.997	899.75
472.216	843.75
472.435	783.75
472.654	737.75
472.873	796.75
473.092	847.75
473.311	817.75
473.53	816.75
473.749	827.75
473.968	848.75
474.187	840.75
474.406	833.75
474.625	844.75
474.844	870.75
475.063	885.75
475.282	857.75
475.501	779.75
475.72	813.75
475.939	900.75
476.158	883.75
476.377	846.75
476.596	849.75
476.814	815.75
477.033	821.75
477.252	854.75
477.471	881.75
477.69	931.75
477.908	917.75
478.127	976.75
478.346	993.75
478.564	992.75
478.783	988.75
479.002	1006.75
479.22	994.75
479.439	1027.75
479.658	1031.75
479.876	964.75
480.095	900.75
480.313	912.75
480.532	878.75
480.751	842.75
480.969	834.75
481.188	814.75
481.406	790.75
481.624	772.75
481.843	786.75
482.061	843.75
482.28	864.75
482.498	872.75
482.717	832.75
482.935	910.75
483.153	988.75
483.372	1014.75
483.59	997.75
483.808	945.75
484.027	943.75
484.245	978.75
484.463	1185.75
484.681	1323.75
484.9	1008.75
485.118	945.75
485.336	885.75
485.554	910.75
485.772	870.75
485.99	864.75
486.209	911.75
486.427	888.75
486.645	947.75
486.863	1001.75
487.081	1045.75
487.299	1011.75
487.517	1027.75
487.735	1088.75
487.953	1161.75
488.171	1176.75
488.389	1135.75
488.607	1087.75
488.825	1155.75
489.043	1047.75
489.261	970.75
489.479	1027.75
489.696	1071.75
489.914	1041.75
490.132	1011.75
490.35	1078.75
490.568	1153.75
490.786	1173.75
491.003	1185.75
491.221	1258.75
491.439	1290.75
491.657	1298.75
491.874	1355.75
492.092	1449.75
492.31	1498.75
492.527	1471.75
492.745	1379.75
492.963	1332.75
493.18	1333.75
493.398	1335.75
493.615	1285.75
493.833	1252.75
494.05	1227.75
494.268	1236.75
494.485	1221.75
494.703	1204.75
494.92	1201.75
495.138	1224.75
495.355	1213.75
495.573	1277.75
495.79	1297.75
496.008	1293.75
496.225	1213.75
496.442	1193.75
496.66	1234.75
496.877	1195.75
497.094	1242.75
497.312	1231.75
497.529	1177.75
497.746	1169.75
497.963	1279.75
498.181	1302.75
498.398	1261.75
498.615	1215.75
498.832	1151.75
499.049	1122.75
499.267	1143.75
499.484	1232.75
499.701	1318.75
499.918	1347.75
500.135	1494.75
500.352	1551.75
500.569	1570.75
