Data from WStandard_LampEnergy10_LIBS07252019.E.O._I.C._HRD10591_15-54-42-928.txt Node
Date: Thu Jul 25 15:54:42 EDT 2019
User: cochatt
Spectrometer: HR+D1059
Trigger mode: 1
Integration Time (sec): 1.000000E-1
Scans to average: 1
Electric dark correction enabled: true
Nonlinearity correction enabled: false
Boxcar width: 0
XAxis mode: Wavelengths
Number of Pixels in Spectrum: 2048
>>>>>Begin Spectral Data<<<<<
223.165	-25.5
223.4	-25.5
223.635	-25.5
223.869	-17.5
224.104	-29.5
224.338	-14.5
224.573	-4.5
224.808	-2.5
225.042	-3.5
225.277	-20.5
225.511	-7.5
225.746	3.5
225.98	13.5
226.215	10.5
226.449	19.5
226.683	23.5
226.918	25.5
227.152	29.5
227.387	39.5
227.621	17.5
227.856	38.5
228.09	45.5
228.324	36.5
228.559	46.5
228.793	66.5
229.027	118.5
229.262	123.5
229.496	135.5
229.73	142.5
229.964	139.5
230.199	157.5
230.433	155.5
230.667	173.5
230.901	181.5
231.136	177.5
231.37	178.5
231.604	171.5
231.838	176.5
232.072	181.5
232.306	166.5
232.541	183.5
232.775	204.5
233.009	216.5
233.243	200.5
233.477	191.5
233.711	174.5
233.945	184.5
234.179	199.5
234.413	190.5
234.647	200.5
234.881	179.5
235.115	201.5
235.349	178.5
235.583	191.5
235.817	176.5
236.051	194.5
236.285	193.5
236.519	194.5
236.753	223.5
236.987	213.5
237.221	211.5
237.455	229.5
237.689	214.5
237.922	215.5
238.156	227.5
238.39	228.5
238.624	223.5
238.858	252.5
239.091	267.5
239.325	256.5
239.559	281.5
239.793	291.5
240.027	307.5
240.26	289.5
240.494	231.5
240.728	229.5
240.961	240.5
241.195	245.5
241.429	242.5
241.662	252.5
241.896	230.5
242.13	222.5
242.363	244.5
242.597	271.5
242.83	270.5
243.064	257.5
243.298	273.5
243.531	274.5
243.765	271.5
243.998	288.5
244.232	262.5
244.465	259.5
244.699	250.5
244.932	273.5
245.166	311.5
245.399	294.5
245.633	291.5
245.866	280.5
246.099	283.5
246.333	283.5
246.566	297.5
246.8	322.5
247.033	343.5
247.266	320.5
247.5	306.5
247.733	320.5
247.966	337.5
248.2	350.5
248.433	368.5
248.666	361.5
248.899	392.5
249.133	435.5
249.366	445.5
249.599	372.5
249.832	357.5
250.066	367.5
250.299	366.5
250.532	345.5
250.765	315.5
250.998	334.5
251.231	341.5
251.465	352.5
251.698	307.5
251.931	340.5
252.164	350.5
252.397	363.5
252.63	342.5
252.863	333.5
253.096	318.5
253.329	330.5
253.562	351.5
253.795	350.5
254.028	353.5
254.261	344.5
254.494	335.5
254.727	311.5
254.96	334.5
255.193	381.5
255.426	431.5
255.659	463.5
255.892	454.5
256.124	377.5
256.357	387.5
256.59	409.5
256.823	419.5
257.056	422.5
257.289	455.5
257.521	501.5
257.754	460.5
257.987	441.5
258.22	469.5
258.452	443.5
258.685	383.5
258.918	384.5
259.151	387.5
259.383	374.5
259.616	350.5
259.849	375.5
260.081	378.5
260.314	425.5
260.547	451.5
260.779	452.5
261.012	424.5
261.244	400.5
261.477	379.5
261.71	384.5
261.942	404.5
262.175	382.5
262.407	397.5
262.64	401.5
262.872	365.5
263.105	355.5
263.337	375.5
263.57	363.5
263.802	367.5
264.035	352.5
264.267	356.5
264.499	333.5
264.732	363.5
264.964	377.5
265.197	396.5
265.429	415.5
265.661	443.5
265.894	464.5
266.126	481.5
266.358	459.5
266.591	456.5
266.823	476.5
267.055	463.5
267.287	448.5
267.52	427.5
267.752	432.5
267.984	436.5
268.216	459.5
268.448	465.5
268.681	461.5
268.913	437.5
269.145	398.5
269.377	407.5
269.609	424.5
269.841	520.5
270.073	577.5
270.306	615.5
270.538	649.5
270.77	520.5
271.002	469.5
271.234	461.5
271.466	460.5
271.698	516.5
271.93	600.5
272.162	582.5
272.394	533.5
272.626	492.5
272.858	443.5
273.09	394.5
273.322	406.5
273.553	400.5
273.785	398.5
274.017	425.5
274.249	430.5
274.481	437.5
274.713	433.5
274.945	408.5
275.176	409.5
275.408	400.5
275.64	402.5
275.872	404.5
276.104	439.5
276.335	467.5
276.567	519.5
276.799	528.5
277.031	477.5
277.262	456.5
277.494	479.5
277.726	509.5
277.957	516.5
278.189	469.5
278.421	449.5
278.652	404.5
278.884	424.5
279.115	420.5
279.347	446.5
279.579	421.5
279.81	443.5
280.042	492.5
280.273	495.5
280.505	511.5
280.736	494.5
280.968	444.5
281.199	432.5
281.431	388.5
281.662	399.5
281.894	417.5
282.125	453.5
282.356	453.5
282.588	443.5
282.819	439.5
283.051	473.5
283.282	529.5
283.513	462.5
283.745	450.5
283.976	403.5
284.207	443.5
284.439	435.5
284.67	445.5
284.901	453.5
285.132	461.5
285.364	457.5
285.595	457.5
285.826	435.5
286.057	445.5
286.288	439.5
286.52	468.5
286.751	475.5
286.982	495.5
287.213	470.5
287.444	429.5
287.675	442.5
287.906	458.5
288.138	487.5
288.369	464.5
288.6	444.5
288.831	428.5
289.062	437.5
289.293	430.5
289.524	468.5
289.755	460.5
289.986	439.5
290.217	449.5
290.448	454.5
290.679	461.5
290.91	455.5
291.141	491.5
291.371	488.5
291.602	481.5
291.833	462.5
292.064	501.5
292.295	491.5
292.526	497.5
292.757	484.5
292.987	478.5
293.218	481.5
293.449	521.5
293.68	569.5
293.91	573.5
294.141	562.5
294.372	537.5
294.603	566.5
294.833	573.5
295.064	525.5
295.295	494.5
295.525	474.5
295.756	450.5
295.987	419.5
296.217	432.5
296.448	446.5
296.679	457.5
296.909	441.5
297.14	442.5
297.37	469.5
297.601	511.5
297.831	499.5
298.062	498.5
298.292	467.5
298.523	461.5
298.753	474.5
298.984	481.5
299.214	482.5
299.445	485.5
299.675	500.5
299.905	493.5
300.136	474.5
300.366	469.5
300.597	446.5
300.827	468.5
301.057	469.5
301.288	495.5
301.518	520.5
301.748	525.5
301.979	543.5
302.209	538.5
302.439	576.5
302.669	600.5
302.9	539.5
303.13	507.5
303.36	529.5
303.59	527.5
303.82	505.5
304.051	497.5
304.281	526.5
304.511	519.5
304.741	569.5
304.971	610.5
305.201	617.5
305.431	550.5
305.661	476.5
305.891	446.5
306.121	464.5
306.352	492.5
306.582	519.5
306.812	537.5
307.042	567.5
307.272	557.5
307.502	601.5
307.731	625.5
307.961	645.5
308.191	569.5
308.421	510.5
308.651	497.5
308.881	495.5
309.111	503.5
309.341	486.5
309.571	503.5
309.8	499.5
310.03	506.5
310.26	485.5
310.49	496.5
310.72	503.5
310.949	544.5
311.179	497.5
311.409	512.5
311.639	507.5
311.868	511.5
312.098	513.5
312.328	489.5
312.557	503.5
312.787	515.5
313.017	517.5
313.246	521.5
313.476	518.5
313.706	553.5
313.935	521.5
314.165	528.5
314.394	567.5
314.624	604.5
314.853	602.5
315.083	632.5
315.312	609.5
315.542	585.5
315.771	559.5
316.001	559.5
316.23	561.5
316.46	577.5
316.689	550.5
316.919	517.5
317.148	525.5
317.377	538.5
317.607	581.5
317.836	615.5
318.065	610.5
318.295	596.5
318.524	600.5
318.753	573.5
318.983	579.5
319.212	535.5
319.441	543.5
319.67	539.5
319.9	571.5
320.129	579.5
320.358	619.5
320.587	599.5
320.816	601.5
321.046	594.5
321.275	572.5
321.504	601.5
321.733	632.5
321.962	591.5
322.191	574.5
322.42	565.5
322.649	559.5
322.878	563.5
323.108	556.5
323.337	584.5
323.566	565.5
323.795	575.5
324.024	564.5
324.253	571.5
324.482	557.5
324.71	526.5
324.939	515.5
325.168	535.5
325.397	575.5
325.626	589.5
325.855	555.5
326.084	549.5
326.313	572.5
326.542	565.5
326.77	587.5
326.999	581.5
327.228	537.5
327.457	509.5
327.686	537.5
327.914	529.5
328.143	565.5
328.372	568.5
328.6	568.5
328.829	535.5
329.058	532.5
329.287	542.5
329.515	531.5
329.744	580.5
329.972	603.5
330.201	613.5
330.43	597.5
330.658	575.5
330.887	587.5
331.115	599.5
331.344	591.5
331.572	591.5
331.801	583.5
332.03	597.5
332.258	572.5
332.486	605.5
332.715	598.5
332.943	624.5
333.172	600.5
333.4	609.5
333.629	613.5
333.857	687.5
334.085	716.5
334.314	806.5
334.542	817.5
334.771	749.5
334.999	662.5
335.227	663.5
335.455	631.5
335.684	631.5
335.912	633.5
336.14	653.5
336.369	642.5
336.597	591.5
336.825	603.5
337.053	646.5
337.281	672.5
337.51	683.5
337.738	683.5
337.966	648.5
338.194	590.5
338.422	585.5
338.65	609.5
338.878	565.5
339.106	583.5
339.334	534.5
339.562	561.5
339.79	565.5
340.018	597.5
340.246	631.5
340.474	624.5
340.702	622.5
340.93	629.5
341.158	594.5
341.386	621.5
341.614	623.5
341.842	606.5
342.07	599.5
342.298	597.5
342.526	600.5
342.754	578.5
342.981	591.5
343.209	600.5
343.437	578.5
343.665	607.5
343.893	603.5
344.12	648.5
344.348	633.5
344.576	589.5
344.804	586.5
345.031	595.5
345.259	593.5
345.487	555.5
345.714	551.5
345.942	566.5
346.17	538.5
346.397	557.5
346.625	573.5
346.853	556.5
347.08	542.5
347.308	536.5
347.535	559.5
347.763	557.5
347.99	544.5
348.218	573.5
348.445	565.5
348.673	585.5
348.9	576.5
349.128	605.5
349.355	603.5
349.583	590.5
349.81	579.5
350.037	515.5
350.265	511.5
350.492	542.5
350.72	589.5
350.947	577.5
351.174	583.5
351.402	563.5
351.629	523.5
351.856	541.5
352.083	538.5
352.311	528.5
352.538	562.5
352.765	550.5
352.992	593.5
353.22	567.5
353.447	549.5
353.674	548.5
353.901	555.5
354.128	571.5
354.355	572.5
354.583	577.5
354.81	581.5
355.037	589.5
355.264	582.5
355.491	551.5
355.718	565.5
355.945	543.5
356.172	553.5
356.399	533.5
356.626	538.5
356.853	590.5
357.08	637.5
357.307	671.5
357.534	644.5
357.761	565.5
357.988	551.5
358.215	539.5
358.441	543.5
358.668	534.5
358.895	555.5
359.122	609.5
359.349	643.5
359.576	609.5
359.802	544.5
360.029	538.5
360.256	555.5
360.483	570.5
360.709	588.5
360.936	600.5
361.163	631.5
361.39	671.5
361.616	719.5
361.843	702.5
362.07	649.5
362.296	571.5
362.523	576.5
362.749	586.5
362.976	568.5
363.203	576.5
363.429	571.5
363.656	572.5
363.882	595.5
364.109	633.5
364.335	661.5
364.562	619.5
364.788	577.5
365.015	583.5
365.241	557.5
365.468	575.5
365.694	589.5
365.92	601.5
366.147	580.5
366.373	577.5
366.599	560.5
366.826	542.5
367.052	558.5
367.278	564.5
367.505	588.5
367.731	622.5
367.957	629.5
368.184	656.5
368.41	644.5
368.636	633.5
368.862	659.5
369.089	647.5
369.315	640.5
369.541	605.5
369.767	584.5
369.993	586.5
370.219	585.5
370.445	579.5
370.672	679.5
370.898	679.5
371.124	684.5
371.35	631.5
371.576	663.5
371.802	653.5
372.028	634.5
372.254	621.5
372.48	603.5
372.706	603.5
372.932	605.5
373.158	615.5
373.384	629.5
373.61	654.5
373.835	630.5
374.061	643.5
374.287	633.5
374.513	611.5
374.739	617.5
374.965	630.5
375.191	645.5
375.416	631.5
375.642	669.5
375.868	694.5
376.094	723.5
376.319	649.5
376.545	658.5
376.771	651.5
376.997	688.5
377.222	677.5
377.448	668.5
377.674	641.5
377.899	685.5
378.125	737.5
378.35	696.5
378.576	632.5
378.802	620.5
379.027	641.5
379.253	623.5
379.478	652.5
379.704	641.5
379.929	637.5
380.155	640.5
380.38	660.5
380.606	647.5
380.831	665.5
381.057	701.5
381.282	699.5
381.507	689.5
381.733	759.5
381.958	730.5
382.184	681.5
382.409	669.5
382.634	662.5
382.86	659.5
383.085	671.5
383.31	700.5
383.535	755.5
383.761	809.5
383.986	734.5
384.211	723.5
384.436	732.5
384.662	763.5
384.887	776.5
385.112	730.5
385.337	736.5
385.562	732.5
385.787	741.5
386.013	741.5
386.238	740.5
386.463	756.5
386.688	799.5
386.913	820.5
387.138	811.5
387.363	787.5
387.588	803.5
387.813	760.5
388.038	776.5
388.263	813.5
388.488	759.5
388.713	706.5
388.938	717.5
389.163	715.5
389.387	747.5
389.612	731.5
389.837	740.5
390.062	770.5
390.287	749.5
390.512	743.5
390.736	703.5
390.961	749.5
391.186	707.5
391.411	723.5
391.636	760.5
391.86	749.5
392.085	736.5
392.31	738.5
392.534	757.5
392.759	776.5
392.984	782.5
393.208	762.5
393.433	789.5
393.658	806.5
393.882	825.5
394.107	760.5
394.331	767.5
394.556	783.5
394.78	788.5
395.005	800.5
395.229	830.5
395.454	876.5
395.678	840.5
395.903	831.5
396.127	808.5
396.352	809.5
396.576	839.5
396.801	845.5
397.025	827.5
397.249	841.5
397.474	814.5
397.698	829.5
397.922	858.5
398.147	920.5
398.371	931.5
398.595	931.5
398.82	847.5
399.044	867.5
399.268	902.5
399.492	973.5
399.717	973.5
399.941	965.5
400.165	962.5
400.389	951.5
400.613	964.5
400.837	1126.5
401.062	1158.5
401.286	1041.5
401.51	980.5
401.734	975.5
401.958	945.5
402.182	891.5
402.406	875.5
402.63	845.5
402.854	863.5
403.078	892.5
403.302	891.5
403.526	900.5
403.75	924.5
403.974	924.5
404.198	920.5
404.422	968.5
404.645	990.5
404.869	937.5
405.093	889.5
405.317	910.5
405.541	944.5
405.765	931.5
405.988	924.5
406.212	956.5
406.436	948.5
406.66	987.5
406.883	1055.5
407.107	1140.5
407.331	1215.5
407.555	1241.5
407.778	1140.5
408.002	993.5
408.226	968.5
408.449	983.5
408.673	930.5
408.896	945.5
409.12	966.5
409.344	961.5
409.567	938.5
409.791	924.5
410.014	960.5
410.238	1025.5
410.461	1070.5
410.685	969.5
410.908	927.5
411.132	953.5
411.355	894.5
411.578	939.5
411.802	933.5
412.025	919.5
412.249	899.5
412.472	923.5
412.695	895.5
412.919	902.5
413.142	912.5
413.365	909.5
413.589	928.5
413.812	973.5
414.035	999.5
414.258	919.5
414.482	919.5
414.705	943.5
414.928	903.5
415.151	923.5
415.374	930.5
415.597	942.5
415.821	908.5
416.044	923.5
416.267	943.5
416.49	915.5
416.713	930.5
416.936	959.5
417.159	984.5
417.382	936.5
417.605	910.5
417.828	941.5
418.051	961.5
418.274	923.5
418.497	949.5
418.72	933.5
418.943	903.5
419.166	961.5
419.389	982.5
419.611	951.5
419.834	932.5
420.057	944.5
420.28	931.5
420.503	941.5
420.726	931.5
420.948	943.5
421.171	927.5
421.394	930.5
421.617	975.5
421.839	992.5
422.062	964.5
422.285	934.5
422.507	941.5
422.73	903.5
422.953	867.5
423.175	880.5
423.398	893.5
423.621	899.5
423.843	935.5
424.066	980.5
424.288	1012.5
424.511	1043.5
424.733	993.5
424.956	934.5
425.178	955.5
425.401	950.5
425.623	942.5
425.846	964.5
426.068	980.5
426.291	956.5
426.513	962.5
426.735	971.5
426.958	1046.5
427.18	1068.5
427.402	998.5
427.625	1029.5
427.847	979.5
428.069	927.5
428.292	926.5
428.514	879.5
428.736	889.5
428.958	911.5
429.181	919.5
429.403	1037.5
429.625	1223.5
429.847	1045.5
430.069	958.5
430.292	1048.5
430.514	1027.5
430.736	963.5
430.958	989.5
431.18	904.5
431.402	886.5
431.624	837.5
431.846	792.5
432.068	723.5
432.29	733.5
432.512	795.5
432.734	871.5
432.956	922.5
433.178	957.5
433.4	976.5
433.622	972.5
433.844	898.5
434.066	846.5
434.287	789.5
434.509	759.5
434.731	830.5
434.953	927.5
435.175	939.5
435.397	909.5
435.618	906.5
435.84	838.5
436.062	836.5
436.284	876.5
436.505	931.5
436.727	956.5
436.949	943.5
437.17	899.5
437.392	876.5
437.614	854.5
437.835	791.5
438.057	807.5
438.278	818.5
438.5	861.5
438.721	908.5
438.943	914.5
439.165	931.5
439.386	922.5
439.608	917.5
439.829	932.5
440.05	940.5
440.272	949.5
440.493	933.5
440.715	970.5
440.936	1026.5
441.158	1036.5
441.379	1007.5
441.6	1040.5
441.822	1030.5
442.043	1002.5
442.264	967.5
442.486	944.5
442.707	966.5
442.928	944.5
443.149	968.5
443.371	988.5
443.592	1053.5
443.813	1020.5
444.034	1004.5
444.255	1016.5
444.476	1044.5
444.698	1045.5
444.919	1078.5
445.14	1167.5
445.361	1121.5
445.582	1087.5
445.803	1069.5
446.024	1053.5
446.245	1062.5
446.466	1055.5
446.687	1027.5
446.908	1038.5
447.129	979.5
447.35	1008.5
447.571	1002.5
447.792	960.5
448.013	943.5
448.234	965.5
448.455	983.5
448.675	997.5
448.896	920.5
449.117	895.5
449.338	891.5
449.559	952.5
449.779	979.5
450	1020.5
450.221	1042.5
450.442	1026.5
450.662	904.5
450.883	884.5
451.104	882.5
451.324	882.5
451.545	879.5
451.766	819.5
451.986	827.5
452.207	807.5
452.428	801.5
452.648	776.5
452.869	789.5
453.089	786.5
453.31	767.5
453.53	777.5
453.751	752.5
453.971	697.5
454.192	730.5
454.412	783.5
454.633	774.5
454.853	779.5
455.073	748.5
455.294	785.5
455.514	756.5
455.734	756.5
455.955	762.5
456.175	756.5
456.395	731.5
456.616	741.5
456.836	717.5
457.056	732.5
457.276	716.5
457.497	688.5
457.717	681.5
457.937	721.5
458.157	717.5
458.377	687.5
458.598	689.5
458.818	672.5
459.038	692.5
459.258	700.5
459.478	725.5
459.698	699.5
459.918	759.5
460.138	772.5
460.358	823.5
460.578	811.5
460.798	859.5
461.018	883.5
461.238	871.5
461.458	883.5
461.678	850.5
461.898	817.5
462.118	831.5
462.338	829.5
462.558	852.5
462.777	836.5
462.997	866.5
463.217	887.5
463.437	860.5
463.657	838.5
463.876	819.5
464.096	849.5
464.316	841.5
464.536	868.5
464.755	877.5
464.975	870.5
465.195	877.5
465.414	872.5
465.634	861.5
465.854	909.5
466.073	982.5
466.293	927.5
466.512	863.5
466.732	881.5
466.951	898.5
467.171	903.5
467.391	894.5
467.61	858.5
467.829	901.5
468.049	993.5
468.268	1057.5
468.488	977.5
468.707	928.5
468.927	911.5
469.146	877.5
469.365	904.5
469.585	920.5
469.804	909.5
470.023	919.5
470.243	926.5
470.462	954.5
470.681	895.5
470.901	935.5
471.12	913.5
471.339	938.5
471.558	903.5
471.777	899.5
471.997	887.5
472.216	861.5
472.435	808.5
472.654	767.5
472.873	768.5
473.092	840.5
473.311	859.5
473.53	809.5
473.749	814.5
473.968	847.5
474.187	853.5
474.406	843.5
474.625	860.5
474.844	850.5
475.063	881.5
475.282	867.5
475.501	820.5
475.72	835.5
475.939	886.5
476.158	867.5
476.377	875.5
476.596	815.5
476.814	820.5
477.033	822.5
477.252	841.5
477.471	879.5
477.69	886.5
477.908	966.5
478.127	973.5
478.346	981.5
478.564	973.5
478.783	986.5
479.002	1023.5
479.22	1007.5
479.439	1055.5
479.658	1064.5
479.876	980.5
480.095	893.5
480.313	921.5
480.532	872.5
480.751	872.5
480.969	812.5
481.188	789.5
481.406	769.5
481.624	737.5
481.843	802.5
482.061	821.5
482.28	882.5
482.498	936.5
482.717	845.5
482.935	900.5
483.153	985.5
483.372	991.5
483.59	1019.5
483.808	976.5
484.027	956.5
484.245	998.5
484.463	1226.5
484.681	1269.5
484.9	1049.5
485.118	989.5
485.336	925.5
485.554	936.5
485.772	888.5
485.99	871.5
486.209	890.5
486.427	893.5
486.645	918.5
486.863	1012.5
487.081	1039.5
487.299	1005.5
487.517	1011.5
487.735	1116.5
487.953	1187.5
488.171	1161.5
488.389	1140.5
488.607	1071.5
488.825	1132.5
489.043	1049.5
489.261	977.5
489.479	1020.5
489.696	1019.5
489.914	1026.5
490.132	1036.5
490.35	1089.5
490.568	1199.5
490.786	1202.5
491.003	1208.5
491.221	1254.5
491.439	1300.5
491.657	1327.5
491.874	1350.5
492.092	1423.5
492.31	1477.5
492.527	1442.5
492.745	1313.5
492.963	1319.5
493.18	1329.5
493.398	1352.5
493.615	1357.5
493.833	1259.5
494.05	1232.5
494.268	1232.5
494.485	1231.5
494.703	1212.5
494.92	1207.5
495.138	1220.5
495.355	1213.5
495.573	1244.5
495.79	1291.5
496.008	1262.5
496.225	1231.5
496.442	1231.5
496.66	1228.5
496.877	1223.5
497.094	1230.5
497.312	1214.5
497.529	1229.5
497.746	1218.5
497.963	1265.5
498.181	1319.5
498.398	1245.5
498.615	1183.5
498.832	1153.5
499.049	1167.5
499.267	1166.5
499.484	1264.5
499.701	1355.5
499.918	1379.5
500.135	1446.5
500.352	1555.5
500.569	1564.5
500.786	1711.5
501.003	1545.5
501.22	1448.5
501.437	1405.5
501.654	1427.5
501.871	1345.5
502.088	1240.5
502.305	1207.5
502.522	1133.5
502.739	1100.5
502.956	1075.5
503.172	1062.5
503.389	1004.5
503.606	989.5
503.823	1000.5
504.04	994.5
504.256	982.5
504.473	998.5
504.69	997.5
504.907	990.5
505.123	1000.5
505.34	1059.5
505.557	1335.5
505.773	1100.5
505.99	961.5
506.207	896.5
506.423	898.5
506.64	868.5
506.856	886.5
507.073	999.5
507.289	1100.5
507.506	1022.5
507.722	901.5
507.939	883.5
508.155	862.5
508.372	833.5
508.588	836.5
508.805	816.5
509.021	761.5
509.238	767.5
509.454	770.5
509.67	748.5
509.887	751.5
510.103	735.5
510.319	737.5
510.536	768.5
510.752	767.5
510.968	751.5
511.184	771.5
511.401	767.5
511.617	725.5
511.833	700.5
512.049	738.5
512.265	718.5
512.481	708.5
512.698	736.5
512.914	781.5
513.13	739.5
513.346	713.5
513.562	704.5
513.778	714.5
513.994	751.5
514.21	735.5
514.426	771.5
514.642	816.5
514.858	773.5
515.074	720.5
515.29	699.5
515.506	733.5
515.721	738.5
515.937	751.5
516.153	821.5
516.369	755.5
516.585	753.5
516.801	739.5
517.016	728.5
517.232	762.5
517.448	774.5
517.664	744.5
517.879	800.5
