Data from WStandard_LampEnergy5.5LIBS07252019.E.O._I.C._HRD10591_16-07-20-919.txt Node
Date: Thu Jul 25 16:07:20 EDT 2019
User: cochatt
Spectrometer: HR+D1059
Trigger mode: 1
Integration Time (sec): 1.000000E-1
Scans to average: 1
Electric dark correction enabled: true
Nonlinearity correction enabled: false
Boxcar width: 0
XAxis mode: Wavelengths
Number of Pixels in Spectrum: 2048
>>>>>Begin Spectral Data<<<<<
223.165	-16.38
223.4	-16.38
223.635	-16.38
223.869	0.62
224.104	-12.38
224.338	-8.38
224.573	-17.38
224.808	0.62
225.042	-8.38
225.277	-11.38
225.511	-0.38
225.746	-10.38
225.98	11.62
226.215	4.62
226.449	9.62
226.683	17.62
226.918	12.62
227.152	27.62
227.387	43.62
227.621	47.62
227.856	45.62
228.09	41.62
228.324	62.62
228.559	61.62
228.793	141.62
229.027	380.62
229.262	403.62
229.496	394.62
229.73	422.62
229.964	441.62
230.199	482.62
230.433	485.62
230.667	520.62
230.901	556.62
231.136	507.62
231.37	510.62
231.604	485.62
231.838	490.62
232.072	476.62
232.306	443.62
232.541	481.62
232.775	586.62
233.009	622.62
233.243	598.62
233.477	535.62
233.711	592.62
233.945	590.62
234.179	561.62
234.413	597.62
234.647	656.62
234.881	603.62
235.115	582.62
235.349	593.62
235.583	582.62
235.817	584.62
236.051	556.62
236.285	571.62
236.519	617.62
236.753	683.62
236.987	706.62
237.221	703.62
237.455	801.62
237.689	762.62
237.922	702.62
238.156	675.62
238.39	699.62
238.624	716.62
238.858	784.62
239.091	792.62
239.325	856.62
239.559	938.62
239.793	996.62
240.027	1111.62
240.26	1092.62
240.494	785.62
240.728	730.62
240.961	767.62
241.195	760.62
241.429	847.62
241.662	835.62
241.896	800.62
242.13	818.62
242.363	880.62
242.597	940.62
242.83	948.62
243.064	936.62
243.298	1000.62
243.531	971.62
243.765	998.62
243.998	963.62
244.232	846.62
244.465	826.62
244.699	810.62
244.932	951.62
245.166	1094.62
245.399	1029.62
245.633	929.62
245.866	902.62
246.099	978.62
246.333	1023.62
246.566	1008.62
246.8	1098.62
247.033	1254.62
247.266	1127.62
247.5	1141.62
247.733	1080.62
247.966	1170.62
248.2	1320.62
248.433	1253.62
248.666	1291.62
248.899	1386.62
249.133	1608.62
249.366	1857.62
249.599	1502.62
249.832	1283.62
250.066	1318.62
250.299	1356.62
250.532	1240.62
250.765	1106.62
250.998	1204.62
251.231	1255.62
251.465	1298.62
251.698	1240.62
251.931	1251.62
252.164	1276.62
252.397	1303.62
252.63	1315.62
252.863	1150.62
253.096	1129.62
253.329	1196.62
253.562	1229.62
253.795	1337.62
254.028	1324.62
254.261	1238.62
254.494	1227.62
254.727	1170.62
254.96	1202.62
255.193	1314.62
255.426	1493.62
255.659	1666.62
255.892	1771.62
256.124	1450.62
256.357	1394.62
256.59	1479.62
256.823	1512.62
257.056	1466.62
257.289	1806.62
257.521	2016.62
257.754	1794.62
257.987	1647.62
258.22	1856.62
258.452	1833.62
258.685	1462.62
258.918	1405.62
259.151	1422.62
259.383	1401.62
259.616	1229.62
259.849	1310.62
260.081	1464.62
260.314	1607.62
260.547	1776.62
260.779	1842.62
261.012	1666.62
261.244	1510.62
261.477	1391.62
261.71	1496.62
261.942	1485.62
262.175	1423.62
262.407	1504.62
262.64	1472.62
262.872	1343.62
263.105	1292.62
263.337	1334.62
263.57	1357.62
263.802	1389.62
264.035	1266.62
264.267	1181.62
264.499	1166.62
264.732	1259.62
264.964	1346.62
265.197	1383.62
265.429	1452.62
265.661	1636.62
265.894	1822.62
266.126	1891.62
266.358	1659.62
266.591	1752.62
266.823	1895.62
267.055	1698.62
267.287	1695.62
267.52	1624.62
267.752	1585.62
267.984	1614.62
268.216	1671.62
268.448	1714.62
268.681	1680.62
268.913	1554.62
269.145	1480.62
269.377	1438.62
269.609	1559.62
269.841	1797.62
270.073	2119.62
270.306	2363.62
270.538	2562.62
270.77	2166.62
271.002	1778.62
271.234	1705.62
271.466	1732.62
271.698	1888.62
271.93	2330.62
272.162	2324.62
272.394	2085.62
272.626	2026.62
272.858	1769.62
273.09	1480.62
273.322	1489.62
273.553	1444.62
273.785	1416.62
274.017	1489.62
274.249	1598.62
274.481	1630.62
274.713	1497.62
274.945	1452.62
275.176	1494.62
275.408	1469.62
275.64	1448.62
275.872	1396.62
276.104	1473.62
276.335	1696.62
276.567	1974.62
276.799	1988.62
277.031	1780.62
277.262	1684.62
277.494	1707.62
277.726	1934.62
277.957	1941.62
278.189	1751.62
278.421	1623.62
278.652	1550.62
278.884	1535.62
279.115	1504.62
279.347	1592.62
279.579	1514.62
279.81	1494.62
280.042	1680.62
280.273	1830.62
280.505	1849.62
280.736	1887.62
280.968	1748.62
281.199	1563.62
281.431	1492.62
281.662	1489.62
281.894	1471.62
282.125	1522.62
282.356	1594.62
282.588	1616.62
282.819	1559.62
283.051	1722.62
283.282	1886.62
283.513	1790.62
283.745	1518.62
283.976	1408.62
284.207	1486.62
284.439	1478.62
284.67	1537.62
284.901	1556.62
285.132	1608.62
285.364	1536.62
285.595	1576.62
285.826	1541.62
286.057	1565.62
286.288	1508.62
286.52	1571.62
286.751	1725.62
286.982	1801.62
287.213	1628.62
287.444	1506.62
287.675	1496.62
287.906	1556.62
288.138	1684.62
288.369	1655.62
288.6	1552.62
288.831	1502.62
289.062	1516.62
289.293	1520.62
289.524	1555.62
289.755	1642.62
289.986	1606.62
290.217	1477.62
290.448	1502.62
290.679	1576.62
290.91	1571.62
291.141	1623.62
291.371	1721.62
291.602	1640.62
291.833	1640.62
292.064	1709.62
292.295	1658.62
292.526	1731.62
292.757	1814.62
292.987	1722.62
293.218	1576.62
293.449	1720.62
293.68	1934.62
293.91	2126.62
294.141	1960.62
294.372	1816.62
294.603	1845.62
294.833	1952.62
295.064	1901.62
295.295	1655.62
295.525	1644.62
295.756	1526.62
295.987	1444.62
296.217	1453.62
296.448	1544.62
296.679	1535.62
296.909	1529.62
297.14	1517.62
297.37	1509.62
297.601	1627.62
297.831	1748.62
298.062	1802.62
298.292	1601.62
298.523	1521.62
298.753	1541.62
298.984	1572.62
299.214	1542.62
299.445	1602.62
299.675	1613.62
299.905	1594.62
300.136	1613.62
300.366	1560.62
300.597	1517.62
300.827	1500.62
301.057	1593.62
301.288	1660.62
301.518	1640.62
301.748	1702.62
301.979	1754.62
302.209	1753.62
302.439	1889.62
302.669	2046.62
302.9	1930.62
303.13	1701.62
303.36	1694.62
303.59	1745.62
303.82	1710.62
304.051	1684.62
304.281	1676.62
304.511	1690.62
304.741	1772.62
304.971	1955.62
305.201	2175.62
305.431	2010.62
305.661	1614.62
305.891	1472.62
306.121	1455.62
306.352	1512.62
306.582	1608.62
306.812	1743.62
307.042	1887.62
307.272	1857.62
307.502	1883.62
307.731	2058.62
307.961	2229.62
308.191	2064.62
308.421	1787.62
308.651	1663.62
308.881	1610.62
309.111	1578.62
309.341	1576.62
309.571	1580.62
309.8	1597.62
310.03	1658.62
310.26	1578.62
310.49	1607.62
310.72	1622.62
310.949	1724.62
311.179	1752.62
311.409	1711.62
311.639	1642.62
311.868	1605.62
312.098	1627.62
312.328	1627.62
312.557	1589.62
312.787	1631.62
313.017	1726.62
313.246	1655.62
313.476	1641.62
313.706	1729.62
313.935	1702.62
314.165	1713.62
314.394	1759.62
314.624	1837.62
314.853	1988.62
315.083	2060.62
315.312	2149.62
315.542	1979.62
315.771	1748.62
316.001	1732.62
316.23	1847.62
316.46	1825.62
316.689	1810.62
316.919	1661.62
317.148	1617.62
317.377	1653.62
317.607	1744.62
317.836	1952.62
318.065	2115.62
318.295	2012.62
318.524	1926.62
318.753	1813.62
318.983	1820.62
319.212	1785.62
319.441	1733.62
319.67	1739.62
319.9	1752.62
320.129	1858.62
320.358	1952.62
320.587	1995.62
320.816	1976.62
321.046	1922.62
321.275	1854.62
321.504	1835.62
321.733	1993.62
321.962	1948.62
322.191	1771.62
322.42	1762.62
322.649	1724.62
322.878	1726.62
323.108	1744.62
323.337	1846.62
323.566	1822.62
323.795	1790.62
324.024	1823.62
324.253	1783.62
324.482	1799.62
324.71	1757.62
324.939	1629.62
325.168	1693.62
325.397	1726.62
325.626	1816.62
325.855	1831.62
326.084	1787.62
326.313	1734.62
326.542	1742.62
326.77	1821.62
326.999	1823.62
327.228	1798.62
327.457	1647.62
327.686	1639.62
327.914	1665.62
328.143	1756.62
328.372	1754.62
328.6	1751.62
328.829	1752.62
329.058	1708.62
329.287	1696.62
329.515	1774.62
329.744	1766.62
329.972	1824.62
330.201	2002.62
330.43	1897.62
330.658	1826.62
330.887	1893.62
331.115	1854.62
331.344	1872.62
331.572	1824.62
331.801	1804.62
332.03	1822.62
332.258	1852.62
332.486	1876.62
332.715	1876.62
332.943	1929.62
333.172	1833.62
333.4	1855.62
333.629	1882.62
333.857	2006.62
334.085	2198.62
334.314	2527.62
334.542	2850.62
334.771	2587.62
334.999	2231.62
335.227	2106.62
335.455	2004.62
335.684	1989.62
335.912	2008.62
336.14	2086.62
336.369	2037.62
336.597	1938.62
336.825	1871.62
337.053	1934.62
337.281	2050.62
337.51	2141.62
337.738	2223.62
337.966	2196.62
338.194	1946.62
338.422	1848.62
338.65	1847.62
338.878	1801.62
339.106	1757.62
339.334	1759.62
339.562	1735.62
339.79	1726.62
340.018	1881.62
340.246	1927.62
340.474	1992.62
340.702	1880.62
340.93	1919.62
341.158	1859.62
341.386	1842.62
341.614	1833.62
341.842	1805.62
342.07	1818.62
342.298	1840.62
342.526	1878.62
342.754	1840.62
342.981	1756.62
343.209	1786.62
343.437	1804.62
343.665	1823.62
343.893	1866.62
344.12	1883.62
344.348	1966.62
344.576	1882.62
344.804	1851.62
345.031	1825.62
345.259	1820.62
345.487	1815.62
345.714	1694.62
345.942	1646.62
346.17	1659.62
346.397	1724.62
346.625	1744.62
346.853	1692.62
347.08	1600.62
347.308	1631.62
347.535	1695.62
347.763	1739.62
347.99	1721.62
348.218	1658.62
348.445	1678.62
348.673	1707.62
348.9	1763.62
349.128	1763.62
349.355	1894.62
349.583	1813.62
349.81	1722.62
350.037	1590.62
350.265	1573.62
350.492	1608.62
350.72	1615.62
350.947	1714.62
351.174	1755.62
351.402	1658.62
351.629	1606.62
351.856	1554.62
352.083	1571.62
352.311	1574.62
352.538	1602.62
352.765	1683.62
352.992	1737.62
353.22	1702.62
353.447	1623.62
353.674	1648.62
353.901	1711.62
354.128	1659.62
354.355	1634.62
354.583	1688.62
354.81	1744.62
355.037	1741.62
355.264	1712.62
355.491	1684.62
355.718	1694.62
355.945	1684.62
356.172	1654.62
356.399	1597.62
356.626	1594.62
356.853	1717.62
357.08	1785.62
357.307	1978.62
357.534	2071.62
357.761	1754.62
357.988	1644.62
358.215	1566.62
358.441	1579.62
358.668	1616.62
358.895	1605.62
359.122	1667.62
359.349	1871.62
359.576	1882.62
359.802	1696.62
360.029	1624.62
360.256	1650.62
360.483	1636.62
360.709	1637.62
360.936	1734.62
361.163	1765.62
361.39	1962.62
361.616	2100.62
361.843	2059.62
362.07	1964.62
362.296	1700.62
362.523	1647.62
362.749	1643.62
362.976	1661.62
363.203	1736.62
363.429	1672.62
363.656	1619.62
363.882	1675.62
364.109	1842.62
364.335	2043.62
364.562	1910.62
364.788	1819.62
365.015	1702.62
365.241	1595.62
365.468	1656.62
365.694	1759.62
365.92	1820.62
366.147	1761.62
366.373	1597.62
366.599	1633.62
366.826	1600.62
367.052	1594.62
367.278	1622.62
367.505	1648.62
367.731	1728.62
367.957	1720.62
368.184	1710.62
368.41	1842.62
368.636	1863.62
368.862	1837.62
369.089	1869.62
369.315	1851.62
369.541	1758.62
369.767	1699.62
369.993	1626.62
370.219	1643.62
370.445	1711.62
370.672	1770.62
370.898	1890.62
371.124	1860.62
371.35	1735.62
371.576	1782.62
371.802	1900.62
372.028	1824.62
372.254	1706.62
372.48	1650.62
372.706	1650.62
372.932	1691.62
373.158	1637.62
373.384	1681.62
373.61	1750.62
373.835	1832.62
374.061	1762.62
374.287	1765.62
374.513	1698.62
374.739	1772.62
374.965	1771.62
375.191	1741.62
375.416	1794.62
375.642	1832.62
375.868	1858.62
376.094	1995.62
376.319	1894.62
376.545	1773.62
376.771	1805.62
376.997	1890.62
377.222	1875.62
377.448	1822.62
377.674	1843.62
377.899	1815.62
378.125	1918.62
378.35	1928.62
378.576	1763.62
378.802	1657.62
379.027	1634.62
379.253	1696.62
379.478	1723.62
379.704	1714.62
379.929	1724.62
380.155	1718.62
380.38	1725.62
380.606	1818.62
380.831	1762.62
381.057	1822.62
381.282	1883.62
381.507	1754.62
381.733	1903.62
381.958	2002.62
382.184	1868.62
382.409	1800.62
382.634	1811.62
382.86	1805.62
383.085	1811.62
383.31	1858.62
383.535	1934.62
383.761	2102.62
383.986	2062.62
384.211	1942.62
384.436	1936.62
384.662	2007.62
384.887	2105.62
385.112	1948.62
385.337	2034.62
385.562	1972.62
385.787	1950.62
386.013	2036.62
386.238	2024.62
386.463	2067.62
386.688	2143.62
386.913	2258.62
387.138	2253.62
387.363	2058.62
387.588	2059.62
387.813	2052.62
388.038	2049.62
388.263	2099.62
388.488	2081.62
388.713	1865.62
388.938	1894.62
389.163	1890.62
389.387	1960.62
389.612	1938.62
389.837	1992.62
390.062	2013.62
390.287	1977.62
390.512	1955.62
390.736	1983.62
390.961	1942.62
391.186	1905.62
391.411	1875.62
391.636	1963.62
391.86	1975.62
392.085	1944.62
392.31	1944.62
392.534	1988.62
392.759	1989.62
392.984	1959.62
393.208	1995.62
393.433	2031.62
393.658	2159.62
393.882	2152.62
394.107	2039.62
394.331	1955.62
394.556	1970.62
394.78	1963.62
395.005	2030.62
395.229	2140.62
395.454	2303.62
395.678	2291.62
395.903	2194.62
396.127	2088.62
396.352	2106.62
396.576	2210.62
396.801	2216.62
397.025	2135.62
397.249	2170.62
397.474	2106.62
397.698	2144.62
397.922	2188.62
398.147	2312.62
398.371	2372.62
398.595	2348.62
398.82	2275.62
399.044	2263.62
399.268	2399.62
399.492	2615.62
399.717	2640.62
399.941	2669.62
400.165	2590.62
400.389	2520.62
400.613	2486.62
400.837	2741.62
401.062	3139.62
401.286	2745.62
401.51	2462.62
401.734	2594.62
401.958	2508.62
402.182	2316.62
402.406	2234.62
402.63	2176.62
402.854	2235.62
403.078	2242.62
403.302	2318.62
403.526	2362.62
403.75	2317.62
403.974	2384.62
404.198	2383.62
404.422	2378.62
404.645	2492.62
404.869	2541.62
405.093	2315.62
405.317	2228.62
405.541	2347.62
405.765	2376.62
405.988	2365.62
406.212	2379.62
406.436	2458.62
406.66	2539.62
406.883	2580.62
407.107	2789.62
407.331	3122.62
407.555	3250.62
407.778	3109.62
408.002	2599.62
408.226	2447.62
408.449	2494.62
408.673	2423.62
408.896	2376.62
409.12	2482.62
409.344	2420.62
409.567	2315.62
409.791	2382.62
410.014	2416.62
410.238	2484.62
410.461	2632.62
410.685	2379.62
410.908	2294.62
411.132	2348.62
411.355	2329.62
411.578	2284.62
411.802	2271.62
412.025	2334.62
412.249	2295.62
412.472	2222.62
412.695	2230.62
412.919	2216.62
413.142	2198.62
413.365	2281.62
413.589	2354.62
413.812	2454.62
414.035	2522.62
414.258	2285.62
414.482	2228.62
414.705	2259.62
414.928	2233.62
415.151	2180.62
415.374	2254.62
415.597	2298.62
415.821	2290.62
416.044	2392.62
416.267	2338.62
416.49	2191.62
416.713	2140.62
416.936	2213.62
417.159	2317.62
417.382	2351.62
417.605	2206.62
417.828	2258.62
418.051	2323.62
418.274	2240.62
418.497	2117.62
418.72	2152.62
418.943	2146.62
419.166	2354.62
419.389	2444.62
419.611	2293.62
419.834	2184.62
420.057	2238.62
420.28	2190.62
420.503	2135.62
420.726	2219.62
420.948	2217.62
421.171	2115.62
421.394	2189.62
421.617	2251.62
421.839	2269.62
422.062	2204.62
422.285	2154.62
422.507	2140.62
422.73	2125.62
422.953	2071.62
423.175	2071.62
423.398	2123.62
423.621	2153.62
423.843	2163.62
424.066	2247.62
424.288	2258.62
424.511	2319.62
424.733	2275.62
424.956	2056.62
425.178	2081.62
425.401	2061.62
425.623	2104.62
425.846	2121.62
426.068	2220.62
426.291	2287.62
426.513	2223.62
426.735	2195.62
426.958	2321.62
427.18	2501.62
427.402	2253.62
427.625	2343.62
427.847	2374.62
428.069	2212.62
428.292	2152.62
428.514	2079.62
428.736	2074.62
428.958	2101.62
429.181	2095.62
429.403	2360.62
429.625	2970.62
429.847	2624.62
430.069	2172.62
430.292	2355.62
430.514	2487.62
430.736	2314.62
430.958	2426.62
431.18	2318.62
431.402	2101.62
431.624	2032.62
431.846	2104.62
432.068	2066.62
432.29	2080.62
432.512	2118.62
432.734	2148.62
432.956	2212.62
433.178	2338.62
433.4	2252.62
433.622	2266.62
433.844	2166.62
434.066	2073.62
434.287	2068.62
434.509	2167.62
434.731	2231.62
434.953	2424.62
435.175	2364.62
435.397	2255.62
435.618	2235.62
435.84	2231.62
436.062	2200.62
436.284	2227.62
436.505	2216.62
436.727	2260.62
436.949	2229.62
437.17	2152.62
437.392	2087.62
437.614	2133.62
437.835	2087.62
438.057	2234.62
438.278	2302.62
438.5	2146.62
438.721	2133.62
438.943	2130.62
439.165	2083.62
439.386	1986.62
439.608	2079.62
439.829	2086.62
440.05	2111.62
440.272	2078.62
440.493	2028.62
440.715	2105.62
440.936	2203.62
441.158	2470.62
441.379	2420.62
441.6	2293.62
441.822	2230.62
442.043	2253.62
442.264	2195.62
442.486	2114.62
442.707	2074.62
442.928	2059.62
443.149	2163.62
443.371	2319.62
443.592	2360.62
443.813	2288.62
444.034	2291.62
444.255	2345.62
444.476	2371.62
444.698	2401.62
444.919	2391.62
445.14	2454.62
445.361	2440.62
445.582	2551.62
445.803	2444.62
446.024	2278.62
446.245	2407.62
446.466	2325.62
446.687	2228.62
446.908	2226.62
447.129	2130.62
447.35	2158.62
447.571	2155.62
447.792	2053.62
448.013	2040.62
448.234	2108.62
448.455	2208.62
448.675	2210.62
448.896	1972.62
449.117	2012.62
449.338	2094.62
449.559	2128.62
449.779	2253.62
450	2513.62
450.221	2703.62
450.442	2600.62
450.662	2283.62
450.883	2008.62
451.104	1942.62
451.324	2006.62
451.545	2106.62
451.766	2062.62
451.986	1961.62
452.207	1958.62
452.428	1922.62
452.648	1864.62
452.869	1926.62
453.089	2054.62
453.31	2063.62
453.53	2104.62
453.751	2019.62
453.971	1892.62
454.192	1993.62
454.412	2114.62
454.633	2035.62
454.853	1999.62
455.073	1823.62
455.294	1812.62
455.514	1835.62
455.734	1797.62
455.955	1912.62
456.175	1888.62
456.395	1872.62
456.616	1920.62
456.836	1988.62
457.056	1914.62
457.276	1956.62
457.497	1879.62
457.717	1787.62
457.937	1855.62
458.157	1907.62
458.377	1924.62
458.598	1888.62
458.818	1848.62
459.038	1995.62
459.258	2168.62
459.478	2104.62
459.698	2063.62
459.918	2113.62
460.138	2195.62
460.358	2212.62
460.578	2266.62
460.798	2361.62
461.018	2463.62
461.238	2366.62
461.458	2224.62
461.678	2239.62
461.898	2202.62
462.118	2134.62
462.338	2281.62
462.558	2205.62
462.777	2243.62
462.997	2292.62
463.217	2466.62
463.437	2440.62
463.657	2264.62
463.876	2256.62
464.096	2244.62
464.316	2265.62
464.536	2379.62
464.755	2339.62
464.975	2376.62
465.195	2302.62
465.414	2395.62
465.634	2419.62
465.854	2240.62
466.073	2406.62
466.293	2388.62
466.512	2062.62
466.732	2063.62
466.951	2163.62
467.171	2154.62
467.391	2032.62
467.61	1958.62
467.829	2036.62
468.049	2223.62
468.268	2422.62
468.488	2330.62
468.707	2176.62
468.927	2111.62
469.146	2083.62
469.365	2050.62
469.585	2095.62
469.804	2039.62
470.023	2022.62
470.243	2095.62
470.462	2038.62
470.681	1984.62
470.901	2078.62
471.12	2087.62
471.339	2048.62
471.558	1990.62
471.777	1969.62
471.997	2014.62
472.216	1995.62
472.435	1952.62
472.654	1973.62
472.873	2125.62
473.092	2227.62
473.311	2102.62
473.53	1960.62
473.749	1941.62
473.968	2028.62
474.187	2178.62
474.406	2295.62
474.625	2051.62
474.844	2071.62
475.063	2078.62
475.282	2159.62
475.501	2072.62
475.72	2066.62
475.939	2246.62
476.158	2126.62
476.377	2070.62
476.596	2125.62
476.814	2180.62
477.033	2173.62
477.252	2233.62
477.471	2336.62
477.69	2198.62
477.908	2168.62
478.127	2323.62
478.346	2501.62
478.564	2518.62
478.783	2465.62
479.002	2553.62
479.22	2445.62
479.439	2616.62
479.658	2888.62
479.876	2909.62
480.095	2516.62
480.313	2398.62
480.532	2298.62
480.751	2338.62
480.969	2389.62
481.188	2326.62
481.406	2278.62
481.624	2237.62
481.843	2275.62
482.061	2316.62
482.28	2399.62
482.498	2425.62
482.717	2405.62
482.935	2308.62
483.153	2332.62
483.372	2313.62
483.59	2284.62
483.808	2301.62
484.027	2318.62
484.245	2498.62
484.463	2842.62
484.681	3316.62
484.9	2507.62
485.118	2381.62
485.336	2343.62
485.554	2432.62
485.772	2512.62
485.99	2491.62
486.209	2532.62
486.427	2463.62
486.645	2476.62
486.863	2413.62
487.081	2484.62
487.299	2546.62
