Data from WStandard_LampEnergy5.5LIBS07252019.E.O._I.C._HRD10591_16-07-15-920.txt Node
Date: Thu Jul 25 16:07:15 EDT 2019
User: cochatt
Spectrometer: HR+D1059
Trigger mode: 1
Integration Time (sec): 1.000000E-1
Scans to average: 1
Electric dark correction enabled: true
Nonlinearity correction enabled: false
Boxcar width: 0
XAxis mode: Wavelengths
Number of Pixels in Spectrum: 2048
>>>>>Begin Spectral Data<<<<<
223.165	-20.75
223.4	-20.75
223.635	-20.75
223.869	-1.75
224.104	-15.75
224.338	-23.75
224.573	-13.75
224.808	-20.75
225.042	-19.75
225.277	-18.75
225.511	-4.75
225.746	16.25
225.98	13.25
226.215	18.25
226.449	17.25
226.683	14.25
226.918	27.25
227.152	33.25
227.387	28.25
227.621	26.25
227.856	33.25
228.09	52.25
228.324	59.25
228.559	54.25
228.793	148.25
229.027	365.25
229.262	388.25
229.496	412.25
229.73	414.25
229.964	435.25
230.199	490.25
230.433	485.25
230.667	505.25
230.901	544.25
231.136	491.25
231.37	490.25
231.604	471.25
231.838	478.25
232.072	491.25
232.306	469.25
232.541	498.25
232.775	584.25
233.009	628.25
233.243	583.25
233.477	532.25
233.711	576.25
233.945	574.25
234.179	554.25
234.413	612.25
234.647	660.25
234.881	604.25
235.115	585.25
235.349	564.25
235.583	588.25
235.817	599.25
236.051	553.25
236.285	579.25
236.519	627.25
236.753	656.25
236.987	700.25
237.221	699.25
237.455	780.25
237.689	753.25
237.922	716.25
238.156	688.25
238.39	701.25
238.624	744.25
238.858	791.25
239.091	826.25
239.325	780.25
239.559	954.25
239.793	1002.25
240.027	1064.25
240.26	1066.25
240.494	805.25
240.728	728.25
240.961	749.25
241.195	749.25
241.429	849.25
241.662	854.25
241.896	816.25
242.13	783.25
242.363	896.25
242.597	947.25
242.83	914.25
243.064	928.25
243.298	993.25
243.531	927.25
243.765	972.25
243.998	969.25
244.232	844.25
244.465	804.25
244.699	811.25
244.932	933.25
245.166	1066.25
245.399	1012.25
245.633	915.25
245.866	901.25
246.099	980.25
246.333	946.25
246.566	997.25
246.8	1096.25
247.033	1228.25
247.266	1122.25
247.5	1112.25
247.733	1084.25
247.966	1170.25
248.2	1308.25
248.433	1213.25
248.666	1248.25
248.899	1408.25
249.133	1565.25
249.366	1798.25
249.599	1507.25
249.832	1294.25
250.066	1310.25
250.299	1330.25
250.532	1276.25
250.765	1122.25
250.998	1177.25
251.231	1238.25
251.465	1286.25
251.698	1220.25
251.931	1222.25
252.164	1252.25
252.397	1297.25
252.63	1284.25
252.863	1166.25
253.096	1147.25
253.329	1163.25
253.562	1219.25
253.795	1359.25
254.028	1320.25
254.261	1183.25
254.494	1209.25
254.727	1147.25
254.96	1184.25
255.193	1292.25
255.426	1446.25
255.659	1674.25
255.892	1746.25
256.124	1410.25
256.357	1377.25
256.59	1464.25
256.823	1492.25
257.056	1463.25
257.289	1760.25
257.521	1974.25
257.754	1756.25
257.987	1644.25
258.22	1818.25
258.452	1820.25
258.685	1458.25
258.918	1447.25
259.151	1432.25
259.383	1349.25
259.616	1196.25
259.849	1252.25
260.081	1441.25
260.314	1573.25
260.547	1712.25
260.779	1776.25
261.012	1671.25
261.244	1503.25
261.477	1411.25
261.71	1478.25
261.942	1456.25
262.175	1397.25
262.407	1500.25
262.64	1436.25
262.872	1321.25
263.105	1286.25
263.337	1304.25
263.57	1348.25
263.802	1355.25
264.035	1264.25
264.267	1211.25
264.499	1158.25
264.732	1231.25
264.964	1342.25
265.197	1416.25
265.429	1468.25
265.661	1634.25
265.894	1824.25
266.126	1862.25
266.358	1622.25
266.591	1686.25
266.823	1866.25
267.055	1678.25
267.287	1626.25
267.52	1633.25
267.752	1600.25
267.984	1603.25
268.216	1679.25
268.448	1732.25
268.681	1701.25
268.913	1572.25
269.145	1437.25
269.377	1407.25
269.609	1504.25
269.841	1752.25
270.073	2104.25
270.306	2311.25
270.538	2526.25
270.77	2112.25
271.002	1788.25
271.234	1702.25
271.466	1666.25
271.698	1841.25
271.93	2330.25
272.162	2293.25
272.394	2078.25
272.626	1968.25
272.858	1722.25
273.09	1513.25
273.322	1477.25
273.553	1407.25
273.785	1457.25
274.017	1496.25
274.249	1632.25
274.481	1640.25
274.713	1469.25
274.945	1432.25
275.176	1451.25
275.408	1420.25
275.64	1403.25
275.872	1396.25
276.104	1496.25
276.335	1688.25
276.567	1972.25
276.799	1984.25
277.031	1779.25
277.262	1640.25
277.494	1690.25
277.726	1887.25
277.957	1899.25
278.189	1719.25
278.421	1603.25
278.652	1501.25
278.884	1500.25
279.115	1495.25
279.347	1567.25
279.579	1502.25
279.81	1494.25
280.042	1684.25
280.273	1849.25
280.505	1858.25
280.736	1858.25
280.968	1786.25
281.199	1560.25
281.431	1506.25
281.662	1468.25
281.894	1499.25
282.125	1502.25
282.356	1580.25
282.588	1572.25
282.819	1573.25
283.051	1687.25
283.282	1827.25
283.513	1833.25
283.745	1561.25
283.976	1436.25
284.207	1475.25
284.439	1481.25
284.67	1523.25
284.901	1558.25
285.132	1585.25
285.364	1565.25
285.595	1594.25
285.826	1545.25
286.057	1521.25
286.288	1497.25
286.52	1557.25
286.751	1708.25
286.982	1797.25
287.213	1641.25
287.444	1504.25
287.675	1481.25
287.906	1614.25
288.138	1698.25
288.369	1660.25
288.6	1514.25
288.831	1515.25
289.062	1481.25
289.293	1530.25
289.524	1498.25
289.755	1609.25
289.986	1622.25
290.217	1476.25
290.448	1544.25
290.679	1556.25
290.91	1569.25
291.141	1584.25
291.371	1672.25
291.602	1663.25
291.833	1591.25
292.064	1705.25
292.295	1626.25
292.526	1662.25
292.757	1765.25
292.987	1712.25
293.218	1556.25
293.449	1705.25
293.68	1918.25
293.91	2124.25
294.141	1927.25
294.372	1829.25
294.603	1885.25
294.833	1974.25
295.064	1858.25
295.295	1664.25
295.525	1603.25
295.756	1542.25
295.987	1434.25
296.217	1487.25
296.448	1525.25
296.679	1530.25
296.909	1534.25
297.14	1516.25
297.37	1541.25
297.601	1580.25
297.831	1781.25
298.062	1778.25
298.292	1609.25
298.523	1518.25
298.753	1561.25
298.984	1610.25
299.214	1588.25
299.445	1575.25
299.675	1674.25
299.905	1636.25
300.136	1618.25
300.366	1580.25
300.597	1504.25
300.827	1505.25
301.057	1541.25
301.288	1692.25
301.518	1630.25
301.748	1642.25
301.979	1721.25
302.209	1734.25
302.439	1874.25
302.669	2025.25
302.9	1858.25
303.13	1688.25
303.36	1676.25
303.59	1734.25
303.82	1699.25
304.051	1652.25
304.281	1640.25
304.511	1655.25
304.741	1755.25
304.971	1955.25
305.201	2130.25
305.431	2018.25
305.661	1633.25
305.891	1496.25
306.121	1437.25
306.352	1493.25
306.582	1637.25
306.812	1712.25
307.042	1885.25
307.272	1848.25
307.502	1878.25
307.731	2063.25
307.961	2174.25
308.191	2068.25
308.421	1811.25
308.651	1605.25
308.881	1604.25
309.111	1648.25
309.341	1572.25
309.571	1636.25
309.8	1625.25
310.03	1572.25
310.26	1581.25
310.49	1589.25
310.72	1602.25
310.949	1675.25
311.179	1737.25
311.409	1684.25
311.639	1666.25
311.868	1610.25
312.098	1650.25
312.328	1648.25
312.557	1609.25
312.787	1630.25
313.017	1692.25
313.246	1698.25
313.476	1662.25
313.706	1736.25
313.935	1697.25
314.165	1714.25
314.394	1772.25
314.624	1818.25
314.853	1982.25
315.083	2042.25
315.312	2100.25
315.542	1970.25
315.771	1748.25
316.001	1719.25
316.23	1842.25
316.46	1824.25
316.689	1791.25
316.919	1677.25
317.148	1642.25
317.377	1638.25
317.607	1754.25
317.836	2004.25
318.065	2072.25
318.295	2010.25
318.524	1900.25
318.753	1820.25
318.983	1853.25
319.212	1798.25
319.441	1777.25
319.67	1735.25
319.9	1765.25
320.129	1834.25
320.358	1936.25
320.587	1991.25
320.816	1973.25
321.046	1874.25
321.275	1835.25
321.504	1821.25
321.733	1993.25
321.962	1945.25
322.191	1766.25
322.42	1744.25
322.649	1731.25
322.878	1726.25
323.108	1766.25
323.337	1810.25
323.566	1821.25
323.795	1801.25
324.024	1794.25
324.253	1755.25
324.482	1826.25
324.71	1755.25
324.939	1642.25
325.168	1681.25
325.397	1725.25
325.626	1814.25
325.855	1819.25
326.084	1773.25
326.313	1771.25
326.542	1761.25
326.77	1825.25
326.999	1849.25
327.228	1771.25
327.457	1662.25
327.686	1656.25
327.914	1710.25
328.143	1748.25
328.372	1768.25
328.6	1761.25
328.829	1748.25
329.058	1712.25
329.287	1693.25
329.515	1758.25
329.744	1791.25
329.972	1878.25
330.201	1940.25
330.43	1917.25
330.658	1909.25
330.887	1869.25
331.115	1847.25
331.344	1884.25
331.572	1846.25
331.801	1866.25
332.03	1825.25
332.258	1838.25
332.486	1859.25
332.715	1928.25
332.943	1910.25
333.172	1875.25
333.4	1894.25
333.629	1916.25
333.857	1982.25
334.085	2238.25
334.314	2532.25
334.542	2827.25
334.771	2545.25
334.999	2239.25
335.227	2128.25
335.455	2002.25
335.684	1992.25
335.912	2041.25
336.14	2128.25
336.369	2061.25
336.597	1938.25
336.825	1861.25
337.053	1917.25
337.281	1995.25
337.51	2121.25
337.738	2226.25
337.966	2139.25
338.194	1934.25
338.422	1860.25
338.65	1869.25
338.878	1802.25
339.106	1753.25
339.334	1731.25
339.562	1734.25
339.79	1800.25
340.018	1901.25
340.246	1992.25
340.474	1963.25
340.702	1906.25
340.93	1917.25
341.158	1885.25
341.386	1829.25
341.614	1845.25
341.842	1826.25
342.07	1845.25
342.298	1867.25
342.526	1825.25
342.754	1811.25
342.981	1772.25
343.209	1786.25
343.437	1782.25
343.665	1796.25
343.893	1881.25
344.12	1964.25
344.348	1975.25
344.576	1910.25
344.804	1848.25
345.031	1832.25
345.259	1820.25
345.487	1754.25
345.714	1730.25
345.942	1679.25
346.17	1701.25
346.397	1765.25
346.625	1782.25
346.853	1641.25
347.08	1610.25
347.308	1652.25
347.535	1666.25
347.763	1760.25
347.99	1755.25
348.218	1642.25
348.445	1656.25
348.673	1738.25
348.9	1751.25
349.128	1757.25
349.355	1826.25
349.583	1806.25
349.81	1728.25
350.037	1628.25
350.265	1606.25
350.492	1637.25
350.72	1648.25
350.947	1719.25
351.174	1744.25
351.402	1694.25
351.629	1589.25
351.856	1556.25
352.083	1556.25
352.311	1552.25
352.538	1626.25
352.765	1731.25
352.992	1760.25
353.22	1643.25
353.447	1612.25
353.674	1696.25
353.901	1681.25
354.128	1684.25
354.355	1653.25
354.583	1690.25
354.81	1744.25
355.037	1747.25
355.264	1725.25
355.491	1688.25
355.718	1694.25
355.945	1680.25
356.172	1659.25
356.399	1606.25
356.626	1658.25
356.853	1651.25
357.08	1840.25
357.307	1984.25
357.534	2018.25
357.761	1756.25
357.988	1643.25
358.215	1596.25
358.441	1624.25
358.668	1575.25
358.895	1600.25
359.122	1740.25
359.349	1916.25
359.576	1929.25
359.802	1684.25
360.029	1639.25
360.256	1614.25
360.483	1626.25
360.709	1664.25
360.936	1714.25
361.163	1795.25
361.39	1935.25
361.616	2139.25
361.843	2032.25
362.07	1926.25
362.296	1689.25
362.523	1649.25
362.749	1611.25
362.976	1694.25
363.203	1712.25
363.429	1660.25
363.656	1609.25
363.882	1651.25
364.109	1868.25
364.335	2040.25
364.562	1847.25
364.788	1767.25
365.015	1690.25
365.241	1630.25
365.468	1684.25
365.694	1721.25
365.92	1842.25
366.147	1772.25
366.373	1648.25
366.599	1644.25
366.826	1636.25
367.052	1608.25
367.278	1649.25
367.505	1658.25
367.731	1718.25
367.957	1686.25
368.184	1748.25
368.41	1853.25
368.636	1911.25
368.862	1878.25
369.089	1903.25
369.315	1851.25
369.541	1785.25
369.767	1727.25
369.993	1655.25
370.219	1660.25
370.445	1730.25
370.672	1792.25
370.898	1859.25
371.124	1872.25
371.35	1742.25
371.576	1793.25
371.802	1910.25
372.028	1811.25
372.254	1715.25
372.48	1668.25
372.706	1689.25
372.932	1673.25
373.158	1718.25
373.384	1729.25
373.61	1752.25
373.835	1868.25
374.061	1768.25
374.287	1724.25
374.513	1733.25
374.739	1745.25
374.965	1781.25
375.191	1796.25
375.416	1825.25
375.642	1790.25
375.868	1916.25
376.094	1958.25
376.319	1913.25
376.545	1768.25
376.771	1784.25
376.997	1841.25
377.222	1831.25
377.448	1782.25
377.674	1843.25
377.899	1813.25
378.125	1948.25
378.35	1925.25
378.576	1795.25
378.802	1673.25
379.027	1650.25
379.253	1688.25
379.478	1770.25
379.704	1772.25
379.929	1712.25
380.155	1724.25
380.38	1734.25
380.606	1755.25
380.831	1764.25
381.057	1827.25
381.282	1881.25
381.507	1853.25
381.733	1910.25
381.958	1965.25
382.184	1826.25
382.409	1810.25
382.634	1795.25
382.86	1816.25
383.085	1811.25
383.31	1896.25
383.535	2022.25
383.761	2162.25
383.986	2040.25
384.211	1983.25
384.436	1949.25
384.662	2019.25
384.887	2131.25
385.112	2027.25
385.337	2012.25
385.562	1976.25
385.787	1993.25
386.013	2023.25
386.238	2058.25
386.463	2060.25
386.688	2162.25
386.913	2281.25
387.138	2213.25
387.363	2050.25
387.588	2075.25
387.813	2044.25
388.038	2072.25
388.263	2158.25
388.488	2076.25
388.713	1919.25
388.938	1901.25
389.163	1932.25
389.387	1952.25
389.612	1948.25
389.837	2026.25
390.062	1991.25
390.287	2025.25
390.512	2016.25
390.736	1996.25
390.961	1898.25
391.186	1850.25
391.411	1929.25
391.636	1970.25
391.86	1973.25
392.085	1983.25
392.31	1955.25
392.534	1984.25
392.759	2006.25
392.984	1970.25
393.208	2041.25
393.433	2080.25
393.658	2119.25
393.882	2207.25
394.107	2020.25
394.331	1968.25
394.556	1993.25
394.78	2010.25
395.005	2052.25
395.229	2136.25
395.454	2294.25
395.678	2324.25
395.903	2231.25
396.127	2085.25
396.352	2114.25
396.576	2173.25
396.801	2182.25
397.025	2192.25
397.249	2171.25
397.474	2186.25
397.698	2117.25
397.922	2195.25
398.147	2315.25
398.371	2388.25
398.595	2432.25
398.82	2299.25
399.044	2330.25
399.268	2392.25
399.492	2569.25
399.717	2670.25
399.941	2681.25
400.165	2602.25
400.389	2555.25
400.613	2551.25
400.837	2740.25
401.062	3238.25
401.286	2725.25
401.51	2456.25
401.734	2598.25
401.958	2516.25
402.182	2348.25
402.406	2260.25
402.63	2216.25
402.854	2229.25
403.078	2347.25
403.302	2360.25
403.526	2377.25
403.75	2350.25
403.974	2406.25
404.198	2363.25
404.422	2413.25
404.645	2566.25
404.869	2517.25
405.093	2394.25
405.317	2298.25
405.541	2375.25
405.765	2414.25
405.988	2387.25
406.212	2412.25
406.436	2461.25
406.66	2550.25
406.883	2548.25
407.107	2827.25
407.331	3099.25
407.555	3328.25
407.778	3094.25
408.002	2551.25
408.226	2501.25
408.449	2514.25
408.673	2412.25
408.896	2436.25
409.12	2509.25
409.344	2416.25
409.567	2327.25
409.791	2389.25
410.014	2416.25
410.238	2562.25
410.461	2718.25
410.685	2428.25
410.908	2284.25
411.132	2415.25
411.355	2348.25
411.578	2272.25
411.802	2324.25
412.025	2368.25
412.249	2350.25
412.472	2220.25
412.695	2269.25
412.919	2298.25
413.142	2259.25
413.365	2270.25
413.589	2388.25
413.812	2374.25
414.035	2468.25
414.258	2334.25
414.482	2259.25
414.705	2308.25
414.928	2269.25
415.151	2212.25
415.374	2293.25
415.597	2312.25
415.821	2334.25
416.044	2429.25
416.267	2432.25
416.49	2162.25
416.713	2161.25
416.936	2246.25
417.159	2316.25
417.382	2364.25
417.605	2214.25
417.828	2268.25
418.051	2333.25
418.274	2267.25
418.497	2144.25
418.72	2165.25
418.943	2139.25
419.166	2318.25
419.389	2410.25
419.611	2284.25
419.834	2259.25
420.057	2300.25
420.28	2212.25
420.503	2229.25
420.726	2247.25
420.948	2273.25
421.171	2146.25
421.394	2204.25
421.617	2244.25
421.839	2220.25
422.062	2195.25
422.285	2134.25
422.507	2186.25
422.73	2105.25
422.953	2076.25
423.175	2073.25
423.398	2168.25
423.621	2192.25
423.843	2190.25
424.066	2209.25
424.288	2300.25
424.511	2355.25
424.733	2266.25
424.956	2051.25
425.178	2112.25
425.401	2155.25
425.623	2134.25
425.846	2084.25
426.068	2209.25
426.291	2296.25
426.513	2242.25
426.735	2252.25
426.958	2347.25
427.18	2477.25
427.402	2282.25
427.625	2366.25
427.847	2352.25
428.069	2212.25
428.292	2140.25
428.514	2095.25
428.736	2088.25
428.958	2087.25
429.181	2116.25
429.403	2379.25
429.625	3033.25
429.847	2657.25
430.069	2196.25
430.292	2388.25
430.514	2489.25
430.736	2302.25
430.958	2413.25
431.18	2275.25
431.402	2117.25
431.624	2143.25
431.846	2105.25
432.068	2079.25
432.29	2054.25
432.512	2128.25
432.734	2198.25
432.956	2211.25
433.178	2302.25
433.4	2258.25
433.622	2249.25
433.844	2173.25
434.066	2091.25
434.287	2098.25
434.509	2169.25
434.731	2256.25
434.953	2382.25
435.175	2377.25
435.397	2245.25
435.618	2272.25
435.84	2243.25
436.062	2221.25
436.284	2195.25
436.505	2238.25
436.727	2268.25
436.949	2215.25
437.17	2109.25
437.392	2100.25
437.614	2126.25
437.835	2098.25
438.057	2210.25
438.278	2332.25
438.5	2210.25
438.721	2154.25
438.943	2140.25
439.165	2094.25
439.386	2060.25
439.608	2097.25
439.829	2105.25
440.05	2110.25
440.272	2119.25
440.493	2056.25
440.715	2081.25
440.936	2230.25
441.158	2485.25
441.379	2424.25
441.6	2320.25
441.822	2314.25
442.043	2220.25
442.264	2217.25
442.486	2089.25
442.707	2145.25
442.928	2125.25
443.149	2171.25
443.371	2282.25
443.592	2387.25
443.813	2308.25
444.034	2334.25
444.255	2342.25
444.476	2361.25
444.698	2381.25
444.919	2371.25
445.14	2479.25
445.361	2395.25
445.582	2547.25
445.803	2389.25
446.024	2320.25
446.245	2419.25
446.466	2311.25
446.687	2234.25
446.908	2209.25
447.129	2102.25
447.35	2195.25
447.571	2176.25
447.792	2084.25
448.013	2062.25
448.234	2107.25
448.455	2208.25
448.675	2250.25
448.896	2050.25
449.117	2008.25
449.338	2102.25
449.559	2173.25
449.779	2273.25
450	2470.25
450.221	2720.25
450.442	2629.25
450.662	2254.25
450.883	2016.25
451.104	1976.25
451.324	2036.25
451.545	2116.25
451.766	2062.25
451.986	1971.25
452.207	1997.25
452.428	1913.25
452.648	1884.25
452.869	1945.25
453.089	2128.25
453.31	2129.25
453.53	2107.25
453.751	2044.25
453.971	1929.25
454.192	1979.25
454.412	2108.25
454.633	2068.25
454.853	1998.25
455.073	1847.25
455.294	1816.25
455.514	1819.25
455.734	1857.25
455.955	1916.25
456.175	1900.25
456.395	1900.25
456.616	1934.25
456.836	2014.25
457.056	1972.25
457.276	1934.25
457.497	1895.25
457.717	1840.25
457.937	1841.25
458.157	1929.25
458.377	1855.25
458.598	1873.25
458.818	1913.25
459.038	2074.25
459.258	2190.25
459.478	2159.25
459.698	2097.25
459.918	2141.25
460.138	2192.25
460.358	2236.25
460.578	2301.25
460.798	2379.25
461.018	2471.25
461.238	2402.25
461.458	2273.25
461.678	2269.25
461.898	2258.25
462.118	2135.25
462.338	2256.25
462.558	2305.25
462.777	2264.25
462.997	2338.25
463.217	2506.25
463.437	2498.25
463.657	2291.25
463.876	2273.25
464.096	2240.25
464.316	2263.25
464.536	2333.25
464.755	2355.25
464.975	2377.25
465.195	2290.25
465.414	2422.25
465.634	2430.25
465.854	2235.25
466.073	2412.25
466.293	2362.25
466.512	2120.25
466.732	2040.25
466.951	2147.25
467.171	2147.25
467.391	2031.25
467.61	2026.25
467.829	2038.25
468.049	2203.25
468.268	2473.25
468.488	2323.25
468.707	2190.25
468.927	2117.25
469.146	2059.25
469.365	2063.25
469.585	2031.25
469.804	2029.25
470.023	2008.25
470.243	2120.25
470.462	2080.25
470.681	2041.25
470.901	2079.25
471.12	2054.25
471.339	2028.25
471.558	1972.25
471.777	1976.25
471.997	2006.25
472.216	2019.25
472.435	1973.25
472.654	1960.25
472.873	2100.25
473.092	2245.25
473.311	2090.25
473.53	1992.25
473.749	1955.25
473.968	2061.25
474.187	2135.25
474.406	2280.25
474.625	2135.25
474.844	2088.25
475.063	2067.25
475.282	2151.25
475.501	2100.25
475.72	2078.25
475.939	2226.25
476.158	2187.25
476.377	2106.25
476.596	2169.25
476.814	2167.25
477.033	2152.25
477.252	2320.25
477.471	2334.25
477.69	2203.25
477.908	2167.25
478.127	2327.25
478.346	2499.25
478.564	2517.25
478.783	2428.25
479.002	2600.25
479.22	2478.25
479.439	2567.25
479.658	2950.25
479.876	2925.25
480.095	2520.25
480.313	2398.25
480.532	2286.25
480.751	2330.25
480.969	2403.25
481.188	2356.25
481.406	2358.25
481.624	2228.25
481.843	2245.25
482.061	2367.25
482.28	2368.25
482.498	2427.25
482.717	2399.25
482.935	2296.25
483.153	2348.25
483.372	2315.25
483.59	2275.25
483.808	2281.25
484.027	2363.25
484.245	2508.25
484.463	2932.25
484.681	3369.25
484.9	2535.25
485.118	2363.25
485.336	2333.25
485.554	2430.25
485.772	2552.25
485.99	2506.25
486.209	2516.25
486.427	2513.25
486.645	2451.25
486.863	2446.25
487.081	2521.25
487.299	2549.25
