Data from WStandard_LampEnergy8_LIBS07252019.E.O._I.C._HRD10591_15-59-30-929.txt Node
Date: Thu Jul 25 15:59:30 EDT 2019
User: cochatt
Spectrometer: HR+D1059
Trigger mode: 1
Integration Time (sec): 1.000000E-1
Scans to average: 1
Electric dark correction enabled: true
Nonlinearity correction enabled: false
Boxcar width: 0
XAxis mode: Wavelengths
Number of Pixels in Spectrum: 2048
>>>>>Begin Spectral Data<<<<<
223.165	-6.44
223.4	-6.44
223.635	-6.44
223.869	-17.44
224.104	-37.44
224.338	-1.44
224.573	-17.44
224.808	-16.44
225.042	-0.44
225.277	3.56
225.511	14.56
225.746	-4.44
225.98	4.56
226.215	-2.44
226.449	16.56
226.683	25.56
226.918	16.56
227.152	22.56
227.387	23.56
227.621	46.56
227.856	39.56
228.09	46.56
228.324	34.56
228.559	43.56
228.793	110.56
229.027	203.56
229.262	203.56
229.496	213.56
229.73	214.56
229.964	242.56
230.199	244.56
230.433	263.56
230.667	272.56
230.901	267.56
231.136	268.56
231.37	239.56
231.604	243.56
231.838	254.56
232.072	266.56
232.306	263.56
232.541	280.56
232.775	309.56
233.009	314.56
233.243	319.56
233.477	297.56
233.711	298.56
233.945	285.56
234.179	282.56
234.413	321.56
234.647	330.56
234.881	304.56
235.115	299.56
235.349	286.56
235.583	296.56
235.817	295.56
236.051	292.56
236.285	295.56
236.519	326.56
236.753	354.56
236.987	359.56
237.221	373.56
237.455	382.56
237.689	357.56
237.922	341.56
238.156	335.56
238.39	342.56
238.624	362.56
238.858	382.56
239.091	390.56
239.325	421.56
239.559	492.56
239.793	462.56
240.027	496.56
240.26	500.56
240.494	396.56
240.728	378.56
240.961	376.56
241.195	400.56
241.429	413.56
241.662	433.56
241.896	392.56
242.13	380.56
242.363	434.56
242.597	432.56
242.83	452.56
243.064	473.56
243.298	473.56
243.531	473.56
243.765	479.56
243.998	457.56
244.232	411.56
244.465	391.56
244.699	424.56
244.932	469.56
245.166	502.56
245.399	475.56
245.633	467.56
245.866	467.56
246.099	471.56
246.333	488.56
246.566	495.56
246.8	522.56
247.033	584.56
247.266	539.56
247.5	551.56
247.733	548.56
247.966	580.56
248.2	616.56
248.433	579.56
248.666	611.56
248.899	662.56
249.133	720.56
249.366	807.56
249.599	675.56
249.832	613.56
250.066	611.56
250.299	614.56
250.532	568.56
250.765	547.56
250.998	559.56
251.231	582.56
251.465	610.56
251.698	566.56
251.931	570.56
252.164	615.56
252.397	599.56
252.63	610.56
252.863	529.56
253.096	525.56
253.329	575.56
253.562	583.56
253.795	628.56
254.028	611.56
254.261	570.56
254.494	571.56
254.727	566.56
254.96	580.56
255.193	642.56
255.426	729.56
255.659	790.56
255.892	788.56
256.124	656.56
256.357	647.56
256.59	708.56
256.823	702.56
257.056	715.56
257.289	829.56
257.521	882.56
257.754	822.56
257.987	776.56
258.22	797.56
258.452	809.56
258.685	695.56
258.918	666.56
259.151	650.56
259.383	626.56
259.616	606.56
259.849	608.56
260.081	706.56
260.314	756.56
260.547	833.56
260.779	798.56
261.012	783.56
261.244	706.56
261.477	667.56
261.71	706.56
261.942	663.56
262.175	686.56
262.407	706.56
262.64	664.56
262.872	650.56
263.105	623.56
263.337	632.56
263.57	618.56
263.802	639.56
264.035	609.56
264.267	578.56
264.499	568.56
264.732	611.56
264.964	646.56
265.197	659.56
265.429	689.56
265.661	762.56
265.894	847.56
266.126	864.56
266.358	779.56
266.591	824.56
266.823	867.56
267.055	781.56
267.287	777.56
267.52	792.56
267.752	748.56
267.984	770.56
268.216	783.56
268.448	820.56
268.681	772.56
268.913	717.56
269.145	700.56
269.377	689.56
269.609	770.56
269.841	900.56
270.073	1009.56
270.306	1120.56
270.538	1130.56
270.77	961.56
271.002	839.56
271.234	801.56
271.466	826.56
271.698	930.56
271.93	1044.56
272.162	1054.56
272.394	930.56
272.626	913.56
272.858	806.56
273.09	692.56
273.322	702.56
273.553	692.56
273.785	688.56
274.017	716.56
274.249	742.56
274.481	771.56
274.713	681.56
274.945	698.56
275.176	706.56
275.408	693.56
275.64	688.56
275.872	686.56
276.104	755.56
276.335	826.56
276.567	946.56
276.799	901.56
277.031	812.56
277.262	801.56
277.494	841.56
277.726	887.56
277.957	876.56
278.189	815.56
278.421	761.56
278.652	728.56
278.884	726.56
279.115	733.56
279.347	769.56
279.579	722.56
279.81	740.56
280.042	831.56
280.273	858.56
280.505	868.56
280.736	898.56
280.968	830.56
281.199	730.56
281.431	677.56
281.662	715.56
281.894	752.56
282.125	740.56
282.356	780.56
282.588	754.56
282.819	784.56
283.051	836.56
283.282	886.56
283.513	866.56
283.745	772.56
283.976	724.56
284.207	730.56
284.439	748.56
284.67	755.56
284.901	775.56
285.132	772.56
285.364	796.56
285.595	773.56
285.826	743.56
286.057	752.56
286.288	731.56
286.52	772.56
286.751	838.56
286.982	861.56
287.213	786.56
287.444	729.56
287.675	742.56
287.906	803.56
288.138	806.56
288.369	802.56
288.6	760.56
288.831	731.56
289.062	739.56
289.293	763.56
289.524	755.56
289.755	802.56
289.986	779.56
290.217	727.56
290.448	728.56
290.679	784.56
290.91	770.56
291.141	776.56
291.371	811.56
291.602	828.56
291.833	810.56
292.064	824.56
292.295	838.56
292.526	858.56
292.757	852.56
292.987	831.56
293.218	808.56
293.449	865.56
293.68	970.56
293.91	1010.56
294.141	947.56
294.372	930.56
294.603	978.56
294.833	956.56
295.064	926.56
295.295	866.56
295.525	803.56
295.756	760.56
295.987	734.56
296.217	739.56
296.448	782.56
296.679	766.56
296.909	778.56
297.14	770.56
297.37	788.56
297.601	824.56
297.831	881.56
298.062	886.56
298.292	811.56
298.523	786.56
298.753	781.56
298.984	805.56
299.214	806.56
299.445	797.56
299.675	849.56
299.905	840.56
300.136	791.56
300.366	783.56
300.597	784.56
300.827	759.56
301.057	807.56
301.288	847.56
301.518	851.56
301.748	897.56
301.979	879.56
302.209	940.56
302.439	971.56
302.669	985.56
302.9	938.56
303.13	830.56
303.36	830.56
303.59	862.56
303.82	858.56
304.051	870.56
304.281	841.56
304.511	897.56
304.741	958.56
304.971	1024.56
305.201	1078.56
305.431	982.56
305.661	811.56
305.891	743.56
306.121	735.56
306.352	795.56
306.582	869.56
306.812	926.56
307.042	974.56
307.272	983.56
307.502	997.56
307.731	1036.56
307.961	1108.56
308.191	999.56
308.421	892.56
308.651	830.56
308.881	837.56
309.111	843.56
309.341	817.56
309.571	832.56
309.8	833.56
310.03	827.56
310.26	814.56
310.49	819.56
310.72	837.56
310.949	876.56
311.179	875.56
311.409	869.56
311.639	856.56
311.868	832.56
312.098	858.56
312.328	836.56
312.557	838.56
312.787	864.56
313.017	891.56
313.246	878.56
313.476	866.56
313.706	913.56
313.935	879.56
314.165	912.56
314.394	932.56
314.624	956.56
314.853	1019.56
315.083	1032.56
315.312	1033.56
315.542	998.56
315.771	920.56
316.001	916.56
316.23	970.56
316.46	934.56
316.689	925.56
316.919	875.56
317.148	851.56
317.377	884.56
317.607	984.56
317.836	1059.56
318.065	1080.56
318.295	1051.56
318.524	998.56
318.753	966.56
318.983	937.56
319.212	902.56
319.441	898.56
319.67	916.56
319.9	958.56
320.129	974.56
320.358	1013.56
320.587	1032.56
320.816	1050.56
321.046	1014.56
321.275	972.56
321.504	966.56
321.733	1042.56
321.962	1012.56
322.191	971.56
322.42	939.56
322.649	910.56
322.878	910.56
323.108	918.56
323.337	943.56
323.566	980.56
323.795	930.56
324.024	945.56
324.253	914.56
324.482	939.56
324.71	889.56
324.939	878.56
325.168	895.56
325.397	947.56
325.626	961.56
325.855	938.56
326.084	920.56
326.313	919.56
326.542	934.56
326.77	967.56
326.999	946.56
327.228	918.56
327.457	876.56
327.686	881.56
327.914	941.56
328.143	953.56
328.372	922.56
328.6	920.56
328.829	920.56
329.058	897.56
329.287	913.56
329.515	926.56
329.744	954.56
329.972	1030.56
330.201	1045.56
330.43	996.56
330.658	991.56
330.887	977.56
331.115	992.56
331.344	997.56
331.572	970.56
331.801	982.56
332.03	966.56
332.258	978.56
332.486	987.56
332.715	1004.56
332.943	988.56
333.172	985.56
333.4	1002.56
333.629	1050.56
333.857	1115.56
334.085	1199.56
334.314	1353.56
334.542	1451.56
334.771	1299.56
334.999	1172.56
335.227	1123.56
335.455	1067.56
335.684	1057.56
335.912	1089.56
336.14	1094.56
336.369	1059.56
336.597	1016.56
336.825	981.56
337.053	1046.56
337.281	1107.56
337.51	1147.56
337.738	1170.56
337.966	1098.56
338.194	1001.56
338.422	953.56
338.65	971.56
338.878	964.56
339.106	952.56
339.334	929.56
339.562	925.56
339.79	961.56
340.018	1037.56
340.246	1032.56
340.474	1045.56
340.702	1009.56
340.93	1048.56
341.158	1003.56
341.386	995.56
341.614	994.56
341.842	979.56
342.07	992.56
342.298	992.56
342.526	988.56
342.754	974.56
342.981	986.56
343.209	976.56
343.437	954.56
343.665	980.56
343.893	1000.56
344.12	1043.56
344.348	1062.56
344.576	990.56
344.804	994.56
345.031	1006.56
345.259	1001.56
345.487	926.56
345.714	902.56
345.942	897.56
346.17	939.56
346.397	911.56
346.625	929.56
346.853	885.56
347.08	900.56
347.308	922.56
347.535	920.56
347.763	980.56
347.99	915.56
348.218	910.56
348.445	952.56
348.673	940.56
348.9	972.56
349.128	993.56
349.355	969.56
349.583	982.56
349.81	930.56
350.037	876.56
350.265	857.56
350.492	900.56
350.72	894.56
350.947	903.56
351.174	955.56
351.402	893.56
351.629	867.56
351.856	866.56
352.083	848.56
352.311	869.56
352.538	904.56
352.765	940.56
352.992	939.56
353.22	903.56
353.447	876.56
353.674	918.56
353.901	900.56
354.128	899.56
354.355	903.56
354.583	938.56
354.81	946.56
355.037	938.56
355.264	945.56
355.491	914.56
355.718	930.56
355.945	910.56
356.172	909.56
356.399	895.56
356.626	901.56
356.853	926.56
357.08	1025.56
357.307	1103.56
357.534	1070.56
357.761	970.56
357.988	867.56
358.215	880.56
358.441	878.56
358.668	884.56
358.895	910.56
359.122	992.56
359.349	1034.56
359.576	1000.56
359.802	931.56
360.029	895.56
360.256	884.56
360.483	919.56
360.709	955.56
360.936	987.56
361.163	1038.56
361.39	1082.56
361.616	1168.56
361.843	1130.56
362.07	1041.56
362.296	932.56
362.523	916.56
362.749	907.56
362.976	929.56
363.203	942.56
363.429	912.56
363.656	886.56
363.882	942.56
364.109	1032.56
364.335	1101.56
364.562	1028.56
364.788	978.56
365.015	935.56
365.241	905.56
365.468	926.56
365.694	974.56
365.92	1018.56
366.147	958.56
366.373	903.56
366.599	930.56
366.826	902.56
367.052	882.56
367.278	916.56
367.505	934.56
367.731	972.56
367.957	967.56
368.184	1019.56
368.41	1045.56
368.636	1070.56
368.862	1068.56
369.089	1063.56
369.315	1002.56
369.541	971.56
369.767	923.56
369.993	924.56
370.219	929.56
370.445	967.56
370.672	1035.56
370.898	1054.56
371.124	1015.56
371.35	1011.56
371.576	1042.56
371.802	1038.56
372.028	988.56
372.254	931.56
372.48	948.56
372.706	951.56
372.932	922.56
373.158	954.56
373.384	978.56
373.61	1012.56
373.835	1020.56
374.061	987.56
374.287	975.56
374.513	975.56
374.739	980.56
374.965	1006.56
375.191	1011.56
375.416	1000.56
375.642	1020.56
375.868	1100.56
376.094	1091.56
376.319	1039.56
376.545	968.56
376.771	1024.56
376.997	1092.56
377.222	1061.56
377.448	1041.56
377.674	1031.56
377.899	1041.56
378.125	1115.56
378.35	1079.56
378.576	978.56
378.802	926.56
379.027	960.56
379.253	976.56
379.478	981.56
379.704	993.56
379.929	987.56
380.155	993.56
380.38	980.56
380.606	995.56
380.831	1017.56
381.057	1066.56
381.282	1061.56
381.507	1048.56
381.733	1076.56
381.958	1150.56
382.184	1077.56
382.409	1050.56
382.634	1032.56
382.86	1063.56
383.085	1029.56
383.31	1073.56
383.535	1178.56
383.761	1172.56
383.986	1168.56
384.211	1121.56
384.436	1120.56
384.662	1186.56
384.887	1224.56
385.112	1121.56
385.337	1151.56
385.562	1125.56
385.787	1128.56
386.013	1139.56
386.238	1172.56
386.463	1172.56
386.688	1248.56
386.913	1308.56
387.138	1252.56
387.363	1183.56
387.588	1206.56
387.813	1161.56
388.038	1209.56
388.263	1236.56
388.488	1148.56
388.713	1087.56
388.938	1072.56
389.163	1100.56
389.387	1120.56
389.612	1100.56
389.837	1125.56
390.062	1140.56
390.287	1150.56
390.512	1106.56
390.736	1115.56
390.961	1113.56
391.186	1071.56
391.411	1086.56
391.636	1144.56
391.86	1169.56
392.085	1126.56
392.31	1079.56
392.534	1097.56
392.759	1137.56
392.984	1119.56
393.208	1182.56
393.433	1181.56
393.658	1231.56
393.882	1214.56
394.107	1181.56
394.331	1111.56
394.556	1129.56
394.78	1150.56
395.005	1191.56
395.229	1224.56
395.454	1311.56
395.678	1318.56
395.903	1231.56
396.127	1208.56
396.352	1213.56
396.576	1250.56
396.801	1265.56
397.025	1262.56
397.249	1214.56
397.474	1224.56
397.698	1204.56
397.922	1285.56
398.147	1311.56
398.371	1333.56
398.595	1350.56
398.82	1293.56
399.044	1317.56
399.268	1379.56
399.492	1447.56
399.717	1494.56
399.941	1467.56
400.165	1444.56
400.389	1422.56
400.613	1482.56
400.837	1687.56
401.062	1782.56
401.286	1530.56
401.51	1446.56
401.734	1464.56
401.958	1369.56
402.182	1332.56
402.406	1259.56
402.63	1279.56
402.854	1282.56
403.078	1321.56
403.302	1328.56
403.526	1334.56
403.75	1348.56
403.974	1355.56
404.198	1347.56
404.422	1428.56
404.645	1451.56
404.869	1382.56
405.093	1322.56
405.317	1297.56
405.541	1354.56
405.765	1344.56
405.988	1389.56
406.212	1400.56
406.436	1425.56
406.66	1446.56
406.883	1499.56
407.107	1642.56
407.331	1782.56
407.555	1918.56
407.778	1675.56
408.002	1412.56
408.226	1436.56
408.449	1395.56
408.673	1370.56
408.896	1388.56
409.12	1399.56
409.344	1380.56
409.567	1337.56
409.791	1360.56
410.014	1426.56
410.238	1472.56
410.461	1522.56
410.685	1386.56
410.908	1343.56
411.132	1372.56
411.355	1352.56
411.578	1337.56
411.802	1348.56
412.025	1359.56
412.249	1340.56
412.472	1276.56
412.695	1290.56
412.919	1295.56
413.142	1278.56
413.365	1329.56
413.589	1363.56
413.812	1443.56
414.035	1417.56
414.258	1332.56
414.482	1300.56
414.705	1348.56
414.928	1304.56
415.151	1267.56
415.374	1278.56
415.597	1346.56
415.821	1324.56
416.044	1344.56
416.267	1371.56
416.49	1253.56
416.713	1295.56
416.936	1322.56
417.159	1379.56
417.382	1377.56
417.605	1315.56
417.828	1315.56
418.051	1354.56
418.274	1294.56
418.497	1320.56
418.72	1299.56
418.943	1281.56
419.166	1344.56
419.389	1370.56
419.611	1316.56
419.834	1275.56
420.057	1313.56
420.28	1270.56
420.503	1307.56
420.726	1345.56
420.948	1308.56
421.171	1241.56
421.394	1267.56
421.617	1355.56
421.839	1358.56
422.062	1326.56
422.285	1291.56
422.507	1264.56
422.73	1252.56
422.953	1184.56
423.175	1217.56
423.398	1308.56
423.621	1259.56
423.843	1302.56
424.066	1326.56
424.288	1343.56
424.511	1378.56
424.733	1338.56
424.956	1249.56
425.178	1246.56
425.401	1221.56
425.623	1252.56
425.846	1276.56
426.068	1350.56
426.291	1371.56
426.513	1347.56
426.735	1330.56
426.958	1427.56
427.18	1476.56
427.402	1349.56
427.625	1426.56
427.847	1374.56
428.069	1268.56
428.292	1238.56
428.514	1224.56
428.736	1249.56
428.958	1249.56
429.181	1273.56
429.403	1489.56
429.625	1754.56
429.847	1487.56
430.069	1323.56
430.292	1462.56
430.514	1466.56
430.736	1361.56
430.958	1332.56
431.18	1306.56
431.402	1210.56
431.624	1234.56
431.846	1183.56
432.068	1121.56
432.29	1148.56
432.512	1179.56
432.734	1226.56
432.956	1295.56
433.178	1319.56
433.4	1331.56
433.622	1293.56
433.844	1261.56
434.066	1201.56
434.287	1167.56
434.509	1185.56
434.731	1255.56
434.953	1372.56
435.175	1289.56
435.397	1266.56
435.618	1279.56
435.84	1242.56
436.062	1207.56
436.284	1252.56
436.505	1279.56
436.727	1328.56
436.949	1276.56
437.17	1273.56
437.392	1226.56
437.614	1170.56
437.835	1164.56
438.057	1212.56
438.278	1260.56
438.5	1203.56
438.721	1207.56
438.943	1249.56
439.165	1214.56
439.386	1199.56
439.608	1258.56
439.829	1258.56
440.05	1263.56
440.272	1235.56
440.493	1259.56
440.715	1320.56
440.936	1366.56
441.158	1435.56
441.379	1378.56
441.6	1378.56
441.822	1345.56
442.043	1365.56
442.264	1305.56
442.486	1264.56
442.707	1223.56
442.928	1251.56
443.149	1326.56
443.371	1372.56
443.592	1387.56
443.813	1369.56
444.034	1360.56
444.255	1375.56
444.476	1380.56
444.698	1406.56
444.919	1351.56
445.14	1516.56
445.361	1462.56
445.582	1462.56
445.803	1424.56
446.024	1363.56
446.245	1415.56
446.466	1430.56
446.687	1349.56
446.908	1360.56
447.129	1266.56
447.35	1322.56
447.571	1310.56
447.792	1215.56
448.013	1195.56
448.234	1251.56
448.455	1316.56
448.675	1317.56
448.896	1224.56
449.117	1210.56
449.338	1228.56
449.559	1275.56
449.779	1312.56
450	1435.56
450.221	1469.56
450.442	1401.56
450.662	1283.56
450.883	1160.56
451.104	1157.56
451.324	1188.56
451.545	1201.56
451.766	1169.56
451.986	1138.56
452.207	1120.56
452.428	1080.56
452.648	1094.56
452.869	1128.56
453.089	1131.56
453.31	1134.56
453.53	1155.56
453.751	1110.56
453.971	1058.56
454.192	1089.56
454.412	1131.56
454.633	1128.56
454.853	1147.56
455.073	1068.56
455.294	1059.56
455.514	1084.56
455.734	1073.56
455.955	1090.56
456.175	1075.56
456.395	1090.56
456.616	1114.56
456.836	1136.56
457.056	1089.56
457.276	1064.56
457.497	1033.56
457.717	1018.56
457.937	1053.56
458.157	1062.56
458.377	1068.56
458.598	1032.56
458.818	1046.56
459.038	1103.56
459.258	1168.56
459.478	1112.56
459.698	1126.56
459.918	1178.56
460.138	1215.56
460.358	1213.56
460.578	1226.56
460.798	1294.56
461.018	1368.56
461.238	1279.56
461.458	1242.56
461.678	1251.56
461.898	1219.56
462.118	1207.56
462.338	1254.56
462.558	1263.56
462.777	1288.56
462.997	1303.56
463.217	1346.56
463.437	1327.56
463.657	1263.56
463.876	1294.56
464.096	1231.56
464.316	1243.56
464.536	1305.56
464.755	1292.56
464.975	1321.56
465.195	1282.56
465.414	1315.56
465.634	1264.56
465.854	1292.56
466.073	1370.56
466.293	1335.56
466.512	1242.56
466.732	1195.56
466.951	1246.56
467.171	1223.56
467.391	1199.56
467.61	1171.56
467.829	1233.56
468.049	1316.56
468.268	1433.56
468.488	1330.56
468.707	1277.56
468.927	1204.56
469.146	1190.56
469.365	1200.56
469.585	1246.56
469.804	1200.56
470.023	1193.56
470.243	1253.56
470.462	1250.56
470.681	1227.56
470.901	1260.56
471.12	1196.56
471.339	1212.56
471.558	1207.56
471.777	1184.56
471.997	1234.56
472.216	1146.56
472.435	1147.56
472.654	1147.56
472.873	1168.56
473.092	1198.56
473.311	1173.56
473.53	1144.56
473.749	1140.56
473.968	1155.56
474.187	1211.56
474.406	1216.56
474.625	1188.56
474.844	1210.56
475.063	1230.56
475.282	1216.56
475.501	1180.56
475.72	1175.56
475.939	1294.56
476.158	1242.56
476.377	1194.56
476.596	1253.56
476.814	1212.56
477.033	1226.56
477.252	1286.56
477.471	1316.56
477.69	1284.56
477.908	1286.56
478.127	1353.56
478.346	1430.56
478.564	1394.56
478.783	1390.56
479.002	1461.56
479.22	1422.56
479.439	1499.56
479.658	1584.56
479.876	1539.56
480.095	1404.56
480.313	1339.56
480.532	1300.56
480.751	1310.56
480.969	1312.56
481.188	1272.56
481.406	1233.56
481.624	1223.56
481.843	1237.56
482.061	1263.56
482.28	1315.56
482.498	1344.56
482.717	1343.56
482.935	1310.56
483.153	1322.56
483.372	1347.56
483.59	1349.56
483.808	1365.56
484.027	1362.56
484.245	1432.56
484.463	1688.56
484.681	1888.56
484.9	1471.56
485.118	1386.56
485.336	1350.56
485.554	1342.56
485.772	1385.56
485.99	1351.56
486.209	1377.56
486.427	1386.56
486.645	1372.56
486.863	1414.56
487.081	1456.56
487.299	1427.56
487.517	1451.56
487.735	1443.56
487.953	1487.56
488.171	1457.56
488.389	1465.56
488.607	1461.56
488.825	1618.56
489.043	1542.56
489.261	1398.56
489.479	1464.56
489.696	1496.56
489.914	1477.56
490.132	1418.56
490.35	1415.56
490.568	1537.56
490.786	1499.56
491.003	1499.56
491.221	1560.56
491.439	1566.56
491.657	1596.56
491.874	1593.56
492.092	1632.56
492.31	1718.56
492.527	1663.56
492.745	1602.56
492.963	1580.56
493.18	1606.56
493.398	1690.56
493.615	1684.56
493.833	1590.56
