Data from WStandard_LampEnergy8_LIBS07252019.E.O._I.C._HRD10591_16-00-29-930.txt Node
Date: Thu Jul 25 16:00:29 EDT 2019
User: cochatt
Spectrometer: HR+D1059
Trigger mode: 1
Integration Time (sec): 1.000000E-1
Scans to average: 1
Electric dark correction enabled: true
Nonlinearity correction enabled: false
Boxcar width: 0
XAxis mode: Wavelengths
Number of Pixels in Spectrum: 2048
>>>>>Begin Spectral Data<<<<<
223.165	-9.88
223.4	-9.88
223.635	-9.88
223.869	-19.88
224.104	-8.88
224.338	-17.88
224.573	-16.88
224.808	-26.88
225.042	-8.88
225.277	11.12
225.511	-30.88
225.746	5.12
225.98	5.12
226.215	24.12
226.449	15.12
226.683	23.12
226.918	26.12
227.152	30.12
227.387	49.12
227.621	39.12
227.856	44.12
228.09	48.12
228.324	56.12
228.559	61.12
228.793	91.12
229.027	191.12
229.262	202.12
229.496	217.12
229.73	218.12
229.964	235.12
230.199	229.12
230.433	249.12
230.667	278.12
230.901	288.12
231.136	272.12
231.37	269.12
231.604	251.12
231.838	238.12
232.072	268.12
232.306	260.12
232.541	265.12
232.775	292.12
233.009	324.12
233.243	310.12
233.477	263.12
233.711	277.12
233.945	315.12
234.179	297.12
234.413	321.12
234.647	343.12
234.881	304.12
235.115	293.12
235.349	298.12
235.583	304.12
235.817	304.12
236.051	287.12
236.285	291.12
236.519	330.12
236.753	352.12
236.987	346.12
237.221	338.12
237.455	377.12
237.689	367.12
237.922	342.12
238.156	336.12
238.39	327.12
238.624	358.12
238.858	388.12
239.091	406.12
239.325	413.12
239.559	460.12
239.793	473.12
240.027	485.12
240.26	489.12
240.494	373.12
240.728	355.12
240.961	376.12
241.195	384.12
241.429	419.12
241.662	422.12
241.896	370.12
242.13	383.12
242.363	418.12
242.597	448.12
242.83	436.12
243.064	447.12
243.298	475.12
243.531	459.12
243.765	434.12
243.998	444.12
244.232	408.12
244.465	382.12
244.699	420.12
244.932	468.12
245.166	495.12
245.399	462.12
245.633	420.12
245.866	443.12
246.099	447.12
246.333	470.12
246.566	486.12
246.8	538.12
247.033	554.12
247.266	533.12
247.5	526.12
247.733	518.12
247.966	567.12
248.2	580.12
248.433	595.12
248.666	603.12
248.899	651.12
249.133	721.12
249.366	800.12
249.599	657.12
249.832	574.12
250.066	613.12
250.299	622.12
250.532	580.12
250.765	515.12
250.998	554.12
251.231	556.12
251.465	567.12
251.698	565.12
251.931	547.12
252.164	561.12
252.397	611.12
252.63	593.12
252.863	524.12
253.096	521.12
253.329	562.12
253.562	581.12
253.795	593.12
254.028	585.12
254.261	548.12
254.494	553.12
254.727	547.12
254.96	558.12
255.193	602.12
255.426	691.12
255.659	759.12
255.892	776.12
256.124	640.12
256.357	647.12
256.59	696.12
256.823	693.12
257.056	698.12
257.289	820.12
257.521	891.12
257.754	790.12
257.987	752.12
258.22	800.12
258.452	800.12
258.685	652.12
258.918	654.12
259.151	654.12
259.383	637.12
259.616	570.12
259.849	603.12
260.081	646.12
260.314	724.12
260.547	790.12
260.779	787.12
261.012	742.12
261.244	670.12
261.477	647.12
261.71	670.12
261.942	672.12
262.175	632.12
262.407	676.12
262.64	630.12
262.872	612.12
263.105	605.12
263.337	622.12
263.57	617.12
263.802	612.12
264.035	567.12
264.267	559.12
264.499	554.12
264.732	571.12
264.964	626.12
265.197	650.12
265.429	693.12
265.661	754.12
265.894	830.12
266.126	827.12
266.358	758.12
266.591	803.12
266.823	826.12
267.055	755.12
267.287	738.12
267.52	743.12
267.752	740.12
267.984	737.12
268.216	756.12
268.448	802.12
268.681	800.12
268.913	708.12
269.145	681.12
269.377	671.12
269.609	728.12
269.841	871.12
270.073	979.12
270.306	1046.12
270.538	1063.12
270.77	914.12
271.002	809.12
271.234	790.12
271.466	794.12
271.698	895.12
271.93	1011.12
272.162	989.12
272.394	918.12
272.626	871.12
272.858	776.12
273.09	692.12
273.322	706.12
273.553	652.12
273.785	689.12
274.017	711.12
274.249	764.12
274.481	716.12
274.713	692.12
274.945	678.12
275.176	674.12
275.408	667.12
275.64	665.12
275.872	674.12
276.104	727.12
276.335	817.12
276.567	889.12
276.799	846.12
277.031	827.12
277.262	800.12
277.494	824.12
277.726	863.12
277.957	858.12
278.189	798.12
278.421	728.12
278.652	702.12
278.884	702.12
279.115	709.12
279.347	745.12
279.579	702.12
279.81	754.12
280.042	804.12
280.273	853.12
280.505	852.12
280.736	862.12
280.968	786.12
281.199	711.12
281.431	692.12
281.662	692.12
281.894	712.12
282.125	734.12
282.356	737.12
282.588	746.12
282.819	747.12
283.051	808.12
283.282	838.12
283.513	825.12
283.745	758.12
283.976	706.12
284.207	683.12
284.439	696.12
284.67	753.12
284.901	762.12
285.132	751.12
285.364	734.12
285.595	747.12
285.826	745.12
286.057	732.12
286.288	731.12
286.52	775.12
286.751	831.12
286.982	829.12
287.213	743.12
287.444	720.12
287.675	700.12
287.906	761.12
288.138	805.12
288.369	776.12
288.6	727.12
288.831	725.12
289.062	725.12
289.293	747.12
289.524	758.12
289.755	752.12
289.986	791.12
290.217	710.12
290.448	724.12
290.679	743.12
290.91	776.12
291.141	794.12
291.371	786.12
291.602	792.12
291.833	803.12
292.064	816.12
292.295	784.12
292.526	812.12
292.757	849.12
292.987	801.12
293.218	782.12
293.449	848.12
293.68	946.12
293.91	950.12
294.141	919.12
294.372	886.12
294.603	924.12
294.833	930.12
295.064	868.12
295.295	800.12
295.525	775.12
295.756	737.12
295.987	699.12
296.217	744.12
296.448	770.12
296.679	743.12
296.909	728.12
297.14	737.12
297.37	786.12
297.601	838.12
297.831	874.12
298.062	841.12
298.292	804.12
298.523	756.12
298.753	738.12
298.984	800.12
299.214	815.12
299.445	804.12
299.675	825.12
299.905	824.12
300.136	792.12
300.366	752.12
300.597	751.12
300.827	738.12
301.057	819.12
301.288	822.12
301.518	835.12
301.748	858.12
301.979	875.12
302.209	875.12
302.439	952.12
302.669	968.12
302.9	894.12
303.13	840.12
303.36	842.12
303.59	887.12
303.82	840.12
304.051	833.12
304.281	859.12
304.511	860.12
304.741	961.12
304.971	1010.12
305.201	1023.12
305.431	969.12
305.661	814.12
305.891	760.12
306.121	741.12
306.352	781.12
306.582	849.12
306.812	865.12
307.042	933.12
307.272	964.12
307.502	970.12
307.731	1022.12
307.961	1074.12
308.191	938.12
308.421	847.12
308.651	816.12
308.881	817.12
309.111	790.12
309.341	787.12
309.571	818.12
309.8	826.12
310.03	806.12
310.26	797.12
310.49	804.12
310.72	831.12
310.949	843.12
311.179	857.12
311.409	857.12
311.639	826.12
311.868	821.12
312.098	838.12
312.328	818.12
312.557	798.12
312.787	843.12
313.017	850.12
313.246	848.12
313.476	874.12
313.706	890.12
313.935	865.12
314.165	872.12
314.394	899.12
314.624	944.12
314.853	1027.12
315.083	1037.12
315.312	1028.12
315.542	976.12
315.771	910.12
316.001	900.12
316.23	935.12
316.46	930.12
316.689	914.12
316.919	860.12
317.148	834.12
317.377	883.12
317.607	938.12
317.836	1039.12
318.065	1046.12
318.295	987.12
318.524	984.12
318.753	927.12
318.983	904.12
319.212	917.12
319.441	898.12
319.67	902.12
319.9	929.12
320.129	986.12
320.358	987.12
320.587	1026.12
320.816	1005.12
321.046	1006.12
321.275	950.12
321.504	990.12
321.733	1028.12
321.962	985.12
322.191	940.12
322.42	921.12
322.649	879.12
322.878	898.12
323.108	917.12
323.337	942.12
323.566	949.12
323.795	957.12
324.024	924.12
324.253	921.12
324.482	960.12
324.71	875.12
324.939	835.12
325.168	891.12
325.397	906.12
325.626	950.12
325.855	944.12
326.084	916.12
326.313	896.12
326.542	929.12
326.77	960.12
326.999	950.12
327.228	935.12
327.457	875.12
327.686	879.12
327.914	901.12
328.143	912.12
328.372	915.12
328.6	911.12
328.829	926.12
329.058	910.12
329.287	891.12
329.515	952.12
329.744	940.12
329.972	987.12
330.201	1012.12
330.43	995.12
330.658	965.12
330.887	967.12
331.115	967.12
331.344	968.12
331.572	956.12
331.801	945.12
332.03	969.12
332.258	979.12
332.486	1009.12
332.715	993.12
332.943	981.12
333.172	973.12
333.4	971.12
333.629	988.12
333.857	1074.12
334.085	1183.12
334.314	1351.12
334.542	1419.12
334.771	1266.12
334.999	1154.12
335.227	1082.12
335.455	1036.12
335.684	1026.12
335.912	1067.12
336.14	1066.12
336.369	1037.12
336.597	986.12
336.825	991.12
337.053	1011.12
337.281	1091.12
337.51	1129.12
337.738	1112.12
337.966	1067.12
338.194	992.12
338.422	968.12
338.65	943.12
338.878	946.12
339.106	918.12
339.334	959.12
339.562	946.12
339.79	964.12
340.018	988.12
340.246	1027.12
340.474	999.12
340.702	998.12
340.93	1017.12
341.158	976.12
341.386	999.12
341.614	988.12
341.842	981.12
342.07	976.12
342.298	976.12
342.526	972.12
342.754	963.12
342.981	932.12
343.209	971.12
343.437	961.12
343.665	954.12
343.893	990.12
344.12	1011.12
344.348	1024.12
344.576	976.12
344.804	994.12
345.031	970.12
345.259	958.12
345.487	907.12
345.714	846.12
345.942	865.12
346.17	908.12
346.397	937.12
346.625	923.12
346.853	888.12
347.08	854.12
347.308	880.12
347.535	892.12
347.763	946.12
347.99	920.12
348.218	864.12
348.445	857.12
348.673	908.12
348.9	944.12
349.128	989.12
349.355	995.12
349.583	945.12
349.81	901.12
350.037	841.12
350.265	856.12
350.492	838.12
350.72	878.12
350.947	942.12
351.174	930.12
351.402	894.12
351.629	848.12
351.856	833.12
352.083	842.12
352.311	833.12
352.538	880.12
352.765	903.12
352.992	927.12
353.22	882.12
353.447	875.12
353.674	912.12
353.901	888.12
354.128	898.12
354.355	886.12
354.583	919.12
354.81	938.12
355.037	934.12
355.264	937.12
355.491	927.12
355.718	904.12
355.945	905.12
356.172	860.12
356.399	869.12
356.626	882.12
356.853	938.12
357.08	1011.12
357.307	1090.12
357.534	1072.12
357.761	938.12
357.988	872.12
358.215	867.12
358.441	890.12
358.668	885.12
358.895	900.12
359.122	931.12
359.349	1016.12
359.576	996.12
359.802	936.12
360.029	874.12
360.256	858.12
360.483	888.12
360.709	936.12
360.936	973.12
361.163	1012.12
361.39	1094.12
361.616	1162.12
361.843	1130.12
362.07	1026.12
362.296	913.12
362.523	903.12
362.749	872.12
362.976	922.12
363.203	941.12
363.429	914.12
363.656	884.12
363.882	901.12
364.109	1048.12
364.335	1107.12
364.562	1027.12
364.788	937.12
365.015	907.12
365.241	869.12
365.468	880.12
365.694	950.12
365.92	965.12
366.147	925.12
366.373	890.12
366.599	894.12
366.826	892.12
367.052	897.12
367.278	925.12
367.505	934.12
367.731	917.12
367.957	952.12
368.184	971.12
368.41	1049.12
368.636	1058.12
368.862	1045.12
369.089	1040.12
369.315	980.12
369.541	938.12
369.767	915.12
369.993	924.12
370.219	890.12
370.445	925.12
370.672	1015.12
370.898	1025.12
371.124	1031.12
371.35	958.12
371.576	1024.12
371.802	1021.12
372.028	1001.12
372.254	975.12
372.48	914.12
372.706	918.12
372.932	929.12
373.158	936.12
373.384	935.12
373.61	1015.12
373.835	1014.12
374.061	980.12
374.287	982.12
374.513	964.12
374.739	959.12
374.965	976.12
375.191	1001.12
375.416	1017.12
375.642	995.12
375.868	1096.12
376.094	1079.12
376.319	1009.12
376.545	1001.12
376.771	983.12
376.997	1068.12
377.222	1016.12
377.448	996.12
377.674	1022.12
377.899	1035.12
378.125	1077.12
378.35	1064.12
378.576	972.12
378.802	933.12
379.027	976.12
379.253	972.12
379.478	965.12
379.704	955.12
379.929	943.12
380.155	1003.12
380.38	958.12
380.606	993.12
380.831	1003.12
381.057	1031.12
381.282	1014.12
381.507	1032.12
381.733	1112.12
381.958	1115.12
382.184	1038.12
382.409	1030.12
382.634	1016.12
382.86	1015.12
383.085	982.12
383.31	1076.12
383.535	1163.12
383.761	1206.12
383.986	1132.12
384.211	1107.12
384.436	1111.12
384.662	1155.12
384.887	1168.12
385.112	1122.12
385.337	1123.12
385.562	1112.12
385.787	1090.12
386.013	1128.12
386.238	1139.12
386.463	1135.12
386.688	1233.12
386.913	1324.12
387.138	1226.12
387.363	1138.12
387.588	1155.12
387.813	1131.12
388.038	1159.12
388.263	1198.12
388.488	1122.12
388.713	1061.12
388.938	1091.12
389.163	1083.12
389.387	1089.12
389.612	1083.12
389.837	1109.12
390.062	1123.12
390.287	1122.12
390.512	1111.12
390.736	1062.12
390.961	1058.12
391.186	1084.12
391.411	1068.12
391.636	1110.12
391.86	1099.12
392.085	1118.12
392.31	1104.12
392.534	1105.12
392.759	1141.12
392.984	1124.12
393.208	1104.12
393.433	1159.12
393.658	1222.12
393.882	1192.12
394.107	1134.12
394.331	1098.12
394.556	1100.12
394.78	1114.12
395.005	1191.12
395.229	1214.12
395.454	1287.12
395.678	1281.12
395.903	1228.12
396.127	1170.12
396.352	1200.12
396.576	1217.12
396.801	1262.12
397.025	1202.12
397.249	1242.12
397.474	1234.12
397.698	1212.12
397.922	1281.12
398.147	1299.12
398.371	1311.12
398.595	1327.12
398.82	1257.12
399.044	1334.12
399.268	1364.12
399.492	1412.12
399.717	1473.12
399.941	1447.12
400.165	1466.12
400.389	1415.12
400.613	1438.12
400.837	1595.12
401.062	1785.12
401.286	1496.12
401.51	1412.12
401.734	1428.12
401.958	1395.12
402.182	1289.12
402.406	1316.12
402.63	1232.12
402.854	1282.12
403.078	1284.12
403.302	1288.12
403.526	1311.12
403.75	1315.12
403.974	1361.12
404.198	1366.12
404.422	1403.12
404.645	1454.12
404.869	1403.12
405.093	1311.12
405.317	1290.12
405.541	1331.12
405.765	1337.12
405.988	1311.12
406.212	1367.12
406.436	1387.12
406.66	1408.12
406.883	1466.12
407.107	1662.12
407.331	1754.12
407.555	1876.12
407.778	1659.12
408.002	1430.12
408.226	1381.12
408.449	1377.12
408.673	1376.12
408.896	1357.12
409.12	1363.12
409.344	1342.12
409.567	1327.12
409.791	1359.12
410.014	1356.12
410.238	1458.12
410.461	1506.12
410.685	1376.12
410.908	1311.12
411.132	1334.12
411.355	1318.12
411.578	1307.12
411.802	1312.12
412.025	1346.12
412.249	1327.12
412.472	1288.12
412.695	1288.12
412.919	1294.12
413.142	1262.12
413.365	1284.12
413.589	1339.12
413.812	1392.12
414.035	1398.12
414.258	1339.12
414.482	1274.12
414.705	1284.12
414.928	1286.12
415.151	1278.12
415.374	1256.12
415.597	1319.12
415.821	1314.12
416.044	1336.12
416.267	1302.12
416.49	1251.12
416.713	1251.12
416.936	1304.12
417.159	1343.12
417.382	1352.12
417.605	1276.12
417.828	1286.12
418.051	1301.12
418.274	1295.12
418.497	1252.12
418.72	1271.12
418.943	1262.12
419.166	1330.12
419.389	1346.12
419.611	1307.12
419.834	1239.12
420.057	1316.12
420.28	1261.12
420.503	1259.12
420.726	1282.12
420.948	1316.12
421.171	1255.12
421.394	1246.12
421.617	1284.12
421.839	1342.12
422.062	1318.12
422.285	1237.12
422.507	1258.12
422.73	1199.12
422.953	1240.12
423.175	1214.12
423.398	1251.12
423.621	1255.12
423.843	1250.12
424.066	1291.12
424.288	1354.12
424.511	1424.12
424.733	1330.12
424.956	1225.12
425.178	1198.12
425.401	1265.12
425.623	1265.12
425.846	1290.12
426.068	1312.12
426.291	1321.12
426.513	1316.12
426.735	1341.12
426.958	1441.12
427.18	1448.12
427.402	1315.12
427.625	1391.12
427.847	1329.12
428.069	1275.12
428.292	1251.12
428.514	1226.12
428.736	1215.12
428.958	1220.12
429.181	1288.12
429.403	1418.12
429.625	1706.12
429.847	1460.12
430.069	1242.12
430.292	1414.12
430.514	1386.12
430.736	1309.12
430.958	1370.12
431.18	1294.12
431.402	1226.12
431.624	1175.12
431.846	1150.12
432.068	1117.12
432.29	1124.12
432.512	1171.12
432.734	1234.12
432.956	1219.12
433.178	1321.12
433.4	1281.12
433.622	1296.12
433.844	1218.12
434.066	1180.12
434.287	1161.12
434.509	1188.12
434.731	1243.12
434.953	1353.12
435.175	1319.12
435.397	1274.12
435.618	1264.12
435.84	1193.12
436.062	1193.12
436.284	1264.12
436.505	1268.12
436.727	1312.12
436.949	1234.12
437.17	1215.12
437.392	1221.12
437.614	1215.12
437.835	1172.12
438.057	1225.12
438.278	1221.12
438.5	1198.12
438.721	1238.12
438.943	1201.12
439.165	1228.12
439.386	1198.12
439.608	1219.12
439.829	1243.12
440.05	1246.12
440.272	1262.12
440.493	1233.12
440.715	1265.12
440.936	1354.12
441.158	1418.12
441.379	1395.12
441.6	1343.12
441.822	1328.12
442.043	1291.12
442.264	1309.12
442.486	1221.12
442.707	1267.12
442.928	1230.12
443.149	1311.12
443.371	1340.12
443.592	1373.12
443.813	1344.12
444.034	1315.12
444.255	1334.12
444.476	1379.12
444.698	1377.12
444.919	1362.12
445.14	1411.12
445.361	1412.12
445.582	1420.12
445.803	1384.12
446.024	1375.12
446.245	1400.12
446.466	1380.12
446.687	1304.12
446.908	1316.12
447.129	1332.12
447.35	1305.12
447.571	1272.12
447.792	1218.12
448.013	1256.12
448.234	1260.12
448.455	1290.12
448.675	1286.12
448.896	1222.12
449.117	1183.12
449.338	1226.12
449.559	1210.12
449.779	1316.12
450	1402.12
450.221	1452.12
450.442	1396.12
450.662	1250.12
450.883	1154.12
451.104	1168.12
451.324	1184.12
451.545	1210.12
451.766	1162.12
451.986	1145.12
452.207	1099.12
452.428	1092.12
452.648	1085.12
452.869	1101.12
453.089	1096.12
453.31	1131.12
453.53	1140.12
453.751	1094.12
453.971	1042.12
454.192	1088.12
454.412	1146.12
454.633	1146.12
454.853	1106.12
455.073	1044.12
455.294	1053.12
455.514	1059.12
455.734	1086.12
455.955	1082.12
456.175	1041.12
456.395	1046.12
456.616	1053.12
456.836	1073.12
457.056	1056.12
457.276	1067.12
457.497	1040.12
457.717	1006.12
457.937	1002.12
458.157	1036.12
458.377	1011.12
458.598	1037.12
458.818	1046.12
459.038	1082.12
459.258	1137.12
459.478	1114.12
459.698	1100.12
459.918	1144.12
460.138	1178.12
460.358	1198.12
460.578	1219.12
460.798	1250.12
461.018	1327.12
461.238	1254.12
461.458	1232.12
461.678	1246.12
461.898	1187.12
462.118	1182.12
462.338	1220.12
462.558	1247.12
462.777	1273.12
462.997	1300.12
463.217	1347.12
463.437	1311.12
463.657	1279.12
463.876	1247.12
464.096	1265.12
464.316	1246.12
464.536	1304.12
464.755	1271.12
464.975	1297.12
465.195	1233.12
465.414	1265.12
465.634	1313.12
465.854	1264.12
466.073	1339.12
466.293	1310.12
466.512	1184.12
466.732	1175.12
466.951	1224.12
467.171	1220.12
467.391	1182.12
467.61	1162.12
467.829	1211.12
468.049	1288.12
468.268	1432.12
468.488	1312.12
468.707	1227.12
468.927	1228.12
469.146	1207.12
469.365	1192.12
469.585	1210.12
469.804	1224.12
470.023	1204.12
470.243	1232.12
470.462	1177.12
470.681	1202.12
470.901	1218.12
471.12	1203.12
471.339	1191.12
471.558	1199.12
471.777	1168.12
471.997	1179.12
472.216	1161.12
472.435	1084.12
472.654	1127.12
472.873	1153.12
473.092	1205.12
473.311	1146.12
473.53	1136.12
473.749	1107.12
473.968	1148.12
474.187	1212.12
474.406	1248.12
474.625	1177.12
474.844	1153.12
475.063	1191.12
475.282	1191.12
475.501	1175.12
475.72	1191.12
475.939	1256.12
476.158	1228.12
476.377	1184.12
476.596	1205.12
476.814	1210.12
477.033	1201.12
477.252	1248.12
477.471	1286.12
477.69	1262.12
477.908	1278.12
478.127	1338.12
478.346	1398.12
478.564	1392.12
478.783	1402.12
479.002	1413.12
479.22	1356.12
479.439	1446.12
479.658	1580.12
479.876	1511.12
480.095	1325.12
480.313	1310.12
480.532	1281.12
480.751	1268.12
480.969	1269.12
481.188	1269.12
481.406	1237.12
481.624	1213.12
481.843	1252.12
482.061	1267.12
482.28	1290.12
482.498	1332.12
482.717	1276.12
482.935	1299.12
483.153	1302.12
483.372	1330.12
483.59	1334.12
483.808	1344.12
484.027	1321.12
484.245	1390.12
484.463	1678.12
484.681	1823.12
484.9	1478.12
485.118	1324.12
485.336	1333.12
485.554	1324.12
485.772	1394.12
485.99	1344.12
486.209	1378.12
486.427	1368.12
486.645	1373.12
486.863	1378.12
487.081	1435.12
487.299	1429.12
487.517	1399.12
487.735	1434.12
487.953	1454.12
488.171	1486.12
488.389	1463.12
488.607	1438.12
488.825	1595.12
489.043	1473.12
489.261	1396.12
489.479	1462.12
489.696	1453.12
489.914	1429.12
490.132	1415.12
490.35	1414.12
490.568	1486.12
490.786	1503.12
491.003	1437.12
491.221	1523.12
491.439	1565.12
491.657	1559.12
491.874	1570.12
492.092	1658.12
492.31	1680.12
492.527	1649.12
492.745	1559.12
492.963	1561.12
493.18	1605.12
493.398	1678.12
493.615	1660.12
493.833	1578.12
494.05	1514.12
