Data from WStandard_LampEnergy5.5LIBS07252019.E.O._I.C._HRD10591_16-09-11-920.txt Node
Date: Thu Jul 25 16:09:11 EDT 2019
User: cochatt
Spectrometer: HR+D1059
Trigger mode: 1
Integration Time (sec): 1.000000E-1
Scans to average: 1
Electric dark correction enabled: true
Nonlinearity correction enabled: false
Boxcar width: 0
XAxis mode: Wavelengths
Number of Pixels in Spectrum: 2048
>>>>>Begin Spectral Data<<<<<
223.165	-15.44
223.4	-15.44
223.635	-15.44
223.869	-19.44
224.104	-18.44
224.338	-17.44
224.573	-7.44
224.808	-11.44
225.042	-10.44
225.277	-1.44
225.511	4.56
225.746	2.56
225.98	14.56
226.215	8.56
226.449	10.56
226.683	13.56
226.918	19.56
227.152	27.56
227.387	23.56
227.621	27.56
227.856	49.56
228.09	38.56
228.324	55.56
228.559	52.56
228.793	152.56
229.027	345.56
229.262	379.56
229.496	376.56
229.73	378.56
229.964	421.56
230.199	461.56
230.433	453.56
230.667	498.56
230.901	521.56
231.136	469.56
231.37	454.56
231.604	446.56
231.838	450.56
232.072	442.56
232.306	441.56
232.541	451.56
232.775	540.56
233.009	560.56
233.243	554.56
233.477	510.56
233.711	526.56
233.945	546.56
234.179	520.56
234.413	568.56
234.647	610.56
234.881	562.56
235.115	519.56
235.349	532.56
235.583	560.56
235.817	517.56
236.051	545.56
236.285	539.56
236.519	571.56
236.753	616.56
236.987	659.56
237.221	656.56
237.455	724.56
237.689	699.56
237.922	649.56
238.156	647.56
238.39	634.56
238.624	679.56
238.858	732.56
239.091	726.56
239.325	773.56
239.559	891.56
239.793	925.56
240.027	1034.56
240.26	1021.56
240.494	730.56
240.728	710.56
240.961	731.56
241.195	717.56
241.429	796.56
241.662	790.56
241.896	736.56
242.13	745.56
242.363	817.56
242.597	872.56
242.83	836.56
243.064	882.56
243.298	930.56
243.531	909.56
243.765	900.56
243.998	915.56
244.232	780.56
244.465	745.56
244.699	764.56
244.932	872.56
245.166	1014.56
245.399	914.56
245.633	898.56
245.866	873.56
246.099	893.56
246.333	886.56
246.566	941.56
246.8	991.56
247.033	1114.56
247.266	1042.56
247.5	1045.56
247.733	1015.56
247.966	1066.56
248.2	1203.56
248.433	1133.56
248.666	1158.56
248.899	1290.56
249.133	1487.56
249.366	1667.56
249.599	1366.56
249.832	1218.56
250.066	1225.56
250.299	1252.56
250.532	1138.56
250.765	1041.56
250.998	1136.56
251.231	1146.56
251.465	1161.56
251.698	1111.56
251.931	1127.56
252.164	1169.56
252.397	1211.56
252.63	1209.56
252.863	1092.56
253.096	1045.56
253.329	1083.56
253.562	1149.56
253.795	1249.56
254.028	1205.56
254.261	1136.56
254.494	1138.56
254.727	1080.56
254.96	1125.56
255.193	1220.56
255.426	1318.56
255.659	1587.56
255.892	1587.56
256.124	1331.56
256.357	1283.56
256.59	1345.56
256.823	1352.56
257.056	1375.56
257.289	1666.56
257.521	1864.56
257.754	1640.56
257.987	1506.56
258.22	1708.56
258.452	1686.56
258.685	1378.56
258.918	1331.56
259.151	1372.56
259.383	1257.56
259.616	1132.56
259.849	1186.56
260.081	1313.56
260.314	1482.56
260.547	1650.56
260.779	1666.56
261.012	1534.56
261.244	1372.56
261.477	1340.56
261.71	1366.56
261.942	1352.56
262.175	1304.56
262.407	1426.56
262.64	1356.56
262.872	1245.56
263.105	1188.56
263.337	1233.56
263.57	1243.56
263.802	1235.56
264.035	1161.56
264.267	1120.56
264.499	1084.56
264.732	1196.56
264.964	1238.56
265.197	1302.56
265.429	1332.56
265.661	1503.56
265.894	1700.56
266.126	1697.56
266.358	1494.56
266.591	1584.56
266.823	1731.56
267.055	1550.56
267.287	1527.56
267.52	1485.56
267.752	1493.56
267.984	1481.56
268.216	1557.56
268.448	1614.56
268.681	1553.56
268.913	1447.56
269.145	1374.56
269.377	1359.56
269.609	1462.56
269.841	1654.56
270.073	1940.56
270.306	2193.56
270.538	2313.56
270.77	1971.56
271.002	1666.56
271.234	1602.56
271.466	1562.56
271.698	1734.56
271.93	2088.56
272.162	2104.56
272.394	1889.56
272.626	1854.56
272.858	1640.56
273.09	1396.56
273.322	1444.56
273.553	1339.56
273.785	1316.56
274.017	1412.56
274.249	1512.56
274.481	1536.56
274.713	1381.56
274.945	1349.56
275.176	1386.56
275.408	1353.56
275.64	1352.56
275.872	1348.56
276.104	1405.56
276.335	1584.56
276.567	1839.56
276.799	1892.56
277.031	1646.56
277.262	1554.56
277.494	1618.56
277.726	1768.56
277.957	1741.56
278.189	1650.56
278.421	1462.56
278.652	1442.56
278.884	1419.56
279.115	1438.56
279.347	1474.56
279.579	1434.56
279.81	1396.56
280.042	1532.56
280.273	1702.56
280.505	1683.56
280.736	1738.56
280.968	1712.56
281.199	1456.56
281.431	1387.56
281.662	1404.56
281.894	1428.56
282.125	1451.56
282.356	1499.56
282.588	1522.56
282.819	1476.56
283.051	1600.56
283.282	1750.56
283.513	1729.56
283.745	1464.56
283.976	1369.56
284.207	1373.56
284.439	1435.56
284.67	1438.56
284.901	1494.56
285.132	1540.56
285.364	1470.56
285.595	1476.56
285.826	1432.56
286.057	1450.56
286.288	1450.56
286.52	1503.56
286.751	1641.56
286.982	1730.56
287.213	1549.56
287.444	1375.56
287.675	1397.56
287.906	1468.56
288.138	1601.56
288.369	1568.56
288.6	1468.56
288.831	1397.56
289.062	1467.56
289.293	1475.56
289.524	1474.56
289.755	1538.56
289.986	1528.56
290.217	1365.56
290.448	1410.56
290.679	1484.56
290.91	1496.56
291.141	1543.56
291.371	1624.56
291.602	1563.56
291.833	1545.56
292.064	1556.56
292.295	1534.56
292.526	1558.56
292.757	1677.56
292.987	1596.56
293.218	1487.56
293.449	1580.56
293.68	1834.56
293.91	1990.56
294.141	1844.56
294.372	1696.56
294.603	1778.56
294.833	1899.56
295.064	1787.56
295.295	1615.56
295.525	1584.56
295.756	1456.56
295.987	1373.56
296.217	1413.56
296.448	1450.56
296.679	1463.56
296.909	1465.56
297.14	1439.56
297.37	1470.56
297.601	1548.56
297.831	1681.56
298.062	1676.56
298.292	1544.56
298.523	1481.56
298.753	1490.56
298.984	1537.56
299.214	1544.56
299.445	1540.56
299.675	1563.56
299.905	1578.56
300.136	1527.56
300.366	1510.56
300.597	1455.56
300.827	1436.56
301.057	1500.56
301.288	1575.56
301.518	1579.56
301.748	1626.56
301.979	1678.56
302.209	1728.56
302.439	1799.56
302.669	1894.56
302.9	1771.56
303.13	1580.56
303.36	1609.56
303.59	1627.56
303.82	1620.56
304.051	1597.56
304.281	1581.56
304.511	1596.56
304.741	1703.56
304.971	1859.56
305.201	1985.56
305.431	1892.56
305.661	1549.56
305.891	1430.56
306.121	1403.56
306.352	1449.56
306.582	1544.56
306.812	1644.56
307.042	1790.56
307.272	1780.56
307.502	1799.56
307.731	1935.56
307.961	2110.56
308.191	1913.56
308.421	1675.56
308.651	1573.56
308.881	1552.56
309.111	1554.56
309.341	1485.56
309.571	1538.56
309.8	1544.56
310.03	1528.56
310.26	1510.56
310.49	1527.56
310.72	1549.56
310.949	1616.56
311.179	1622.56
311.409	1613.56
311.639	1579.56
311.868	1556.56
312.098	1609.56
312.328	1564.56
312.557	1504.56
312.787	1566.56
313.017	1615.56
313.246	1644.56
313.476	1570.56
313.706	1663.56
313.935	1663.56
314.165	1650.56
314.394	1678.56
314.624	1778.56
314.853	1832.56
315.083	1901.56
315.312	1963.56
315.542	1844.56
315.771	1658.56
316.001	1628.56
316.23	1780.56
316.46	1738.56
316.689	1742.56
316.919	1641.56
317.148	1574.56
317.377	1553.56
317.607	1678.56
317.836	1886.56
318.065	1956.56
318.295	1892.56
318.524	1757.56
318.753	1732.56
318.983	1749.56
319.212	1708.56
319.441	1669.56
319.67	1650.56
319.9	1667.56
320.129	1781.56
320.358	1851.56
320.587	1863.56
320.816	1881.56
321.046	1817.56
321.275	1718.56
321.504	1717.56
321.733	1890.56
321.962	1862.56
322.191	1673.56
322.42	1699.56
322.649	1680.56
322.878	1677.56
323.108	1655.56
323.337	1698.56
323.566	1739.56
323.795	1725.56
324.024	1750.56
324.253	1717.56
324.482	1748.56
324.71	1700.56
324.939	1615.56
325.168	1620.56
325.397	1653.56
325.626	1761.56
325.855	1799.56
326.084	1682.56
326.313	1666.56
326.542	1716.56
326.77	1783.56
326.999	1795.56
327.228	1698.56
327.457	1627.56
327.686	1602.56
327.914	1642.56
328.143	1686.56
328.372	1699.56
328.6	1708.56
328.829	1698.56
329.058	1693.56
329.287	1640.56
329.515	1712.56
329.744	1686.56
329.972	1762.56
330.201	1866.56
330.43	1830.56
330.658	1807.56
330.887	1773.56
331.115	1746.56
331.344	1829.56
331.572	1812.56
331.801	1759.56
332.03	1771.56
332.258	1751.56
332.486	1805.56
332.715	1781.56
332.943	1834.56
333.172	1777.56
333.4	1821.56
333.629	1851.56
333.857	1899.56
334.085	2097.56
334.314	2349.56
334.542	2592.56
334.771	2452.56
334.999	2164.56
335.227	2025.56
335.455	1928.56
335.684	1904.56
335.912	1965.56
336.14	2005.56
336.369	1913.56
336.597	1852.56
336.825	1779.56
337.053	1841.56
337.281	1974.56
337.51	2018.56
337.738	2070.56
337.966	2033.56
338.194	1845.56
338.422	1792.56
338.65	1773.56
338.878	1749.56
339.106	1738.56
339.334	1716.56
339.562	1688.56
339.79	1700.56
340.018	1788.56
340.246	1919.56
340.474	1892.56
340.702	1853.56
340.93	1861.56
341.158	1803.56
341.386	1802.56
341.614	1783.56
341.842	1748.56
342.07	1724.56
342.298	1749.56
342.526	1756.56
342.754	1738.56
342.981	1720.56
343.209	1745.56
343.437	1742.56
343.665	1732.56
343.893	1811.56
344.12	1906.56
344.348	1876.56
344.576	1833.56
344.804	1751.56
345.031	1756.56
345.259	1748.56
345.487	1686.56
345.714	1683.56
345.942	1643.56
346.17	1625.56
346.397	1681.56
346.625	1695.56
346.853	1606.56
347.08	1556.56
347.308	1590.56
347.535	1639.56
347.763	1695.56
347.99	1665.56
348.218	1588.56
348.445	1606.56
348.673	1629.56
348.9	1692.56
349.128	1719.56
349.355	1727.56
349.583	1725.56
349.81	1706.56
350.037	1547.56
350.265	1504.56
350.492	1559.56
350.72	1585.56
350.947	1664.56
351.174	1673.56
351.402	1582.56
351.629	1528.56
351.856	1532.56
352.083	1533.56
352.311	1553.56
352.538	1567.56
352.765	1625.56
352.992	1668.56
353.22	1616.56
353.447	1572.56
353.674	1600.56
353.901	1622.56
354.128	1574.56
354.355	1560.56
354.583	1631.56
354.81	1671.56
355.037	1687.56
355.264	1652.56
355.491	1633.56
355.718	1638.56
355.945	1649.56
356.172	1610.56
356.399	1605.56
356.626	1537.56
356.853	1615.56
357.08	1721.56
357.307	1901.56
357.534	1946.56
357.761	1712.56
357.988	1543.56
358.215	1526.56
358.441	1545.56
358.668	1525.56
358.895	1521.56
359.122	1644.56
359.349	1818.56
359.576	1787.56
359.802	1639.56
360.029	1601.56
360.256	1551.56
360.483	1561.56
360.709	1608.56
360.936	1720.56
361.163	1686.56
361.39	1866.56
361.616	2025.56
361.843	2015.56
362.07	1868.56
362.296	1660.56
362.523	1602.56
362.749	1601.56
362.976	1638.56
363.203	1657.56
363.429	1610.56
363.656	1548.56
363.882	1591.56
364.109	1747.56
364.335	1882.56
364.562	1780.56
364.788	1666.56
365.015	1628.56
365.241	1577.56
365.468	1621.56
365.694	1708.56
365.92	1722.56
366.147	1681.56
366.373	1591.56
366.599	1616.56
366.826	1588.56
367.052	1573.56
367.278	1564.56
367.505	1661.56
367.731	1622.56
367.957	1685.56
368.184	1707.56
368.41	1804.56
368.636	1841.56
368.862	1786.56
369.089	1834.56
369.315	1738.56
369.541	1718.56
369.767	1679.56
369.993	1588.56
370.219	1597.56
370.445	1629.56
370.672	1707.56
370.898	1828.56
371.124	1818.56
371.35	1678.56
371.576	1764.56
371.802	1764.56
372.028	1761.56
372.254	1688.56
372.48	1687.56
372.706	1620.56
372.932	1668.56
373.158	1637.56
373.384	1684.56
373.61	1725.56
373.835	1821.56
374.061	1721.56
374.287	1682.56
374.513	1688.56
374.739	1737.56
374.965	1717.56
375.191	1769.56
375.416	1753.56
375.642	1735.56
375.868	1834.56
376.094	1906.56
376.319	1849.56
376.545	1718.56
376.771	1755.56
376.997	1847.56
377.222	1752.56
377.448	1764.56
377.674	1731.56
377.899	1729.56
378.125	1856.56
378.35	1823.56
378.576	1720.56
378.802	1664.56
379.027	1650.56
379.253	1689.56
379.478	1685.56
379.704	1678.56
379.929	1668.56
380.155	1685.56
380.38	1716.56
380.606	1744.56
380.831	1700.56
381.057	1811.56
381.282	1797.56
381.507	1805.56
381.733	1832.56
381.958	1946.56
382.184	1805.56
382.409	1736.56
382.634	1778.56
382.86	1775.56
383.085	1738.56
383.31	1777.56
383.535	1957.56
383.761	2052.56
383.986	1974.56
384.211	1919.56
384.436	1876.56
384.662	1971.56
384.887	2006.56
385.112	1949.56
385.337	1963.56
385.562	1953.56
385.787	1917.56
386.013	1979.56
386.238	2010.56
386.463	1964.56
386.688	2084.56
386.913	2211.56
387.138	2193.56
387.363	2038.56
387.588	2017.56
387.813	1977.56
388.038	1969.56
388.263	2090.56
388.488	2008.56
388.713	1863.56
388.938	1832.56
389.163	1829.56
389.387	1907.56
389.612	1895.56
389.837	1946.56
390.062	1945.56
390.287	1940.56
390.512	1929.56
390.736	1924.56
390.961	1892.56
391.186	1868.56
391.411	1898.56
391.636	1945.56
391.86	1939.56
392.085	1958.56
392.31	1926.56
392.534	1929.56
392.759	1980.56
392.984	1938.56
393.208	1936.56
393.433	1950.56
393.658	2028.56
393.882	2096.56
394.107	1950.56
394.331	1945.56
394.556	1926.56
394.78	1942.56
395.005	1992.56
395.229	2060.56
395.454	2218.56
395.678	2300.56
395.903	2147.56
396.127	2064.56
396.352	2060.56
396.576	2110.56
396.801	2164.56
397.025	2085.56
397.249	2116.56
397.474	2042.56
397.698	2123.56
397.922	2156.56
398.147	2244.56
398.371	2297.56
398.595	2338.56
398.82	2209.56
399.044	2252.56
399.268	2306.56
399.492	2498.56
399.717	2630.56
399.941	2658.56
400.165	2540.56
400.389	2511.56
400.613	2468.56
400.837	2675.56
401.062	3120.56
401.286	2674.56
401.51	2391.56
401.734	2524.56
401.958	2456.56
402.182	2283.56
402.406	2256.56
402.63	2176.56
402.854	2181.56
403.078	2248.56
403.302	2248.56
403.526	2298.56
403.75	2282.56
403.974	2325.56
404.198	2285.56
404.422	2357.56
404.645	2479.56
404.869	2478.56
405.093	2279.56
405.317	2225.56
405.541	2294.56
405.765	2327.56
405.988	2309.56
406.212	2358.56
406.436	2393.56
406.66	2457.56
406.883	2510.56
407.107	2724.56
407.331	2940.56
407.555	3242.56
407.778	3033.56
408.002	2520.56
408.226	2408.56
408.449	2395.56
408.673	2377.56
408.896	2404.56
409.12	2406.56
409.344	2355.56
409.567	2279.56
409.791	2340.56
410.014	2344.56
410.238	2481.56
410.461	2638.56
410.685	2352.56
410.908	2278.56
411.132	2300.56
411.355	2262.56
411.578	2210.56
411.802	2284.56
412.025	2260.56
412.249	2256.56
412.472	2204.56
412.695	2156.56
412.919	2219.56
413.142	2214.56
413.365	2226.56
413.589	2242.56
413.812	2291.56
414.035	2409.56
414.258	2238.56
414.482	2147.56
414.705	2210.56
414.928	2199.56
415.151	2187.56
415.374	2201.56
415.597	2208.56
415.821	2237.56
416.044	2338.56
416.267	2339.56
416.49	2125.56
416.713	2107.56
416.936	2168.56
417.159	2246.56
417.382	2263.56
417.605	2163.56
417.828	2190.56
418.051	2258.56
418.274	2210.56
418.497	2132.56
418.72	2142.56
418.943	2122.56
419.166	2238.56
419.389	2380.56
419.611	2207.56
419.834	2167.56
420.057	2267.56
420.28	2099.56
420.503	2113.56
420.726	2180.56
420.948	2188.56
421.171	2104.56
421.394	2130.56
421.617	2218.56
421.839	2165.56
422.062	2153.56
422.285	2100.56
422.507	2088.56
422.73	2049.56
422.953	1982.56
423.175	2029.56
423.398	2114.56
423.621	2118.56
423.843	2125.56
424.066	2151.56
424.288	2225.56
424.511	2288.56
424.733	2238.56
424.956	2014.56
425.178	1997.56
425.401	2012.56
425.623	2080.56
425.846	2053.56
426.068	2155.56
426.291	2162.56
426.513	2132.56
426.735	2143.56
426.958	2247.56
427.18	2466.56
427.402	2212.56
427.625	2243.56
427.847	2277.56
428.069	2136.56
428.292	2083.56
428.514	2044.56
428.736	2048.56
428.958	2039.56
429.181	2099.56
429.403	2336.56
429.625	2860.56
429.847	2516.56
430.069	2102.56
430.292	2329.56
430.514	2417.56
430.736	2244.56
430.958	2314.56
431.18	2181.56
431.402	2068.56
431.624	2024.56
431.846	2062.56
432.068	1991.56
432.29	2067.56
432.512	2068.56
432.734	2127.56
432.956	2108.56
433.178	2264.56
433.4	2231.56
433.622	2140.56
433.844	2112.56
434.066	1990.56
434.287	2030.56
434.509	2094.56
434.731	2192.56
434.953	2302.56
435.175	2274.56
435.397	2164.56
435.618	2138.56
435.84	2196.56
436.062	2128.56
436.284	2149.56
436.505	2170.56
436.727	2180.56
436.949	2104.56
437.17	2113.56
437.392	2040.56
437.614	2057.56
437.835	2043.56
438.057	2162.56
438.278	2295.56
438.5	2105.56
438.721	2036.56
438.943	2068.56
439.165	2074.56
439.386	1981.56
439.608	2009.56
439.829	2025.56
440.05	2036.56
440.272	1995.56
440.493	1995.56
440.715	2042.56
440.936	2174.56
441.158	2381.56
441.379	2337.56
441.6	2267.56
441.822	2210.56
442.043	2201.56
442.264	2120.56
442.486	2061.56
442.707	2020.56
442.928	2033.56
443.149	2103.56
443.371	2204.56
443.592	2305.56
443.813	2248.56
444.034	2224.56
444.255	2221.56
444.476	2280.56
444.698	2325.56
444.919	2314.56
445.14	2363.56
445.361	2325.56
445.582	2432.56
445.803	2304.56
446.024	2210.56
446.245	2329.56
446.466	2237.56
446.687	2179.56
446.908	2099.56
447.129	2058.56
447.35	2068.56
447.571	2124.56
447.792	2027.56
448.013	1978.56
448.234	1977.56
448.455	2098.56
448.675	2127.56
448.896	1961.56
449.117	1940.56
449.338	2002.56
449.559	2088.56
449.779	2150.56
450	2360.56
450.221	2544.56
450.442	2503.56
450.662	2224.56
450.883	1951.56
451.104	1925.56
451.324	1986.56
451.545	1993.56
451.766	1992.56
451.986	1920.56
452.207	1913.56
452.428	1821.56
452.648	1799.56
452.869	1883.56
453.089	1972.56
453.31	2012.56
453.53	2043.56
453.751	1970.56
453.971	1834.56
454.192	1871.56
454.412	2020.56
454.633	1974.56
454.853	1904.56
455.073	1773.56
455.294	1762.56
455.514	1789.56
455.734	1812.56
455.955	1810.56
456.175	1776.56
456.395	1824.56
456.616	1871.56
456.836	1927.56
457.056	1897.56
457.276	1872.56
457.497	1863.56
457.717	1789.56
457.937	1809.56
458.157	1888.56
458.377	1855.56
458.598	1818.56
458.818	1824.56
459.038	1934.56
459.258	2072.56
459.478	2074.56
459.698	2006.56
459.918	2006.56
460.138	2172.56
460.358	2188.56
460.578	2218.56
460.798	2232.56
461.018	2409.56
461.238	2264.56
461.458	2197.56
461.678	2194.56
461.898	2218.56
462.118	2064.56
462.338	2176.56
462.558	2167.56
462.777	2174.56
462.997	2283.56
463.217	2433.56
463.437	2451.56
463.657	2221.56
463.876	2214.56
464.096	2204.56
464.316	2187.56
464.536	2298.56
464.755	2269.56
464.975	2284.56
465.195	2209.56
465.414	2301.56
465.634	2300.56
465.854	2167.56
466.073	2343.56
466.293	2274.56
466.512	2084.56
466.732	1981.56
466.951	2085.56
467.171	2029.56
467.391	1986.56
467.61	1928.56
467.829	1957.56
468.049	2100.56
468.268	2356.56
468.488	2221.56
468.707	2089.56
468.927	2029.56
469.146	2009.56
469.365	1978.56
469.585	1969.56
469.804	1997.56
470.023	1983.56
470.243	2012.56
470.462	1997.56
470.681	1941.56
470.901	1990.56
471.12	1993.56
471.339	1954.56
471.558	1937.56
471.777	1912.56
471.997	1964.56
472.216	1966.56
472.435	1904.56
472.654	1928.56
472.873	2015.56
473.092	2104.56
473.311	2018.56
473.53	1905.56
473.749	1908.56
473.968	1963.56
474.187	2104.56
474.406	2177.56
474.625	2054.56
474.844	2041.56
475.063	1978.56
475.282	2087.56
475.501	2029.56
475.72	2043.56
475.939	2168.56
476.158	2090.56
476.377	2041.56
476.596	2048.56
476.814	2102.56
477.033	2090.56
477.252	2230.56
477.471	2277.56
477.69	2137.56
477.908	2124.56
478.127	2274.56
478.346	2391.56
478.564	2408.56
478.783	2375.56
479.002	2430.56
479.22	2373.56
479.439	2516.56
479.658	2816.56
479.876	2819.56
480.095	2425.56
480.313	2311.56
480.532	2205.56
480.751	2256.56
480.969	2300.56
481.188	2283.56
481.406	2293.56
481.624	2195.56
481.843	2225.56
482.061	2285.56
482.28	2281.56
482.498	2329.56
482.717	2314.56
482.935	2253.56
483.153	2187.56
483.372	2251.56
483.59	2207.56
483.808	2232.56
484.027	2265.56
484.245	2428.56
484.463	2746.56
484.681	3165.56
484.9	2453.56
485.118	2316.56
485.336	2268.56
485.554	2386.56
485.772	2463.56
485.99	2404.56
486.209	2422.56
486.427	2402.56
486.645	2388.56
486.863	2344.56
487.081	2419.56
487.299	2496.56
487.517	2370.56
