Data from WStandard_LampEnergy8_LIBS07252019.E.O._I.C._HRD10591_15-59-04-929.txt Node
Date: Thu Jul 25 15:59:04 EDT 2019
User: cochatt
Spectrometer: HR+D1059
Trigger mode: 1
Integration Time (sec): 1.000000E-1
Scans to average: 1
Electric dark correction enabled: true
Nonlinearity correction enabled: false
Boxcar width: 0
XAxis mode: Wavelengths
Number of Pixels in Spectrum: 2048
>>>>>Begin Spectral Data<<<<<
223.165	-12.75
223.4	-12.75
223.635	-12.75
223.869	-1.75
224.104	-2.75
224.338	-18.75
224.573	-13.75
224.808	-39.75
225.042	-3.75
225.277	-2.75
225.511	0.25
225.746	-1.75
225.98	-0.75
226.215	1.25
226.449	22.25
226.683	18.25
226.918	26.25
227.152	30.25
227.387	27.25
227.621	41.25
227.856	44.25
228.09	41.25
228.324	44.25
228.559	63.25
228.793	114.25
229.027	208.25
229.262	215.25
229.496	210.25
229.73	223.25
229.964	262.25
230.199	248.25
230.433	242.25
230.667	266.25
230.901	280.25
231.136	254.25
231.37	264.25
231.604	273.25
231.838	246.25
232.072	233.25
232.306	258.25
232.541	266.25
232.775	309.25
233.009	308.25
233.243	310.25
233.477	294.25
233.711	316.25
233.945	312.25
234.179	305.25
234.413	332.25
234.647	346.25
234.881	329.25
235.115	310.25
235.349	292.25
235.583	305.25
235.817	314.25
236.051	321.25
236.285	306.25
236.519	339.25
236.753	374.25
236.987	358.25
237.221	356.25
237.455	387.25
237.689	383.25
237.922	360.25
238.156	342.25
238.39	372.25
238.624	377.25
238.858	385.25
239.091	398.25
239.325	416.25
239.559	478.25
239.793	497.25
240.027	516.25
240.26	523.25
240.494	393.25
240.728	363.25
240.961	373.25
241.195	386.25
241.429	435.25
241.662	411.25
241.896	408.25
242.13	391.25
242.363	427.25
242.597	469.25
242.83	451.25
243.064	459.25
243.298	496.25
243.531	475.25
243.765	455.25
243.998	468.25
244.232	423.25
244.465	407.25
244.699	440.25
244.932	474.25
245.166	541.25
245.399	490.25
245.633	475.25
245.866	464.25
246.099	492.25
246.333	491.25
246.566	498.25
246.8	553.25
247.033	581.25
247.266	563.25
247.5	535.25
247.733	547.25
247.966	578.25
248.2	626.25
248.433	614.25
248.666	656.25
248.899	680.25
249.133	726.25
249.366	810.25
249.599	708.25
249.832	619.25
250.066	636.25
250.299	658.25
250.532	597.25
250.765	550.25
250.998	571.25
251.231	587.25
251.465	617.25
251.698	579.25
251.931	592.25
252.164	626.25
252.397	639.25
252.63	616.25
252.863	567.25
253.096	552.25
253.329	575.25
253.562	613.25
253.795	629.25
254.028	617.25
254.261	590.25
254.494	594.25
254.727	572.25
254.96	597.25
255.193	640.25
255.426	738.25
255.659	798.25
255.892	796.25
256.124	677.25
256.357	662.25
256.59	715.25
256.823	703.25
257.056	740.25
257.289	849.25
257.521	895.25
257.754	814.25
257.987	777.25
258.22	840.25
258.452	800.25
258.685	681.25
258.918	694.25
259.151	691.25
259.383	668.25
259.616	600.25
259.849	648.25
260.081	715.25
260.314	780.25
260.547	849.25
260.779	830.25
261.012	816.25
261.244	719.25
261.477	690.25
261.71	699.25
261.942	712.25
262.175	687.25
262.407	713.25
262.64	673.25
262.872	644.25
263.105	625.25
263.337	644.25
263.57	656.25
263.802	649.25
264.035	601.25
264.267	580.25
264.499	579.25
264.732	614.25
264.964	674.25
265.197	686.25
265.429	733.25
265.661	800.25
265.894	857.25
266.126	860.25
266.358	791.25
266.591	848.25
266.823	854.25
267.055	792.25
267.287	786.25
267.52	795.25
267.752	769.25
267.984	791.25
268.216	815.25
268.448	820.25
268.681	809.25
268.913	741.25
269.145	714.25
269.377	705.25
269.609	768.25
269.841	905.25
270.073	1036.25
270.306	1095.25
270.538	1138.25
270.77	996.25
271.002	812.25
271.234	813.25
271.466	832.25
271.698	910.25
271.93	1100.25
272.162	1035.25
272.394	975.25
272.626	902.25
272.858	828.25
273.09	731.25
273.322	709.25
273.553	675.25
273.785	710.25
274.017	743.25
274.249	811.25
274.481	773.25
274.713	702.25
274.945	689.25
275.176	712.25
275.408	691.25
275.64	680.25
275.872	704.25
276.104	755.25
276.335	856.25
276.567	954.25
276.799	917.25
277.031	852.25
277.262	843.25
277.494	874.25
277.726	922.25
277.957	890.25
278.189	827.25
278.421	784.25
278.652	739.25
278.884	751.25
279.115	732.25
279.347	789.25
279.579	745.25
279.81	762.25
280.042	815.25
280.273	918.25
280.505	882.25
280.736	890.25
280.968	826.25
281.199	745.25
281.431	711.25
281.662	726.25
281.894	713.25
282.125	765.25
282.356	794.25
282.588	776.25
282.819	771.25
283.051	840.25
283.282	874.25
283.513	867.25
283.745	747.25
283.976	728.25
284.207	717.25
284.439	751.25
284.67	737.25
284.901	822.25
285.132	797.25
285.364	772.25
285.595	765.25
285.826	769.25
286.057	768.25
286.288	767.25
286.52	775.25
286.751	871.25
286.982	898.25
287.213	791.25
287.444	751.25
287.675	777.25
287.906	776.25
288.138	838.25
288.369	846.25
288.6	795.25
288.831	727.25
289.062	747.25
289.293	758.25
289.524	781.25
289.755	822.25
289.986	810.25
290.217	735.25
290.448	760.25
290.679	807.25
290.91	803.25
291.141	836.25
291.371	848.25
291.602	850.25
291.833	803.25
292.064	845.25
292.295	847.25
292.526	853.25
292.757	874.25
292.987	858.25
293.218	814.25
293.449	880.25
293.68	990.25
293.91	1029.25
294.141	954.25
294.372	940.25
294.603	984.25
294.833	969.25
295.064	930.25
295.295	829.25
295.525	808.25
295.756	778.25
295.987	723.25
296.217	753.25
296.448	784.25
296.679	793.25
296.909	780.25
297.14	787.25
297.37	821.25
297.601	874.25
297.831	912.25
298.062	882.25
298.292	839.25
298.523	798.25
298.753	792.25
298.984	814.25
299.214	825.25
299.445	832.25
299.675	828.25
299.905	832.25
300.136	827.25
300.366	797.25
300.597	800.25
300.827	780.25
301.057	824.25
301.288	860.25
301.518	854.25
301.748	868.25
301.979	931.25
302.209	947.25
302.439	990.25
302.669	1024.25
302.9	948.25
303.13	893.25
303.36	874.25
303.59	878.25
303.82	875.25
304.051	851.25
304.281	860.25
304.511	920.25
304.741	946.25
304.971	1030.25
305.201	1094.25
305.431	968.25
305.661	810.25
305.891	754.25
306.121	781.25
306.352	806.25
306.582	866.25
306.812	921.25
307.042	975.25
307.272	981.25
307.502	1022.25
307.731	1079.25
307.961	1089.25
308.191	982.25
308.421	906.25
308.651	840.25
308.881	851.25
309.111	840.25
309.341	839.25
309.571	834.25
309.8	849.25
310.03	828.25
310.26	824.25
310.49	853.25
310.72	871.25
310.949	900.25
311.179	889.25
311.409	884.25
311.639	860.25
311.868	850.25
312.098	854.25
312.328	844.25
312.557	854.25
312.787	867.25
313.017	880.25
313.246	883.25
313.476	894.25
313.706	898.25
313.935	887.25
314.165	914.25
314.394	956.25
314.624	1002.25
314.853	1075.25
315.083	1083.25
315.312	1067.25
315.542	973.25
315.771	907.25
316.001	941.25
316.23	962.25
316.46	947.25
316.689	961.25
316.919	899.25
317.148	856.25
317.377	912.25
317.607	960.25
317.836	1078.25
318.065	1061.25
318.295	1060.25
318.524	1004.25
318.753	960.25
318.983	949.25
319.212	928.25
319.441	939.25
319.67	919.25
319.9	959.25
320.129	1009.25
320.358	1033.25
320.587	1060.25
320.816	1040.25
321.046	1051.25
321.275	983.25
321.504	1026.25
321.733	1090.25
321.962	1026.25
322.191	952.25
322.42	948.25
322.649	919.25
322.878	944.25
323.108	933.25
323.337	978.25
323.566	955.25
323.795	945.25
324.024	951.25
324.253	935.25
324.482	955.25
324.71	928.25
324.939	912.25
325.168	896.25
325.397	946.25
325.626	975.25
325.855	995.25
326.084	942.25
326.313	944.25
326.542	949.25
326.77	972.25
326.999	958.25
327.228	922.25
327.457	897.25
327.686	885.25
327.914	886.25
328.143	965.25
328.372	959.25
328.6	942.25
328.829	955.25
329.058	925.25
329.287	912.25
329.515	927.25
329.744	950.25
329.972	1014.25
330.201	1052.25
330.43	1022.25
330.658	1004.25
330.887	983.25
331.115	988.25
331.344	995.25
331.572	980.25
331.801	980.25
332.03	979.25
332.258	992.25
332.486	1010.25
332.715	1001.25
332.943	1020.25
333.172	988.25
333.4	1006.25
333.629	1092.25
333.857	1150.25
334.085	1251.25
334.314	1409.25
334.542	1458.25
334.771	1312.25
334.999	1189.25
335.227	1101.25
335.455	1048.25
335.684	1096.25
335.912	1119.25
336.14	1113.25
336.369	1082.25
336.597	1002.25
336.825	1000.25
337.053	1067.25
337.281	1128.25
337.51	1169.25
337.738	1163.25
337.966	1108.25
338.194	1008.25
338.422	1003.25
338.65	997.25
338.878	979.25
339.106	955.25
339.334	932.25
339.562	954.25
339.79	960.25
340.018	1026.25
340.246	1092.25
340.474	1063.25
340.702	1027.25
340.93	1051.25
341.158	1034.25
341.386	1022.25
341.614	995.25
341.842	994.25
342.07	990.25
342.298	1026.25
342.526	1018.25
342.754	1000.25
342.981	995.25
343.209	984.25
343.437	951.25
343.665	979.25
343.893	1021.25
344.12	1073.25
344.348	1073.25
344.576	999.25
344.804	991.25
345.031	994.25
345.259	976.25
345.487	952.25
345.714	920.25
345.942	937.25
346.17	914.25
346.397	955.25
346.625	932.25
346.853	902.25
347.08	888.25
347.308	906.25
347.535	926.25
347.763	968.25
347.99	953.25
348.218	885.25
348.445	921.25
348.673	948.25
348.9	989.25
349.128	996.25
349.355	1024.25
349.583	984.25
349.81	948.25
350.037	880.25
350.265	859.25
350.492	886.25
350.72	921.25
350.947	945.25
351.174	945.25
351.402	912.25
351.629	871.25
351.856	838.25
352.083	859.25
352.311	883.25
352.538	901.25
352.765	951.25
352.992	952.25
353.22	932.25
353.447	912.25
353.674	928.25
353.901	918.25
354.128	920.25
354.355	898.25
354.583	958.25
354.81	971.25
355.037	1003.25
355.264	965.25
355.491	936.25
355.718	926.25
355.945	903.25
356.172	893.25
356.399	923.25
356.626	906.25
356.853	962.25
357.08	1035.25
357.307	1127.25
357.534	1064.25
357.761	954.25
357.988	898.25
358.215	884.25
358.441	886.25
358.668	855.25
358.895	895.25
359.122	992.25
359.349	1055.25
359.576	1026.25
359.802	904.25
360.029	897.25
360.256	887.25
360.483	890.25
360.709	953.25
360.936	971.25
361.163	1019.25
361.39	1119.25
361.616	1189.25
361.843	1154.25
362.07	1088.25
362.296	968.25
362.523	897.25
362.749	926.25
362.976	965.25
363.203	960.25
363.429	918.25
363.656	904.25
363.882	953.25
364.109	1097.25
364.335	1131.25
364.562	1002.25
364.788	1001.25
365.015	914.25
365.241	878.25
365.468	946.25
365.694	999.25
365.92	1025.25
366.147	963.25
366.373	923.25
366.599	892.25
366.826	912.25
367.052	908.25
367.278	937.25
367.505	933.25
367.731	982.25
367.957	979.25
368.184	1018.25
368.41	1038.25
368.636	1062.25
368.862	1065.25
369.089	1089.25
369.315	1034.25
369.541	978.25
369.767	932.25
369.993	932.25
370.219	913.25
370.445	959.25
370.672	1040.25
370.898	1075.25
371.124	1059.25
371.35	996.25
371.576	1040.25
371.802	1062.25
372.028	1029.25
372.254	952.25
372.48	942.25
372.706	963.25
372.932	951.25
373.158	971.25
373.384	987.25
373.61	1040.25
373.835	1059.25
374.061	968.25
374.287	999.25
374.513	982.25
374.739	987.25
374.965	999.25
375.191	991.25
375.416	1024.25
375.642	1022.25
375.868	1100.25
376.094	1121.25
376.319	1078.25
376.545	1012.25
376.771	1030.25
376.997	1091.25
377.222	1043.25
377.448	1043.25
377.674	1034.25
377.899	1072.25
378.125	1112.25
378.35	1091.25
378.576	976.25
378.802	966.25
379.027	962.25
379.253	969.25
379.478	999.25
379.704	1008.25
379.929	992.25
380.155	1003.25
380.38	1019.25
380.606	1042.25
380.831	1014.25
381.057	1077.25
381.282	1069.25
381.507	1065.25
381.733	1127.25
381.958	1191.25
382.184	1102.25
382.409	1031.25
382.634	1073.25
382.86	1022.25
383.085	1026.25
383.31	1061.25
383.535	1165.25
383.761	1243.25
383.986	1193.25
384.211	1116.25
384.436	1125.25
384.662	1169.25
384.887	1199.25
385.112	1150.25
385.337	1175.25
385.562	1115.25
385.787	1148.25
386.013	1164.25
386.238	1174.25
386.463	1172.25
386.688	1246.25
386.913	1335.25
387.138	1237.25
387.363	1177.25
387.588	1175.25
387.813	1143.25
388.038	1204.25
388.263	1256.25
388.488	1183.25
388.713	1085.25
388.938	1080.25
389.163	1091.25
389.387	1116.25
389.612	1100.25
389.837	1154.25
390.062	1180.25
390.287	1154.25
390.512	1146.25
390.736	1141.25
390.961	1070.25
391.186	1098.25
391.411	1129.25
391.636	1124.25
391.86	1126.25
392.085	1132.25
392.31	1106.25
392.534	1131.25
392.759	1161.25
392.984	1113.25
393.208	1141.25
393.433	1211.25
393.658	1248.25
393.882	1249.25
394.107	1181.25
394.331	1128.25
394.556	1126.25
394.78	1167.25
395.005	1198.25
395.229	1230.25
395.454	1328.25
395.678	1296.25
395.903	1249.25
396.127	1214.25
396.352	1224.25
396.576	1258.25
396.801	1262.25
397.025	1251.25
397.249	1217.25
397.474	1209.25
397.698	1195.25
397.922	1291.25
398.147	1358.25
398.371	1371.25
398.595	1374.25
398.82	1318.25
399.044	1309.25
399.268	1370.25
399.492	1454.25
399.717	1488.25
399.941	1510.25
400.165	1483.25
400.389	1445.25
400.613	1460.25
400.837	1684.25
401.062	1819.25
401.286	1570.25
401.51	1449.25
401.734	1488.25
401.958	1457.25
402.182	1320.25
402.406	1272.25
402.63	1291.25
402.854	1296.25
403.078	1318.25
403.302	1323.25
403.526	1310.25
403.75	1349.25
403.974	1358.25
404.198	1377.25
404.422	1407.25
404.645	1472.25
404.869	1412.25
405.093	1317.25
405.317	1308.25
405.541	1348.25
405.765	1375.25
405.988	1364.25
406.212	1388.25
406.436	1415.25
406.66	1462.25
406.883	1480.25
407.107	1672.25
407.331	1817.25
407.555	1953.25
407.778	1746.25
408.002	1449.25
408.226	1396.25
408.449	1405.25
408.673	1379.25
408.896	1400.25
409.12	1400.25
409.344	1378.25
409.567	1370.25
409.791	1385.25
410.014	1411.25
410.238	1482.25
410.461	1519.25
410.685	1381.25
410.908	1319.25
411.132	1338.25
411.355	1356.25
411.578	1343.25
411.802	1354.25
412.025	1347.25
412.249	1342.25
412.472	1324.25
412.695	1351.25
412.919	1296.25
413.142	1323.25
413.365	1337.25
413.589	1323.25
413.812	1421.25
414.035	1445.25
414.258	1345.25
414.482	1303.25
414.705	1332.25
414.928	1282.25
415.151	1300.25
415.374	1298.25
415.597	1334.25
415.821	1357.25
416.044	1345.25
416.267	1355.25
416.49	1267.25
416.713	1275.25
416.936	1318.25
417.159	1394.25
417.382	1379.25
417.605	1290.25
417.828	1346.25
418.051	1329.25
418.274	1298.25
418.497	1284.25
418.72	1280.25
418.943	1298.25
419.166	1320.25
419.389	1405.25
419.611	1342.25
419.834	1298.25
420.057	1315.25
420.28	1300.25
420.503	1321.25
420.726	1338.25
420.948	1321.25
421.171	1264.25
421.394	1293.25
421.617	1341.25
421.839	1365.25
422.062	1367.25
422.285	1290.25
422.507	1284.25
422.73	1264.25
422.953	1252.25
423.175	1235.25
423.398	1307.25
423.621	1317.25
423.843	1262.25
424.066	1297.25
424.288	1369.25
424.511	1426.25
424.733	1412.25
424.956	1231.25
425.178	1265.25
425.401	1294.25
425.623	1272.25
425.846	1267.25
426.068	1351.25
426.291	1383.25
426.513	1310.25
426.735	1306.25
426.958	1442.25
427.18	1515.25
427.402	1371.25
427.625	1408.25
427.847	1395.25
428.069	1280.25
428.292	1262.25
428.514	1240.25
428.736	1262.25
428.958	1242.25
429.181	1273.25
429.403	1476.25
429.625	1766.25
429.847	1466.25
430.069	1343.25
430.292	1475.25
430.514	1485.25
430.736	1378.25
430.958	1393.25
431.18	1290.25
431.402	1211.25
431.624	1208.25
431.846	1191.25
432.068	1163.25
432.29	1143.25
432.512	1193.25
432.734	1273.25
432.956	1259.25
433.178	1339.25
433.4	1339.25
433.622	1288.25
433.844	1239.25
434.066	1203.25
434.287	1222.25
434.509	1228.25
434.731	1283.25
434.953	1381.25
435.175	1328.25
435.397	1315.25
435.618	1270.25
435.84	1259.25
436.062	1241.25
436.284	1282.25
436.505	1302.25
436.727	1336.25
436.949	1260.25
437.17	1251.25
437.392	1225.25
437.614	1211.25
437.835	1180.25
438.057	1238.25
438.278	1265.25
438.5	1218.25
438.721	1243.25
438.943	1241.25
439.165	1245.25
439.386	1241.25
439.608	1234.25
439.829	1273.25
440.05	1270.25
440.272	1244.25
440.493	1236.25
440.715	1270.25
440.936	1344.25
441.158	1445.25
441.379	1402.25
441.6	1354.25
441.822	1368.25
442.043	1361.25
442.264	1335.25
442.486	1299.25
442.707	1264.25
442.928	1233.25
443.149	1302.25
443.371	1347.25
443.592	1375.25
443.813	1400.25
444.034	1337.25
444.255	1370.25
444.476	1403.25
444.698	1444.25
444.919	1396.25
445.14	1494.25
445.361	1476.25
445.582	1481.25
445.803	1400.25
446.024	1403.25
446.245	1455.25
446.466	1394.25
446.687	1345.25
446.908	1358.25
447.129	1343.25
447.35	1319.25
447.571	1287.25
447.792	1282.25
448.013	1243.25
448.234	1288.25
448.455	1318.25
448.675	1314.25
448.896	1211.25
449.117	1230.25
449.338	1243.25
449.559	1288.25
449.779	1346.25
450	1444.25
450.221	1482.25
450.442	1434.25
450.662	1312.25
450.883	1202.25
451.104	1158.25
451.324	1195.25
451.545	1215.25
451.766	1191.25
451.986	1123.25
452.207	1144.25
452.428	1116.25
452.648	1082.25
452.869	1125.25
453.089	1152.25
453.31	1184.25
453.53	1178.25
453.751	1117.25
453.971	1040.25
454.192	1090.25
454.412	1170.25
454.633	1129.25
454.853	1103.25
455.073	1065.25
455.294	1105.25
455.514	1080.25
455.734	1088.25
455.955	1090.25
456.175	1070.25
456.395	1074.25
456.616	1082.25
456.836	1079.25
457.056	1105.25
457.276	1093.25
457.497	1067.25
457.717	1040.25
457.937	1033.25
458.157	1067.25
458.377	1075.25
458.598	1018.25
458.818	1076.25
459.038	1127.25
459.258	1134.25
459.478	1163.25
459.698	1099.25
459.918	1161.25
460.138	1228.25
460.358	1274.25
460.578	1247.25
460.798	1299.25
461.018	1366.25
461.238	1327.25
461.458	1290.25
461.678	1264.25
461.898	1223.25
462.118	1192.25
462.338	1249.25
462.558	1257.25
462.777	1269.25
462.997	1320.25
463.217	1404.25
463.437	1341.25
463.657	1252.25
463.876	1248.25
464.096	1282.25
464.316	1254.25
464.536	1294.25
464.755	1341.25
464.975	1301.25
465.195	1278.25
465.414	1281.25
465.634	1330.25
465.854	1318.25
466.073	1414.25
466.293	1333.25
466.512	1244.25
466.732	1230.25
466.951	1263.25
467.171	1238.25
467.391	1161.25
467.61	1187.25
467.829	1244.25
468.049	1360.25
468.268	1464.25
468.488	1357.25
468.707	1294.25
468.927	1222.25
469.146	1203.25
469.365	1233.25
469.585	1242.25
469.804	1222.25
470.023	1206.25
470.243	1263.25
470.462	1232.25
470.681	1224.25
470.901	1233.25
471.12	1235.25
471.339	1237.25
471.558	1175.25
471.777	1179.25
471.997	1201.25
472.216	1193.25
472.435	1130.25
472.654	1113.25
472.873	1179.25
473.092	1239.25
473.311	1176.25
473.53	1160.25
473.749	1145.25
473.968	1204.25
474.187	1239.25
474.406	1274.25
474.625	1200.25
474.844	1218.25
475.063	1215.25
475.282	1223.25
475.501	1164.25
475.72	1214.25
475.939	1296.25
476.158	1235.25
476.377	1223.25
476.596	1219.25
476.814	1211.25
477.033	1229.25
477.252	1285.25
477.471	1320.25
477.69	1284.25
477.908	1323.25
478.127	1380.25
478.346	1458.25
478.564	1428.25
478.783	1423.25
479.002	1438.25
479.22	1415.25
479.439	1484.25
479.658	1584.25
479.876	1572.25
480.095	1380.25
480.313	1309.25
480.532	1329.25
480.751	1357.25
480.969	1319.25
481.188	1268.25
481.406	1232.25
481.624	1238.25
481.843	1258.25
482.061	1299.25
482.28	1358.25
482.498	1335.25
482.717	1307.25
482.935	1287.25
483.153	1329.25
483.372	1385.25
483.59	1372.25
483.808	1387.25
484.027	1351.25
484.245	1478.25
484.463	1730.25
484.681	1885.25
484.9	1449.25
485.118	1365.25
485.336	1353.25
485.554	1383.25
485.772	1426.25
485.99	1356.25
486.209	1403.25
486.427	1394.25
486.645	1387.25
486.863	1436.25
487.081	1508.25
487.299	1490.25
487.517	1423.25
487.735	1479.25
487.953	1511.25
488.171	1488.25
488.389	1488.25
488.607	1434.25
488.825	1611.25
489.043	1573.25
489.261	1426.25
489.479	1482.25
489.696	1464.25
489.914	1435.25
490.132	1446.25
490.35	1503.25
490.568	1559.25
490.786	1544.25
491.003	1486.25
491.221	1545.25
491.439	1576.25
491.657	1587.25
491.874	1627.25
492.092	1688.25
492.31	1710.25
492.527	1636.25
492.745	1610.25
492.963	1621.25
493.18	1619.25
493.398	1718.25
