Data from WStandard_LampEnergy5.5LIBS07252019.E.O._I.C._HRD10591_16-09-09-920.txt Node
Date: Thu Jul 25 16:09:09 EDT 2019
User: cochatt
Spectrometer: HR+D1059
Trigger mode: 1
Integration Time (sec): 1.000000E-1
Scans to average: 1
Electric dark correction enabled: true
Nonlinearity correction enabled: false
Boxcar width: 0
XAxis mode: Wavelengths
Number of Pixels in Spectrum: 2048
>>>>>Begin Spectral Data<<<<<
223.165	2.69
223.4	2.69
223.635	2.69
223.869	-9.31
224.104	-17.31
224.338	-29.31
224.573	-17.31
224.808	-31.31
225.042	-8.31
225.277	-20.31
225.511	16.69
225.746	2.69
225.98	1.69
226.215	8.69
226.449	15.69
226.683	30.69
226.918	30.69
227.152	23.69
227.387	22.69
227.621	29.69
227.856	37.69
228.09	44.69
228.324	55.69
228.559	56.69
228.793	126.69
229.027	355.69
229.262	346.69
229.496	377.69
229.73	382.69
229.964	410.69
230.199	442.69
230.433	453.69
230.667	472.69
230.901	536.69
231.136	466.69
231.37	443.69
231.604	449.69
231.838	443.69
232.072	480.69
232.306	449.69
232.541	445.69
232.775	549.69
233.009	620.69
233.243	552.69
233.477	528.69
233.711	531.69
233.945	546.69
234.179	543.69
234.413	560.69
234.647	635.69
234.881	586.69
235.115	525.69
235.349	514.69
235.583	549.69
235.817	534.69
236.051	504.69
236.285	532.69
236.519	589.69
236.753	640.69
236.987	652.69
237.221	653.69
237.455	721.69
237.689	695.69
237.922	647.69
238.156	635.69
238.39	645.69
238.624	692.69
238.858	752.69
239.091	743.69
239.325	770.69
239.559	894.69
239.793	918.69
240.027	1008.69
240.26	990.69
240.494	770.69
240.728	670.69
240.961	698.69
241.195	706.69
241.429	784.69
241.662	799.69
241.896	727.69
242.13	734.69
242.363	820.69
242.597	884.69
242.83	827.69
243.064	838.69
243.298	920.69
243.531	893.69
243.765	896.69
243.998	887.69
244.232	773.69
244.465	768.69
244.699	762.69
244.932	884.69
245.166	994.69
245.399	926.69
245.633	886.69
245.866	854.69
246.099	908.69
246.333	918.69
246.566	934.69
246.8	1006.69
247.033	1126.69
247.266	1007.69
247.5	976.69
247.733	1040.69
247.966	1124.69
248.2	1234.69
248.433	1124.69
248.666	1161.69
248.899	1296.69
249.133	1487.69
249.366	1689.69
249.599	1396.69
249.832	1208.69
250.066	1210.69
250.299	1254.69
250.532	1158.69
250.765	1054.69
250.998	1131.69
251.231	1157.69
251.465	1226.69
251.698	1155.69
251.931	1188.69
252.164	1175.69
252.397	1227.69
252.63	1212.69
252.863	1061.69
253.096	1050.69
253.329	1115.69
253.562	1142.69
253.795	1215.69
254.028	1234.69
254.261	1149.69
254.494	1101.69
254.727	1076.69
254.96	1138.69
255.193	1243.69
255.426	1377.69
255.659	1567.69
255.892	1607.69
256.124	1360.69
256.357	1288.69
256.59	1397.69
256.823	1402.69
257.056	1373.69
257.289	1620.69
257.521	1873.69
257.754	1647.69
257.987	1529.69
258.22	1743.69
258.452	1704.69
258.685	1373.69
258.918	1315.69
259.151	1354.69
259.383	1298.69
259.616	1171.69
259.849	1249.69
260.081	1355.69
260.314	1505.69
260.547	1652.69
260.779	1667.69
261.012	1572.69
261.244	1415.69
261.477	1300.69
261.71	1382.69
261.942	1383.69
262.175	1346.69
262.407	1394.69
262.64	1338.69
262.872	1281.69
263.105	1225.69
263.337	1266.69
263.57	1278.69
263.802	1251.69
264.035	1191.69
264.267	1137.69
264.499	1124.69
264.732	1195.69
264.964	1258.69
265.197	1327.69
265.429	1379.69
265.661	1538.69
265.894	1720.69
266.126	1770.69
266.358	1544.69
266.591	1584.69
266.823	1821.69
267.055	1611.69
267.287	1524.69
267.52	1496.69
267.752	1534.69
267.984	1503.69
268.216	1540.69
268.448	1612.69
268.681	1576.69
268.913	1494.69
269.145	1377.69
269.377	1371.69
269.609	1468.69
269.841	1686.69
270.073	1933.69
270.306	2207.69
270.538	2330.69
270.77	2014.69
271.002	1687.69
271.234	1635.69
271.466	1606.69
271.698	1758.69
271.93	2132.69
272.162	2141.69
272.394	1970.69
272.626	1862.69
272.858	1648.69
273.09	1418.69
273.322	1422.69
273.553	1369.69
273.785	1370.69
274.017	1430.69
274.249	1574.69
274.481	1550.69
274.713	1366.69
274.945	1398.69
275.176	1413.69
275.408	1391.69
275.64	1348.69
275.872	1306.69
276.104	1385.69
276.335	1601.69
276.567	1873.69
276.799	1933.69
277.031	1686.69
277.262	1594.69
277.494	1642.69
277.726	1815.69
277.957	1784.69
278.189	1635.69
278.421	1479.69
278.652	1438.69
278.884	1408.69
279.115	1437.69
279.347	1493.69
279.579	1408.69
279.81	1424.69
280.042	1571.69
280.273	1737.69
280.505	1720.69
280.736	1747.69
280.968	1694.69
281.199	1449.69
281.431	1413.69
281.662	1444.69
281.894	1415.69
282.125	1458.69
282.356	1525.69
282.588	1478.69
282.819	1490.69
283.051	1639.69
283.282	1760.69
283.513	1699.69
283.745	1481.69
283.976	1387.69
284.207	1401.69
284.439	1447.69
284.67	1503.69
284.901	1471.69
285.132	1524.69
285.364	1507.69
285.595	1524.69
285.826	1485.69
286.057	1471.69
286.288	1477.69
286.52	1552.69
286.751	1662.69
286.982	1719.69
287.213	1523.69
287.444	1379.69
287.675	1400.69
287.906	1487.69
288.138	1606.69
288.369	1598.69
288.6	1482.69
288.831	1450.69
289.062	1448.69
289.293	1515.69
289.524	1498.69
289.755	1503.69
289.986	1561.69
290.217	1409.69
290.448	1463.69
290.679	1521.69
290.91	1478.69
291.141	1570.69
291.371	1626.69
291.602	1591.69
291.833	1601.69
292.064	1590.69
292.295	1600.69
292.526	1610.69
292.757	1700.69
292.987	1593.69
293.218	1523.69
293.449	1606.69
293.68	1798.69
293.91	1977.69
294.141	1832.69
294.372	1755.69
294.603	1824.69
294.833	1863.69
295.064	1775.69
295.295	1611.69
295.525	1558.69
295.756	1452.69
295.987	1418.69
296.217	1480.69
296.448	1446.69
296.679	1473.69
296.909	1496.69
297.14	1438.69
297.37	1475.69
297.601	1577.69
297.831	1685.69
298.062	1706.69
298.292	1567.69
298.523	1477.69
298.753	1487.69
298.984	1521.69
299.214	1511.69
299.445	1583.69
299.675	1580.69
299.905	1578.69
300.136	1542.69
300.366	1511.69
300.597	1470.69
300.827	1468.69
301.057	1538.69
301.288	1598.69
301.518	1565.69
301.748	1637.69
301.979	1707.69
302.209	1762.69
302.439	1826.69
302.669	1955.69
302.9	1785.69
303.13	1572.69
303.36	1633.69
303.59	1664.69
303.82	1602.69
304.051	1643.69
304.281	1647.69
304.511	1619.69
304.741	1700.69
304.971	1860.69
305.201	2066.69
305.431	1921.69
305.661	1579.69
305.891	1416.69
306.121	1433.69
306.352	1479.69
306.582	1562.69
306.812	1625.69
307.042	1809.69
307.272	1803.69
307.502	1819.69
307.731	1952.69
307.961	2070.69
308.191	1944.69
308.421	1673.69
308.651	1606.69
308.881	1555.69
309.111	1539.69
309.341	1505.69
309.571	1552.69
309.8	1552.69
310.03	1566.69
310.26	1522.69
310.49	1519.69
310.72	1543.69
310.949	1607.69
311.179	1651.69
311.409	1636.69
311.639	1583.69
311.868	1577.69
312.098	1579.69
312.328	1586.69
312.557	1570.69
312.787	1596.69
313.017	1674.69
313.246	1666.69
313.476	1626.69
313.706	1673.69
313.935	1642.69
314.165	1661.69
314.394	1718.69
314.624	1822.69
314.853	1879.69
315.083	1991.69
315.312	2021.69
315.542	1902.69
315.771	1671.69
316.001	1705.69
316.23	1784.69
316.46	1757.69
316.689	1745.69
316.919	1658.69
317.148	1599.69
317.377	1608.69
317.607	1721.69
317.836	1932.69
318.065	1999.69
318.295	1926.69
318.524	1829.69
318.753	1755.69
318.983	1716.69
319.212	1708.69
319.441	1690.69
319.67	1670.69
319.9	1729.69
320.129	1822.69
320.358	1865.69
320.587	1933.69
320.816	1896.69
321.046	1903.69
321.275	1786.69
321.504	1753.69
321.733	1941.69
321.962	1885.69
322.191	1720.69
322.42	1703.69
322.649	1702.69
322.878	1660.69
323.108	1743.69
323.337	1786.69
323.566	1770.69
323.795	1751.69
324.024	1805.69
324.253	1730.69
324.482	1692.69
324.71	1690.69
324.939	1619.69
325.168	1637.69
325.397	1658.69
325.626	1753.69
325.855	1751.69
326.084	1710.69
326.313	1718.69
326.542	1723.69
326.77	1802.69
326.999	1804.69
327.228	1723.69
327.457	1657.69
327.686	1628.69
327.914	1675.69
328.143	1712.69
328.372	1714.69
328.6	1698.69
328.829	1682.69
329.058	1659.69
329.287	1642.69
329.515	1714.69
329.744	1754.69
329.972	1766.69
330.201	1884.69
330.43	1864.69
330.658	1843.69
330.887	1798.69
331.115	1828.69
331.344	1819.69
331.572	1809.69
331.801	1791.69
332.03	1753.69
332.258	1830.69
332.486	1777.69
332.715	1874.69
332.943	1892.69
333.172	1814.69
333.4	1857.69
333.629	1876.69
333.857	1985.69
334.085	2170.69
334.314	2398.69
334.542	2630.69
334.771	2428.69
334.999	2150.69
335.227	2068.69
335.455	1976.69
335.684	1907.69
335.912	1944.69
336.14	2027.69
336.369	1977.69
336.597	1870.69
336.825	1811.69
337.053	1875.69
337.281	1978.69
337.51	2038.69
337.738	2112.69
337.966	2076.69
338.194	1889.69
338.422	1844.69
338.65	1793.69
338.878	1816.69
339.106	1752.69
339.334	1736.69
339.562	1714.69
339.79	1722.69
340.018	1851.69
340.246	1897.69
340.474	1905.69
340.702	1848.69
340.93	1880.69
341.158	1820.69
341.386	1819.69
341.614	1830.69
341.842	1783.69
342.07	1765.69
342.298	1770.69
342.526	1808.69
342.754	1766.69
342.981	1763.69
343.209	1759.69
343.437	1733.69
343.665	1763.69
343.893	1811.69
344.12	1922.69
344.348	1936.69
344.576	1893.69
344.804	1772.69
345.031	1790.69
345.259	1811.69
345.487	1758.69
345.714	1654.69
345.942	1641.69
346.17	1627.69
346.397	1680.69
346.625	1730.69
346.853	1636.69
347.08	1610.69
347.308	1627.69
347.535	1637.69
347.763	1717.69
347.99	1710.69
348.218	1619.69
348.445	1611.69
348.673	1636.69
348.9	1678.69
349.128	1791.69
349.355	1851.69
349.583	1776.69
349.81	1671.69
350.037	1550.69
350.265	1558.69
350.492	1592.69
350.72	1586.69
350.947	1637.69
351.174	1747.69
351.402	1657.69
351.629	1563.69
351.856	1542.69
352.083	1516.69
352.311	1586.69
352.538	1618.69
352.765	1640.69
352.992	1696.69
353.22	1623.69
353.447	1624.69
353.674	1632.69
353.901	1642.69
354.128	1577.69
354.355	1600.69
354.583	1682.69
354.81	1700.69
355.037	1723.69
355.264	1698.69
355.491	1650.69
355.718	1666.69
355.945	1656.69
356.172	1630.69
356.399	1594.69
356.626	1594.69
356.853	1655.69
357.08	1761.69
357.307	1920.69
357.534	1956.69
357.761	1716.69
357.988	1618.69
358.215	1536.69
358.441	1598.69
358.668	1571.69
358.895	1577.69
359.122	1665.69
359.349	1842.69
359.576	1834.69
359.802	1688.69
360.029	1604.69
360.256	1593.69
360.483	1590.69
360.709	1621.69
360.936	1697.69
361.163	1734.69
361.39	1884.69
361.616	2054.69
361.843	2011.69
362.07	1947.69
362.296	1693.69
362.523	1634.69
362.749	1606.69
362.976	1659.69
363.203	1697.69
363.429	1635.69
363.656	1583.69
363.882	1638.69
364.109	1806.69
364.335	1942.69
364.562	1806.69
364.788	1709.69
365.015	1666.69
365.241	1594.69
365.468	1686.69
365.694	1725.69
365.92	1745.69
366.147	1716.69
366.373	1600.69
366.599	1566.69
366.826	1571.69
367.052	1625.69
367.278	1587.69
367.505	1640.69
367.731	1700.69
367.957	1682.69
368.184	1729.69
368.41	1810.69
368.636	1850.69
368.862	1827.69
369.089	1847.69
369.315	1808.69
369.541	1714.69
369.767	1670.69
369.993	1640.69
370.219	1618.69
370.445	1689.69
370.672	1788.69
370.898	1798.69
371.124	1859.69
371.35	1748.69
371.576	1803.69
371.802	1856.69
372.028	1723.69
372.254	1714.69
372.48	1688.69
372.706	1634.69
372.932	1665.69
373.158	1670.69
373.384	1695.69
373.61	1730.69
373.835	1792.69
374.061	1726.69
374.287	1692.69
374.513	1718.69
374.739	1768.69
374.965	1766.69
375.191	1760.69
375.416	1794.69
375.642	1766.69
375.868	1892.69
376.094	1909.69
376.319	1879.69
376.545	1745.69
376.771	1694.69
376.997	1822.69
377.222	1844.69
377.448	1790.69
377.674	1818.69
377.899	1808.69
378.125	1909.69
378.35	1878.69
378.576	1720.69
378.802	1687.69
379.027	1655.69
379.253	1695.69
379.478	1700.69
379.704	1738.69
379.929	1715.69
380.155	1719.69
380.38	1740.69
380.606	1747.69
380.831	1744.69
381.057	1805.69
381.282	1858.69
381.507	1802.69
381.733	1912.69
381.958	1962.69
382.184	1838.69
382.409	1774.69
382.634	1807.69
382.86	1761.69
383.085	1760.69
383.31	1869.69
383.535	1966.69
383.761	2087.69
383.986	2017.69
384.211	1948.69
384.436	1900.69
384.662	2035.69
384.887	2084.69
385.112	1965.69
385.337	2033.69
385.562	1974.69
385.787	1999.69
386.013	2031.69
386.238	2031.69
386.463	1991.69
386.688	2118.69
386.913	2257.69
387.138	2226.69
387.363	2092.69
387.588	2005.69
387.813	2011.69
388.038	2010.69
388.263	2127.69
388.488	2066.69
388.713	1898.69
388.938	1872.69
389.163	1896.69
389.387	1924.69
389.612	1946.69
389.837	2011.69
390.062	2015.69
390.287	1983.69
390.512	1979.69
390.736	1950.69
390.961	1906.69
391.186	1859.69
391.411	1920.69
391.636	1954.69
391.86	1988.69
392.085	1942.69
392.31	1954.69
392.534	1975.69
392.759	2000.69
392.984	1962.69
393.208	2007.69
393.433	2065.69
393.658	2089.69
393.882	2107.69
394.107	2004.69
394.331	1911.69
394.556	1940.69
394.78	1984.69
395.005	2034.69
395.229	2131.69
395.454	2245.69
395.678	2254.69
395.903	2185.69
396.127	2069.69
396.352	2075.69
396.576	2171.69
396.801	2174.69
397.025	2140.69
397.249	2143.69
397.474	2121.69
397.698	2129.69
397.922	2172.69
398.147	2274.69
398.371	2310.69
398.595	2314.69
398.82	2243.69
399.044	2303.69
399.268	2370.69
399.492	2584.69
399.717	2650.69
399.941	2710.69
400.165	2641.69
400.389	2526.69
400.613	2480.69
400.837	2704.69
401.062	3145.69
401.286	2704.69
401.51	2428.69
401.734	2553.69
401.958	2463.69
402.182	2293.69
402.406	2276.69
402.63	2194.69
402.854	2249.69
403.078	2290.69
403.302	2338.69
403.526	2369.69
403.75	2358.69
403.974	2382.69
404.198	2354.69
404.422	2451.69
404.645	2547.69
404.869	2501.69
405.093	2317.69
405.317	2304.69
405.541	2374.69
405.765	2363.69
405.988	2323.69
406.212	2408.69
406.436	2464.69
406.66	2517.69
406.883	2494.69
407.107	2833.69
407.331	3039.69
407.555	3297.69
407.778	3035.69
408.002	2552.69
408.226	2461.69
408.449	2459.69
408.673	2363.69
408.896	2430.69
409.12	2459.69
409.344	2386.69
409.567	2358.69
409.791	2374.69
410.014	2429.69
410.238	2536.69
410.461	2680.69
410.685	2412.69
410.908	2299.69
411.132	2312.69
411.355	2342.69
411.578	2305.69
411.802	2288.69
412.025	2347.69
412.249	2290.69
412.472	2200.69
412.695	2173.69
412.919	2243.69
413.142	2250.69
413.365	2257.69
413.589	2326.69
413.812	2390.69
414.035	2443.69
414.258	2276.69
414.482	2246.69
414.705	2279.69
414.928	2217.69
415.151	2227.69
415.374	2251.69
415.597	2325.69
415.821	2275.69
416.044	2405.69
416.267	2406.69
416.49	2163.69
416.713	2126.69
416.936	2199.69
417.159	2298.69
417.382	2346.69
417.605	2168.69
417.828	2275.69
418.051	2295.69
418.274	2237.69
418.497	2172.69
418.72	2190.69
418.943	2170.69
419.166	2315.69
419.389	2408.69
419.611	2246.69
419.834	2196.69
420.057	2263.69
420.28	2162.69
420.503	2149.69
420.726	2222.69
420.948	2201.69
421.171	2158.69
421.394	2140.69
421.617	2242.69
421.839	2210.69
422.062	2189.69
422.285	2096.69
422.507	2158.69
422.73	2090.69
422.953	2056.69
423.175	2081.69
423.398	2110.69
423.621	2161.69
423.843	2190.69
424.066	2220.69
424.288	2243.69
424.511	2307.69
424.733	2243.69
424.956	2051.69
425.178	2075.69
425.401	2067.69
425.623	2109.69
425.846	2023.69
426.068	2217.69
426.291	2243.69
426.513	2178.69
426.735	2166.69
426.958	2341.69
427.18	2480.69
427.402	2231.69
427.625	2343.69
427.847	2335.69
428.069	2152.69
428.292	2083.69
428.514	2040.69
428.736	2009.69
428.958	2094.69
429.181	2099.69
429.403	2370.69
429.625	2937.69
429.847	2546.69
430.069	2167.69
430.292	2327.69
430.514	2419.69
430.736	2249.69
430.958	2383.69
431.18	2242.69
431.402	2148.69
431.624	2079.69
431.846	2094.69
432.068	2031.69
432.29	2083.69
432.512	2098.69
432.734	2128.69
432.956	2142.69
433.178	2248.69
433.4	2228.69
433.622	2240.69
433.844	2074.69
434.066	2057.69
434.287	2030.69
434.509	2153.69
434.731	2232.69
434.953	2393.69
435.175	2295.69
435.397	2175.69
435.618	2224.69
435.84	2221.69
436.062	2198.69
436.284	2171.69
436.505	2195.69
436.727	2254.69
436.949	2204.69
437.17	2124.69
437.392	2101.69
437.614	2122.69
437.835	2054.69
438.057	2187.69
438.278	2284.69
438.5	2146.69
438.721	2055.69
438.943	2054.69
439.165	2072.69
439.386	2002.69
439.608	2024.69
439.829	2064.69
440.05	2048.69
440.272	2033.69
440.493	2031.69
440.715	2032.69
440.936	2216.69
441.158	2433.69
441.379	2363.69
441.6	2296.69
441.822	2257.69
442.043	2226.69
442.264	2215.69
442.486	2108.69
442.707	2052.69
442.928	2066.69
443.149	2142.69
443.371	2247.69
443.592	2335.69
443.813	2226.69
444.034	2233.69
444.255	2268.69
444.476	2355.69
444.698	2396.69
444.919	2291.69
445.14	2392.69
445.361	2390.69
445.582	2479.69
445.803	2403.69
446.024	2294.69
446.245	2366.69
446.466	2266.69
446.687	2151.69
446.908	2162.69
447.129	2066.69
447.35	2138.69
447.571	2152.69
447.792	2026.69
448.013	2025.69
448.234	2071.69
448.455	2132.69
448.675	2163.69
448.896	1979.69
449.117	1963.69
449.338	2016.69
449.559	2138.69
449.779	2277.69
450	2466.69
450.221	2672.69
450.442	2574.69
450.662	2231.69
450.883	1993.69
451.104	1947.69
451.324	1997.69
451.545	2076.69
451.766	2008.69
451.986	1948.69
452.207	1942.69
452.428	1908.69
452.648	1854.69
452.869	1914.69
453.089	2056.69
453.31	2020.69
453.53	2089.69
453.751	2035.69
453.971	1871.69
454.192	1968.69
454.412	2096.69
454.633	1990.69
454.853	1924.69
455.073	1828.69
455.294	1789.69
455.514	1792.69
455.734	1868.69
455.955	1914.69
456.175	1867.69
456.395	1867.69
456.616	1904.69
456.836	1953.69
457.056	1918.69
457.276	1863.69
457.497	1845.69
457.717	1804.69
457.937	1850.69
458.157	1925.69
458.377	1874.69
458.598	1854.69
458.818	1887.69
459.038	1985.69
459.258	2114.69
459.478	2120.69
459.698	2023.69
459.918	2082.69
460.138	2180.69
460.358	2236.69
460.578	2249.69
460.798	2343.69
461.018	2478.69
461.238	2298.69
461.458	2243.69
461.678	2279.69
461.898	2186.69
462.118	2196.69
462.338	2257.69
462.558	2230.69
462.777	2259.69
462.997	2310.69
463.217	2466.69
463.437	2400.69
463.657	2292.69
463.876	2256.69
464.096	2222.69
464.316	2222.69
464.536	2331.69
464.755	2310.69
464.975	2367.69
465.195	2265.69
465.414	2334.69
465.634	2364.69
465.854	2201.69
466.073	2360.69
466.293	2282.69
466.512	2072.69
466.732	2041.69
466.951	2158.69
467.171	2102.69
467.391	2041.69
467.61	1988.69
467.829	2010.69
468.049	2151.69
468.268	2408.69
468.488	2281.69
468.707	2122.69
468.927	2079.69
469.146	1978.69
469.365	1960.69
469.585	1984.69
469.804	2006.69
470.023	2034.69
470.243	2030.69
470.462	2051.69
470.681	1997.69
470.901	2086.69
471.12	2039.69
471.339	1954.69
471.558	1969.69
471.777	1959.69
471.997	1998.69
472.216	1994.69
472.435	1932.69
472.654	1974.69
472.873	2016.69
473.092	2162.69
473.311	2064.69
473.53	1945.69
473.749	1932.69
473.968	2046.69
474.187	2118.69
474.406	2230.69
474.625	2135.69
474.844	2025.69
475.063	2024.69
475.282	2140.69
475.501	2064.69
475.72	2039.69
475.939	2182.69
476.158	2122.69
476.377	2104.69
476.596	2054.69
476.814	2130.69
477.033	2141.69
477.252	2219.69
477.471	2319.69
477.69	2166.69
477.908	2171.69
478.127	2284.69
478.346	2518.69
478.564	2467.69
478.783	2429.69
479.002	2480.69
479.22	2435.69
479.439	2526.69
479.658	2858.69
479.876	2832.69
480.095	2448.69
480.313	2360.69
480.532	2266.69
480.751	2286.69
480.969	2336.69
481.188	2288.69
481.406	2308.69
481.624	2245.69
481.843	2277.69
482.061	2330.69
482.28	2374.69
482.498	2406.69
482.717	2362.69
482.935	2270.69
483.153	2267.69
483.372	2279.69
483.59	2230.69
483.808	2289.69
484.027	2304.69
484.245	2425.69
484.463	2798.69
484.681	3246.69
484.9	2543.69
485.118	2338.69
485.336	2318.69
485.554	2410.69
485.772	2520.69
485.99	2462.69
486.209	2473.69
486.427	2473.69
486.645	2450.69
486.863	2414.69
487.081	2467.69
487.299	2517.69
487.517	2517.69
