Data from WStandard_LampEnergy5.5LIBS07252019.E.O._I.C._HRD10591_16-09-25-921.txt Node
Date: Thu Jul 25 16:09:25 EDT 2019
User: cochatt
Spectrometer: HR+D1059
Trigger mode: 1
Integration Time (sec): 1.000000E-1
Scans to average: 1
Electric dark correction enabled: true
Nonlinearity correction enabled: false
Boxcar width: 0
XAxis mode: Wavelengths
Number of Pixels in Spectrum: 2048
>>>>>Begin Spectral Data<<<<<
223.165	-18.25
223.4	-18.25
223.635	-18.25
223.869	-22.25
224.104	-13.25
224.338	-17.25
224.573	-4.25
224.808	-10.25
225.042	-14.25
225.277	-7.25
225.511	-7.25
225.746	3.75
225.98	-2.25
226.215	13.75
226.449	17.75
226.683	21.75
226.918	26.75
227.152	32.75
227.387	23.75
227.621	41.75
227.856	27.75
228.09	50.75
228.324	44.75
228.559	70.75
228.793	131.75
229.027	338.75
229.262	341.75
229.496	356.75
229.73	377.75
229.964	420.75
230.199	429.75
230.433	447.75
230.667	452.75
230.901	499.75
231.136	461.75
231.37	436.75
231.604	429.75
231.838	440.75
232.072	476.75
232.306	422.75
232.541	454.75
232.775	529.75
233.009	562.75
233.243	561.75
233.477	500.75
233.711	532.75
233.945	544.75
234.179	512.75
234.413	560.75
234.647	603.75
234.881	605.75
235.115	533.75
235.349	532.75
235.583	532.75
235.817	570.75
236.051	522.75
236.285	527.75
236.519	566.75
236.753	619.75
236.987	664.75
237.221	620.75
237.455	693.75
237.689	681.75
237.922	646.75
238.156	624.75
238.39	634.75
238.624	685.75
238.858	707.75
239.091	743.75
239.325	763.75
239.559	870.75
239.793	923.75
240.027	994.75
240.26	1001.75
240.494	711.75
240.728	651.75
240.961	693.75
241.195	706.75
241.429	763.75
241.662	762.75
241.896	704.75
242.13	776.75
242.363	804.75
242.597	875.75
242.83	838.75
243.064	837.75
243.298	887.75
243.531	878.75
243.765	877.75
243.998	872.75
244.232	759.75
244.465	736.75
244.699	757.75
244.932	850.75
245.166	976.75
245.399	936.75
245.633	867.75
245.866	856.75
246.099	900.75
246.333	888.75
246.566	909.75
246.8	992.75
247.033	1120.75
247.266	1014.75
247.5	1018.75
247.733	1002.75
247.966	1078.75
248.2	1174.75
248.433	1115.75
248.666	1155.75
248.899	1237.75
249.133	1460.75
249.366	1638.75
249.599	1340.75
249.832	1171.75
250.066	1201.75
250.299	1230.75
250.532	1129.75
250.765	1020.75
250.998	1100.75
251.231	1144.75
251.465	1169.75
251.698	1074.75
251.931	1125.75
252.164	1167.75
252.397	1199.75
252.63	1189.75
252.863	1068.75
253.096	1042.75
253.329	1061.75
253.562	1129.75
253.795	1203.75
254.028	1216.75
254.261	1112.75
254.494	1103.75
254.727	1066.75
254.96	1074.75
255.193	1174.75
255.426	1354.75
255.659	1551.75
255.892	1632.75
256.124	1326.75
256.357	1256.75
256.59	1335.75
256.823	1353.75
257.056	1321.75
257.289	1605.75
257.521	1794.75
257.754	1632.75
257.987	1494.75
258.22	1680.75
258.452	1630.75
258.685	1339.75
258.918	1273.75
259.151	1320.75
259.383	1270.75
259.616	1118.75
259.849	1148.75
260.081	1318.75
260.314	1496.75
260.547	1610.75
260.779	1652.75
261.012	1525.75
261.244	1373.75
261.477	1274.75
261.71	1351.75
261.942	1345.75
262.175	1300.75
262.407	1408.75
262.64	1328.75
262.872	1236.75
263.105	1165.75
263.337	1206.75
263.57	1254.75
263.802	1222.75
264.035	1155.75
264.267	1111.75
264.499	1054.75
264.732	1161.75
264.964	1210.75
265.197	1267.75
265.429	1317.75
265.661	1474.75
265.894	1645.75
266.126	1688.75
266.358	1522.75
266.591	1587.75
266.823	1696.75
267.055	1502.75
267.287	1501.75
267.52	1490.75
267.752	1484.75
267.984	1454.75
268.216	1568.75
268.448	1572.75
268.681	1566.75
268.913	1458.75
269.145	1335.75
269.377	1316.75
269.609	1414.75
269.841	1654.75
270.073	1942.75
270.306	2107.75
270.538	2324.75
270.77	1941.75
271.002	1625.75
271.234	1540.75
271.466	1531.75
271.698	1713.75
271.93	2080.75
272.162	2089.75
272.394	1892.75
272.626	1839.75
272.858	1582.75
273.09	1390.75
273.322	1377.75
273.553	1341.75
273.785	1337.75
274.017	1372.75
274.249	1462.75
274.481	1514.75
274.713	1378.75
274.945	1336.75
275.176	1344.75
275.408	1368.75
275.64	1298.75
275.872	1312.75
276.104	1388.75
276.335	1561.75
276.567	1786.75
276.799	1808.75
277.031	1633.75
277.262	1519.75
277.494	1585.75
277.726	1777.75
277.957	1741.75
278.189	1600.75
278.421	1476.75
278.652	1401.75
278.884	1404.75
279.115	1397.75
279.347	1432.75
279.579	1372.75
279.81	1347.75
280.042	1557.75
280.273	1734.75
280.505	1669.75
280.736	1693.75
280.968	1649.75
281.199	1449.75
281.431	1385.75
281.662	1365.75
281.894	1405.75
282.125	1404.75
282.356	1466.75
282.588	1466.75
282.819	1453.75
283.051	1594.75
283.282	1727.75
283.513	1718.75
283.745	1486.75
283.976	1385.75
284.207	1392.75
284.439	1373.75
284.67	1427.75
284.901	1484.75
285.132	1490.75
285.364	1478.75
285.595	1509.75
285.826	1434.75
286.057	1459.75
286.288	1425.75
286.52	1475.75
286.751	1575.75
286.982	1667.75
287.213	1554.75
287.444	1357.75
287.675	1365.75
287.906	1463.75
288.138	1588.75
288.369	1531.75
288.6	1439.75
288.831	1381.75
289.062	1396.75
289.293	1432.75
289.524	1436.75
289.755	1543.75
289.986	1524.75
290.217	1430.75
290.448	1451.75
290.679	1467.75
290.91	1452.75
291.141	1492.75
291.371	1565.75
291.602	1542.75
291.833	1533.75
292.064	1614.75
292.295	1539.75
292.526	1607.75
292.757	1692.75
292.987	1586.75
293.218	1495.75
293.449	1617.75
293.68	1792.75
293.91	1928.75
294.141	1784.75
294.372	1661.75
294.603	1766.75
294.833	1859.75
295.064	1748.75
295.295	1574.75
295.525	1546.75
295.756	1428.75
295.987	1362.75
296.217	1362.75
296.448	1445.75
296.679	1404.75
296.909	1424.75
297.14	1427.75
297.37	1439.75
297.601	1513.75
297.831	1638.75
298.062	1646.75
298.292	1510.75
298.523	1444.75
298.753	1464.75
298.984	1480.75
299.214	1470.75
299.445	1487.75
299.675	1549.75
299.905	1575.75
300.136	1506.75
300.366	1478.75
300.597	1433.75
300.827	1400.75
301.057	1492.75
301.288	1568.75
301.518	1538.75
301.748	1579.75
301.979	1667.75
302.209	1689.75
302.439	1805.75
302.669	1898.75
302.9	1787.75
303.13	1555.75
303.36	1582.75
303.59	1582.75
303.82	1556.75
304.051	1574.75
304.281	1578.75
304.511	1598.75
304.741	1657.75
304.971	1819.75
305.201	1991.75
305.431	1814.75
305.661	1542.75
305.891	1413.75
306.121	1400.75
306.352	1413.75
306.582	1491.75
306.812	1619.75
307.042	1773.75
307.272	1737.75
307.502	1752.75
307.731	1900.75
307.961	2060.75
308.191	1864.75
308.421	1659.75
308.651	1516.75
308.881	1503.75
309.111	1510.75
309.341	1501.75
309.571	1474.75
309.8	1498.75
310.03	1487.75
310.26	1491.75
310.49	1501.75
310.72	1495.75
310.949	1619.75
311.179	1628.75
311.409	1570.75
311.639	1506.75
311.868	1505.75
312.098	1547.75
312.328	1560.75
312.557	1509.75
312.787	1586.75
313.017	1580.75
313.246	1597.75
313.476	1567.75
313.706	1649.75
313.935	1648.75
314.165	1638.75
314.394	1676.75
314.624	1762.75
314.853	1806.75
315.083	1885.75
315.312	1984.75
315.542	1884.75
315.771	1646.75
316.001	1639.75
316.23	1754.75
316.46	1721.75
316.689	1690.75
316.919	1594.75
317.148	1528.75
317.377	1601.75
317.607	1679.75
317.836	1876.75
318.065	1950.75
318.295	1889.75
318.524	1767.75
318.753	1725.75
318.983	1704.75
319.212	1675.75
319.441	1661.75
319.67	1594.75
319.9	1628.75
320.129	1749.75
320.358	1860.75
320.587	1857.75
320.816	1841.75
321.046	1798.75
321.275	1677.75
321.504	1712.75
321.733	1857.75
321.962	1838.75
322.191	1668.75
322.42	1682.75
322.649	1681.75
322.878	1644.75
323.108	1652.75
323.337	1731.75
323.566	1735.75
323.795	1698.75
324.024	1712.75
324.253	1668.75
324.482	1711.75
324.71	1656.75
324.939	1590.75
325.168	1593.75
325.397	1667.75
325.626	1702.75
325.855	1724.75
326.084	1645.75
326.313	1622.75
326.542	1692.75
326.77	1726.75
326.999	1754.75
327.228	1703.75
327.457	1568.75
327.686	1560.75
327.914	1620.75
328.143	1665.75
328.372	1663.75
328.6	1667.75
328.829	1653.75
329.058	1620.75
329.287	1594.75
329.515	1686.75
329.744	1672.75
329.972	1745.75
330.201	1837.75
330.43	1829.75
330.658	1751.75
330.887	1760.75
331.115	1721.75
331.344	1779.75
331.572	1742.75
331.801	1745.75
332.03	1755.75
332.258	1769.75
332.486	1805.75
332.715	1823.75
332.943	1778.75
333.172	1717.75
333.4	1793.75
333.629	1808.75
333.857	1929.75
334.085	2077.75
334.314	2317.75
334.542	2578.75
334.771	2348.75
334.999	2106.75
335.227	1964.75
335.455	1904.75
335.684	1879.75
335.912	1896.75
336.14	1963.75
336.369	1880.75
336.597	1807.75
336.825	1792.75
337.053	1833.75
337.281	1927.75
337.51	2003.75
337.738	2086.75
337.966	1996.75
338.194	1856.75
338.422	1763.75
338.65	1784.75
338.878	1738.75
339.106	1672.75
339.334	1674.75
339.562	1650.75
339.79	1667.75
340.018	1768.75
340.246	1828.75
340.474	1896.75
340.702	1833.75
340.93	1837.75
341.158	1845.75
341.386	1757.75
341.614	1744.75
341.842	1742.75
342.07	1741.75
342.298	1724.75
342.526	1778.75
342.754	1717.75
342.981	1697.75
343.209	1704.75
343.437	1705.75
343.665	1725.75
343.893	1776.75
344.12	1883.75
344.348	1852.75
344.576	1795.75
344.804	1755.75
345.031	1719.75
345.259	1742.75
345.487	1677.75
345.714	1662.75
345.942	1612.75
346.17	1604.75
346.397	1634.75
346.625	1670.75
346.853	1608.75
347.08	1559.75
347.308	1596.75
347.535	1616.75
347.763	1643.75
347.99	1622.75
348.218	1589.75
348.445	1604.75
348.673	1611.75
348.9	1662.75
349.128	1700.75
349.355	1736.75
349.583	1716.75
349.81	1626.75
350.037	1573.75
350.265	1538.75
350.492	1532.75
350.72	1578.75
350.947	1618.75
351.174	1689.75
351.402	1578.75
351.629	1525.75
351.856	1515.75
352.083	1473.75
352.311	1508.75
352.538	1580.75
352.765	1612.75
352.992	1640.75
353.22	1592.75
353.447	1586.75
353.674	1593.75
353.901	1602.75
354.128	1617.75
354.355	1566.75
354.583	1613.75
354.81	1705.75
355.037	1650.75
355.264	1635.75
355.491	1586.75
355.718	1617.75
355.945	1617.75
356.172	1589.75
356.399	1556.75
356.626	1560.75
356.853	1610.75
357.08	1748.75
357.307	1860.75
357.534	1931.75
357.761	1661.75
357.988	1531.75
358.215	1506.75
358.441	1517.75
358.668	1541.75
358.895	1553.75
359.122	1625.75
359.349	1805.75
359.576	1754.75
359.802	1631.75
360.029	1576.75
360.256	1498.75
360.483	1551.75
360.709	1598.75
360.936	1645.75
361.163	1685.75
361.39	1842.75
361.616	2007.75
361.843	1954.75
362.07	1867.75
362.296	1618.75
362.523	1577.75
362.749	1587.75
362.976	1572.75
363.203	1668.75
363.429	1614.75
363.656	1547.75
363.882	1549.75
364.109	1774.75
364.335	1916.75
364.562	1772.75
364.788	1717.75
365.015	1640.75
365.241	1546.75
365.468	1595.75
365.694	1668.75
365.92	1732.75
366.147	1669.75
366.373	1594.75
366.599	1542.75
366.826	1579.75
367.052	1548.75
367.278	1612.75
367.505	1582.75
367.731	1658.75
367.957	1636.75
368.184	1642.75
368.41	1786.75
368.636	1765.75
368.862	1755.75
369.089	1846.75
369.315	1728.75
369.541	1689.75
369.767	1626.75
369.993	1574.75
370.219	1562.75
370.445	1621.75
370.672	1704.75
370.898	1745.75
371.124	1796.75
371.35	1670.75
371.576	1729.75
371.802	1827.75
372.028	1733.75
372.254	1658.75
372.48	1616.75
372.706	1597.75
372.932	1589.75
373.158	1615.75
373.384	1642.75
373.61	1709.75
373.835	1779.75
374.061	1682.75
374.287	1660.75
374.513	1649.75
374.739	1718.75
374.965	1703.75
375.191	1696.75
375.416	1730.75
375.642	1707.75
375.868	1814.75
376.094	1846.75
376.319	1823.75
376.545	1692.75
376.771	1709.75
376.997	1783.75
377.222	1760.75
377.448	1743.75
377.674	1757.75
377.899	1700.75
378.125	1804.75
378.35	1861.75
378.576	1674.75
378.802	1626.75
379.027	1591.75
379.253	1648.75
379.478	1684.75
379.704	1668.75
379.929	1650.75
380.155	1705.75
380.38	1691.75
380.606	1680.75
380.831	1704.75
381.057	1717.75
381.282	1789.75
381.507	1734.75
381.733	1856.75
381.958	1934.75
382.184	1794.75
382.409	1712.75
382.634	1792.75
382.86	1729.75
383.085	1717.75
383.31	1764.75
383.535	1910.75
383.761	2024.75
383.986	1984.75
384.211	1881.75
384.436	1848.75
384.662	1943.75
384.887	2036.75
385.112	1930.75
385.337	1940.75
385.562	1923.75
385.787	1945.75
386.013	2003.75
386.238	1919.75
386.463	1962.75
386.688	2034.75
386.913	2185.75
387.138	2136.75
387.363	1979.75
387.588	1980.75
387.813	1904.75
388.038	1971.75
388.263	2049.75
388.488	1961.75
388.713	1862.75
388.938	1823.75
389.163	1864.75
389.387	1874.75
389.612	1866.75
389.837	1919.75
390.062	1942.75
390.287	1938.75
390.512	1928.75
390.736	1856.75
390.961	1862.75
391.186	1817.75
391.411	1846.75
391.636	1889.75
391.86	1943.75
392.085	1926.75
392.31	1914.75
392.534	1890.75
392.759	1954.75
392.984	1928.75
393.208	1900.75
393.433	1998.75
393.658	2030.75
393.882	2082.75
394.107	1936.75
394.331	1888.75
394.556	1876.75
394.78	1994.75
395.005	1948.75
395.229	2056.75
395.454	2166.75
395.678	2238.75
395.903	2104.75
396.127	2016.75
396.352	2026.75
396.576	2119.75
396.801	2155.75
397.025	2077.75
397.249	2104.75
397.474	2057.75
397.698	2038.75
397.922	2150.75
398.147	2218.75
398.371	2250.75
398.595	2309.75
398.82	2140.75
399.044	2230.75
399.268	2332.75
399.492	2463.75
399.717	2553.75
399.941	2582.75
400.165	2529.75
400.389	2469.75
400.613	2452.75
400.837	2684.75
401.062	3076.75
401.286	2650.75
401.51	2336.75
401.734	2524.75
401.958	2430.75
402.182	2257.75
402.406	2175.75
402.63	2136.75
402.854	2203.75
403.078	2208.75
403.302	2225.75
403.526	2299.75
403.75	2299.75
403.974	2316.75
404.198	2311.75
404.422	2328.75
404.645	2441.75
404.869	2428.75
405.093	2209.75
405.317	2200.75
405.541	2284.75
405.765	2330.75
405.988	2286.75
406.212	2330.75
406.436	2391.75
406.66	2436.75
406.883	2441.75
407.107	2721.75
407.331	2990.75
407.555	3197.75
407.778	3003.75
408.002	2508.75
408.226	2421.75
408.449	2440.75
408.673	2374.75
408.896	2373.75
409.12	2392.75
409.344	2349.75
409.567	2270.75
409.791	2316.75
410.014	2374.75
410.238	2444.75
410.461	2589.75
410.685	2364.75
410.908	2245.75
411.132	2255.75
411.355	2271.75
411.578	2184.75
411.802	2227.75
412.025	2308.75
412.249	2259.75
412.472	2188.75
412.695	2181.75
412.919	2183.75
413.142	2149.75
413.365	2152.75
413.589	2289.75
413.812	2330.75
414.035	2430.75
414.258	2230.75
414.482	2189.75
414.705	2196.75
414.928	2167.75
415.151	2154.75
415.374	2152.75
415.597	2229.75
415.821	2233.75
416.044	2284.75
416.267	2294.75
416.49	2114.75
416.713	2041.75
416.936	2128.75
417.159	2240.75
417.382	2263.75
417.605	2106.75
417.828	2177.75
418.051	2255.75
418.274	2141.75
418.497	2096.75
418.72	2083.75
418.943	2104.75
419.166	2264.75
419.389	2338.75
419.611	2242.75
419.834	2181.75
420.057	2230.75
420.28	2166.75
420.503	2093.75
420.726	2153.75
420.948	2153.75
421.171	2056.75
421.394	2078.75
421.617	2111.75
421.839	2155.75
422.062	2096.75
422.285	2056.75
422.507	2065.75
422.73	2037.75
422.953	2052.75
423.175	2005.75
423.398	2092.75
423.621	2109.75
423.843	2144.75
424.066	2103.75
424.288	2219.75
424.511	2256.75
424.733	2173.75
424.956	1956.75
425.178	1967.75
425.401	2053.75
425.623	2042.75
425.846	2026.75
426.068	2092.75
426.291	2166.75
426.513	2144.75
426.735	2140.75
426.958	2275.75
427.18	2439.75
427.402	2203.75
427.625	2238.75
427.847	2285.75
428.069	2113.75
428.292	2084.75
428.514	1993.75
428.736	1974.75
428.958	2050.75
429.181	2017.75
429.403	2291.75
429.625	2850.75
429.847	2488.75
430.069	2084.75
430.292	2263.75
430.514	2400.75
430.736	2203.75
430.958	2226.75
431.18	2189.75
431.402	1993.75
431.624	2028.75
431.846	2062.75
432.068	2017.75
432.29	2011.75
432.512	2065.75
432.734	2139.75
432.956	2093.75
433.178	2205.75
433.4	2178.75
433.622	2145.75
433.844	2076.75
434.066	1986.75
434.287	1961.75
434.509	2068.75
434.731	2201.75
434.953	2303.75
435.175	2210.75
435.397	2138.75
435.618	2108.75
435.84	2170.75
436.062	2171.75
436.284	2108.75
436.505	2091.75
436.727	2194.75
436.949	2096.75
437.17	2064.75
437.392	2044.75
437.614	2081.75
437.835	2032.75
438.057	2122.75
438.278	2233.75
438.5	2044.75
438.721	1987.75
438.943	1988.75
439.165	2045.75
439.386	1951.75
439.608	2030.75
439.829	1995.75
440.05	1987.75
440.272	1976.75
440.493	1964.75
440.715	2016.75
440.936	2140.75
441.158	2364.75
441.379	2292.75
441.6	2240.75
441.822	2220.75
442.043	2201.75
442.264	2142.75
442.486	2062.75
442.707	2018.75
442.928	2017.75
443.149	2101.75
443.371	2226.75
443.592	2308.75
443.813	2176.75
444.034	2166.75
444.255	2237.75
444.476	2282.75
444.698	2312.75
444.919	2272.75
445.14	2325.75
445.361	2355.75
445.582	2435.75
445.803	2326.75
446.024	2244.75
446.245	2300.75
446.466	2195.75
446.687	2154.75
446.908	2100.75
447.129	2029.75
447.35	2094.75
447.571	2083.75
447.792	1961.75
448.013	1978.75
448.234	2039.75
448.455	2073.75
448.675	2093.75
448.896	1911.75
449.117	1909.75
449.338	1987.75
449.559	2053.75
449.779	2167.75
450	2431.75
450.221	2608.75
450.442	2519.75
450.662	2178.75
450.883	1950.75
451.104	1880.75
451.324	1936.75
451.545	1984.75
451.766	1968.75
451.986	1920.75
452.207	1910.75
452.428	1862.75
452.648	1814.75
452.869	1901.75
453.089	1963.75
453.31	1944.75
453.53	2035.75
453.751	1972.75
453.971	1826.75
454.192	1863.75
454.412	2018.75
454.633	1986.75
454.853	1877.75
455.073	1760.75
455.294	1760.75
455.514	1784.75
455.734	1804.75
455.955	1827.75
456.175	1821.75
456.395	1796.75
456.616	1838.75
456.836	1902.75
457.056	1849.75
457.276	1831.75
457.497	1804.75
457.717	1756.75
457.937	1783.75
458.157	1868.75
458.377	1800.75
458.598	1810.75
458.818	1807.75
459.038	1899.75
459.258	2073.75
459.478	2061.75
459.698	1975.75
459.918	2029.75
460.138	2126.75
460.358	2124.75
460.578	2161.75
460.798	2243.75
461.018	2402.75
461.238	2299.75
461.458	2156.75
461.678	2193.75
461.898	2124.75
462.118	2120.75
462.338	2181.75
462.558	2188.75
462.777	2147.75
462.997	2252.75
463.217	2421.75
463.437	2428.75
463.657	2270.75
463.876	2194.75
464.096	2144.75
464.316	2190.75
464.536	2185.75
464.755	2251.75
464.975	2285.75
465.195	2188.75
465.414	2334.75
465.634	2276.75
465.854	2126.75
466.073	2277.75
466.293	2228.75
466.512	2003.75
466.732	2027.75
466.951	2063.75
467.171	2054.75
467.391	2005.75
467.61	1938.75
467.829	1913.75
468.049	2089.75
468.268	2347.75
468.488	2202.75
468.707	2068.75
468.927	2012.75
469.146	1978.75
469.365	1951.75
469.585	1972.75
469.804	1942.75
470.023	1993.75
470.243	2038.75
470.462	1981.75
470.681	1935.75
470.901	1938.75
471.12	1958.75
471.339	1954.75
471.558	1909.75
471.777	1865.75
471.997	1942.75
472.216	1947.75
472.435	1905.75
472.654	1938.75
472.873	1991.75
473.092	2092.75
473.311	2038.75
473.53	1907.75
473.749	1880.75
473.968	1970.75
474.187	2005.75
474.406	2108.75
474.625	2044.75
474.844	1990.75
475.063	1955.75
475.282	2046.75
475.501	2040.75
475.72	1983.75
475.939	2114.75
476.158	2054.75
476.377	1981.75
476.596	2024.75
476.814	2072.75
477.033	2074.75
477.252	2177.75
477.471	2215.75
477.69	2107.75
477.908	2143.75
478.127	2236.75
478.346	2349.75
478.564	2403.75
478.783	2317.75
479.002	2454.75
479.22	2365.75
479.439	2449.75
479.658	2773.75
479.876	2731.75
480.095	2437.75
480.313	2294.75
480.532	2209.75
480.751	2238.75
480.969	2316.75
481.188	2202.75
481.406	2248.75
481.624	2125.75
481.843	2183.75
482.061	2260.75
482.28	2295.75
482.498	2304.75
482.717	2319.75
482.935	2196.75
483.153	2146.75
483.372	2237.75
483.59	2188.75
483.808	2254.75
484.027	2248.75
484.245	2409.75
484.463	2751.75
484.681	3096.75
484.9	2442.75
485.118	2271.75
485.336	2245.75
485.554	2342.75
485.772	2406.75
485.99	2376.75
486.209	2370.75
486.427	2346.75
486.645	2405.75
486.863	2349.75
487.081	2402.75
487.299	2462.75
487.517	2454.75
