Data from WStandard_LampEnergy10_LIBS07252019.E.O._I.C._HRD10591_15-54-28-928.txt Node
Date: Thu Jul 25 15:54:28 EDT 2019
User: cochatt
Spectrometer: HR+D1059
Trigger mode: 1
Integration Time (sec): 1.000000E-1
Scans to average: 1
Electric dark correction enabled: true
Nonlinearity correction enabled: false
Boxcar width: 0
XAxis mode: Wavelengths
Number of Pixels in Spectrum: 2048
>>>>>Begin Spectral Data<<<<<
223.165	-7.81
223.4	-7.81
223.635	-7.81
223.869	-23.81
224.104	-14.81
224.338	-13.81
224.573	-14.81
224.808	-12.81
225.042	-20.81
225.277	-0.81
225.511	-8.81
225.746	3.19
225.98	15.19
226.215	5.19
226.449	10.19
226.683	27.19
226.918	32.19
227.152	25.19
227.387	28.19
227.621	51.19
227.856	44.19
228.09	43.19
228.324	51.19
228.559	60.19
228.793	87.19
229.027	142.19
229.262	142.19
229.496	147.19
229.73	154.19
229.964	165.19
230.199	155.19
230.433	160.19
230.667	159.19
230.901	181.19
231.136	175.19
231.37	174.19
231.604	175.19
231.838	177.19
232.072	192.19
232.306	165.19
232.541	185.19
232.775	186.19
233.009	222.19
233.243	189.19
233.477	192.19
233.711	198.19
233.945	201.19
234.179	193.19
234.413	205.19
234.647	218.19
234.881	200.19
235.115	194.19
235.349	199.19
235.583	204.19
235.817	194.19
236.051	198.19
236.285	193.19
236.519	200.19
236.753	211.19
236.987	228.19
237.221	215.19
237.455	236.19
237.689	216.19
237.922	217.19
238.156	222.19
238.39	224.19
238.624	220.19
238.858	246.19
239.091	246.19
239.325	242.19
239.559	271.19
239.793	285.19
240.027	289.19
240.26	289.19
240.494	218.19
240.728	233.19
240.961	242.19
241.195	251.19
241.429	252.19
241.662	257.19
241.896	265.19
242.13	228.19
242.363	265.19
242.597	273.19
242.83	267.19
243.064	266.19
243.298	281.19
243.531	282.19
243.765	277.19
243.998	284.19
244.232	248.19
244.465	239.19
244.699	254.19
244.932	307.19
245.166	304.19
245.399	269.19
245.633	272.19
245.866	271.19
246.099	283.19
246.333	283.19
246.566	288.19
246.8	321.19
247.033	332.19
247.266	338.19
247.5	303.19
247.733	306.19
247.966	334.19
248.2	344.19
248.433	348.19
248.666	362.19
248.899	384.19
249.133	431.19
249.366	455.19
249.599	369.19
249.832	327.19
250.066	379.19
250.299	356.19
250.532	332.19
250.765	339.19
250.998	327.19
251.231	327.19
251.465	359.19
251.698	331.19
251.931	321.19
252.164	351.19
252.397	350.19
252.63	346.19
252.863	339.19
253.096	328.19
253.329	329.19
253.562	339.19
253.795	345.19
254.028	348.19
254.261	336.19
254.494	344.19
254.727	328.19
254.96	341.19
255.193	373.19
255.426	405.19
255.659	453.19
255.892	462.19
256.124	375.19
256.357	387.19
256.59	403.19
256.823	425.19
257.056	408.19
257.289	483.19
257.521	479.19
257.754	482.19
257.987	444.19
258.22	469.19
258.452	460.19
258.685	379.19
258.918	392.19
259.151	399.19
259.383	378.19
259.616	344.19
259.849	374.19
260.081	390.19
260.314	459.19
260.547	465.19
260.779	472.19
261.012	403.19
261.244	398.19
261.477	398.19
261.71	389.19
261.942	377.19
262.175	375.19
262.407	403.19
262.64	373.19
262.872	372.19
263.105	370.19
263.337	373.19
263.57	367.19
263.802	370.19
264.035	343.19
264.267	321.19
264.499	328.19
264.732	363.19
264.964	377.19
265.197	389.19
265.429	409.19
265.661	459.19
265.894	491.19
266.126	489.19
266.358	467.19
266.591	457.19
266.823	468.19
267.055	434.19
267.287	444.19
267.52	420.19
267.752	405.19
267.984	441.19
268.216	475.19
268.448	448.19
268.681	450.19
268.913	387.19
269.145	415.19
269.377	412.19
269.609	452.19
269.841	528.19
270.073	571.19
270.306	599.19
270.538	619.19
270.77	515.19
271.002	487.19
271.234	461.19
271.466	477.19
271.698	529.19
271.93	607.19
272.162	596.19
272.394	527.19
272.626	505.19
272.858	473.19
273.09	419.19
273.322	415.19
273.553	379.19
273.785	418.19
274.017	418.19
274.249	454.19
274.481	413.19
274.713	399.19
274.945	410.19
275.176	392.19
275.408	397.19
275.64	401.19
275.872	415.19
276.104	454.19
276.335	482.19
276.567	515.19
276.799	503.19
277.031	477.19
277.262	473.19
277.494	511.19
277.726	531.19
277.957	488.19
278.189	447.19
278.421	451.19
278.652	428.19
278.884	431.19
279.115	423.19
279.347	444.19
279.579	429.19
279.81	441.19
280.042	472.19
280.273	490.19
280.505	499.19
280.736	499.19
280.968	447.19
281.199	400.19
281.431	390.19
281.662	395.19
281.894	421.19
282.125	430.19
282.356	431.19
282.588	450.19
282.819	456.19
283.051	495.19
283.282	523.19
283.513	470.19
283.745	447.19
283.976	406.19
284.207	420.19
284.439	436.19
284.67	437.19
284.901	451.19
285.132	457.19
285.364	436.19
285.595	458.19
285.826	442.19
286.057	457.19
286.288	439.19
286.52	449.19
286.751	492.19
286.982	495.19
287.213	451.19
287.444	433.19
287.675	458.19
287.906	461.19
288.138	464.19
288.369	474.19
288.6	438.19
288.831	443.19
289.062	432.19
289.293	439.19
289.524	457.19
289.755	459.19
289.986	467.19
290.217	438.19
290.448	433.19
290.679	449.19
290.91	459.19
291.141	460.19
291.371	492.19
291.602	481.19
291.833	478.19
292.064	464.19
292.295	488.19
292.526	492.19
292.757	487.19
292.987	483.19
293.218	475.19
293.449	523.19
293.68	565.19
293.91	598.19
294.141	557.19
294.372	557.19
294.603	550.19
294.833	552.19
295.064	508.19
295.295	483.19
295.525	463.19
295.756	448.19
295.987	424.19
296.217	441.19
296.448	461.19
296.679	472.19
296.909	472.19
297.14	440.19
297.37	490.19
297.601	505.19
297.831	515.19
298.062	532.19
298.292	485.19
298.523	480.19
298.753	459.19
298.984	473.19
299.214	488.19
299.445	490.19
299.675	500.19
299.905	479.19
300.136	495.19
300.366	462.19
300.597	455.19
300.827	473.19
301.057	473.19
301.288	509.19
301.518	505.19
301.748	522.19
301.979	534.19
302.209	531.19
302.439	597.19
302.669	587.19
302.9	541.19
303.13	482.19
303.36	523.19
303.59	518.19
303.82	497.19
304.051	490.19
304.281	501.19
304.511	527.19
304.741	572.19
304.971	603.19
305.201	620.19
305.431	540.19
305.661	488.19
305.891	475.19
306.121	465.19
306.352	478.19
306.582	484.19
306.812	537.19
307.042	557.19
307.272	541.19
307.502	580.19
307.731	623.19
307.961	635.19
308.191	566.19
308.421	527.19
308.651	509.19
308.881	513.19
309.111	489.19
309.341	471.19
309.571	468.19
309.8	481.19
310.03	477.19
310.26	497.19
310.49	482.19
310.72	499.19
310.949	510.19
311.179	522.19
311.409	514.19
311.639	529.19
311.868	494.19
312.098	510.19
312.328	498.19
312.557	501.19
312.787	488.19
313.017	507.19
313.246	512.19
313.476	522.19
313.706	536.19
313.935	532.19
314.165	537.19
314.394	555.19
314.624	583.19
314.853	615.19
315.083	622.19
315.312	627.19
315.542	569.19
315.771	544.19
316.001	559.19
316.23	583.19
316.46	549.19
316.689	550.19
316.919	521.19
317.148	521.19
317.377	531.19
317.607	581.19
317.836	646.19
318.065	641.19
318.295	614.19
318.524	570.19
318.753	577.19
318.983	553.19
319.212	547.19
319.441	547.19
319.67	534.19
319.9	557.19
320.129	593.19
320.358	583.19
320.587	617.19
320.816	603.19
321.046	608.19
321.275	556.19
321.504	586.19
321.733	630.19
321.962	584.19
322.191	563.19
322.42	565.19
322.649	541.19
322.878	535.19
323.108	563.19
323.337	567.19
323.566	570.19
323.795	568.19
324.024	584.19
324.253	548.19
324.482	567.19
324.71	535.19
324.939	533.19
325.168	559.19
325.397	547.19
325.626	569.19
325.855	561.19
326.084	566.19
326.313	541.19
326.542	570.19
326.77	577.19
326.999	537.19
327.228	537.19
327.457	530.19
327.686	544.19
327.914	536.19
328.143	551.19
328.372	561.19
328.6	547.19
328.829	539.19
329.058	552.19
329.287	524.19
329.515	565.19
329.744	589.19
329.972	608.19
330.201	626.19
330.43	608.19
330.658	569.19
330.887	571.19
331.115	600.19
331.344	597.19
331.572	613.19
331.801	604.19
332.03	579.19
332.258	595.19
332.486	588.19
332.715	584.19
332.943	594.19
333.172	595.19
333.4	573.19
333.629	617.19
333.857	660.19
334.085	751.19
334.314	796.19
334.542	852.19
334.771	743.19
334.999	664.19
335.227	650.19
335.455	625.19
335.684	613.19
335.912	664.19
336.14	661.19
336.369	635.19
336.597	601.19
336.825	591.19
337.053	634.19
337.281	675.19
337.51	693.19
337.738	690.19
337.966	671.19
338.194	610.19
338.422	590.19
338.65	574.19
338.878	579.19
339.106	565.19
339.334	556.19
339.562	568.19
339.79	583.19
340.018	609.19
340.246	644.19
340.474	596.19
340.702	621.19
340.93	617.19
341.158	625.19
341.386	611.19
341.614	595.19
341.842	590.19
342.07	586.19
342.298	585.19
342.526	573.19
342.754	587.19
342.981	587.19
343.209	596.19
343.437	579.19
343.665	575.19
343.893	618.19
344.12	630.19
344.348	631.19
344.576	589.19
344.804	587.19
345.031	596.19
345.259	609.19
345.487	581.19
345.714	566.19
345.942	539.19
346.17	565.19
346.397	595.19
346.625	560.19
346.853	529.19
347.08	517.19
347.308	544.19
347.535	564.19
347.763	580.19
347.99	570.19
348.218	548.19
348.445	547.19
348.673	567.19
348.9	581.19
349.128	593.19
349.355	618.19
349.583	593.19
349.81	551.19
350.037	531.19
350.265	537.19
350.492	559.19
350.72	542.19
350.947	566.19
351.174	576.19
351.402	559.19
351.629	522.19
351.856	539.19
352.083	547.19
352.311	535.19
352.538	552.19
352.765	560.19
352.992	567.19
353.22	543.19
353.447	541.19
353.674	535.19
353.901	553.19
354.128	538.19
354.355	539.19
354.583	571.19
354.81	586.19
355.037	576.19
355.264	574.19
355.491	571.19
355.718	555.19
355.945	559.19
356.172	528.19
356.399	549.19
356.626	548.19
356.853	568.19
357.08	630.19
357.307	673.19
357.534	659.19
357.761	578.19
357.988	529.19
358.215	512.19
358.441	525.19
358.668	540.19
358.895	544.19
359.122	598.19
359.349	633.19
359.576	602.19
359.802	564.19
360.029	576.19
360.256	542.19
360.483	548.19
360.709	561.19
360.936	596.19
361.163	626.19
361.39	671.19
361.616	696.19
361.843	679.19
362.07	630.19
362.296	559.19
362.523	547.19
362.749	558.19
362.976	572.19
363.203	607.19
363.429	567.19
363.656	550.19
363.882	610.19
364.109	643.19
364.335	664.19
364.562	626.19
364.788	577.19
365.015	560.19
365.241	564.19
365.468	565.19
365.694	611.19
365.92	615.19
366.147	582.19
366.373	563.19
366.599	550.19
366.826	547.19
367.052	563.19
367.278	563.19
367.505	569.19
367.731	594.19
367.957	595.19
368.184	641.19
368.41	659.19
368.636	672.19
368.862	668.19
369.089	671.19
369.315	618.19
369.541	611.19
369.767	586.19
369.993	571.19
370.219	583.19
370.445	615.19
370.672	636.19
370.898	681.19
371.124	665.19
371.35	633.19
371.576	653.19
371.802	640.19
372.028	607.19
372.254	613.19
372.48	614.19
372.706	602.19
372.932	580.19
373.158	594.19
373.384	625.19
373.61	637.19
373.835	656.19
374.061	635.19
374.287	611.19
374.513	657.19
374.739	619.19
374.965	631.19
375.191	637.19
375.416	670.19
375.642	661.19
375.868	717.19
376.094	700.19
376.319	665.19
376.545	636.19
376.771	657.19
376.997	676.19
377.222	687.19
377.448	660.19
377.674	675.19
377.899	681.19
378.125	715.19
378.35	698.19
378.576	647.19
378.802	610.19
379.027	596.19
379.253	634.19
379.478	630.19
379.704	624.19
379.929	631.19
380.155	647.19
380.38	653.19
380.606	648.19
380.831	667.19
381.057	697.19
381.282	671.19
381.507	651.19
381.733	717.19
381.958	730.19
382.184	701.19
382.409	665.19
382.634	682.19
382.86	652.19
383.085	689.19
383.31	728.19
383.535	780.19
383.761	776.19
383.986	738.19
384.211	709.19
384.436	719.19
384.662	757.19
384.887	756.19
385.112	721.19
385.337	734.19
385.562	734.19
385.787	733.19
386.013	753.19
386.238	774.19
386.463	771.19
386.688	815.19
386.913	852.19
387.138	815.19
387.363	772.19
387.588	744.19
387.813	759.19
388.038	792.19
388.263	785.19
388.488	740.19
388.713	719.19
388.938	707.19
389.163	711.19
389.387	725.19
389.612	746.19
389.837	748.19
390.062	737.19
390.287	771.19
390.512	740.19
390.736	734.19
390.961	738.19
391.186	730.19
391.411	741.19
391.636	734.19
391.86	765.19
392.085	743.19
392.31	745.19
392.534	760.19
392.759	751.19
392.984	743.19
393.208	764.19
393.433	803.19
393.658	797.19
393.882	800.19
394.107	765.19
394.331	748.19
394.556	769.19
394.78	761.19
395.005	812.19
395.229	844.19
395.454	877.19
395.678	849.19
395.903	825.19
396.127	806.19
396.352	811.19
396.576	819.19
396.801	859.19
397.025	828.19
397.249	855.19
397.474	812.19
397.698	810.19
397.922	851.19
398.147	861.19
398.371	881.19
398.595	900.19
398.82	859.19
399.044	905.19
399.268	913.19
399.492	985.19
399.717	992.19
399.941	981.19
400.165	956.19
400.389	926.19
400.613	983.19
400.837	1119.19
401.062	1152.19
401.286	999.19
401.51	974.19
401.734	985.19
401.958	947.19
402.182	897.19
402.406	897.19
402.63	874.19
402.854	881.19
403.078	891.19
403.302	895.19
403.526	908.19
403.75	888.19
403.974	919.19
404.198	929.19
404.422	986.19
404.645	996.19
404.869	963.19
405.093	917.19
405.317	904.19
405.541	912.19
405.765	894.19
405.988	934.19
406.212	961.19
406.436	935.19
406.66	979.19
406.883	1000.19
407.107	1107.19
407.331	1205.19
407.555	1246.19
407.778	1117.19
408.002	963.19
408.226	982.19
408.449	959.19
408.673	928.19
408.896	924.19
409.12	962.19
409.344	959.19
409.567	923.19
409.791	939.19
410.014	951.19
410.238	1012.19
410.461	1024.19
410.685	943.19
410.908	909.19
411.132	953.19
411.355	919.19
411.578	963.19
411.802	904.19
412.025	930.19
412.249	923.19
412.472	909.19
412.695	906.19
412.919	915.19
413.142	890.19
413.365	932.19
413.589	951.19
413.812	988.19
414.035	999.19
414.258	910.19
414.482	905.19
414.705	923.19
414.928	880.19
415.151	897.19
415.374	923.19
415.597	939.19
415.821	930.19
416.044	911.19
416.267	922.19
416.49	909.19
416.713	913.19
416.936	930.19
417.159	965.19
417.382	1001.19
417.605	907.19
417.828	931.19
418.051	948.19
418.274	943.19
418.497	932.19
418.72	927.19
418.943	931.19
419.166	947.19
419.389	963.19
419.611	957.19
419.834	946.19
420.057	948.19
420.28	913.19
420.503	940.19
420.726	958.19
420.948	950.19
421.171	906.19
421.394	909.19
421.617	957.19
421.839	992.19
422.062	977.19
422.285	939.19
422.507	941.19
422.73	885.19
422.953	876.19
423.175	867.19
423.398	901.19
423.621	909.19
423.843	946.19
424.066	965.19
424.288	1027.19
424.511	1065.19
424.733	999.19
424.956	927.19
425.178	922.19
425.401	901.19
425.623	949.19
425.846	946.19
426.068	966.19
426.291	940.19
426.513	941.19
426.735	960.19
426.958	1043.19
427.18	1067.19
427.402	1008.19
427.625	1017.19
427.847	1008.19
428.069	923.19
428.292	921.19
428.514	921.19
428.736	888.19
428.958	887.19
429.181	927.19
429.403	1071.19
429.625	1229.19
429.847	1033.19
430.069	939.19
430.292	1065.19
430.514	1007.19
430.736	955.19
430.958	985.19
431.18	926.19
431.402	892.19
431.624	860.19
431.846	784.19
432.068	740.19
432.29	730.19
432.512	763.19
432.734	864.19
432.956	912.19
433.178	983.19
433.4	953.19
433.622	961.19
433.844	900.19
434.066	836.19
434.287	799.19
434.509	788.19
434.731	834.19
434.953	892.19
435.175	908.19
435.397	910.19
435.618	889.19
435.84	836.19
436.062	825.19
436.284	888.19
436.505	901.19
436.727	953.19
436.949	920.19
437.17	896.19
437.392	871.19
437.614	819.19
437.835	776.19
438.057	817.19
438.278	848.19
438.5	874.19
438.721	884.19
438.943	895.19
439.165	910.19
439.386	926.19
439.608	933.19
439.829	922.19
440.05	947.19
440.272	923.19
440.493	963.19
440.715	979.19
440.936	1024.19
441.158	1047.19
441.379	1043.19
441.6	1041.19
441.822	1028.19
442.043	1024.19
442.264	977.19
442.486	947.19
442.707	935.19
442.928	969.19
443.149	965.19
443.371	1036.19
443.592	986.19
443.813	1022.19
444.034	978.19
444.255	986.19
444.476	996.19
444.698	1036.19
444.919	1043.19
445.14	1138.19
445.361	1097.19
445.582	1056.19
445.803	1045.19
446.024	1047.19
446.245	1026.19
446.466	1065.19
446.687	1013.19
446.908	1041.19
447.129	1011.19
447.35	1026.19
447.571	979.19
447.792	955.19
448.013	960.19
448.234	925.19
448.455	975.19
448.675	979.19
448.896	916.19
449.117	925.19
449.338	920.19
449.559	965.19
449.779	992.19
450	989.19
450.221	1031.19
450.442	999.19
450.662	944.19
450.883	859.19
451.104	884.19
451.324	869.19
451.545	902.19
451.766	882.19
451.986	832.19
452.207	803.19
452.428	795.19
452.648	791.19
452.869	797.19
453.089	789.19
453.31	782.19
453.53	767.19
453.751	735.19
453.971	699.19
454.192	720.19
454.412	758.19
454.633	799.19
454.853	784.19
455.073	748.19
455.294	769.19
455.514	791.19
455.734	767.19
455.955	769.19
456.175	744.19
456.395	737.19
456.616	724.19
456.836	741.19
457.056	773.19
457.276	720.19
457.497	699.19
457.717	685.19
457.937	731.19
458.157	711.19
458.377	694.19
458.598	674.19
458.818	680.19
459.038	699.19
459.258	698.19
459.478	695.19
459.698	691.19
459.918	719.19
460.138	794.19
460.358	830.19
460.578	821.19
460.798	865.19
461.018	888.19
461.238	881.19
461.458	860.19
461.678	857.19
461.898	801.19
462.118	799.19
462.338	803.19
462.558	848.19
462.777	845.19
462.997	863.19
463.217	883.19
463.437	869.19
463.657	830.19
463.876	808.19
464.096	841.19
464.316	828.19
464.536	840.19
464.755	853.19
464.975	840.19
465.195	845.19
465.414	860.19
465.634	868.19
465.854	865.19
466.073	937.19
466.293	933.19
466.512	838.19
466.732	893.19
466.951	910.19
467.171	883.19
467.391	865.19
467.61	844.19
467.829	882.19
468.049	971.19
468.268	1033.19
468.488	969.19
468.707	932.19
468.927	892.19
469.146	919.19
469.365	927.19
469.585	910.19
469.804	901.19
470.023	927.19
470.243	949.19
470.462	928.19
470.681	910.19
470.901	915.19
471.12	936.19
471.339	930.19
471.558	908.19
471.777	898.19
471.997	868.19
472.216	860.19
472.435	776.19
472.654	755.19
472.873	784.19
473.092	829.19
473.311	801.19
473.53	820.19
473.749	823.19
473.968	848.19
474.187	849.19
474.406	865.19
474.625	847.19
474.844	851.19
475.063	873.19
475.282	844.19
475.501	816.19
475.72	825.19
475.939	908.19
476.158	903.19
476.377	886.19
476.596	850.19
476.814	833.19
477.033	793.19
477.252	845.19
477.471	897.19
477.69	880.19
477.908	950.19
478.127	961.19
478.346	1003.19
478.564	971.19
478.783	989.19
479.002	1017.19
479.22	1027.19
479.439	1011.19
479.658	1041.19
479.876	972.19
480.095	905.19
480.313	902.19
480.532	887.19
480.751	878.19
480.969	830.19
481.188	782.19
481.406	770.19
481.624	747.19
481.843	785.19
482.061	822.19
482.28	883.19
482.498	888.19
482.717	835.19
482.935	889.19
483.153	935.19
483.372	1003.19
483.59	964.19
483.808	961.19
484.027	952.19
484.245	980.19
484.463	1224.19
484.681	1290.19
484.9	1035.19
485.118	968.19
485.336	927.19
485.554	883.19
485.772	882.19
485.99	856.19
486.209	881.19
486.427	899.19
486.645	946.19
486.863	978.19
487.081	1034.19
487.299	999.19
487.517	1047.19
487.735	1091.19
487.953	1185.19
488.171	1179.19
488.389	1138.19
488.607	1088.19
488.825	1139.19
489.043	1046.19
489.261	985.19
489.479	1039.19
489.696	1050.19
489.914	1053.19
490.132	1028.19
490.35	1085.19
490.568	1165.19
490.786	1178.19
491.003	1188.19
491.221	1244.19
491.439	1283.19
491.657	1281.19
491.874	1352.19
492.092	1422.19
492.31	1469.19
492.527	1447.19
492.745	1400.19
492.963	1288.19
493.18	1310.19
493.398	1317.19
493.615	1373.19
493.833	1265.19
494.05	1245.19
494.268	1239.19
494.485	1268.19
494.703	1241.19
494.92	1231.19
495.138	1232.19
495.355	1238.19
495.573	1251.19
495.79	1255.19
496.008	1249.19
496.225	1216.19
496.442	1242.19
496.66	1208.19
496.877	1195.19
497.094	1268.19
497.312	1217.19
497.529	1185.19
497.746	1177.19
497.963	1237.19
498.181	1279.19
498.398	1233.19
498.615	1193.19
498.832	1156.19
499.049	1163.19
499.267	1129.19
499.484	1253.19
499.701	1344.19
499.918	1377.19
500.135	1469.19
500.352	1555.19
500.569	1592.19
