Data from WStandard_LampEnergy10_LIBS07252019.E.O._I.C._HRD10591_15-54-18-928.txt Node
Date: Thu Jul 25 15:54:18 EDT 2019
User: cochatt
Spectrometer: HR+D1059
Trigger mode: 1
Integration Time (sec): 1.000000E-1
Scans to average: 1
Electric dark correction enabled: true
Nonlinearity correction enabled: false
Boxcar width: 0
XAxis mode: Wavelengths
Number of Pixels in Spectrum: 2048
>>>>>Begin Spectral Data<<<<<
223.165	-19.81
223.4	-19.81
223.635	-19.81
223.869	-10.81
224.104	-26.81
224.338	-13.81
224.573	-18.81
224.808	-17.81
225.042	4.19
225.277	-11.81
225.511	6.19
225.746	1.19
225.98	14.19
226.215	1.19
226.449	18.19
226.683	25.19
226.918	11.19
227.152	38.19
227.387	30.19
227.621	41.19
227.856	61.19
228.09	53.19
228.324	45.19
228.559	47.19
228.793	78.19
229.027	130.19
229.262	143.19
229.496	154.19
229.73	157.19
229.964	152.19
230.199	148.19
230.433	157.19
230.667	194.19
230.901	192.19
231.136	190.19
231.37	193.19
231.604	168.19
231.838	177.19
232.072	165.19
232.306	166.19
232.541	167.19
232.775	196.19
233.009	217.19
233.243	206.19
233.477	186.19
233.711	191.19
233.945	204.19
234.179	199.19
234.413	196.19
234.647	211.19
234.881	214.19
235.115	205.19
235.349	203.19
235.583	205.19
235.817	181.19
236.051	188.19
236.285	187.19
236.519	214.19
236.753	224.19
236.987	227.19
237.221	215.19
237.455	230.19
237.689	225.19
237.922	215.19
238.156	216.19
238.39	210.19
238.624	218.19
238.858	259.19
239.091	257.19
239.325	247.19
239.559	287.19
239.793	290.19
240.027	318.19
240.26	300.19
240.494	236.19
240.728	234.19
240.961	238.19
241.195	251.19
241.429	270.19
241.662	247.19
241.896	238.19
242.13	248.19
242.363	268.19
242.597	287.19
242.83	275.19
243.064	281.19
243.298	270.19
243.531	273.19
243.765	275.19
243.998	274.19
244.232	247.19
244.465	250.19
244.699	245.19
244.932	277.19
245.166	315.19
245.399	285.19
245.633	279.19
245.866	291.19
246.099	285.19
246.333	278.19
246.566	294.19
246.8	327.19
247.033	330.19
247.266	330.19
247.5	327.19
247.733	313.19
247.966	328.19
248.2	352.19
248.433	360.19
248.666	394.19
248.899	397.19
249.133	455.19
249.366	471.19
249.599	390.19
249.832	340.19
250.066	378.19
250.299	373.19
250.532	349.19
250.765	323.19
250.998	351.19
251.231	340.19
251.465	349.19
251.698	344.19
251.931	335.19
252.164	327.19
252.397	355.19
252.63	337.19
252.863	325.19
253.096	335.19
253.329	355.19
253.562	338.19
253.795	366.19
254.028	354.19
254.261	350.19
254.494	316.19
254.727	327.19
254.96	353.19
255.193	400.19
255.426	413.19
255.659	461.19
255.892	426.19
256.124	387.19
256.357	400.19
256.59	413.19
256.823	425.19
257.056	408.19
257.289	482.19
257.521	489.19
257.754	473.19
257.987	456.19
258.22	463.19
258.452	467.19
258.685	382.19
258.918	389.19
259.151	384.19
259.383	385.19
259.616	359.19
259.849	382.19
260.081	415.19
260.314	450.19
260.547	473.19
260.779	455.19
261.012	419.19
261.244	408.19
261.477	392.19
261.71	398.19
261.942	398.19
262.175	396.19
262.407	405.19
262.64	378.19
262.872	355.19
263.105	366.19
263.337	361.19
263.57	384.19
263.802	360.19
264.035	353.19
264.267	342.19
264.499	335.19
264.732	359.19
264.964	396.19
265.197	407.19
265.429	406.19
265.661	445.19
265.894	494.19
266.126	490.19
266.358	463.19
266.591	463.19
266.823	499.19
267.055	465.19
267.287	468.19
267.52	453.19
267.752	423.19
267.984	445.19
268.216	460.19
268.448	473.19
268.681	463.19
268.913	435.19
269.145	403.19
269.377	436.19
269.609	433.19
269.841	503.19
270.073	580.19
270.306	612.19
270.538	648.19
270.77	534.19
271.002	486.19
271.234	468.19
271.466	504.19
271.698	559.19
271.93	601.19
272.162	605.19
272.394	550.19
272.626	491.19
272.858	451.19
273.09	419.19
273.322	428.19
273.553	397.19
273.785	391.19
274.017	412.19
274.249	427.19
274.481	451.19
274.713	405.19
274.945	428.19
275.176	395.19
275.408	385.19
275.64	408.19
275.872	397.19
276.104	431.19
276.335	509.19
276.567	545.19
276.799	525.19
277.031	500.19
277.262	482.19
277.494	492.19
277.726	537.19
277.957	505.19
278.189	460.19
278.421	426.19
278.652	437.19
278.884	435.19
279.115	437.19
279.347	433.19
279.579	429.19
279.81	434.19
280.042	473.19
280.273	502.19
280.505	507.19
280.736	500.19
280.968	486.19
281.199	448.19
281.431	420.19
281.662	415.19
281.894	430.19
282.125	447.19
282.356	457.19
282.588	457.19
282.819	464.19
283.051	501.19
283.282	534.19
283.513	505.19
283.745	442.19
283.976	433.19
284.207	413.19
284.439	427.19
284.67	441.19
284.901	462.19
285.132	477.19
285.364	457.19
285.595	433.19
285.826	467.19
286.057	441.19
286.288	469.19
286.52	462.19
286.751	468.19
286.982	485.19
287.213	454.19
287.444	451.19
287.675	445.19
287.906	469.19
288.138	483.19
288.369	483.19
288.6	434.19
288.831	435.19
289.062	439.19
289.293	454.19
289.524	443.19
289.755	473.19
289.986	493.19
290.217	421.19
290.448	479.19
290.679	451.19
290.91	467.19
291.141	498.19
291.371	499.19
291.602	470.19
291.833	487.19
292.064	505.19
292.295	465.19
292.526	499.19
292.757	533.19
292.987	499.19
293.218	477.19
293.449	529.19
293.68	568.19
293.91	574.19
294.141	557.19
294.372	537.19
294.603	551.19
294.833	574.19
295.064	536.19
295.295	463.19
295.525	472.19
295.756	448.19
295.987	450.19
296.217	466.19
296.448	450.19
296.679	466.19
296.909	458.19
297.14	448.19
297.37	485.19
297.601	504.19
297.831	516.19
298.062	522.19
298.292	491.19
298.523	489.19
298.753	464.19
298.984	469.19
299.214	486.19
299.445	487.19
299.675	523.19
299.905	503.19
300.136	479.19
300.366	458.19
300.597	473.19
300.827	465.19
301.057	495.19
301.288	496.19
301.518	513.19
301.748	519.19
301.979	551.19
302.209	554.19
302.439	587.19
302.669	609.19
302.9	555.19
303.13	503.19
303.36	508.19
303.59	501.19
303.82	515.19
304.051	510.19
304.281	525.19
304.511	540.19
304.741	567.19
304.971	634.19
305.201	614.19
305.431	555.19
305.661	477.19
305.891	439.19
306.121	455.19
306.352	497.19
306.582	508.19
306.812	552.19
307.042	580.19
307.272	563.19
307.502	590.19
307.731	609.19
307.961	627.19
308.191	582.19
308.421	526.19
308.651	500.19
308.881	501.19
309.111	497.19
309.341	511.19
309.571	481.19
309.8	521.19
310.03	480.19
310.26	495.19
310.49	493.19
310.72	530.19
310.949	527.19
311.179	550.19
311.409	532.19
311.639	511.19
311.868	518.19
312.098	502.19
312.328	521.19
312.557	509.19
312.787	533.19
313.017	548.19
313.246	519.19
313.476	534.19
313.706	516.19
313.935	522.19
314.165	519.19
314.394	574.19
314.624	595.19
314.853	620.19
315.083	605.19
315.312	587.19
315.542	589.19
315.771	552.19
316.001	556.19
316.23	567.19
316.46	561.19
316.689	535.19
316.919	541.19
317.148	512.19
317.377	548.19
317.607	591.19
317.836	616.19
318.065	640.19
318.295	610.19
318.524	600.19
318.753	577.19
318.983	564.19
319.212	549.19
319.441	551.19
319.67	545.19
319.9	547.19
320.129	589.19
320.358	605.19
320.587	627.19
320.816	637.19
321.046	598.19
321.275	573.19
321.504	590.19
321.733	612.19
321.962	580.19
322.191	566.19
322.42	550.19
322.649	542.19
322.878	552.19
323.108	565.19
323.337	585.19
323.566	573.19
323.795	574.19
324.024	557.19
324.253	553.19
324.482	555.19
324.71	525.19
324.939	528.19
325.168	562.19
325.397	570.19
325.626	606.19
325.855	572.19
326.084	565.19
326.313	577.19
326.542	575.19
326.77	617.19
326.999	561.19
327.228	568.19
327.457	545.19
327.686	539.19
327.914	557.19
328.143	565.19
328.372	584.19
328.6	565.19
328.829	558.19
329.058	543.19
329.287	567.19
329.515	586.19
329.744	590.19
329.972	590.19
330.201	630.19
330.43	606.19
330.658	585.19
330.887	615.19
331.115	600.19
331.344	580.19
331.572	591.19
331.801	585.19
332.03	591.19
332.258	612.19
332.486	622.19
332.715	594.19
332.943	607.19
333.172	575.19
333.4	629.19
333.629	645.19
333.857	677.19
334.085	739.19
334.314	811.19
334.542	836.19
334.771	748.19
334.999	699.19
335.227	635.19
335.455	633.19
335.684	643.19
335.912	648.19
336.14	658.19
336.369	645.19
336.597	601.19
336.825	597.19
337.053	630.19
337.281	671.19
337.51	705.19
337.738	725.19
337.966	662.19
338.194	617.19
338.422	584.19
338.65	591.19
338.878	589.19
339.106	578.19
339.334	563.19
339.562	567.19
339.79	601.19
340.018	628.19
340.246	637.19
340.474	641.19
340.702	597.19
340.93	639.19
341.158	609.19
341.386	627.19
341.614	602.19
341.842	575.19
342.07	604.19
342.298	616.19
342.526	609.19
342.754	601.19
342.981	604.19
343.209	611.19
343.437	586.19
343.665	587.19
343.893	607.19
344.12	649.19
344.348	636.19
344.576	609.19
344.804	599.19
345.031	611.19
345.259	600.19
345.487	588.19
345.714	553.19
345.942	537.19
346.17	573.19
346.397	583.19
346.625	568.19
346.853	551.19
347.08	547.19
347.308	549.19
347.535	567.19
347.763	582.19
347.99	570.19
348.218	559.19
348.445	561.19
348.673	561.19
348.9	578.19
349.128	610.19
349.355	608.19
349.583	589.19
349.81	561.19
350.037	567.19
350.265	567.19
350.492	558.19
350.72	565.19
350.947	560.19
351.174	563.19
351.402	533.19
351.629	539.19
351.856	546.19
352.083	535.19
352.311	536.19
352.538	555.19
352.765	586.19
352.992	567.19
353.22	555.19
353.447	545.19
353.674	570.19
353.901	574.19
354.128	546.19
354.355	585.19
354.583	575.19
354.81	601.19
355.037	591.19
355.264	577.19
355.491	579.19
355.718	575.19
355.945	562.19
356.172	532.19
356.399	556.19
356.626	546.19
356.853	595.19
357.08	654.19
357.307	679.19
357.534	661.19
357.761	586.19
357.988	577.19
358.215	534.19
358.441	553.19
358.668	539.19
358.895	560.19
359.122	609.19
359.349	646.19
359.576	619.19
359.802	589.19
360.029	572.19
360.256	556.19
360.483	581.19
360.709	598.19
360.936	606.19
361.163	619.19
361.39	693.19
361.616	707.19
361.843	711.19
362.07	659.19
362.296	601.19
362.523	567.19
362.749	549.19
362.976	589.19
363.203	587.19
363.429	578.19
363.656	562.19
363.882	604.19
364.109	658.19
364.335	663.19
364.562	596.19
364.788	599.19
365.015	545.19
365.241	575.19
365.468	595.19
365.694	639.19
365.92	614.19
366.147	581.19
366.373	557.19
366.599	555.19
366.826	548.19
367.052	584.19
367.278	573.19
367.505	574.19
367.731	613.19
367.957	592.19
368.184	639.19
368.41	671.19
368.636	669.19
368.862	669.19
369.089	647.19
369.315	637.19
369.541	629.19
369.767	626.19
369.993	580.19
370.219	591.19
370.445	600.19
370.672	659.19
370.898	670.19
371.124	656.19
371.35	638.19
371.576	669.19
371.802	654.19
372.028	662.19
372.254	625.19
372.48	603.19
372.706	601.19
372.932	619.19
373.158	606.19
373.384	633.19
373.61	655.19
373.835	662.19
374.061	635.19
374.287	630.19
374.513	645.19
374.739	641.19
374.965	641.19
375.191	663.19
375.416	654.19
375.642	696.19
375.868	708.19
376.094	734.19
376.319	671.19
376.545	652.19
376.771	675.19
376.997	694.19
377.222	693.19
377.448	673.19
377.674	687.19
377.899	697.19
378.125	730.19
378.35	693.19
378.576	658.19
378.802	643.19
379.027	627.19
379.253	630.19
379.478	631.19
379.704	646.19
379.929	651.19
380.155	647.19
380.38	639.19
380.606	653.19
380.831	663.19
381.057	691.19
381.282	677.19
381.507	683.19
381.733	742.19
381.958	757.19
382.184	715.19
382.409	699.19
382.634	675.19
382.86	686.19
383.085	678.19
383.31	702.19
383.535	797.19
383.761	825.19
383.986	797.19
384.211	736.19
384.436	728.19
384.662	740.19
384.887	773.19
385.112	754.19
385.337	734.19
385.562	734.19
385.787	739.19
386.013	749.19
386.238	763.19
386.463	802.19
386.688	835.19
386.913	843.19
387.138	813.19
387.363	773.19
387.588	805.19
387.813	759.19
388.038	796.19
388.263	815.19
388.488	767.19
388.713	744.19
388.938	725.19
389.163	738.19
389.387	738.19
389.612	751.19
389.837	782.19
390.062	772.19
390.287	747.19
390.512	753.19
390.736	758.19
390.961	728.19
391.186	717.19
391.411	722.19
391.636	745.19
391.86	769.19
392.085	740.19
392.31	760.19
392.534	749.19
392.759	754.19
392.984	753.19
393.208	781.19
393.433	795.19
393.658	843.19
393.882	822.19
394.107	777.19
394.331	740.19
394.556	754.19
394.78	787.19
395.005	794.19
395.229	853.19
395.454	907.19
395.678	854.19
395.903	840.19
396.127	818.19
396.352	823.19
396.576	841.19
396.801	851.19
397.025	841.19
397.249	881.19
397.474	817.19
397.698	830.19
397.922	886.19
398.147	897.19
398.371	910.19
398.595	899.19
398.82	876.19
399.044	879.19
399.268	918.19
399.492	989.19
399.717	1006.19
399.941	1021.19
400.165	970.19
400.389	965.19
400.613	990.19
400.837	1132.19
401.062	1182.19
401.286	1022.19
401.51	977.19
401.734	981.19
401.958	984.19
402.182	921.19
402.406	894.19
402.63	865.19
402.854	883.19
403.078	883.19
403.302	895.19
403.526	937.19
403.75	900.19
403.974	933.19
404.198	980.19
404.422	978.19
404.645	1025.19
404.869	975.19
405.093	909.19
405.317	889.19
405.541	943.19
405.765	930.19
405.988	933.19
406.212	947.19
406.436	974.19
406.66	1002.19
406.883	995.19
407.107	1126.19
407.331	1232.19
407.555	1301.19
407.778	1101.19
408.002	982.19
408.226	986.19
408.449	952.19
408.673	932.19
408.896	935.19
409.12	955.19
409.344	976.19
409.567	909.19
409.791	954.19
410.014	935.19
410.238	1040.19
410.461	1042.19
410.685	980.19
410.908	926.19
411.132	976.19
411.355	922.19
411.578	927.19
411.802	949.19
412.025	935.19
412.249	950.19
412.472	927.19
412.695	912.19
412.919	902.19
413.142	879.19
413.365	919.19
413.589	960.19
413.812	1002.19
414.035	986.19
414.258	926.19
414.482	914.19
414.705	933.19
414.928	919.19
415.151	912.19
415.374	944.19
415.597	969.19
415.821	938.19
416.044	974.19
416.267	965.19
416.49	931.19
416.713	893.19
416.936	973.19
417.159	1001.19
417.382	986.19
417.605	927.19
417.828	939.19
418.051	949.19
418.274	952.19
418.497	956.19
418.72	943.19
418.943	917.19
419.166	951.19
419.389	977.19
419.611	960.19
419.834	956.19
420.057	949.19
420.28	947.19
420.503	955.19
420.726	941.19
420.948	959.19
421.171	915.19
421.394	923.19
421.617	1019.19
421.839	991.19
422.062	970.19
422.285	953.19
422.507	935.19
422.73	915.19
422.953	890.19
423.175	883.19
423.398	906.19
423.621	897.19
423.843	972.19
424.066	971.19
424.288	1043.19
424.511	1051.19
424.733	1049.19
424.956	967.19
425.178	926.19
425.401	946.19
425.623	951.19
425.846	937.19
426.068	1000.19
426.291	991.19
426.513	949.19
426.735	947.19
426.958	1025.19
427.18	1069.19
427.402	1014.19
427.625	987.19
427.847	994.19
428.069	934.19
428.292	910.19
428.514	906.19
428.736	926.19
428.958	919.19
429.181	945.19
429.403	1078.19
429.625	1254.19
429.847	1033.19
430.069	969.19
430.292	1051.19
430.514	1053.19
430.736	989.19
430.958	982.19
431.18	941.19
431.402	886.19
431.624	831.19
431.846	784.19
432.068	714.19
432.29	742.19
432.512	795.19
432.734	876.19
432.956	925.19
433.178	969.19
433.4	960.19
433.622	976.19
433.844	907.19
434.066	884.19
434.287	819.19
434.509	773.19
434.731	809.19
434.953	918.19
435.175	929.19
435.397	921.19
435.618	870.19
435.84	852.19
436.062	838.19
436.284	919.19
436.505	917.19
436.727	932.19
436.949	916.19
437.17	881.19
437.392	897.19
437.614	865.19
437.835	794.19
438.057	820.19
438.278	887.19
438.5	863.19
438.721	923.19
438.943	895.19
439.165	918.19
439.386	954.19
439.608	965.19
439.829	939.19
440.05	962.19
440.272	963.19
440.493	949.19
440.715	961.19
440.936	1038.19
441.158	1062.19
441.379	1040.19
441.6	1077.19
441.822	1059.19
442.043	1016.19
442.264	981.19
442.486	951.19
442.707	952.19
442.928	946.19
443.149	1002.19
443.371	1032.19
443.592	1037.19
443.813	1023.19
444.034	1003.19
444.255	1034.19
444.476	1041.19
444.698	1061.19
444.919	1067.19
445.14	1136.19
445.361	1097.19
445.582	1075.19
445.803	1050.19
446.024	1041.19
446.245	1067.19
446.466	1074.19
446.687	1046.19
446.908	1055.19
447.129	1031.19
447.35	1014.19
447.571	1015.19
447.792	973.19
448.013	956.19
448.234	974.19
448.455	997.19
448.675	971.19
448.896	925.19
449.117	924.19
449.338	901.19
449.559	964.19
449.779	994.19
450	1027.19
450.221	1049.19
450.442	1047.19
450.662	958.19
450.883	889.19
451.104	868.19
451.324	885.19
451.545	892.19
451.766	847.19
451.986	852.19
452.207	847.19
452.428	778.19
452.648	810.19
452.869	781.19
453.089	787.19
453.31	797.19
453.53	795.19
453.751	715.19
453.971	691.19
454.192	736.19
454.412	791.19
454.633	795.19
454.853	814.19
455.073	751.19
455.294	779.19
455.514	799.19
455.734	783.19
455.955	767.19
456.175	725.19
456.395	737.19
456.616	725.19
456.836	739.19
457.056	742.19
457.276	745.19
457.497	716.19
457.717	699.19
457.937	718.19
458.157	738.19
458.377	704.19
458.598	671.19
458.818	686.19
459.038	699.19
459.258	738.19
459.478	700.19
459.698	680.19
459.918	743.19
460.138	803.19
460.358	820.19
460.578	847.19
460.798	859.19
461.018	922.19
461.238	897.19
461.458	869.19
461.678	848.19
461.898	839.19
462.118	828.19
462.338	846.19
462.558	861.19
462.777	853.19
462.997	859.19
463.217	905.19
463.437	906.19
463.657	861.19
463.876	838.19
464.096	856.19
464.316	847.19
464.536	868.19
464.755	884.19
464.975	866.19
465.195	851.19
465.414	906.19
465.634	867.19
465.854	881.19
466.073	950.19
466.293	922.19
466.512	863.19
466.732	896.19
466.951	957.19
467.171	938.19
467.391	896.19
467.61	870.19
467.829	925.19
468.049	998.19
468.268	1043.19
468.488	983.19
468.707	906.19
468.927	919.19
469.146	935.19
469.365	916.19
469.585	932.19
469.804	917.19
470.023	942.19
470.243	973.19
470.462	971.19
470.681	918.19
470.901	907.19
471.12	949.19
471.339	918.19
471.558	889.19
471.777	908.19
471.997	914.19
472.216	848.19
472.435	757.19
472.654	746.19
472.873	789.19
473.092	828.19
473.311	849.19
473.53	828.19
473.749	841.19
473.968	850.19
474.187	854.19
474.406	833.19
474.625	860.19
474.844	845.19
475.063	876.19
475.282	879.19
475.501	829.19
475.72	852.19
475.939	928.19
476.158	921.19
476.377	876.19
476.596	876.19
476.814	836.19
477.033	818.19
477.252	849.19
477.471	881.19
477.69	939.19
477.908	953.19
478.127	996.19
478.346	996.19
478.564	1012.19
478.783	1004.19
479.002	1049.19
479.22	997.19
479.439	1033.19
479.658	1048.19
479.876	996.19
480.095	917.19
480.313	913.19
480.532	890.19
480.751	863.19
480.969	851.19
481.188	787.19
481.406	794.19
481.624	788.19
481.843	783.19
482.061	811.19
482.28	893.19
482.498	907.19
482.717	868.19
482.935	889.19
483.153	973.19
483.372	1033.19
483.59	999.19
483.808	978.19
484.027	949.19
484.245	1006.19
484.463	1219.19
484.681	1301.19
484.9	1006.19
485.118	1000.19
485.336	933.19
485.554	899.19
485.772	885.19
485.99	852.19
486.209	903.19
486.427	924.19
486.645	925.19
486.863	1006.19
487.081	1053.19
487.299	1017.19
487.517	1063.19
487.735	1144.19
487.953	1207.19
488.171	1188.19
488.389	1161.19
488.607	1111.19
488.825	1153.19
489.043	1068.19
489.261	965.19
489.479	1059.19
489.696	1058.19
489.914	1036.19
490.132	1043.19
490.35	1095.19
490.568	1152.19
490.786	1178.19
491.003	1225.19
491.221	1238.19
491.439	1273.19
491.657	1322.19
491.874	1364.19
492.092	1469.19
492.31	1492.19
492.527	1465.19
492.745	1376.19
492.963	1313.19
493.18	1315.19
493.398	1382.19
493.615	1357.19
493.833	1278.19
494.05	1224.19
494.268	1262.19
494.485	1256.19
494.703	1227.19
494.92	1270.19
495.138	1253.19
495.355	1239.19
495.573	1243.19
495.79	1362.19
496.008	1311.19
496.225	1228.19
496.442	1240.19
496.66	1276.19
496.877	1207.19
497.094	1261.19
497.312	1220.19
497.529	1197.19
497.746	1173.19
497.963	1311.19
498.181	1326.19
498.398	1285.19
498.615	1196.19
498.832	1189.19
499.049	1162.19
499.267	1187.19
499.484	1282.19
499.701	1349.19
499.918	1398.19
500.135	1486.19
500.352	1572.19
