Data from WStandard_LampEnergy5.5LIBS07252019.E.O._I.C._HRD10591_16-07-03-920.txt Node
Date: Thu Jul 25 16:07:03 EDT 2019
User: cochatt
Spectrometer: HR+D1059
Trigger mode: 1
Integration Time (sec): 1.000000E-1
Scans to average: 1
Electric dark correction enabled: true
Nonlinearity correction enabled: false
Boxcar width: 0
XAxis mode: Wavelengths
Number of Pixels in Spectrum: 2048
>>>>>Begin Spectral Data<<<<<
223.165	-5.88
223.4	-5.88
223.635	-5.88
223.869	-22.88
224.104	-32.88
224.338	-9.88
224.573	-10.88
224.808	-12.88
225.042	1.12
225.277	-10.88
225.511	-2.88
225.746	11.12
225.98	5.12
226.215	14.12
226.449	19.12
226.683	21.12
226.918	8.12
227.152	29.12
227.387	20.12
227.621	35.12
227.856	33.12
228.09	56.12
228.324	46.12
228.559	50.12
228.793	159.12
229.027	375.12
229.262	390.12
229.496	389.12
229.73	429.12
229.964	445.12
230.199	476.12
230.433	477.12
230.667	511.12
230.901	547.12
231.136	491.12
231.37	506.12
231.604	470.12
231.838	470.12
232.072	481.12
232.306	470.12
232.541	503.12
232.775	557.12
233.009	633.12
233.243	632.12
233.477	545.12
233.711	569.12
233.945	579.12
234.179	586.12
234.413	623.12
234.647	649.12
234.881	630.12
235.115	568.12
235.349	577.12
235.583	603.12
235.817	565.12
236.051	554.12
236.285	583.12
236.519	606.12
236.753	688.12
236.987	715.12
237.221	703.12
237.455	779.12
237.689	753.12
237.922	719.12
238.156	689.12
238.39	697.12
238.624	708.12
238.858	785.12
239.091	787.12
239.325	837.12
239.559	978.12
239.793	999.12
240.027	1077.12
240.26	1089.12
240.494	779.12
240.728	736.12
240.961	756.12
241.195	775.12
241.429	864.12
241.662	877.12
241.896	803.12
242.13	789.12
242.363	878.12
242.597	953.12
242.83	911.12
243.064	930.12
243.298	966.12
243.531	976.12
243.765	981.12
243.998	956.12
244.232	858.12
244.465	800.12
244.699	817.12
244.932	951.12
245.166	1106.12
245.399	1017.12
245.633	920.12
245.866	932.12
246.099	990.12
246.333	975.12
246.566	1017.12
246.8	1087.12
247.033	1226.12
247.266	1107.12
247.5	1102.12
247.733	1113.12
247.966	1132.12
248.2	1289.12
248.433	1213.12
248.666	1279.12
248.899	1386.12
249.133	1610.12
249.366	1825.12
249.599	1503.12
249.832	1286.12
250.066	1335.12
250.299	1360.12
250.532	1274.12
250.765	1106.12
250.998	1172.12
251.231	1257.12
251.465	1257.12
251.698	1246.12
251.931	1245.12
252.164	1273.12
252.397	1318.12
252.63	1329.12
252.863	1169.12
253.096	1127.12
253.329	1188.12
253.562	1253.12
253.795	1320.12
254.028	1298.12
254.261	1231.12
254.494	1217.12
254.727	1129.12
254.96	1228.12
255.193	1303.12
255.426	1473.12
255.659	1680.12
255.892	1766.12
256.124	1435.12
256.357	1402.12
256.59	1525.12
256.823	1512.12
257.056	1488.12
257.289	1777.12
257.521	1982.12
257.754	1801.12
257.987	1660.12
258.22	1877.12
258.452	1851.12
258.685	1467.12
258.918	1437.12
259.151	1419.12
259.383	1394.12
259.616	1248.12
259.849	1285.12
260.081	1433.12
260.314	1619.12
260.547	1800.12
260.779	1810.12
261.012	1670.12
261.244	1486.12
261.477	1400.12
261.71	1475.12
261.942	1449.12
262.175	1428.12
262.407	1501.12
262.64	1445.12
262.872	1328.12
263.105	1284.12
263.337	1303.12
263.57	1354.12
263.802	1346.12
264.035	1285.12
264.267	1193.12
264.499	1170.12
264.732	1262.12
264.964	1370.12
265.197	1395.12
265.429	1463.12
265.661	1638.12
265.894	1824.12
266.126	1919.12
266.358	1627.12
266.591	1698.12
266.823	1928.12
267.055	1695.12
267.287	1635.12
267.52	1651.12
267.752	1628.12
267.984	1615.12
268.216	1710.12
268.448	1736.12
268.681	1699.12
268.913	1575.12
269.145	1494.12
269.377	1442.12
269.609	1576.12
269.841	1821.12
270.073	2127.12
270.306	2396.12
270.538	2550.12
270.77	2163.12
271.002	1807.12
271.234	1777.12
271.466	1687.12
271.698	1930.12
271.93	2360.12
272.162	2346.12
272.394	2065.12
272.626	1999.12
272.858	1742.12
273.09	1506.12
273.322	1491.12
273.553	1406.12
273.785	1455.12
274.017	1494.12
274.249	1612.12
274.481	1595.12
274.713	1510.12
274.945	1471.12
275.176	1449.12
275.408	1453.12
275.64	1428.12
275.872	1399.12
276.104	1471.12
276.335	1726.12
276.567	1950.12
276.799	2014.12
277.031	1769.12
277.262	1645.12
277.494	1725.12
277.726	1905.12
277.957	1912.12
278.189	1746.12
278.421	1576.12
278.652	1559.12
278.884	1522.12
279.115	1521.12
279.347	1561.12
279.579	1545.12
279.81	1497.12
280.042	1685.12
280.273	1872.12
280.505	1840.12
280.736	1902.12
280.968	1799.12
281.199	1571.12
281.431	1485.12
281.662	1480.12
281.894	1476.12
282.125	1591.12
282.356	1581.12
282.588	1589.12
282.819	1565.12
283.051	1716.12
283.282	1855.12
283.513	1782.12
283.745	1578.12
283.976	1473.12
284.207	1450.12
284.439	1525.12
284.67	1562.12
284.901	1619.12
285.132	1640.12
285.364	1611.12
285.595	1606.12
285.826	1584.12
286.057	1561.12
286.288	1525.12
286.52	1590.12
286.751	1735.12
286.982	1788.12
287.213	1629.12
287.444	1526.12
287.675	1471.12
287.906	1539.12
288.138	1694.12
288.369	1645.12
288.6	1569.12
288.831	1537.12
289.062	1517.12
289.293	1582.12
289.524	1572.12
289.755	1628.12
289.986	1623.12
290.217	1487.12
290.448	1522.12
290.679	1612.12
290.91	1573.12
291.141	1613.12
291.371	1715.12
291.602	1655.12
291.833	1614.12
292.064	1711.12
292.295	1667.12
292.526	1754.12
292.757	1833.12
292.987	1693.12
293.218	1595.12
293.449	1743.12
293.68	1953.12
293.91	2139.12
294.141	1938.12
294.372	1845.12
294.603	1884.12
294.833	2001.12
295.064	1877.12
295.295	1710.12
295.525	1695.12
295.756	1524.12
295.987	1463.12
296.217	1524.12
296.448	1512.12
296.679	1533.12
296.909	1547.12
297.14	1532.12
297.37	1569.12
297.601	1656.12
297.831	1804.12
298.062	1819.12
298.292	1635.12
298.523	1568.12
298.753	1569.12
298.984	1569.12
299.214	1590.12
299.445	1611.12
299.675	1679.12
299.905	1657.12
300.136	1623.12
300.366	1557.12
300.597	1539.12
300.827	1552.12
301.057	1568.12
301.288	1667.12
301.518	1667.12
301.748	1728.12
301.979	1765.12
302.209	1781.12
302.439	1905.12
302.669	2042.12
302.9	1925.12
303.13	1717.12
303.36	1674.12
303.59	1708.12
303.82	1665.12
304.051	1653.12
304.281	1705.12
304.511	1698.12
304.741	1773.12
304.971	1943.12
305.201	2175.12
305.431	1976.12
305.661	1699.12
305.891	1522.12
306.121	1522.12
306.352	1559.12
306.582	1627.12
306.812	1758.12
307.042	1919.12
307.272	1917.12
307.502	1950.12
307.731	2093.12
307.961	2269.12
308.191	2079.12
308.421	1765.12
308.651	1668.12
308.881	1622.12
309.111	1621.12
309.341	1596.12
309.571	1617.12
309.8	1664.12
310.03	1617.12
310.26	1579.12
310.49	1596.12
310.72	1623.12
310.949	1725.12
311.179	1762.12
311.409	1694.12
311.639	1691.12
311.868	1657.12
312.098	1656.12
312.328	1641.12
312.557	1638.12
312.787	1665.12
313.017	1753.12
313.246	1693.12
313.476	1680.12
313.706	1757.12
313.935	1758.12
314.165	1741.12
314.394	1773.12
314.624	1913.12
314.853	2011.12
315.083	2061.12
315.312	2165.12
315.542	1988.12
315.771	1739.12
316.001	1739.12
316.23	1858.12
316.46	1846.12
316.689	1826.12
316.919	1749.12
317.148	1694.12
317.377	1683.12
317.607	1782.12
317.836	2006.12
318.065	2102.12
318.295	2065.12
318.524	1961.12
318.753	1864.12
318.983	1879.12
319.212	1808.12
319.441	1762.12
319.67	1736.12
319.9	1801.12
320.129	1907.12
320.358	1951.12
320.587	2013.12
320.816	1997.12
321.046	1961.12
321.275	1833.12
321.504	1840.12
321.733	2013.12
321.962	1999.12
322.191	1797.12
322.42	1782.12
322.649	1754.12
322.878	1758.12
323.108	1790.12
323.337	1838.12
323.566	1827.12
323.795	1838.12
324.024	1889.12
324.253	1826.12
324.482	1798.12
324.71	1797.12
324.939	1658.12
325.168	1696.12
325.397	1761.12
325.626	1849.12
325.855	1891.12
326.084	1762.12
326.313	1775.12
326.542	1819.12
326.77	1834.12
326.999	1862.12
327.228	1818.12
327.457	1688.12
327.686	1673.12
327.914	1735.12
328.143	1795.12
328.372	1799.12
328.6	1770.12
328.829	1755.12
329.058	1718.12
329.287	1706.12
329.515	1801.12
329.744	1826.12
329.972	1913.12
330.201	1981.12
330.43	1931.12
330.658	1887.12
330.887	1903.12
331.115	1905.12
331.344	1929.12
331.572	1894.12
331.801	1841.12
332.03	1880.12
332.258	1859.12
332.486	1935.12
332.715	1890.12
332.943	1929.12
333.172	1831.12
333.4	1926.12
333.629	1955.12
333.857	2037.12
334.085	2263.12
334.314	2566.12
334.542	2870.12
334.771	2600.12
334.999	2253.12
335.227	2139.12
335.455	2059.12
335.684	2021.12
335.912	1999.12
336.14	2170.12
336.369	2095.12
336.597	1965.12
336.825	1878.12
337.053	1976.12
337.281	2061.12
337.51	2145.12
337.738	2219.12
337.966	2168.12
338.194	1957.12
338.422	1864.12
338.65	1850.12
338.878	1835.12
339.106	1808.12
339.334	1796.12
339.562	1736.12
339.79	1788.12
340.018	1925.12
340.246	1996.12
340.474	2009.12
340.702	1923.12
340.93	1956.12
341.158	1920.12
341.386	1877.12
341.614	1861.12
341.842	1879.12
342.07	1842.12
342.298	1894.12
342.526	1857.12
342.754	1865.12
342.981	1794.12
343.209	1853.12
343.437	1822.12
343.665	1797.12
343.893	1877.12
344.12	1974.12
344.348	2040.12
344.576	1957.12
344.804	1828.12
345.031	1869.12
345.259	1857.12
345.487	1823.12
345.714	1713.12
345.942	1655.12
346.17	1689.12
346.397	1735.12
346.625	1775.12
346.853	1721.12
347.08	1663.12
347.308	1633.12
347.535	1728.12
347.763	1764.12
347.99	1732.12
348.218	1703.12
348.445	1675.12
348.673	1722.12
348.9	1779.12
349.128	1792.12
349.355	1889.12
349.583	1882.12
349.81	1740.12
350.037	1616.12
350.265	1615.12
350.492	1615.12
350.72	1642.12
350.947	1746.12
351.174	1778.12
351.402	1661.12
351.629	1626.12
351.856	1597.12
352.083	1574.12
352.311	1602.12
352.538	1637.12
352.765	1727.12
352.992	1774.12
353.22	1736.12
353.447	1655.12
353.674	1676.12
353.901	1711.12
354.128	1697.12
354.355	1650.12
354.583	1735.12
354.81	1777.12
355.037	1786.12
355.264	1767.12
355.491	1735.12
355.718	1745.12
355.945	1702.12
356.172	1706.12
356.399	1680.12
356.626	1643.12
356.853	1670.12
357.08	1827.12
357.307	2009.12
357.534	2047.12
357.761	1819.12
357.988	1668.12
358.215	1607.12
358.441	1630.12
358.668	1634.12
358.895	1663.12
359.122	1712.12
359.349	1951.12
359.576	1904.12
359.802	1751.12
360.029	1670.12
360.256	1609.12
360.483	1615.12
360.709	1697.12
360.936	1801.12
361.163	1806.12
361.39	2007.12
361.616	2163.12
361.843	2086.12
362.07	1994.12
362.296	1767.12
362.523	1659.12
362.749	1682.12
362.976	1695.12
363.203	1750.12
363.429	1714.12
363.656	1641.12
363.882	1713.12
364.109	1862.12
364.335	2081.12
364.562	1922.12
364.788	1830.12
365.015	1751.12
365.241	1681.12
365.468	1688.12
365.694	1768.12
365.92	1871.12
366.147	1795.12
366.373	1669.12
366.599	1639.12
366.826	1638.12
367.052	1658.12
367.278	1653.12
367.505	1697.12
367.731	1748.12
367.957	1745.12
368.184	1769.12
368.41	1890.12
368.636	1941.12
368.862	1927.12
369.089	1954.12
369.315	1867.12
369.541	1773.12
369.767	1756.12
369.993	1655.12
370.219	1654.12
370.445	1712.12
370.672	1809.12
370.898	1953.12
371.124	1878.12
371.35	1793.12
371.576	1823.12
371.802	1898.12
372.028	1827.12
372.254	1772.12
372.48	1721.12
372.706	1699.12
372.932	1705.12
373.158	1726.12
373.384	1719.12
373.61	1766.12
373.835	1924.12
374.061	1813.12
374.287	1803.12
374.513	1793.12
374.739	1830.12
374.965	1809.12
375.191	1821.12
375.416	1825.12
375.642	1779.12
375.868	1914.12
376.094	1996.12
376.319	1889.12
376.545	1828.12
376.771	1843.12
376.997	1945.12
377.222	1903.12
377.448	1846.12
377.674	1893.12
377.899	1873.12
378.125	1950.12
378.35	1989.12
378.576	1783.12
378.802	1719.12
379.027	1717.12
379.253	1786.12
379.478	1787.12
379.704	1765.12
379.929	1719.12
380.155	1744.12
380.38	1789.12
380.606	1817.12
380.831	1788.12
381.057	1889.12
381.282	1941.12
381.507	1841.12
381.733	1937.12
381.958	2089.12
382.184	1921.12
382.409	1860.12
382.634	1831.12
382.86	1866.12
383.085	1860.12
383.31	1884.12
383.535	2047.12
383.761	2143.12
383.986	2095.12
384.211	2014.12
384.436	1997.12
384.662	2060.12
384.887	2180.12
385.112	2103.12
385.337	2042.12
385.562	2030.12
385.787	2060.12
386.013	2065.12
386.238	2109.12
386.463	2044.12
386.688	2178.12
386.913	2306.12
387.138	2273.12
387.363	2066.12
387.588	2107.12
387.813	2075.12
388.038	2117.12
388.263	2165.12
388.488	2124.12
388.713	1942.12
388.938	1951.12
389.163	1992.12
389.387	2002.12
389.612	2019.12
389.837	2060.12
390.062	2058.12
390.287	2088.12
390.512	2002.12
390.736	2028.12
390.961	1961.12
391.186	1933.12
391.411	1930.12
391.636	1998.12
391.86	2023.12
392.085	2028.12
392.31	2002.12
392.534	2024.12
392.759	2070.12
392.984	2028.12
393.208	2042.12
393.433	2163.12
393.658	2198.12
393.882	2199.12
394.107	2110.12
394.331	2071.12
394.556	1991.12
394.78	2074.12
395.005	2093.12
395.229	2195.12
395.454	2333.12
395.678	2389.12
395.903	2287.12
396.127	2137.12
396.352	2122.12
396.576	2188.12
396.801	2259.12
397.025	2244.12
397.249	2203.12
397.474	2193.12
397.698	2188.12
397.922	2239.12
398.147	2361.12
398.371	2435.12
398.595	2416.12
398.82	2302.12
399.044	2329.12
399.268	2461.12
399.492	2648.12
399.717	2701.12
399.941	2778.12
400.165	2686.12
400.389	2585.12
400.613	2559.12
400.837	2851.12
401.062	3229.12
401.286	2795.12
401.51	2550.12
401.734	2661.12
401.958	2584.12
402.182	2378.12
402.406	2317.12
402.63	2307.12
402.854	2327.12
403.078	2339.12
403.302	2375.12
403.526	2373.12
403.75	2445.12
403.974	2434.12
404.198	2360.12
404.422	2485.12
404.645	2626.12
404.869	2569.12
405.093	2383.12
405.317	2311.12
405.541	2423.12
405.765	2470.12
405.988	2427.12
406.212	2510.12
406.436	2484.12
406.66	2583.12
406.883	2609.12
407.107	2882.12
407.331	3183.12
407.555	3410.12
407.778	3159.12
408.002	2641.12
408.226	2593.12
408.449	2535.12
408.673	2407.12
408.896	2525.12
409.12	2549.12
409.344	2474.12
409.567	2351.12
409.791	2402.12
410.014	2470.12
410.238	2579.12
410.461	2781.12
410.685	2481.12
410.908	2373.12
411.132	2385.12
411.355	2408.12
411.578	2316.12
411.802	2346.12
412.025	2459.12
412.249	2382.12
412.472	2313.12
412.695	2250.12
412.919	2282.12
413.142	2295.12
413.365	2304.12
413.589	2422.12
413.812	2449.12
414.035	2567.12
414.258	2387.12
414.482	2265.12
414.705	2295.12
414.928	2267.12
415.151	2273.12
415.374	2299.12
415.597	2388.12
415.821	2385.12
416.044	2441.12
416.267	2429.12
416.49	2273.12
416.713	2181.12
416.936	2273.12
417.159	2375.12
417.382	2440.12
417.605	2290.12
417.828	2326.12
418.051	2380.12
418.274	2258.12
418.497	2194.12
418.72	2208.12
418.943	2197.12
419.166	2357.12
419.389	2473.12
419.611	2309.12
419.834	2254.12
420.057	2321.12
420.28	2239.12
420.503	2230.12
420.726	2302.12
420.948	2283.12
421.171	2170.12
421.394	2229.12
421.617	2305.12
421.839	2285.12
422.062	2269.12
422.285	2208.12
422.507	2168.12
422.73	2133.12
422.953	2119.12
423.175	2147.12
423.398	2185.12
423.621	2198.12
423.843	2239.12
424.066	2258.12
424.288	2331.12
424.511	2385.12
424.733	2342.12
424.956	2135.12
425.178	2078.12
425.401	2187.12
425.623	2182.12
425.846	2128.12
426.068	2264.12
426.291	2307.12
426.513	2245.12
426.735	2287.12
426.958	2419.12
427.18	2568.12
427.402	2328.12
427.625	2423.12
427.847	2438.12
428.069	2266.12
428.292	2160.12
428.514	2105.12
428.736	2129.12
428.958	2108.12
429.181	2133.12
429.403	2417.12
429.625	3056.12
429.847	2640.12
430.069	2217.12
430.292	2430.12
430.514	2589.12
430.736	2306.12
430.958	2432.12
431.18	2307.12
431.402	2145.12
431.624	2164.12
431.846	2141.12
432.068	2099.12
432.29	2179.12
432.512	2188.12
432.734	2241.12
432.956	2239.12
433.178	2341.12
433.4	2362.12
433.622	2325.12
433.844	2186.12
434.066	2115.12
434.287	2136.12
434.509	2204.12
434.731	2357.12
434.953	2512.12
435.175	2410.12
435.397	2250.12
435.618	2276.12
435.84	2320.12
436.062	2255.12
436.284	2278.12
436.505	2264.12
436.727	2308.12
436.949	2235.12
437.17	2159.12
437.392	2198.12
437.614	2191.12
437.835	2115.12
438.057	2278.12
438.278	2367.12
438.5	2180.12
438.721	2167.12
438.943	2154.12
439.165	2117.12
439.386	2045.12
439.608	2135.12
439.829	2170.12
440.05	2139.12
440.272	2144.12
440.493	2124.12
440.715	2169.12
440.936	2309.12
441.158	2541.12
441.379	2480.12
441.6	2443.12
441.822	2354.12
442.043	2336.12
442.264	2240.12
442.486	2140.12
442.707	2178.12
442.928	2118.12
443.149	2195.12
443.371	2372.12
443.592	2449.12
443.813	2327.12
444.034	2357.12
444.255	2343.12
444.476	2395.12
444.698	2480.12
444.919	2425.12
445.14	2487.12
445.361	2478.12
445.582	2613.12
445.803	2431.12
446.024	2357.12
446.245	2453.12
446.466	2377.12
446.687	2282.12
446.908	2280.12
447.129	2187.12
447.35	2229.12
447.571	2248.12
447.792	2135.12
448.013	2108.12
448.234	2133.12
448.455	2240.12
448.675	2237.12
448.896	2058.12
449.117	2055.12
449.338	2066.12
449.559	2184.12
449.779	2358.12
450	2562.12
450.221	2741.12
450.442	2623.12
450.662	2377.12
450.883	2053.12
451.104	2010.12
451.324	2109.12
451.545	2164.12
451.766	2106.12
451.986	2008.12
452.207	1994.12
452.428	1924.12
452.648	1901.12
452.869	1956.12
453.089	2137.12
453.31	2122.12
453.53	2196.12
453.751	2098.12
453.971	1958.12
454.192	1992.12
454.412	2143.12
454.633	2099.12
454.853	1983.12
455.073	1858.12
455.294	1881.12
455.514	1880.12
455.734	1897.12
455.955	1938.12
456.175	1905.12
456.395	1957.12
456.616	2012.12
456.836	2032.12
457.056	1961.12
457.276	2013.12
457.497	1952.12
457.717	1846.12
457.937	1862.12
458.157	1951.12
458.377	1909.12
458.598	1937.12
458.818	1911.12
459.038	2009.12
459.258	2157.12
459.478	2142.12
459.698	2129.12
459.918	2149.12
460.138	2255.12
460.358	2238.12
460.578	2301.12
460.798	2375.12
461.018	2559.12
461.238	2457.12
461.458	2287.12
461.678	2356.12
461.898	2261.12
462.118	2160.12
462.338	2307.12
462.558	2321.12
462.777	2281.12
462.997	2398.12
463.217	2554.12
463.437	2548.12
463.657	2368.12
463.876	2292.12
464.096	2287.12
464.316	2251.12
464.536	2403.12
464.755	2427.12
464.975	2477.12
465.195	2364.12
465.414	2454.12
465.634	2493.12
465.854	2281.12
466.073	2454.12
466.293	2419.12
466.512	2160.12
466.732	2143.12
466.951	2231.12
467.171	2203.12
467.391	2065.12
467.61	2048.12
467.829	2039.12
468.049	2229.12
468.268	2501.12
468.488	2372.12
468.707	2203.12
468.927	2150.12
469.146	2110.12
469.365	2084.12
469.585	2085.12
469.804	2065.12
470.023	2103.12
470.243	2176.12
470.462	2113.12
470.681	2076.12
470.901	2123.12
471.12	2137.12
471.339	2061.12
471.558	2025.12
471.777	2037.12
471.997	2082.12
472.216	2044.12
472.435	1996.12
472.654	2004.12
472.873	2149.12
473.092	2262.12
473.311	2141.12
473.53	2008.12
473.749	2036.12
473.968	2078.12
474.187	2160.12
474.406	2271.12
474.625	2155.12
474.844	2116.12
475.063	2134.12
475.282	2205.12
475.501	2143.12
475.72	2112.12
475.939	2265.12
476.158	2181.12
476.377	2127.12
476.596	2150.12
476.814	2268.12
477.033	2197.12
477.252	2318.12
477.471	2388.12
477.69	2280.12
477.908	2195.12
478.127	2387.12
478.346	2516.12
478.564	2595.12
478.783	2557.12
479.002	2591.12
479.22	2522.12
479.439	2622.12
479.658	2995.12
479.876	2964.12
480.095	2561.12
480.313	2502.12
480.532	2394.12
480.751	2399.12
480.969	2439.12
481.188	2401.12
481.406	2386.12
481.624	2280.12
481.843	2332.12
482.061	2353.12
482.28	2428.12
482.498	2493.12
482.717	2451.12
482.935	2388.12
483.153	2330.12
483.372	2364.12
483.59	2337.12
483.808	2359.12
484.027	2425.12
484.245	2567.12
484.463	2948.12
484.681	3414.12
484.9	2593.12
485.118	2409.12
485.336	2383.12
485.554	2453.12
485.772	2587.12
485.99	2517.12
486.209	2563.12
486.427	2545.12
486.645	2577.12
486.863	2458.12
487.081	2566.12
487.299	2630.12
487.517	2585.12
