Data from WStandard_LampEnergy8_LIBS07252019.E.O._I.C._HRD10591_16-00-30-929.txt Node
Date: Thu Jul 25 16:00:30 EDT 2019
User: cochatt
Spectrometer: HR+D1059
Trigger mode: 1
Integration Time (sec): 1.000000E-1
Scans to average: 1
Electric dark correction enabled: true
Nonlinearity correction enabled: false
Boxcar width: 0
XAxis mode: Wavelengths
Number of Pixels in Spectrum: 2048
>>>>>Begin Spectral Data<<<<<
223.165	-15.06
223.4	-15.06
223.635	-15.06
223.869	-13.06
224.104	-24.06
224.338	-17.06
224.573	-11.06
224.808	-23.06
225.042	-5.06
225.277	-8.06
225.511	-3.06
225.746	-4.06
225.98	13.94
226.215	17.94
226.449	15.94
226.683	18.94
226.918	35.94
227.152	20.94
227.387	27.94
227.621	31.94
227.856	34.94
228.09	28.94
228.324	43.94
228.559	47.94
228.793	106.94
229.027	213.94
229.262	207.94
229.496	190.94
229.73	219.94
229.964	228.94
230.199	235.94
230.433	225.94
230.667	263.94
230.901	282.94
231.136	245.94
231.37	226.94
231.604	238.94
231.838	247.94
232.072	263.94
232.306	248.94
232.541	269.94
232.775	294.94
233.009	328.94
233.243	298.94
233.477	294.94
233.711	295.94
233.945	295.94
234.179	283.94
234.413	283.94
234.647	333.94
234.881	297.94
235.115	285.94
235.349	287.94
235.583	301.94
235.817	277.94
236.051	279.94
236.285	298.94
236.519	304.94
236.753	325.94
236.987	357.94
237.221	347.94
237.455	360.94
237.689	358.94
237.922	334.94
238.156	328.94
238.39	360.94
238.624	363.94
238.858	390.94
239.091	385.94
239.325	425.94
239.559	460.94
239.793	474.94
240.027	504.94
240.26	476.94
240.494	360.94
240.728	336.94
240.961	365.94
241.195	370.94
241.429	396.94
241.662	389.94
241.896	383.94
242.13	387.94
242.363	422.94
242.597	460.94
242.83	427.94
243.064	458.94
243.298	446.94
243.531	448.94
243.765	461.94
243.998	437.94
244.232	407.94
244.465	379.94
244.699	411.94
244.932	454.94
245.166	490.94
245.399	474.94
245.633	474.94
245.866	449.94
246.099	452.94
246.333	447.94
246.566	466.94
246.8	517.94
247.033	581.94
247.266	498.94
247.5	507.94
247.733	505.94
247.966	537.94
248.2	614.94
248.433	566.94
248.666	590.94
248.899	638.94
249.133	693.94
249.366	779.94
249.599	646.94
249.832	588.94
250.066	628.94
250.299	618.94
250.532	583.94
250.765	524.94
250.998	551.94
251.231	568.94
251.465	587.94
251.698	563.94
251.931	567.94
252.164	581.94
252.397	595.94
252.63	588.94
252.863	542.94
253.096	538.94
253.329	558.94
253.562	564.94
253.795	564.94
254.028	602.94
254.261	547.94
254.494	528.94
254.727	526.94
254.96	567.94
255.193	606.94
255.426	656.94
255.659	757.94
255.892	770.94
256.124	646.94
256.357	640.94
256.59	671.94
256.823	676.94
257.056	683.94
257.289	816.94
257.521	876.94
257.754	799.94
257.987	746.94
258.22	810.94
258.452	780.94
258.685	671.94
258.918	659.94
259.151	647.94
259.383	631.94
259.616	571.94
259.849	597.94
260.081	652.94
260.314	725.94
260.547	786.94
260.779	804.94
261.012	746.94
261.244	678.94
261.477	654.94
261.71	677.94
261.942	668.94
262.175	680.94
262.407	649.94
262.64	636.94
262.872	610.94
263.105	596.94
263.337	609.94
263.57	628.94
263.802	609.94
264.035	586.94
264.267	565.94
264.499	544.94
264.732	582.94
264.964	615.94
265.197	660.94
265.429	702.94
265.661	747.94
265.894	834.94
266.126	842.94
266.358	772.94
266.591	788.94
266.823	861.94
267.055	784.94
267.287	756.94
267.52	752.94
267.752	739.94
267.984	729.94
268.216	772.94
268.448	796.94
268.681	771.94
268.913	719.94
269.145	687.94
269.377	685.94
269.609	753.94
269.841	881.94
270.073	967.94
270.306	1069.94
270.538	1058.94
270.77	943.94
271.002	782.94
271.234	768.94
271.466	790.94
271.698	882.94
271.93	1008.94
272.162	999.94
272.394	923.94
272.626	863.94
272.858	778.94
273.09	679.94
273.322	681.94
273.553	658.94
273.785	680.94
274.017	700.94
274.249	754.94
274.481	720.94
274.713	698.94
274.945	695.94
275.176	685.94
275.408	689.94
275.64	673.94
275.872	693.94
276.104	688.94
276.335	815.94
276.567	887.94
276.799	889.94
277.031	815.94
277.262	787.94
277.494	816.94
277.726	875.94
277.957	852.94
278.189	784.94
278.421	741.94
278.652	715.94
278.884	698.94
279.115	708.94
279.347	736.94
279.579	718.94
279.81	733.94
280.042	813.94
280.273	835.94
280.505	860.94
280.736	833.94
280.968	780.94
281.199	733.94
281.431	681.94
281.662	662.94
281.894	706.94
282.125	705.94
282.356	778.94
282.588	778.94
282.819	741.94
283.051	835.94
283.282	856.94
283.513	852.94
283.745	731.94
283.976	711.94
284.207	708.94
284.439	728.94
284.67	757.94
284.901	766.94
285.132	757.94
285.364	780.94
285.595	748.94
285.826	754.94
286.057	754.94
286.288	729.94
286.52	792.94
286.751	840.94
286.982	848.94
287.213	770.94
287.444	736.94
287.675	707.94
287.906	780.94
288.138	829.94
288.369	806.94
288.6	755.94
288.831	718.94
289.062	726.94
289.293	758.94
289.524	759.94
289.755	787.94
289.986	780.94
290.217	748.94
290.448	749.94
290.679	747.94
290.91	760.94
291.141	819.94
291.371	810.94
291.602	806.94
291.833	780.94
292.064	827.94
292.295	802.94
292.526	828.94
292.757	858.94
292.987	821.94
293.218	788.94
293.449	876.94
293.68	938.94
293.91	1015.94
294.141	924.94
294.372	876.94
294.603	894.94
294.833	960.94
295.064	900.94
295.295	837.94
295.525	778.94
295.756	760.94
295.987	728.94
296.217	725.94
296.448	748.94
296.679	726.94
296.909	752.94
297.14	755.94
297.37	772.94
297.601	818.94
297.831	872.94
298.062	845.94
298.292	826.94
298.523	768.94
298.753	783.94
298.984	784.94
299.214	783.94
299.445	797.94
299.675	823.94
299.905	816.94
300.136	768.94
300.366	754.94
300.597	744.94
300.827	787.94
301.057	788.94
301.288	862.94
301.518	831.94
301.748	826.94
301.979	887.94
302.209	898.94
302.439	954.94
302.669	962.94
302.9	910.94
303.13	836.94
303.36	851.94
303.59	862.94
303.82	851.94
304.051	838.94
304.281	856.94
304.511	900.94
304.741	931.94
304.971	1011.94
305.201	1045.94
305.431	942.94
305.661	785.94
305.891	729.94
306.121	736.94
306.352	786.94
306.582	825.94
306.812	882.94
307.042	926.94
307.272	931.94
307.502	986.94
307.731	1046.94
307.961	1040.94
308.191	967.94
308.421	880.94
308.651	835.94
308.881	821.94
309.111	832.94
309.341	804.94
309.571	824.94
309.8	812.94
310.03	802.94
310.26	796.94
310.49	775.94
310.72	834.94
310.949	871.94
311.179	876.94
311.409	871.94
311.639	821.94
311.868	847.94
312.098	856.94
312.328	851.94
312.557	831.94
312.787	844.94
313.017	851.94
313.246	864.94
313.476	846.94
313.706	847.94
313.935	860.94
314.165	894.94
314.394	895.94
314.624	969.94
314.853	1012.94
315.083	1023.94
315.312	1026.94
315.542	949.94
315.771	866.94
316.001	890.94
316.23	951.94
316.46	938.94
316.689	909.94
316.919	869.94
317.148	846.94
317.377	869.94
317.607	935.94
317.836	1063.94
318.065	1064.94
318.295	991.94
318.524	958.94
318.753	932.94
318.983	947.94
319.212	944.94
319.441	895.94
319.67	907.94
319.9	914.94
320.129	963.94
320.358	992.94
320.587	1007.94
320.816	1018.94
321.046	982.94
321.275	932.94
321.504	963.94
321.733	1043.94
321.962	987.94
322.191	927.94
322.42	928.94
322.649	930.94
322.878	902.94
323.108	903.94
323.337	952.94
323.566	952.94
323.795	953.94
324.024	951.94
324.253	925.94
324.482	922.94
324.71	876.94
324.939	862.94
325.168	905.94
325.397	918.94
325.626	936.94
325.855	927.94
326.084	908.94
326.313	918.94
326.542	921.94
326.77	972.94
326.999	957.94
327.228	908.94
327.457	881.94
327.686	871.94
327.914	906.94
328.143	912.94
328.372	909.94
328.6	889.94
328.829	887.94
329.058	898.94
329.287	896.94
329.515	926.94
329.744	958.94
329.972	992.94
330.201	1051.94
330.43	1016.94
330.658	970.94
330.887	979.94
331.115	979.94
331.344	980.94
331.572	949.94
331.801	959.94
332.03	970.94
332.258	988.94
332.486	983.94
332.715	980.94
332.943	972.94
333.172	979.94
333.4	985.94
333.629	1004.94
333.857	1078.94
334.085	1189.94
334.314	1377.94
334.542	1418.94
334.771	1262.94
334.999	1126.94
335.227	1078.94
335.455	1028.94
335.684	1026.94
335.912	1072.94
336.14	1077.94
336.369	1055.94
336.597	987.94
336.825	995.94
337.053	1037.94
337.281	1091.94
337.51	1128.94
337.738	1162.94
337.966	1082.94
338.194	976.94
338.422	959.94
338.65	968.94
338.878	957.94
339.106	906.94
339.334	918.94
339.562	939.94
339.79	934.94
340.018	993.94
340.246	1026.94
340.474	1020.94
340.702	978.94
340.93	1031.94
341.158	1026.94
341.386	990.94
341.614	978.94
341.842	934.94
342.07	994.94
342.298	980.94
342.526	959.94
342.754	959.94
342.981	951.94
343.209	955.94
343.437	957.94
343.665	956.94
343.893	1018.94
344.12	1025.94
344.348	1022.94
344.576	1001.94
344.804	983.94
345.031	927.94
345.259	1003.94
345.487	920.94
345.714	889.94
345.942	926.94
346.17	922.94
346.397	946.94
346.625	916.94
346.853	891.94
347.08	881.94
347.308	874.94
347.535	908.94
347.763	910.94
347.99	917.94
348.218	897.94
348.445	897.94
348.673	935.94
348.9	932.94
349.128	987.94
349.355	963.94
349.583	962.94
349.81	938.94
350.037	863.94
350.265	853.94
350.492	862.94
350.72	900.94
350.947	908.94
351.174	919.94
351.402	866.94
351.629	870.94
351.856	851.94
352.083	847.94
352.311	849.94
352.538	903.94
352.765	943.94
352.992	935.94
353.22	883.94
353.447	884.94
353.674	894.94
353.901	910.94
354.128	884.94
354.355	897.94
354.583	972.94
354.81	968.94
355.037	939.94
355.264	904.94
355.491	901.94
355.718	925.94
355.945	894.94
356.172	882.94
356.399	874.94
356.626	900.94
356.853	929.94
357.08	1006.94
357.307	1101.94
357.534	1030.94
357.761	946.94
357.988	881.94
358.215	839.94
358.441	882.94
358.668	853.94
358.895	896.94
359.122	958.94
359.349	1016.94
359.576	1019.94
359.802	940.94
360.029	877.94
360.256	850.94
360.483	878.94
360.709	905.94
360.936	961.94
361.163	1002.94
361.39	1066.94
361.616	1148.94
361.843	1107.94
362.07	1041.94
362.296	920.94
362.523	912.94
362.749	887.94
362.976	938.94
363.203	914.94
363.429	914.94
363.656	891.94
363.882	957.94
364.109	1028.94
364.335	1071.94
364.562	994.94
364.788	963.94
365.015	920.94
365.241	897.94
365.468	934.94
365.694	946.94
365.92	999.94
366.147	948.94
366.373	865.94
366.599	883.94
366.826	875.94
367.052	911.94
367.278	886.94
367.505	906.94
367.731	921.94
367.957	919.94
368.184	992.94
368.41	1020.94
368.636	1046.94
368.862	1036.94
369.089	1054.94
369.315	986.94
369.541	949.94
369.767	964.94
369.993	924.94
370.219	905.94
370.445	967.94
370.672	987.94
370.898	1071.94
371.124	1000.94
371.35	986.94
371.576	1023.94
371.802	1056.94
372.028	980.94
372.254	963.94
372.48	928.94
372.706	927.94
372.932	925.94
373.158	941.94
373.384	978.94
373.61	964.94
373.835	1043.94
374.061	987.94
374.287	1008.94
374.513	971.94
374.739	954.94
374.965	977.94
375.191	992.94
375.416	960.94
375.642	1031.94
375.868	1085.94
376.094	1109.94
376.319	1009.94
376.545	996.94
376.771	1027.94
376.997	1050.94
377.222	1043.94
377.448	1020.94
377.674	1020.94
377.899	1047.94
378.125	1102.94
378.35	1060.94
378.576	974.94
378.802	942.94
379.027	960.94
379.253	950.94
379.478	978.94
379.704	975.94
379.929	974.94
380.155	980.94
380.38	998.94
380.606	996.94
380.831	980.94
381.057	1050.94
381.282	1080.94
381.507	1053.94
381.733	1135.94
381.958	1142.94
382.184	1040.94
382.409	1006.94
382.634	1035.94
382.86	1030.94
383.085	1044.94
383.31	1043.94
383.535	1149.94
383.761	1198.94
383.986	1136.94
384.211	1122.94
384.436	1101.94
384.662	1138.94
384.887	1170.94
385.112	1130.94
385.337	1115.94
385.562	1131.94
385.787	1122.94
386.013	1148.94
386.238	1151.94
386.463	1159.94
386.688	1242.94
386.913	1290.94
387.138	1243.94
387.363	1161.94
387.588	1146.94
387.813	1143.94
388.038	1175.94
388.263	1196.94
388.488	1139.94
388.713	1083.94
388.938	1086.94
389.163	1102.94
389.387	1086.94
389.612	1090.94
389.837	1089.94
390.062	1131.94
390.287	1134.94
390.512	1108.94
390.736	1108.94
390.961	1064.94
391.186	1031.94
391.411	1067.94
391.636	1084.94
391.86	1114.94
392.085	1089.94
392.31	1088.94
392.534	1123.94
392.759	1121.94
392.984	1141.94
393.208	1127.94
393.433	1167.94
393.658	1201.94
393.882	1179.94
394.107	1142.94
394.331	1123.94
394.556	1132.94
394.78	1130.94
395.005	1178.94
395.229	1226.94
395.454	1303.94
395.678	1266.94
395.903	1226.94
396.127	1213.94
396.352	1191.94
396.576	1247.94
396.801	1250.94
397.025	1232.94
397.249	1203.94
397.474	1214.94
397.698	1197.94
397.922	1263.94
398.147	1309.94
398.371	1338.94
398.595	1313.94
398.82	1272.94
399.044	1307.94
399.268	1373.94
399.492	1447.94
399.717	1456.94
399.941	1478.94
400.165	1475.94
400.389	1402.94
400.613	1446.94
400.837	1643.94
401.062	1760.94
401.286	1530.94
401.51	1423.94
401.734	1444.94
401.958	1375.94
402.182	1295.94
402.406	1293.94
402.63	1280.94
402.854	1287.94
403.078	1301.94
403.302	1322.94
403.526	1333.94
403.75	1352.94
403.974	1329.94
404.198	1334.94
404.422	1432.94
404.645	1454.94
404.869	1402.94
405.093	1295.94
405.317	1311.94
405.541	1331.94
405.765	1363.94
405.988	1338.94
406.212	1341.94
406.436	1373.94
406.66	1426.94
406.883	1482.94
407.107	1642.94
407.331	1753.94
407.555	1879.94
407.778	1650.94
408.002	1470.94
408.226	1378.94
408.449	1388.94
408.673	1362.94
408.896	1393.94
409.12	1365.94
409.344	1365.94
409.567	1288.94
409.791	1345.94
410.014	1398.94
410.238	1450.94
410.461	1486.94
410.685	1368.94
410.908	1293.94
411.132	1368.94
411.355	1303.94
411.578	1302.94
411.802	1331.94
412.025	1338.94
412.249	1300.94
412.472	1299.94
412.695	1253.94
412.919	1315.94
413.142	1287.94
413.365	1311.94
413.589	1314.94
413.812	1412.94
414.035	1430.94
414.258	1303.94
414.482	1267.94
414.705	1313.94
414.928	1282.94
415.151	1274.94
415.374	1316.94
415.597	1303.94
415.821	1338.94
416.044	1377.94
416.267	1338.94
416.49	1248.94
416.713	1255.94
416.936	1315.94
417.159	1374.94
417.382	1331.94
417.605	1306.94
417.828	1317.94
418.051	1338.94
418.274	1308.94
418.497	1267.94
418.72	1256.94
418.943	1266.94
419.166	1314.94
419.389	1343.94
419.611	1290.94
419.834	1292.94
420.057	1302.94
420.28	1276.94
420.503	1276.94
420.726	1295.94
420.948	1300.94
421.171	1222.94
421.394	1284.94
421.617	1335.94
421.839	1300.94
422.062	1328.94
422.285	1283.94
422.507	1243.94
422.73	1214.94
422.953	1213.94
423.175	1244.94
423.398	1242.94
423.621	1253.94
423.843	1262.94
424.066	1307.94
424.288	1386.94
424.511	1409.94
424.733	1336.94
424.956	1245.94
425.178	1210.94
425.401	1210.94
425.623	1231.94
425.846	1255.94
426.068	1314.94
426.291	1306.94
426.513	1307.94
426.735	1310.94
426.958	1403.94
427.18	1422.94
427.402	1359.94
427.625	1422.94
427.847	1355.94
428.069	1272.94
428.292	1240.94
428.514	1198.94
428.736	1256.94
428.958	1240.94
429.181	1272.94
429.403	1454.94
429.625	1742.94
429.847	1455.94
430.069	1319.94
430.292	1434.94
430.514	1428.94
430.736	1322.94
430.958	1370.94
431.18	1296.94
431.402	1239.94
431.624	1205.94
431.846	1169.94
432.068	1117.94
432.29	1131.94
432.512	1164.94
432.734	1227.94
432.956	1272.94
433.178	1322.94
433.4	1327.94
433.622	1306.94
433.844	1267.94
434.066	1220.94
434.287	1177.94
434.509	1208.94
434.731	1273.94
434.953	1352.94
435.175	1301.94
435.397	1240.94
435.618	1250.94
435.84	1229.94
436.062	1235.94
436.284	1244.94
436.505	1283.94
436.727	1309.94
436.949	1249.94
437.17	1212.94
437.392	1204.94
437.614	1215.94
437.835	1194.94
438.057	1178.94
438.278	1243.94
438.5	1185.94
438.721	1212.94
438.943	1212.94
439.165	1215.94
439.386	1221.94
439.608	1247.94
439.829	1272.94
440.05	1243.94
440.272	1203.94
440.493	1235.94
440.715	1249.94
440.936	1350.94
441.158	1396.94
441.379	1383.94
441.6	1380.94
441.822	1353.94
442.043	1289.94
442.264	1276.94
442.486	1249.94
442.707	1247.94
442.928	1235.94
443.149	1249.94
443.371	1363.94
443.592	1351.94
443.813	1330.94
444.034	1345.94
444.255	1341.94
444.476	1378.94
444.698	1430.94
444.919	1386.94
445.14	1452.94
445.361	1432.94
445.582	1437.94
445.803	1372.94
446.024	1364.94
446.245	1381.94
446.466	1362.94
446.687	1333.94
446.908	1372.94
447.129	1276.94
447.35	1283.94
447.571	1249.94
447.792	1252.94
448.013	1243.94
448.234	1211.94
448.455	1270.94
448.675	1313.94
448.896	1194.94
449.117	1176.94
449.338	1208.94
449.559	1254.94
449.779	1306.94
450	1389.94
450.221	1446.94
450.442	1397.94
450.662	1275.94
450.883	1154.94
451.104	1161.94
451.324	1188.94
451.545	1207.94
451.766	1183.94
451.986	1107.94
452.207	1110.94
452.428	1072.94
452.648	1089.94
452.869	1094.94
453.089	1113.94
453.31	1152.94
453.53	1118.94
453.751	1084.94
453.971	1046.94
454.192	1086.94
454.412	1146.94
454.633	1115.94
454.853	1109.94
455.073	1021.94
455.294	1043.94
455.514	1052.94
455.734	1042.94
455.955	1036.94
456.175	1068.94
456.395	1044.94
456.616	1099.94
456.836	1097.94
457.056	1076.94
457.276	1029.94
457.497	1047.94
457.717	1008.94
457.937	1031.94
458.157	1053.94
458.377	1019.94
458.598	1012.94
458.818	1059.94
459.038	1096.94
459.258	1156.94
459.478	1119.94
459.698	1092.94
459.918	1154.94
460.138	1216.94
460.358	1201.94
460.578	1232.94
460.798	1303.94
461.018	1320.94
461.238	1267.94
461.458	1262.94
461.678	1230.94
461.898	1166.94
462.118	1212.94
462.338	1258.94
462.558	1233.94
462.777	1278.94
462.997	1276.94
463.217	1343.94
463.437	1308.94
463.657	1245.94
463.876	1248.94
464.096	1214.94
464.316	1212.94
464.536	1271.94
464.755	1288.94
464.975	1323.94
465.195	1261.94
465.414	1322.94
465.634	1280.94
465.854	1263.94
466.073	1357.94
466.293	1343.94
466.512	1204.94
466.732	1180.94
466.951	1226.94
467.171	1240.94
467.391	1184.94
467.61	1160.94
467.829	1202.94
468.049	1318.94
468.268	1456.94
468.488	1326.94
468.707	1256.94
468.927	1202.94
469.146	1196.94
469.365	1217.94
469.585	1255.94
469.804	1219.94
470.023	1225.94
470.243	1245.94
470.462	1224.94
470.681	1210.94
470.901	1246.94
471.12	1237.94
471.339	1232.94
471.558	1207.94
471.777	1173.94
471.997	1179.94
472.216	1196.94
472.435	1095.94
472.654	1153.94
472.873	1152.94
473.092	1219.94
473.311	1189.94
473.53	1146.94
473.749	1150.94
473.968	1151.94
474.187	1182.94
474.406	1225.94
474.625	1182.94
474.844	1174.94
475.063	1181.94
475.282	1182.94
475.501	1156.94
475.72	1187.94
475.939	1240.94
476.158	1195.94
476.377	1211.94
476.596	1175.94
476.814	1194.94
477.033	1189.94
477.252	1221.94
477.471	1275.94
477.69	1272.94
477.908	1259.94
478.127	1332.94
478.346	1407.94
478.564	1374.94
478.783	1349.94
479.002	1407.94
479.22	1413.94
479.439	1429.94
479.658	1584.94
479.876	1532.94
480.095	1366.94
480.313	1348.94
480.532	1323.94
480.751	1291.94
480.969	1298.94
481.188	1241.94
481.406	1206.94
481.624	1207.94
481.843	1268.94
482.061	1279.94
482.28	1336.94
482.498	1306.94
482.717	1294.94
482.935	1278.94
483.153	1364.94
483.372	1375.94
483.59	1364.94
483.808	1325.94
484.027	1342.94
484.245	1406.94
484.463	1726.94
484.681	1844.94
484.9	1468.94
485.118	1358.94
485.336	1344.94
485.554	1394.94
485.772	1391.94
485.99	1322.94
486.209	1346.94
486.427	1336.94
486.645	1375.94
486.863	1394.94
487.081	1442.94
487.299	1458.94
487.517	1422.94
487.735	1454.94
487.953	1486.94
488.171	1470.94
488.389	1430.94
488.607	1436.94
488.825	1617.94
489.043	1503.94
489.261	1381.94
489.479	1448.94
489.696	1491.94
489.914	1436.94
490.132	1468.94
490.35	1455.94
490.568	1490.94
490.786	1455.94
491.003	1489.94
491.221	1517.94
491.439	1519.94
491.657	1561.94
491.874	1563.94
492.092	1648.94
492.31	1666.94
492.527	1668.94
492.745	1601.94
492.963	1568.94
493.18	1631.94
493.398	1683.94
493.615	1648.94
493.833	1558.94
494.05	1555.94
