Data from WStandard_LampEnergy10_LIBS07252019.E.O._I.C._HRD10591_15-53-21-928.txt Node
Date: Thu Jul 25 15:53:21 EDT 2019
User: cochatt
Spectrometer: HR+D1059
Trigger mode: 1
Integration Time (sec): 1.000000E-1
Scans to average: 1
Electric dark correction enabled: true
Nonlinearity correction enabled: false
Boxcar width: 0
XAxis mode: Wavelengths
Number of Pixels in Spectrum: 2048
>>>>>Begin Spectral Data<<<<<
223.165	-9.75
223.4	-9.75
223.635	-9.75
223.869	-22.75
224.104	-20.75
224.338	-10.75
224.573	-7.75
224.808	-13.75
225.042	3.25
225.277	2.25
225.511	-18.75
225.746	-1.75
225.98	1.25
226.215	-7.75
226.449	9.25
226.683	20.25
226.918	39.25
227.152	38.25
227.387	40.25
227.621	37.25
227.856	37.25
228.09	57.25
228.324	56.25
228.559	52.25
228.793	93.25
229.027	128.25
229.262	137.25
229.496	154.25
229.73	154.25
229.964	172.25
230.199	171.25
230.433	166.25
230.667	188.25
230.901	196.25
231.136	168.25
231.37	172.25
231.604	180.25
231.838	169.25
232.072	173.25
232.306	171.25
232.541	192.25
232.775	187.25
233.009	206.25
233.243	205.25
233.477	207.25
233.711	189.25
233.945	188.25
234.179	195.25
234.413	209.25
234.647	217.25
234.881	217.25
235.115	201.25
235.349	200.25
235.583	205.25
235.817	197.25
236.051	180.25
236.285	190.25
236.519	204.25
236.753	230.25
236.987	230.25
237.221	232.25
237.455	230.25
237.689	225.25
237.922	221.25
238.156	211.25
238.39	212.25
238.624	233.25
238.858	241.25
239.091	257.25
239.325	258.25
239.559	275.25
239.793	292.25
240.027	312.25
240.26	294.25
240.494	246.25
240.728	219.25
240.961	229.25
241.195	244.25
241.429	256.25
241.662	264.25
241.896	248.25
242.13	257.25
242.363	278.25
242.597	278.25
242.83	281.25
243.064	268.25
243.298	280.25
243.531	283.25
243.765	262.25
243.998	286.25
244.232	256.25
244.465	248.25
244.699	260.25
244.932	295.25
245.166	310.25
245.399	288.25
245.633	288.25
245.866	285.25
246.099	292.25
246.333	286.25
246.566	297.25
246.8	332.25
247.033	341.25
247.266	327.25
247.5	319.25
247.733	332.25
247.966	357.25
248.2	361.25
248.433	337.25
248.666	356.25
248.899	378.25
249.133	422.25
249.366	448.25
249.599	382.25
249.832	344.25
250.066	376.25
250.299	360.25
250.532	355.25
250.765	335.25
250.998	340.25
251.231	358.25
251.465	364.25
251.698	346.25
251.931	348.25
252.164	362.25
252.397	380.25
252.63	370.25
252.863	340.25
253.096	330.25
253.329	346.25
253.562	364.25
253.795	380.25
254.028	376.25
254.261	329.25
254.494	348.25
254.727	344.25
254.96	373.25
255.193	376.25
255.426	410.25
255.659	445.25
255.892	440.25
256.124	402.25
256.357	380.25
256.59	406.25
256.823	408.25
257.056	417.25
257.289	480.25
257.521	518.25
257.754	470.25
257.987	456.25
258.22	461.25
258.452	451.25
258.685	399.25
258.918	387.25
259.151	390.25
259.383	372.25
259.616	336.25
259.849	373.25
260.081	422.25
260.314	451.25
260.547	480.25
260.779	466.25
261.012	449.25
261.244	399.25
261.477	379.25
261.71	423.25
261.942	395.25
262.175	407.25
262.407	414.25
262.64	364.25
262.872	372.25
263.105	360.25
263.337	362.25
263.57	388.25
263.802	373.25
264.035	374.25
264.267	340.25
264.499	360.25
264.732	371.25
264.964	408.25
265.197	412.25
265.429	426.25
265.661	446.25
265.894	496.25
266.126	493.25
266.358	452.25
266.591	467.25
266.823	491.25
267.055	462.25
267.287	454.25
267.52	453.25
267.752	453.25
267.984	438.25
268.216	477.25
268.448	458.25
268.681	454.25
268.913	418.25
269.145	414.25
269.377	414.25
269.609	462.25
269.841	483.25
270.073	548.25
270.306	631.25
270.538	600.25
270.77	555.25
271.002	501.25
271.234	452.25
271.466	464.25
271.698	536.25
271.93	581.25
272.162	599.25
272.394	520.25
272.626	504.25
272.858	448.25
273.09	410.25
273.322	396.25
273.553	407.25
273.785	406.25
274.017	434.25
274.249	444.25
274.481	443.25
274.713	419.25
274.945	407.25
275.176	434.25
275.408	417.25
275.64	389.25
275.872	405.25
276.104	437.25
276.335	481.25
276.567	534.25
276.799	508.25
277.031	477.25
277.262	487.25
277.494	502.25
277.726	538.25
277.957	516.25
278.189	468.25
278.421	438.25
278.652	416.25
278.884	453.25
279.115	438.25
279.347	456.25
279.579	454.25
279.81	423.25
280.042	474.25
280.273	512.25
280.505	538.25
280.736	509.25
280.968	472.25
281.199	436.25
281.431	421.25
281.662	426.25
281.894	452.25
282.125	466.25
282.356	447.25
282.588	438.25
282.819	458.25
283.051	518.25
283.282	504.25
283.513	490.25
283.745	442.25
283.976	417.25
284.207	440.25
284.439	440.25
284.67	475.25
284.901	462.25
285.132	465.25
285.364	457.25
285.595	463.25
285.826	465.25
286.057	436.25
286.288	469.25
286.52	479.25
286.751	504.25
286.982	485.25
287.213	465.25
287.444	427.25
287.675	450.25
287.906	469.25
288.138	490.25
288.369	471.25
288.6	454.25
288.831	432.25
289.062	449.25
289.293	457.25
289.524	444.25
289.755	459.25
289.986	470.25
290.217	445.25
290.448	458.25
290.679	459.25
290.91	492.25
291.141	479.25
291.371	494.25
291.602	506.25
291.833	470.25
292.064	511.25
292.295	504.25
292.526	507.25
292.757	507.25
292.987	496.25
293.218	477.25
293.449	553.25
293.68	577.25
293.91	585.25
294.141	563.25
294.372	514.25
294.603	562.25
294.833	576.25
295.064	529.25
295.295	504.25
295.525	479.25
295.756	440.25
295.987	439.25
296.217	439.25
296.448	450.25
296.679	460.25
296.909	466.25
297.14	448.25
297.37	488.25
297.601	512.25
297.831	510.25
298.062	542.25
298.292	486.25
298.523	490.25
298.753	452.25
298.984	467.25
299.214	502.25
299.445	493.25
299.675	489.25
299.905	500.25
300.136	484.25
300.366	483.25
300.597	478.25
300.827	481.25
301.057	492.25
301.288	510.25
301.518	519.25
301.748	518.25
301.979	561.25
302.209	564.25
302.439	576.25
302.669	574.25
302.9	546.25
303.13	508.25
303.36	506.25
303.59	509.25
303.82	506.25
304.051	542.25
304.281	516.25
304.511	541.25
304.741	570.25
304.971	603.25
305.201	636.25
305.431	580.25
305.661	522.25
305.891	470.25
306.121	483.25
306.352	492.25
306.582	513.25
306.812	553.25
307.042	569.25
307.272	586.25
307.502	602.25
307.731	636.25
307.961	641.25
308.191	588.25
308.421	525.25
308.651	518.25
308.881	499.25
309.111	497.25
309.341	489.25
309.571	493.25
309.8	501.25
310.03	497.25
310.26	484.25
310.49	502.25
310.72	498.25
310.949	524.25
311.179	522.25
311.409	516.25
311.639	531.25
311.868	491.25
312.098	475.25
312.328	504.25
312.557	524.25
312.787	530.25
313.017	532.25
313.246	536.25
313.476	538.25
313.706	530.25
313.935	524.25
314.165	552.25
314.394	561.25
314.624	590.25
314.853	613.25
315.083	628.25
315.312	612.25
315.542	580.25
315.771	553.25
316.001	580.25
316.23	586.25
316.46	591.25
316.689	568.25
316.919	521.25
317.148	518.25
317.377	536.25
317.607	587.25
317.836	638.25
318.065	643.25
318.295	631.25
318.524	604.25
318.753	574.25
318.983	572.25
319.212	553.25
319.441	545.25
319.67	549.25
319.9	576.25
320.129	610.25
320.358	611.25
320.587	608.25
320.816	613.25
321.046	595.25
321.275	598.25
321.504	596.25
321.733	616.25
321.962	611.25
322.191	557.25
322.42	561.25
322.649	579.25
322.878	552.25
323.108	566.25
323.337	564.25
323.566	593.25
323.795	600.25
324.024	569.25
324.253	582.25
324.482	561.25
324.71	531.25
324.939	532.25
325.168	571.25
325.397	564.25
325.626	569.25
325.855	590.25
326.084	577.25
326.313	566.25
326.542	582.25
326.77	602.25
326.999	570.25
327.228	585.25
327.457	538.25
327.686	538.25
327.914	541.25
328.143	593.25
328.372	575.25
328.6	554.25
328.829	539.25
329.058	548.25
329.287	539.25
329.515	575.25
329.744	588.25
329.972	618.25
330.201	616.25
330.43	605.25
330.658	586.25
330.887	598.25
331.115	597.25
331.344	609.25
331.572	594.25
331.801	584.25
332.03	573.25
332.258	599.25
332.486	623.25
332.715	608.25
332.943	575.25
333.172	602.25
333.4	611.25
333.629	650.25
333.857	674.25
334.085	783.25
334.314	834.25
334.542	868.25
334.771	757.25
334.999	685.25
335.227	662.25
335.455	633.25
335.684	629.25
335.912	646.25
336.14	664.25
336.369	621.25
336.597	610.25
336.825	616.25
337.053	646.25
337.281	696.25
337.51	709.25
337.738	684.25
337.966	670.25
338.194	610.25
338.422	599.25
338.65	587.25
338.878	568.25
339.106	572.25
339.334	587.25
339.562	585.25
339.79	602.25
340.018	596.25
340.246	649.25
340.474	622.25
340.702	635.25
340.93	606.25
341.158	630.25
341.386	613.25
341.614	594.25
341.842	607.25
342.07	611.25
342.298	617.25
342.526	613.25
342.754	597.25
342.981	594.25
343.209	597.25
343.437	579.25
343.665	594.25
343.893	649.25
344.12	652.25
344.348	627.25
344.576	596.25
344.804	627.25
345.031	616.25
345.259	584.25
345.487	578.25
345.714	547.25
345.942	559.25
346.17	576.25
346.397	598.25
346.625	611.25
346.853	552.25
347.08	530.25
347.308	554.25
347.535	570.25
347.763	586.25
347.99	569.25
348.218	583.25
348.445	562.25
348.673	577.25
348.9	602.25
349.128	624.25
349.355	617.25
349.583	615.25
349.81	564.25
350.037	547.25
350.265	560.25
350.492	542.25
350.72	545.25
350.947	583.25
351.174	578.25
351.402	556.25
351.629	522.25
351.856	529.25
352.083	531.25
352.311	549.25
352.538	556.25
352.765	590.25
352.992	564.25
353.22	558.25
353.447	547.25
353.674	578.25
353.901	554.25
354.128	556.25
354.355	560.25
354.583	577.25
354.81	604.25
355.037	596.25
355.264	579.25
355.491	580.25
355.718	556.25
355.945	565.25
356.172	550.25
356.399	574.25
356.626	562.25
356.853	593.25
357.08	660.25
357.307	681.25
357.534	673.25
357.761	581.25
357.988	559.25
358.215	548.25
358.441	567.25
358.668	543.25
358.895	538.25
359.122	609.25
359.349	648.25
359.576	615.25
359.802	578.25
360.029	532.25
360.256	557.25
360.483	570.25
360.709	573.25
360.936	611.25
361.163	648.25
361.39	681.25
361.616	719.25
361.843	718.25
362.07	636.25
362.296	552.25
362.523	579.25
362.749	566.25
362.976	588.25
363.203	595.25
363.429	589.25
363.656	566.25
363.882	616.25
364.109	651.25
364.335	665.25
364.562	610.25
364.788	601.25
365.015	592.25
365.241	560.25
365.468	592.25
365.694	608.25
365.92	624.25
366.147	572.25
366.373	574.25
366.599	587.25
366.826	569.25
367.052	592.25
367.278	568.25
367.505	592.25
367.731	592.25
367.957	623.25
368.184	642.25
368.41	668.25
368.636	683.25
368.862	668.25
369.089	667.25
369.315	636.25
369.541	629.25
369.767	597.25
369.993	599.25
370.219	607.25
370.445	609.25
370.672	674.25
370.898	653.25
371.124	648.25
371.35	648.25
371.576	654.25
371.802	681.25
372.028	629.25
372.254	631.25
372.48	605.25
372.706	605.25
372.932	626.25
373.158	615.25
373.384	628.25
373.61	621.25
373.835	642.25
374.061	642.25
374.287	636.25
374.513	637.25
374.739	655.25
374.965	638.25
375.191	660.25
375.416	648.25
375.642	672.25
375.868	722.25
376.094	712.25
376.319	677.25
376.545	650.25
376.771	679.25
376.997	696.25
377.222	692.25
377.448	661.25
377.674	658.25
377.899	694.25
378.125	721.25
378.35	694.25
378.576	628.25
378.802	607.25
379.027	637.25
379.253	632.25
379.478	650.25
379.704	670.25
379.929	627.25
380.155	661.25
380.38	670.25
380.606	662.25
380.831	668.25
381.057	715.25
381.282	688.25
381.507	688.25
381.733	740.25
381.958	730.25
382.184	704.25
382.409	684.25
382.634	684.25
382.86	697.25
383.085	698.25
383.31	714.25
383.535	792.25
383.761	804.25
383.986	754.25
384.211	714.25
384.436	727.25
384.662	763.25
384.887	752.25
385.112	735.25
385.337	752.25
385.562	742.25
385.787	746.25
386.013	790.25
386.238	768.25
386.463	762.25
386.688	832.25
386.913	864.25
387.138	813.25
387.363	778.25
387.588	771.25
387.813	785.25
388.038	797.25
388.263	825.25
388.488	738.25
388.713	741.25
388.938	731.25
389.163	744.25
389.387	748.25
389.612	748.25
389.837	768.25
390.062	754.25
390.287	766.25
390.512	773.25
390.736	770.25
390.961	749.25
391.186	728.25
391.411	747.25
391.636	746.25
391.86	755.25
392.085	747.25
392.31	744.25
392.534	779.25
392.759	766.25
392.984	769.25
393.208	787.25
393.433	804.25
393.658	837.25
393.882	832.25
394.107	777.25
394.331	762.25
394.556	790.25
394.78	798.25
395.005	823.25
395.229	833.25
395.454	882.25
395.678	846.25
395.903	841.25
396.127	822.25
396.352	813.25
396.576	851.25
396.801	866.25
397.025	852.25
397.249	836.25
397.474	824.25
397.698	838.25
397.922	881.25
398.147	912.25
398.371	924.25
398.595	918.25
398.82	896.25
399.044	897.25
399.268	942.25
399.492	981.25
399.717	979.25
399.941	982.25
400.165	977.25
400.389	978.25
400.613	995.25
400.837	1100.25
401.062	1192.25
401.286	1031.25
401.51	976.25
401.734	992.25
401.958	955.25
402.182	931.25
402.406	900.25
402.63	870.25
402.854	872.25
403.078	892.25
403.302	932.25
403.526	918.25
403.75	916.25
403.974	972.25
404.198	936.25
404.422	995.25
404.645	1034.25
404.869	988.25
405.093	914.25
405.317	880.25
405.541	936.25
405.765	946.25
405.988	928.25
406.212	940.25
406.436	1000.25
406.66	1026.25
406.883	1043.25
407.107	1136.25
407.331	1217.25
407.555	1274.25
407.778	1166.25
408.002	992.25
408.226	988.25
408.449	977.25
408.673	970.25
408.896	968.25
409.12	977.25
409.344	944.25
409.567	942.25
409.791	947.25
410.014	993.25
410.238	1041.25
410.461	1066.25
410.685	962.25
410.908	918.25
411.132	974.25
411.355	932.25
411.578	938.25
411.802	954.25
412.025	982.25
412.249	960.25
412.472	944.25
412.695	934.25
412.919	913.25
413.142	891.25
413.365	972.25
413.589	979.25
413.812	1001.25
414.035	993.25
414.258	951.25
414.482	917.25
414.705	937.25
414.928	940.25
415.151	909.25
415.374	916.25
415.597	984.25
415.821	960.25
416.044	965.25
416.267	939.25
416.49	911.25
416.713	919.25
416.936	955.25
417.159	968.25
417.382	987.25
417.605	952.25
417.828	945.25
418.051	940.25
418.274	950.25
418.497	947.25
418.72	953.25
418.943	958.25
419.166	961.25
419.389	993.25
419.611	1016.25
419.834	973.25
420.057	955.25
420.28	941.25
420.503	936.25
420.726	962.25
420.948	939.25
421.171	952.25
421.394	975.25
421.617	1007.25
421.839	1003.25
422.062	1012.25
422.285	932.25
422.507	949.25
422.73	898.25
422.953	904.25
423.175	881.25
423.398	924.25
423.621	929.25
423.843	966.25
424.066	1008.25
424.288	1017.25
424.511	1067.25
424.733	985.25
424.956	929.25
425.178	961.25
425.401	943.25
425.623	968.25
425.846	946.25
426.068	989.25
426.291	974.25
426.513	968.25
426.735	974.25
426.958	1061.25
427.18	1066.25
427.402	1020.25
427.625	1045.25
427.847	1001.25
428.069	956.25
428.292	921.25
428.514	913.25
428.736	924.25
428.958	938.25
429.181	964.25
429.403	1084.25
429.625	1204.25
429.847	1028.25
430.069	966.25
430.292	1049.25
430.514	1046.25
430.736	988.25
430.958	1008.25
431.18	938.25
431.402	914.25
431.624	854.25
431.846	816.25
432.068	719.25
432.29	758.25
432.512	823.25
432.734	880.25
432.956	950.25
433.178	970.25
433.4	969.25
433.622	980.25
433.844	892.25
434.066	873.25
434.287	792.25
434.509	791.25
434.731	836.25
434.953	924.25
435.175	941.25
435.397	937.25
435.618	883.25
435.84	858.25
436.062	836.25
436.284	880.25
436.505	900.25
436.727	980.25
436.949	898.25
437.17	918.25
437.392	924.25
437.614	856.25
437.835	805.25
438.057	815.25
438.278	834.25
438.5	879.25
438.721	892.25
438.943	915.25
439.165	930.25
439.386	923.25
439.608	967.25
439.829	948.25
440.05	974.25
440.272	946.25
440.493	973.25
440.715	992.25
440.936	1045.25
441.158	1062.25
441.379	1038.25
441.6	1027.25
441.822	1069.25
442.043	1010.25
442.264	999.25
442.486	970.25
442.707	970.25
442.928	963.25
443.149	980.25
443.371	986.25
443.592	1037.25
443.813	1044.25
444.034	1018.25
444.255	1035.25
444.476	1072.25
444.698	1070.25
444.919	1060.25
445.14	1165.25
445.361	1142.25
445.582	1062.25
445.803	1049.25
446.024	1013.25
446.245	1052.25
446.466	1061.25
446.687	1067.25
446.908	1063.25
447.129	1044.25
447.35	1034.25
447.571	1006.25
447.792	968.25
448.013	987.25
448.234	993.25
448.455	1026.25
448.675	1026.25
448.896	939.25
449.117	912.25
449.338	933.25
449.559	984.25
449.779	985.25
450	1023.25
450.221	1058.25
450.442	1038.25
450.662	980.25
450.883	892.25
451.104	868.25
451.324	878.25
451.545	892.25
451.766	875.25
451.986	860.25
452.207	818.25
452.428	816.25
452.648	783.25
452.869	807.25
453.089	786.25
453.31	762.25
453.53	778.25
453.751	745.25
453.971	712.25
454.192	749.25
454.412	781.25
454.633	800.25
454.853	786.25
455.073	770.25
455.294	779.25
455.514	790.25
455.734	785.25
455.955	792.25
456.175	788.25
456.395	755.25
456.616	730.25
456.836	758.25
457.056	732.25
457.276	741.25
457.497	715.25
457.717	710.25
457.937	717.25
458.157	734.25
458.377	721.25
458.598	683.25
458.818	674.25
459.038	709.25
459.258	724.25
459.478	720.25
459.698	733.25
459.918	737.25
460.138	836.25
460.358	834.25
460.578	853.25
460.798	871.25
461.018	873.25
461.238	894.25
461.458	887.25
461.678	856.25
461.898	830.25
462.118	830.25
462.338	852.25
462.558	868.25
462.777	877.25
462.997	878.25
463.217	908.25
463.437	858.25
463.657	834.25
463.876	832.25
464.096	857.25
464.316	874.25
464.536	858.25
464.755	876.25
464.975	881.25
465.195	864.25
465.414	884.25
465.634	882.25
465.854	915.25
466.073	990.25
466.293	967.25
466.512	891.25
466.732	881.25
466.951	934.25
467.171	920.25
467.391	883.25
467.61	870.25
467.829	909.25
468.049	981.25
468.268	1074.25
468.488	981.25
468.707	900.25
468.927	941.25
469.146	918.25
469.365	948.25
469.585	963.25
469.804	923.25
470.023	952.25
470.243	956.25
470.462	937.25
470.681	941.25
470.901	944.25
471.12	934.25
471.339	943.25
471.558	935.25
471.777	920.25
471.997	920.25
472.216	863.25
472.435	804.25
472.654	787.25
472.873	784.25
473.092	859.25
473.311	832.25
473.53	800.25
473.749	836.25
473.968	858.25
474.187	855.25
474.406	841.25
474.625	850.25
474.844	904.25
475.063	876.25
475.282	880.25
475.501	834.25
475.72	872.25
475.939	923.25
476.158	886.25
476.377	857.25
476.596	844.25
476.814	862.25
477.033	849.25
477.252	837.25
477.471	935.25
477.69	928.25
477.908	941.25
478.127	999.25
478.346	1030.25
478.564	1019.25
478.783	1033.25
479.002	1022.25
479.22	1012.25
479.439	1061.25
479.658	1044.25
479.876	1032.25
480.095	913.25
480.313	938.25
480.532	891.25
480.751	859.25
480.969	859.25
481.188	811.25
481.406	787.25
481.624	762.25
481.843	795.25
482.061	811.25
482.28	898.25
482.498	873.25
482.717	878.25
482.935	909.25
483.153	986.25
483.372	1062.25
483.59	1028.25
483.808	951.25
484.027	962.25
484.245	1012.25
484.463	1208.25
484.681	1316.25
484.9	1069.25
485.118	993.25
485.336	949.25
485.554	909.25
485.772	903.25
485.99	888.25
486.209	900.25
486.427	912.25
486.645	955.25
486.863	1019.25
487.081	1054.25
487.299	1008.25
487.517	1036.25
487.735	1107.25
487.953	1173.25
488.171	1198.25
488.389	1119.25
488.607	1120.25
488.825	1169.25
489.043	1072.25
489.261	990.25
489.479	1049.25
489.696	1065.25
489.914	1049.25
490.132	1063.25
490.35	1117.25
490.568	1179.25
490.786	1210.25
491.003	1229.25
491.221	1251.25
491.439	1305.25
491.657	1310.25
491.874	1392.25
492.092	1475.25
492.31	1565.25
492.527	1490.25
492.745	1378.25
492.963	1340.25
493.18	1368.25
493.398	1367.25
493.615	1370.25
493.833	1278.25
494.05	1251.25
494.268	1256.25
494.485	1273.25
494.703	1252.25
494.92	1242.25
495.138	1245.25
495.355	1255.25
495.573	1224.25
495.79	1315.25
496.008	1329.25
496.225	1256.25
496.442	1256.25
496.66	1266.25
496.877	1222.25
497.094	1261.25
497.312	1242.25
497.529	1195.25
497.746	1200.25
497.963	1289.25
498.181	1322.25
498.398	1286.25
498.615	1232.25
498.832	1196.25
499.049	1156.25
499.267	1165.25
499.484	1234.25
499.701	1350.25
499.918	1389.25
500.135	1489.25
