Data from WStandard_LampEnergy5.5LIBS07252019.E.O._I.C._HRD10591_16-09-33-921.txt Node
Date: Thu Jul 25 16:09:33 EDT 2019
User: cochatt
Spectrometer: HR+D1059
Trigger mode: 1
Integration Time (sec): 1.000000E-1
Scans to average: 1
Electric dark correction enabled: true
Nonlinearity correction enabled: false
Boxcar width: 0
XAxis mode: Wavelengths
Number of Pixels in Spectrum: 2048
>>>>>Begin Spectral Data<<<<<
223.165	-13.12
223.4	-13.12
223.635	-13.12
223.869	-23.12
224.104	-22.12
224.338	-21.12
224.573	-16.12
224.808	3.88
225.042	-18.12
225.277	-13.12
225.511	4.88
225.746	-3.12
225.98	10.88
226.215	5.88
226.449	12.88
226.683	17.88
226.918	24.88
227.152	48.88
227.387	23.88
227.621	33.88
227.856	43.88
228.09	37.88
228.324	53.88
228.559	55.88
228.793	157.88
229.027	369.88
229.262	349.88
229.496	365.88
229.73	368.88
229.964	424.88
230.199	452.88
230.433	454.88
230.667	477.88
230.901	506.88
231.136	462.88
231.37	448.88
231.604	456.88
231.838	453.88
232.072	471.88
232.306	445.88
232.541	469.88
232.775	496.88
233.009	599.88
233.243	565.88
233.477	498.88
233.711	521.88
233.945	539.88
234.179	529.88
234.413	578.88
234.647	645.88
234.881	553.88
235.115	524.88
235.349	540.88
235.583	540.88
235.817	536.88
236.051	513.88
236.285	536.88
236.519	578.88
236.753	621.88
236.987	640.88
237.221	680.88
237.455	761.88
237.689	686.88
237.922	653.88
238.156	642.88
238.39	640.88
238.624	688.88
238.858	698.88
239.091	727.88
239.325	796.88
239.559	865.88
239.793	901.88
240.027	990.88
240.26	1016.88
240.494	733.88
240.728	672.88
240.961	702.88
241.195	727.88
241.429	795.88
241.662	782.88
241.896	722.88
242.13	728.88
242.363	813.88
242.597	871.88
242.83	842.88
243.064	852.88
243.298	902.88
243.531	900.88
243.765	905.88
243.998	887.88
244.232	780.88
244.465	740.88
244.699	767.88
244.932	870.88
245.166	1005.88
245.399	938.88
245.633	866.88
245.866	907.88
246.099	914.88
246.333	908.88
246.566	952.88
246.8	1015.88
247.033	1128.88
247.266	1036.88
247.5	1020.88
247.733	1011.88
247.966	1070.88
248.2	1193.88
248.433	1150.88
248.666	1195.88
248.899	1265.88
249.133	1486.88
249.366	1678.88
249.599	1365.88
249.832	1205.88
250.066	1211.88
250.299	1263.88
250.532	1160.88
250.765	1045.88
250.998	1093.88
251.231	1166.88
251.465	1224.88
251.698	1149.88
251.931	1141.88
252.164	1154.88
252.397	1226.88
252.63	1228.88
252.863	1095.88
253.096	1026.88
253.329	1136.88
253.562	1128.88
253.795	1232.88
254.028	1214.88
254.261	1126.88
254.494	1114.88
254.727	1105.88
254.96	1118.88
255.193	1230.88
255.426	1361.88
255.659	1557.88
255.892	1645.88
256.124	1340.88
256.357	1304.88
256.59	1369.88
256.823	1395.88
257.056	1330.88
257.289	1628.88
257.521	1855.88
257.754	1655.88
257.987	1559.88
258.22	1722.88
258.452	1695.88
258.685	1338.88
258.918	1330.88
259.151	1350.88
259.383	1277.88
259.616	1132.88
259.849	1210.88
260.081	1336.88
260.314	1492.88
260.547	1624.88
260.779	1660.88
261.012	1568.88
261.244	1399.88
261.477	1325.88
261.71	1377.88
261.942	1345.88
262.175	1318.88
262.407	1383.88
262.64	1346.88
262.872	1263.88
263.105	1163.88
263.337	1212.88
263.57	1270.88
263.802	1265.88
264.035	1207.88
264.267	1123.88
264.499	1107.88
264.732	1203.88
264.964	1251.88
265.197	1310.88
265.429	1320.88
265.661	1530.88
265.894	1703.88
266.126	1730.88
266.358	1549.88
266.591	1610.88
266.823	1736.88
267.055	1577.88
267.287	1520.88
267.52	1508.88
267.752	1494.88
267.984	1501.88
268.216	1568.88
268.448	1630.88
268.681	1581.88
268.913	1495.88
269.145	1369.88
269.377	1328.88
269.609	1434.88
269.841	1694.88
270.073	1953.88
270.306	2186.88
270.538	2354.88
270.77	1966.88
271.002	1687.88
271.234	1613.88
271.466	1577.88
271.698	1775.88
271.93	2112.88
272.162	2161.88
272.394	1932.88
272.626	1871.88
272.858	1611.88
273.09	1407.88
273.322	1370.88
273.553	1326.88
273.785	1384.88
274.017	1396.88
274.249	1560.88
274.481	1535.88
274.713	1393.88
274.945	1410.88
275.176	1370.88
275.408	1380.88
275.64	1338.88
275.872	1337.88
276.104	1434.88
276.335	1636.88
276.567	1812.88
276.799	1859.88
277.031	1660.88
277.262	1554.88
277.494	1613.88
277.726	1765.88
277.957	1781.88
278.189	1621.88
278.421	1498.88
278.652	1433.88
278.884	1444.88
279.115	1462.88
279.347	1491.88
279.579	1471.88
279.81	1384.88
280.042	1566.88
280.273	1734.88
280.505	1713.88
280.736	1763.88
280.968	1708.88
281.199	1504.88
281.431	1407.88
281.662	1386.88
281.894	1429.88
282.125	1458.88
282.356	1518.88
282.588	1517.88
282.819	1487.88
283.051	1619.88
283.282	1740.88
283.513	1734.88
283.745	1526.88
283.976	1367.88
284.207	1386.88
284.439	1412.88
284.67	1476.88
284.901	1519.88
285.132	1562.88
285.364	1494.88
285.595	1498.88
285.826	1469.88
286.057	1469.88
286.288	1452.88
286.52	1507.88
286.751	1667.88
286.982	1703.88
287.213	1544.88
287.444	1424.88
287.675	1435.88
287.906	1517.88
288.138	1641.88
288.369	1540.88
288.6	1488.88
288.831	1447.88
289.062	1494.88
289.293	1492.88
289.524	1489.88
289.755	1545.88
289.986	1568.88
290.217	1437.88
290.448	1459.88
290.679	1502.88
290.91	1510.88
291.141	1527.88
291.371	1582.88
291.602	1590.88
291.833	1561.88
292.064	1624.88
292.295	1590.88
292.526	1601.88
292.757	1713.88
292.987	1621.88
293.218	1518.88
293.449	1627.88
293.68	1868.88
293.91	1986.88
294.141	1813.88
294.372	1743.88
294.603	1846.88
294.833	1877.88
295.064	1810.88
295.295	1632.88
295.525	1570.88
295.756	1465.88
295.987	1396.88
296.217	1396.88
296.448	1455.88
296.679	1469.88
296.909	1492.88
297.14	1471.88
297.37	1485.88
297.601	1608.88
297.831	1689.88
298.062	1720.88
298.292	1538.88
298.523	1522.88
298.753	1521.88
298.984	1511.88
299.214	1546.88
299.445	1536.88
299.675	1570.88
299.905	1605.88
300.136	1552.88
300.366	1489.88
300.597	1448.88
300.827	1474.88
301.057	1495.88
301.288	1608.88
301.518	1601.88
301.748	1647.88
301.979	1731.88
302.209	1747.88
302.439	1834.88
302.669	1909.88
302.9	1816.88
303.13	1640.88
303.36	1607.88
303.59	1659.88
303.82	1634.88
304.051	1632.88
304.281	1626.88
304.511	1615.88
304.741	1696.88
304.971	1863.88
305.201	2037.88
305.431	1890.88
305.661	1578.88
305.891	1462.88
306.121	1398.88
306.352	1473.88
306.582	1562.88
306.812	1644.88
307.042	1801.88
307.272	1752.88
307.502	1826.88
307.731	1932.88
307.961	2121.88
308.191	1930.88
308.421	1695.88
308.651	1630.88
308.881	1542.88
309.111	1561.88
309.341	1550.88
309.571	1572.88
309.8	1564.88
310.03	1571.88
310.26	1530.88
310.49	1492.88
310.72	1545.88
310.949	1614.88
311.179	1683.88
311.409	1620.88
311.639	1593.88
311.868	1584.88
312.098	1607.88
312.328	1560.88
312.557	1580.88
312.787	1563.88
313.017	1660.88
313.246	1637.88
313.476	1625.88
313.706	1684.88
313.935	1668.88
314.165	1670.88
314.394	1691.88
314.624	1828.88
314.853	1879.88
315.083	1951.88
315.312	2018.88
315.542	1890.88
315.771	1689.88
316.001	1662.88
316.23	1752.88
316.46	1761.88
316.689	1756.88
316.919	1661.88
317.148	1587.88
317.377	1627.88
317.607	1727.88
317.836	1927.88
318.065	2048.88
318.295	1943.88
318.524	1840.88
318.753	1775.88
318.983	1725.88
319.212	1730.88
319.441	1683.88
319.67	1672.88
319.9	1678.88
320.129	1732.88
320.358	1878.88
320.587	1910.88
320.816	1880.88
321.046	1854.88
321.275	1736.88
321.504	1743.88
321.733	1911.88
321.962	1870.88
322.191	1725.88
322.42	1717.88
322.649	1689.88
322.878	1664.88
323.108	1704.88
323.337	1770.88
323.566	1789.88
323.795	1793.88
324.024	1765.88
324.253	1717.88
324.482	1770.88
324.71	1734.88
324.939	1583.88
325.168	1633.88
325.397	1704.88
325.626	1774.88
325.855	1774.88
326.084	1715.88
326.313	1723.88
326.542	1734.88
326.77	1806.88
326.999	1832.88
327.228	1732.88
327.457	1645.88
327.686	1615.88
327.914	1632.88
328.143	1717.88
328.372	1670.88
328.6	1716.88
328.829	1708.88
329.058	1661.88
329.287	1640.88
329.515	1727.88
329.744	1735.88
329.972	1838.88
330.201	1920.88
330.43	1859.88
330.658	1836.88
330.887	1825.88
331.115	1796.88
331.344	1807.88
331.572	1780.88
331.801	1797.88
332.03	1779.88
332.258	1822.88
332.486	1805.88
332.715	1849.88
332.943	1877.88
333.172	1800.88
333.4	1848.88
333.629	1893.88
333.857	1953.88
334.085	2120.88
334.314	2403.88
334.542	2736.88
334.771	2477.88
334.999	2121.88
335.227	2059.88
335.455	1952.88
335.684	1944.88
335.912	1986.88
336.14	2053.88
336.369	1958.88
336.597	1870.88
336.825	1847.88
337.053	1888.88
337.281	2004.88
337.51	2026.88
337.738	2143.88
337.966	2030.88
338.194	1875.88
338.422	1824.88
338.65	1772.88
338.878	1791.88
339.106	1776.88
339.334	1714.88
339.562	1725.88
339.79	1738.88
340.018	1838.88
340.246	1893.88
340.474	1901.88
340.702	1835.88
340.93	1897.88
341.158	1844.88
341.386	1793.88
341.614	1842.88
341.842	1759.88
342.07	1786.88
342.298	1821.88
342.526	1795.88
342.754	1746.88
342.981	1724.88
343.209	1742.88
343.437	1773.88
343.665	1792.88
343.893	1842.88
344.12	1918.88
344.348	1911.88
344.576	1847.88
344.804	1769.88
345.031	1786.88
345.259	1804.88
345.487	1739.88
345.714	1666.88
345.942	1652.88
346.17	1666.88
346.397	1665.88
346.625	1709.88
346.853	1605.88
347.08	1575.88
347.308	1574.88
347.535	1642.88
347.763	1721.88
347.99	1636.88
348.218	1617.88
348.445	1613.88
348.673	1618.88
348.9	1673.88
349.128	1752.88
349.355	1802.88
349.583	1778.88
349.81	1660.88
350.037	1554.88
350.265	1548.88
350.492	1588.88
350.72	1644.88
350.947	1671.88
351.174	1741.88
351.402	1656.88
351.629	1547.88
351.856	1570.88
352.083	1534.88
352.311	1551.88
352.538	1605.88
352.765	1680.88
352.992	1702.88
353.22	1671.88
353.447	1582.88
353.674	1613.88
353.901	1657.88
354.128	1636.88
354.355	1622.88
354.583	1675.88
354.81	1696.88
355.037	1718.88
355.264	1681.88
355.491	1673.88
355.718	1674.88
355.945	1660.88
356.172	1602.88
356.399	1564.88
356.626	1571.88
356.853	1656.88
357.08	1725.88
357.307	1920.88
357.534	1992.88
357.761	1721.88
357.988	1633.88
358.215	1568.88
358.441	1598.88
358.668	1584.88
358.895	1622.88
359.122	1669.88
359.349	1857.88
359.576	1810.88
359.802	1655.88
360.029	1646.88
360.256	1589.88
360.483	1616.88
360.709	1629.88
360.936	1725.88
361.163	1724.88
361.39	1873.88
361.616	2046.88
361.843	2024.88
362.07	1932.88
362.296	1699.88
362.523	1600.88
362.749	1654.88
362.976	1678.88
363.203	1715.88
363.429	1670.88
363.656	1580.88
363.882	1643.88
364.109	1825.88
364.335	1932.88
364.562	1792.88
364.788	1731.88
365.015	1644.88
365.241	1607.88
365.468	1674.88
365.694	1709.88
365.92	1761.88
366.147	1729.88
366.373	1612.88
366.599	1589.88
366.826	1589.88
367.052	1593.88
367.278	1606.88
367.505	1639.88
367.731	1678.88
367.957	1697.88
368.184	1747.88
368.41	1847.88
368.636	1806.88
368.862	1800.88
369.089	1851.88
369.315	1785.88
369.541	1739.88
369.767	1685.88
369.993	1635.88
370.219	1646.88
370.445	1654.88
370.672	1731.88
370.898	1845.88
371.124	1852.88
371.35	1737.88
371.576	1791.88
371.802	1881.88
372.028	1773.88
372.254	1704.88
372.48	1692.88
372.706	1658.88
372.932	1665.88
373.158	1694.88
373.384	1735.88
373.61	1729.88
373.835	1831.88
374.061	1749.88
374.287	1726.88
374.513	1730.88
374.739	1721.88
374.965	1733.88
375.191	1766.88
375.416	1762.88
375.642	1805.88
375.868	1865.88
376.094	1935.88
376.319	1829.88
376.545	1736.88
376.771	1768.88
376.997	1856.88
377.222	1830.88
377.448	1773.88
377.674	1798.88
377.899	1842.88
378.125	1911.88
378.35	1898.88
378.576	1760.88
378.802	1644.88
379.027	1640.88
379.253	1680.88
379.478	1724.88
379.704	1738.88
379.929	1686.88
380.155	1701.88
380.38	1724.88
380.606	1777.88
380.831	1695.88
381.057	1773.88
381.282	1860.88
381.507	1802.88
381.733	1884.88
381.958	2008.88
382.184	1836.88
382.409	1772.88
382.634	1825.88
382.86	1804.88
383.085	1780.88
383.31	1855.88
383.535	1975.88
383.761	2108.88
383.986	1996.88
384.211	1955.88
384.436	1927.88
384.662	1988.88
384.887	2080.88
385.112	1973.88
385.337	2008.88
385.562	1979.88
385.787	1948.88
386.013	2037.88
386.238	1977.88
386.463	1997.88
386.688	2122.88
386.913	2244.88
387.138	2228.88
387.363	2064.88
387.588	2004.88
387.813	1960.88
388.038	2002.88
388.263	2150.88
388.488	2022.88
388.713	1875.88
388.938	1872.88
389.163	1921.88
389.387	1958.88
389.612	1929.88
389.837	1999.88
390.062	2009.88
390.287	2029.88
390.512	1990.88
390.736	1947.88
390.961	1894.88
391.186	1866.88
391.411	1913.88
391.636	1924.88
391.86	1973.88
392.085	1961.88
392.31	1943.88
392.534	2001.88
392.759	1963.88
392.984	1977.88
393.208	2012.88
393.433	1962.88
393.658	2088.88
393.882	2121.88
394.107	2006.88
394.331	1930.88
394.556	1926.88
394.78	1982.88
395.005	2038.88
395.229	2120.88
395.454	2286.88
395.678	2240.88
395.903	2175.88
396.127	2094.88
396.352	2112.88
396.576	2169.88
396.801	2165.88
397.025	2152.88
397.249	2138.88
397.474	2113.88
397.698	2071.88
397.922	2168.88
398.147	2234.88
398.371	2317.88
398.595	2348.88
398.82	2266.88
399.044	2294.88
399.268	2405.88
399.492	2599.88
399.717	2656.88
399.941	2684.88
400.165	2611.88
400.389	2575.88
400.613	2510.88
400.837	2733.88
401.062	3149.88
401.286	2756.88
401.51	2453.88
401.734	2546.88
401.958	2480.88
402.182	2297.88
402.406	2240.88
402.63	2222.88
402.854	2222.88
403.078	2263.88
403.302	2323.88
403.526	2329.88
403.75	2355.88
403.974	2371.88
404.198	2341.88
404.422	2420.88
404.645	2542.88
404.869	2532.88
405.093	2287.88
405.317	2280.88
405.541	2353.88
405.765	2368.88
405.988	2358.88
406.212	2404.88
406.436	2476.88
406.66	2508.88
406.883	2551.88
407.107	2828.88
407.331	3095.88
407.555	3313.88
407.778	3039.88
408.002	2533.88
408.226	2482.88
408.449	2496.88
408.673	2406.88
408.896	2406.88
409.12	2458.88
409.344	2414.88
409.567	2343.88
409.791	2342.88
410.014	2403.88
410.238	2500.88
410.461	2643.88
410.685	2471.88
410.908	2308.88
411.132	2368.88
411.355	2340.88
411.578	2268.88
411.802	2338.88
412.025	2376.88
412.249	2317.88
412.472	2217.88
412.695	2209.88
412.919	2232.88
413.142	2202.88
413.365	2231.88
413.589	2299.88
413.812	2401.88
414.035	2454.88
414.258	2300.88
414.482	2278.88
414.705	2250.88
414.928	2220.88
415.151	2199.88
415.374	2246.88
415.597	2249.88
415.821	2305.88
416.044	2384.88
416.267	2342.88
416.49	2180.88
416.713	2147.88
416.936	2209.88
417.159	2288.88
417.382	2314.88
417.605	2208.88
417.828	2232.88
418.051	2249.88
418.274	2245.88
418.497	2159.88
418.72	2161.88
418.943	2154.88
419.166	2266.88
419.389	2441.88
419.611	2312.88
419.834	2225.88
420.057	2285.88
420.28	2172.88
420.503	2172.88
420.726	2186.88
420.948	2248.88
421.171	2139.88
421.394	2192.88
421.617	2199.88
421.839	2229.88
422.062	2204.88
422.285	2156.88
422.507	2126.88
422.73	2056.88
422.953	2088.88
423.175	2072.88
423.398	2160.88
423.621	2162.88
423.843	2192.88
424.066	2192.88
424.288	2197.88
424.511	2300.88
424.733	2239.88
424.956	2024.88
425.178	2064.88
425.401	2060.88
425.623	2073.88
425.846	2053.88
426.068	2179.88
426.291	2203.88
426.513	2149.88
426.735	2170.88
426.958	2295.88
427.18	2489.88
427.402	2260.88
427.625	2336.88
427.847	2345.88
428.069	2222.88
428.292	2128.88
428.514	2058.88
428.736	2042.88
428.958	2082.88
429.181	2112.88
429.403	2401.88
429.625	2948.88
429.847	2560.88
430.069	2148.88
430.292	2372.88
430.514	2473.88
430.736	2292.88
430.958	2330.88
431.18	2262.88
431.402	2068.88
431.624	2054.88
431.846	2098.88
432.068	2089.88
432.29	2104.88
432.512	2108.88
432.734	2172.88
432.956	2161.88
433.178	2189.88
433.4	2233.88
433.622	2244.88
433.844	2145.88
434.066	2087.88
434.287	2069.88
434.509	2140.88
434.731	2278.88
434.953	2398.88
435.175	2329.88
435.397	2198.88
435.618	2224.88
435.84	2211.88
436.062	2158.88
436.284	2182.88
436.505	2163.88
436.727	2236.88
436.949	2170.88
437.17	2121.88
437.392	2053.88
437.614	2131.88
437.835	2072.88
438.057	2213.88
438.278	2273.88
438.5	2116.88
438.721	2092.88
438.943	2079.88
439.165	2090.88
439.386	2016.88
439.608	2060.88
439.829	2054.88
440.05	2122.88
440.272	2042.88
440.493	2017.88
440.715	2112.88
440.936	2237.88
441.158	2462.88
441.379	2367.88
441.6	2269.88
441.822	2255.88
442.043	2237.88
442.264	2190.88
442.486	2119.88
442.707	2076.88
442.928	2047.88
443.149	2160.88
443.371	2255.88
443.592	2335.88
443.813	2256.88
444.034	2253.88
444.255	2289.88
444.476	2296.88
444.698	2375.88
444.919	2370.88
445.14	2386.88
445.361	2387.88
445.582	2478.88
445.803	2362.88
446.024	2284.88
446.245	2374.88
446.466	2248.88
446.687	2185.88
446.908	2142.88
447.129	2103.88
447.35	2113.88
447.571	2149.88
447.792	2043.88
448.013	1996.88
448.234	2063.88
448.455	2144.88
448.675	2173.88
448.896	2028.88
449.117	2012.88
449.338	2018.88
449.559	2152.88
449.779	2238.88
450	2453.88
450.221	2609.88
450.442	2515.88
450.662	2199.88
450.883	1968.88
451.104	1922.88
451.324	1972.88
451.545	2082.88
451.766	2012.88
451.986	1926.88
452.207	1896.88
452.428	1866.88
452.648	1861.88
452.869	1885.88
453.089	2027.88
453.31	2059.88
453.53	2095.88
453.751	2010.88
453.971	1897.88
454.192	1951.88
454.412	2064.88
454.633	1959.88
454.853	1927.88
455.073	1808.88
455.294	1842.88
455.514	1791.88
455.734	1834.88
455.955	1861.88
456.175	1864.88
456.395	1856.88
456.616	1920.88
456.836	1978.88
457.056	1901.88
457.276	1928.88
457.497	1847.88
457.717	1817.88
457.937	1820.88
458.157	1870.88
458.377	1878.88
458.598	1820.88
458.818	1866.88
459.038	1968.88
459.258	2113.88
459.478	2132.88
459.698	2067.88
459.918	2045.88
460.138	2198.88
460.358	2224.88
460.578	2191.88
460.798	2288.88
461.018	2423.88
461.238	2369.88
461.458	2232.88
461.678	2242.88
461.898	2187.88
462.118	2128.88
462.338	2242.88
462.558	2263.88
462.777	2277.88
462.997	2318.88
463.217	2506.88
463.437	2436.88
463.657	2264.88
463.876	2314.88
464.096	2250.88
464.316	2265.88
464.536	2329.88
464.755	2328.88
464.975	2385.88
465.195	2255.88
465.414	2346.88
465.634	2310.88
465.854	2228.88
466.073	2330.88
466.293	2295.88
466.512	2099.88
466.732	2007.88
466.951	2139.88
467.171	2126.88
467.391	1978.88
467.61	1960.88
467.829	2004.88
468.049	2152.88
468.268	2364.88
468.488	2232.88
468.707	2143.88
468.927	2080.88
469.146	2006.88
469.365	1970.88
469.585	2071.88
469.804	2001.88
470.023	2013.88
470.243	2037.88
470.462	2014.88
470.681	1956.88
470.901	2020.88
471.12	2051.88
471.339	2032.88
471.558	1956.88
471.777	1949.88
471.997	1965.88
472.216	1978.88
472.435	1917.88
472.654	1959.88
472.873	2021.88
473.092	2173.88
473.311	2068.88
473.53	1936.88
473.749	1927.88
473.968	1985.88
474.187	2129.88
474.406	2247.88
474.625	2090.88
474.844	2061.88
475.063	2060.88
475.282	2136.88
475.501	2059.88
475.72	2058.88
475.939	2188.88
476.158	2117.88
476.377	2050.88
476.596	2065.88
476.814	2083.88
477.033	2133.88
477.252	2235.88
477.471	2256.88
477.69	2172.88
477.908	2178.88
478.127	2229.88
478.346	2479.88
478.564	2481.88
478.783	2414.88
479.002	2473.88
479.22	2432.88
479.439	2491.88
479.658	2865.88
479.876	2820.88
480.095	2449.88
480.313	2349.88
480.532	2262.88
480.751	2320.88
480.969	2377.88
481.188	2327.88
481.406	2333.88
481.624	2252.88
481.843	2287.88
482.061	2352.88
482.28	2369.88
482.498	2430.88
482.717	2368.88
482.935	2268.88
483.153	2257.88
483.372	2274.88
483.59	2257.88
483.808	2256.88
484.027	2351.88
484.245	2464.88
484.463	2846.88
484.681	3210.88
484.9	2525.88
485.118	2378.88
485.336	2316.88
485.554	2425.88
485.772	2511.88
485.99	2473.88
486.209	2486.88
486.427	2426.88
486.645	2470.88
486.863	2421.88
487.081	2476.88
487.299	2528.88
