Data from WStandard_LampEnergy5.5LIBS07252019.E.O._I.C._HRD10591_16-08-51-920.txt Node
Date: Thu Jul 25 16:08:51 EDT 2019
User: cochatt
Spectrometer: HR+D1059
Trigger mode: 1
Integration Time (sec): 1.000000E-1
Scans to average: 1
Electric dark correction enabled: true
Nonlinearity correction enabled: false
Boxcar width: 0
XAxis mode: Wavelengths
Number of Pixels in Spectrum: 2048
>>>>>Begin Spectral Data<<<<<
223.165	-12.12
223.4	-12.12
223.635	-12.12
223.869	-14.12
224.104	-9.12
224.338	-14.12
224.573	-23.12
224.808	-24.12
225.042	-6.12
225.277	-19.12
225.511	-5.12
225.746	3.88
225.98	3.88
226.215	-2.12
226.449	17.88
226.683	30.88
226.918	28.88
227.152	43.88
227.387	37.88
227.621	35.88
227.856	33.88
228.09	44.88
228.324	40.88
228.559	46.88
228.793	121.88
229.027	351.88
229.262	374.88
229.496	378.88
229.73	386.88
229.964	414.88
230.199	442.88
230.433	459.88
230.667	493.88
230.901	510.88
231.136	464.88
231.37	443.88
231.604	434.88
231.838	471.88
232.072	450.88
232.306	437.88
232.541	465.88
232.775	526.88
233.009	581.88
233.243	539.88
233.477	522.88
233.711	530.88
233.945	554.88
234.179	528.88
234.413	578.88
234.647	590.88
234.881	564.88
235.115	512.88
235.349	524.88
235.583	522.88
235.817	537.88
236.051	526.88
236.285	522.88
236.519	560.88
236.753	648.88
236.987	672.88
237.221	640.88
237.455	726.88
237.689	704.88
237.922	663.88
238.156	635.88
238.39	641.88
238.624	676.88
238.858	719.88
239.091	727.88
239.325	775.88
239.559	890.88
239.793	947.88
240.027	997.88
240.26	1023.88
240.494	723.88
240.728	692.88
240.961	712.88
241.195	718.88
241.429	791.88
241.662	781.88
241.896	716.88
242.13	752.88
242.363	829.88
242.597	860.88
242.83	860.88
243.064	865.88
243.298	910.88
243.531	916.88
243.765	889.88
243.998	892.88
244.232	800.88
244.465	756.88
244.699	785.88
244.932	842.88
245.166	981.88
245.399	958.88
245.633	902.88
245.866	864.88
246.099	884.88
246.333	922.88
246.566	925.88
246.8	994.88
247.033	1138.88
247.266	1026.88
247.5	990.88
247.733	1018.88
247.966	1075.88
248.2	1148.88
248.433	1164.88
248.666	1123.88
248.899	1251.88
249.133	1466.88
249.366	1652.88
249.599	1365.88
249.832	1178.88
250.066	1213.88
250.299	1218.88
250.532	1171.88
250.765	1053.88
250.998	1105.88
251.231	1144.88
251.465	1211.88
251.698	1140.88
251.931	1134.88
252.164	1176.88
252.397	1226.88
252.63	1206.88
252.863	1056.88
253.096	1065.88
253.329	1106.88
253.562	1141.88
253.795	1224.88
254.028	1197.88
254.261	1123.88
254.494	1111.88
254.727	1072.88
254.96	1091.88
255.193	1187.88
255.426	1340.88
255.659	1523.88
255.892	1626.88
256.124	1334.88
256.357	1292.88
256.59	1373.88
256.823	1373.88
257.056	1354.88
257.289	1635.88
257.521	1810.88
257.754	1637.88
257.987	1516.88
258.22	1678.88
258.452	1670.88
258.685	1334.88
258.918	1290.88
259.151	1317.88
259.383	1288.88
259.616	1118.88
259.849	1193.88
260.081	1330.88
260.314	1462.88
260.547	1609.88
260.779	1673.88
261.012	1538.88
261.244	1344.88
261.477	1284.88
261.71	1374.88
261.942	1386.88
262.175	1324.88
262.407	1400.88
262.64	1306.88
262.872	1253.88
263.105	1201.88
263.337	1228.88
263.57	1250.88
263.802	1222.88
264.035	1188.88
264.267	1114.88
264.499	1103.88
264.732	1189.88
264.964	1265.88
265.197	1310.88
265.429	1342.88
265.661	1506.88
265.894	1668.88
266.126	1663.88
266.358	1561.88
266.591	1612.88
266.823	1734.88
267.055	1543.88
267.287	1520.88
267.52	1506.88
267.752	1500.88
267.984	1466.88
268.216	1600.88
268.448	1643.88
268.681	1573.88
268.913	1450.88
269.145	1359.88
269.377	1346.88
269.609	1434.88
269.841	1662.88
270.073	1920.88
270.306	2139.88
270.538	2274.88
270.77	1910.88
271.002	1614.88
271.234	1608.88
271.466	1584.88
271.698	1720.88
271.93	2112.88
272.162	2102.88
272.394	1883.88
272.626	1817.88
272.858	1629.88
273.09	1440.88
273.322	1427.88
273.553	1320.88
273.785	1348.88
274.017	1394.88
274.249	1486.88
274.481	1544.88
274.713	1392.88
274.945	1347.88
275.176	1380.88
275.408	1365.88
275.64	1325.88
275.872	1293.88
276.104	1413.88
276.335	1580.88
276.567	1812.88
276.799	1832.88
277.031	1625.88
277.262	1536.88
277.494	1577.88
277.726	1798.88
277.957	1798.88
278.189	1632.88
278.421	1508.88
278.652	1449.88
278.884	1406.88
279.115	1448.88
279.347	1450.88
279.579	1429.88
279.81	1405.88
280.042	1560.88
280.273	1682.88
280.505	1713.88
280.736	1715.88
280.968	1650.88
281.199	1482.88
281.431	1389.88
281.662	1412.88
281.894	1420.88
282.125	1446.88
282.356	1486.88
282.588	1540.88
282.819	1492.88
283.051	1601.88
283.282	1747.88
283.513	1684.88
283.745	1484.88
283.976	1368.88
284.207	1381.88
284.439	1408.88
284.67	1440.88
284.901	1518.88
285.132	1497.88
285.364	1497.88
285.595	1490.88
285.826	1496.88
286.057	1451.88
286.288	1424.88
286.52	1520.88
286.751	1626.88
286.982	1650.88
287.213	1529.88
287.444	1435.88
287.675	1440.88
287.906	1499.88
288.138	1584.88
288.369	1540.88
288.6	1468.88
288.831	1427.88
289.062	1421.88
289.293	1440.88
289.524	1497.88
289.755	1532.88
289.986	1540.88
290.217	1454.88
290.448	1434.88
290.679	1499.88
290.91	1499.88
291.141	1531.88
291.371	1592.88
291.602	1560.88
291.833	1543.88
292.064	1596.88
292.295	1565.88
292.526	1622.88
292.757	1658.88
292.987	1596.88
293.218	1525.88
293.449	1597.88
293.68	1797.88
293.91	1943.88
294.141	1785.88
294.372	1717.88
294.603	1788.88
294.833	1872.88
295.064	1741.88
295.295	1635.88
295.525	1572.88
295.756	1461.88
295.987	1402.88
296.217	1424.88
296.448	1489.88
296.679	1469.88
296.909	1460.88
297.14	1498.88
297.37	1424.88
297.601	1572.88
297.831	1685.88
298.062	1694.88
298.292	1562.88
298.523	1473.88
298.753	1448.88
298.984	1529.88
299.214	1485.88
299.445	1557.88
299.675	1559.88
299.905	1539.88
300.136	1541.88
300.366	1496.88
300.597	1468.88
300.827	1451.88
301.057	1526.88
301.288	1583.88
301.518	1572.88
301.748	1620.88
301.979	1712.88
302.209	1723.88
302.439	1824.88
302.669	1920.88
302.9	1762.88
303.13	1590.88
303.36	1606.88
303.59	1659.88
303.82	1626.88
304.051	1597.88
304.281	1631.88
304.511	1599.88
304.741	1719.88
304.971	1812.88
305.201	2017.88
305.431	1928.88
305.661	1592.88
305.891	1433.88
306.121	1432.88
306.352	1462.88
306.582	1538.88
306.812	1627.88
307.042	1759.88
307.272	1761.88
307.502	1811.88
307.731	1943.88
307.961	2082.88
308.191	1895.88
308.421	1643.88
308.651	1575.88
308.881	1548.88
309.111	1563.88
309.341	1495.88
309.571	1571.88
309.8	1540.88
310.03	1529.88
310.26	1522.88
310.49	1509.88
310.72	1525.88
310.949	1632.88
311.179	1658.88
311.409	1618.88
311.639	1566.88
311.868	1513.88
312.098	1594.88
312.328	1586.88
312.557	1551.88
312.787	1569.88
313.017	1621.88
313.246	1633.88
313.476	1607.88
313.706	1648.88
313.935	1648.88
314.165	1683.88
314.394	1680.88
314.624	1811.88
314.853	1889.88
315.083	1937.88
315.312	2008.88
315.542	1861.88
315.771	1661.88
316.001	1637.88
316.23	1774.88
316.46	1784.88
316.689	1728.88
316.919	1648.88
317.148	1616.88
317.377	1579.88
317.607	1723.88
317.836	1917.88
318.065	1949.88
318.295	1929.88
318.524	1835.88
318.753	1726.88
318.983	1756.88
319.212	1690.88
319.441	1659.88
319.67	1654.88
319.9	1702.88
320.129	1778.88
320.358	1857.88
320.587	1905.88
320.816	1864.88
321.046	1863.88
321.275	1743.88
321.504	1783.88
321.733	1908.88
321.962	1856.88
322.191	1680.88
322.42	1661.88
322.649	1662.88
322.878	1681.88
323.108	1708.88
323.337	1771.88
323.566	1790.88
323.795	1736.88
324.024	1734.88
324.253	1694.88
324.482	1724.88
324.71	1659.88
324.939	1607.88
325.168	1654.88
325.397	1707.88
325.626	1749.88
325.855	1771.88
326.084	1679.88
326.313	1673.88
326.542	1730.88
326.77	1807.88
326.999	1770.88
327.228	1714.88
327.457	1630.88
327.686	1642.88
327.914	1681.88
328.143	1701.88
328.372	1677.88
328.6	1665.88
328.829	1698.88
329.058	1705.88
329.287	1668.88
329.515	1723.88
329.744	1744.88
329.972	1793.88
330.201	1892.88
330.43	1842.88
330.658	1778.88
330.887	1782.88
331.115	1772.88
331.344	1824.88
331.572	1788.88
331.801	1793.88
332.03	1792.88
332.258	1809.88
332.486	1806.88
332.715	1812.88
332.943	1891.88
333.172	1807.88
333.4	1812.88
333.629	1850.88
333.857	1982.88
334.085	2134.88
334.314	2328.88
334.542	2628.88
334.771	2450.88
334.999	2140.88
335.227	2037.88
335.455	1964.88
335.684	1950.88
335.912	1947.88
336.14	1961.88
336.369	1997.88
336.597	1851.88
336.825	1840.88
337.053	1866.88
337.281	1968.88
337.51	2025.88
337.738	2068.88
337.966	2083.88
338.194	1840.88
338.422	1794.88
338.65	1751.88
338.878	1738.88
339.106	1724.88
339.334	1683.88
339.562	1691.88
339.79	1706.88
340.018	1804.88
340.246	1909.88
340.474	1879.88
340.702	1840.88
340.93	1844.88
341.158	1856.88
341.386	1819.88
341.614	1776.88
341.842	1784.88
342.07	1813.88
342.298	1792.88
342.526	1796.88
342.754	1751.88
342.981	1762.88
343.209	1716.88
343.437	1764.88
343.665	1779.88
343.893	1828.88
344.12	1917.88
344.348	1890.88
344.576	1846.88
344.804	1844.88
345.031	1757.88
345.259	1792.88
345.487	1729.88
345.714	1705.88
345.942	1599.88
346.17	1632.88
346.397	1652.88
346.625	1712.88
346.853	1670.88
347.08	1577.88
347.308	1614.88
347.535	1634.88
347.763	1713.88
347.99	1674.88
348.218	1593.88
348.445	1655.88
348.673	1658.88
348.9	1696.88
349.128	1737.88
349.355	1759.88
349.583	1746.88
349.81	1657.88
350.037	1536.88
350.265	1561.88
350.492	1573.88
350.72	1628.88
350.947	1652.88
351.174	1691.88
351.402	1654.88
351.629	1580.88
351.856	1528.88
352.083	1536.88
352.311	1546.88
352.538	1606.88
352.765	1668.88
352.992	1665.88
353.22	1631.88
353.447	1591.88
353.674	1601.88
353.901	1628.88
354.128	1562.88
354.355	1610.88
354.583	1645.88
354.81	1670.88
355.037	1657.88
355.264	1693.88
355.491	1659.88
355.718	1663.88
355.945	1634.88
356.172	1625.88
356.399	1575.88
356.626	1590.88
356.853	1611.88
357.08	1738.88
357.307	1933.88
357.534	1950.88
357.761	1715.88
357.988	1596.88
358.215	1524.88
358.441	1578.88
358.668	1572.88
358.895	1573.88
359.122	1684.88
359.349	1824.88
359.576	1800.88
359.802	1627.88
360.029	1573.88
360.256	1544.88
360.483	1587.88
360.709	1658.88
360.936	1676.88
361.163	1698.88
361.39	1914.88
361.616	2006.88
361.843	1996.88
362.07	1896.88
362.296	1654.88
362.523	1634.88
362.749	1602.88
362.976	1654.88
363.203	1676.88
363.429	1655.88
363.656	1577.88
363.882	1623.88
364.109	1779.88
364.335	1954.88
364.562	1830.88
364.788	1699.88
365.015	1642.88
365.241	1584.88
365.468	1579.88
365.694	1720.88
365.92	1784.88
366.147	1721.88
366.373	1620.88
366.599	1590.88
366.826	1580.88
367.052	1605.88
367.278	1582.88
367.505	1686.88
367.731	1698.88
367.957	1621.88
368.184	1700.88
368.41	1789.88
368.636	1799.88
368.862	1831.88
369.089	1851.88
369.315	1772.88
369.541	1717.88
369.767	1648.88
369.993	1635.88
370.219	1613.88
370.445	1654.88
370.672	1770.88
370.898	1834.88
371.124	1836.88
371.35	1727.88
371.576	1755.88
371.802	1840.88
372.028	1753.88
372.254	1709.88
372.48	1661.88
372.706	1649.88
372.932	1658.88
373.158	1667.88
373.384	1674.88
373.61	1705.88
373.835	1786.88
374.061	1741.88
374.287	1717.88
374.513	1679.88
374.739	1748.88
374.965	1749.88
375.191	1769.88
375.416	1739.88
375.642	1748.88
375.868	1871.88
376.094	1884.88
376.319	1854.88
376.545	1690.88
376.771	1775.88
376.997	1829.88
377.222	1860.88
377.448	1772.88
377.674	1810.88
377.899	1778.88
378.125	1887.88
378.35	1906.88
378.576	1734.88
378.802	1669.88
379.027	1689.88
379.253	1669.88
379.478	1694.88
379.704	1718.88
379.929	1710.88
380.155	1696.88
380.38	1756.88
380.606	1742.88
380.831	1709.88
381.057	1780.88
381.282	1784.88
381.507	1785.88
381.733	1851.88
381.958	1963.88
382.184	1813.88
382.409	1771.88
382.634	1774.88
382.86	1785.88
383.085	1782.88
383.31	1813.88
383.535	1975.88
383.761	2106.88
383.986	2027.88
384.211	1930.88
384.436	1909.88
384.662	1964.88
384.887	2049.88
385.112	1952.88
385.337	1971.88
385.562	1944.88
385.787	1984.88
386.013	1998.88
386.238	2017.88
386.463	2049.88
386.688	2110.88
386.913	2236.88
387.138	2168.88
387.363	1993.88
387.588	2018.88
387.813	1997.88
388.038	2029.88
388.263	2060.88
388.488	2093.88
388.713	1895.88
388.938	1892.88
389.163	1920.88
389.387	1944.88
389.612	1926.88
389.837	1983.88
390.062	2009.88
390.287	1986.88
390.512	2004.88
390.736	1921.88
390.961	1865.88
391.186	1896.88
391.411	1888.88
391.636	1896.88
391.86	1970.88
392.085	1966.88
392.31	1892.88
392.534	1988.88
392.759	2001.88
392.984	1984.88
393.208	1948.88
393.433	2021.88
393.658	2085.88
393.882	2123.88
394.107	2021.88
394.331	1933.88
394.556	1947.88
394.78	1991.88
395.005	2028.88
395.229	2107.88
395.454	2258.88
395.678	2242.88
395.903	2144.88
396.127	2041.88
396.352	2071.88
396.576	2133.88
396.801	2146.88
397.025	2074.88
397.249	2119.88
397.474	2082.88
397.698	2065.88
397.922	2148.88
398.147	2234.88
398.371	2324.88
398.595	2345.88
398.82	2273.88
399.044	2311.88
399.268	2385.88
399.492	2579.88
399.717	2664.88
399.941	2623.88
400.165	2625.88
400.389	2517.88
400.613	2506.88
400.837	2755.88
401.062	3166.88
401.286	2706.88
401.51	2481.88
401.734	2568.88
401.958	2480.88
402.182	2320.88
402.406	2188.88
402.63	2207.88
402.854	2262.88
403.078	2260.88
403.302	2314.88
403.526	2364.88
403.75	2341.88
403.974	2347.88
404.198	2346.88
404.422	2436.88
404.645	2501.88
404.869	2526.88
405.093	2343.88
405.317	2263.88
405.541	2364.88
405.765	2357.88
405.988	2382.88
406.212	2375.88
406.436	2498.88
406.66	2540.88
406.883	2517.88
407.107	2840.88
407.331	3009.88
407.555	3212.88
407.778	3036.88
408.002	2524.88
408.226	2457.88
408.449	2452.88
408.673	2394.88
408.896	2463.88
409.12	2469.88
409.344	2339.88
409.567	2327.88
409.791	2335.88
410.014	2402.88
410.238	2476.88
410.461	2613.88
410.685	2401.88
410.908	2290.88
411.132	2350.88
411.355	2355.88
411.578	2276.88
411.802	2241.88
412.025	2344.88
412.249	2260.88
412.472	2193.88
412.695	2177.88
412.919	2174.88
413.142	2198.88
413.365	2238.88
413.589	2293.88
413.812	2344.88
414.035	2437.88
414.258	2256.88
414.482	2198.88
414.705	2261.88
414.928	2199.88
415.151	2184.88
415.374	2232.88
415.597	2298.88
415.821	2234.88
416.044	2370.88
416.267	2358.88
416.49	2153.88
416.713	2132.88
416.936	2217.88
417.159	2272.88
417.382	2330.88
417.605	2181.88
417.828	2193.88
418.051	2272.88
418.274	2262.88
418.497	2196.88
418.72	2174.88
418.943	2094.88
419.166	2313.88
419.389	2401.88
419.611	2253.88
419.834	2203.88
420.057	2238.88
420.28	2132.88
420.503	2139.88
420.726	2120.88
420.948	2221.88
421.171	2142.88
421.394	2166.88
421.617	2194.88
421.839	2191.88
422.062	2186.88
422.285	2107.88
422.507	2153.88
422.73	2100.88
422.953	2044.88
423.175	2074.88
423.398	2176.88
423.621	2152.88
423.843	2114.88
424.066	2213.88
424.288	2284.88
424.511	2244.88
424.733	2227.88
424.956	2023.88
425.178	2029.88
425.401	2113.88
425.623	2107.88
425.846	2096.88
426.068	2173.88
426.291	2193.88
426.513	2198.88
426.735	2177.88
426.958	2261.88
427.18	2441.88
427.402	2277.88
427.625	2340.88
427.847	2339.88
428.069	2177.88
428.292	2088.88
428.514	2064.88
428.736	2022.88
428.958	2064.88
429.181	2117.88
429.403	2353.88
429.625	2927.88
429.847	2580.88
430.069	2132.88
430.292	2335.88
430.514	2444.88
430.736	2236.88
430.958	2376.88
431.18	2219.88
431.402	2090.88
431.624	2055.88
431.846	2093.88
432.068	2003.88
432.29	2054.88
432.512	2100.88
432.734	2144.88
432.956	2160.88
433.178	2264.88
433.4	2205.88
433.622	2225.88
433.844	2153.88
434.066	2067.88
434.287	2109.88
434.509	2162.88
434.731	2254.88
434.953	2410.88
435.175	2306.88
435.397	2203.88
435.618	2204.88
435.84	2166.88
436.062	2170.88
436.284	2169.88
436.505	2153.88
436.727	2188.88
436.949	2152.88
437.17	2072.88
437.392	2083.88
437.614	2072.88
437.835	2028.88
438.057	2188.88
438.278	2285.88
438.5	2125.88
438.721	2048.88
438.943	2053.88
439.165	2082.88
439.386	2027.88
439.608	2071.88
439.829	2086.88
440.05	2032.88
440.272	2014.88
440.493	2013.88
440.715	2066.88
440.936	2179.88
441.158	2422.88
441.379	2348.88
441.6	2290.88
441.822	2274.88
442.043	2199.88
442.264	2168.88
442.486	2065.88
442.707	2088.88
442.928	2054.88
443.149	2142.88
443.371	2285.88
443.592	2309.88
443.813	2266.88
444.034	2233.88
444.255	2236.88
444.476	2338.88
444.698	2386.88
444.919	2297.88
445.14	2400.88
445.361	2378.88
445.582	2466.88
445.803	2343.88
446.024	2273.88
446.245	2311.88
446.466	2241.88
446.687	2113.88
446.908	2127.88
447.129	2072.88
447.35	2110.88
447.571	2138.88
447.792	2039.88
448.013	2057.88
448.234	2056.88
448.455	2133.88
448.675	2169.88
448.896	1970.88
449.117	1924.88
449.338	1984.88
449.559	2089.88
449.779	2240.88
450	2369.88
450.221	2599.88
450.442	2535.88
450.662	2205.88
450.883	1966.88
451.104	1929.88
451.324	1991.88
451.545	2072.88
451.766	2054.88
451.986	1900.88
452.207	1861.88
452.428	1843.88
452.648	1812.88
452.869	1889.88
453.089	1996.88
453.31	2013.88
453.53	2067.88
453.751	2009.88
453.971	1922.88
454.192	1938.88
454.412	2023.88
454.633	1962.88
454.853	1912.88
455.073	1818.88
455.294	1804.88
455.514	1797.88
455.734	1813.88
455.955	1847.88
456.175	1865.88
456.395	1835.88
456.616	1934.88
456.836	1860.88
457.056	1889.88
457.276	1901.88
457.497	1851.88
457.717	1761.88
457.937	1820.88
458.157	1878.88
458.377	1838.88
458.598	1831.88
458.818	1861.88
459.038	1978.88
459.258	2100.88
459.478	2086.88
459.698	2034.88
459.918	2065.88
460.138	2180.88
460.358	2213.88
460.578	2228.88
460.798	2329.88
461.018	2400.88
461.238	2340.88
461.458	2203.88
461.678	2246.88
461.898	2208.88
462.118	2120.88
462.338	2201.88
462.558	2258.88
462.777	2229.88
462.997	2349.88
463.217	2468.88
463.437	2438.88
463.657	2280.88
463.876	2269.88
464.096	2209.88
464.316	2248.88
464.536	2355.88
464.755	2349.88
464.975	2308.88
465.195	2205.88
465.414	2380.88
465.634	2313.88
465.854	2194.88
466.073	2318.88
466.293	2286.88
466.512	2043.88
466.732	2026.88
466.951	2073.88
467.171	2042.88
467.391	2004.88
467.61	1992.88
467.829	1966.88
468.049	2126.88
468.268	2348.88
468.488	2285.88
468.707	2144.88
468.927	2078.88
469.146	2026.88
469.365	2012.88
469.585	2014.88
469.804	2006.88
470.023	1978.88
470.243	2048.88
470.462	2057.88
470.681	1988.88
470.901	2041.88
471.12	2014.88
471.339	1994.88
471.558	1945.88
471.777	1943.88
471.997	1988.88
472.216	2050.88
472.435	1915.88
472.654	1993.88
472.873	2039.88
473.092	2149.88
473.311	2020.88
473.53	1946.88
473.749	1956.88
473.968	2016.88
474.187	2094.88
474.406	2139.88
474.625	2077.88
474.844	2059.88
475.063	2026.88
475.282	2100.88
475.501	2031.88
475.72	2041.88
475.939	2170.88
476.158	2069.88
476.377	2011.88
476.596	2074.88
476.814	2118.88
477.033	2098.88
477.252	2167.88
477.471	2272.88
477.69	2147.88
477.908	2162.88
478.127	2252.88
478.346	2436.88
478.564	2451.88
478.783	2406.88
479.002	2494.88
479.22	2423.88
479.439	2546.88
479.658	2809.88
479.876	2806.88
480.095	2449.88
480.313	2386.88
480.532	2241.88
480.751	2326.88
480.969	2333.88
481.188	2299.88
481.406	2318.88
481.624	2252.88
481.843	2239.88
482.061	2296.88
482.28	2296.88
482.498	2378.88
482.717	2362.88
482.935	2295.88
483.153	2264.88
483.372	2276.88
483.59	2260.88
483.808	2301.88
484.027	2341.88
484.245	2440.88
484.463	2762.88
484.681	3149.88
484.9	2511.88
485.118	2345.88
485.336	2322.88
485.554	2387.88
485.772	2471.88
485.99	2471.88
486.209	2493.88
486.427	2461.88
486.645	2428.88
486.863	2404.88
487.081	2460.88
487.299	2501.88
487.517	2456.88
