Data from WStandard_LampEnergy8_LIBS07252019.E.O._I.C._HRD10591_15-58-14-928.txt Node
Date: Thu Jul 25 15:58:14 EDT 2019
User: cochatt
Spectrometer: HR+D1059
Trigger mode: 1
Integration Time (sec): 1.000000E-1
Scans to average: 1
Electric dark correction enabled: true
Nonlinearity correction enabled: false
Boxcar width: 0
XAxis mode: Wavelengths
Number of Pixels in Spectrum: 2048
>>>>>Begin Spectral Data<<<<<
223.165	-11.62
223.4	-11.62
223.635	-11.62
223.869	-12.62
224.104	-15.62
224.338	-10.62
224.573	-24.62
224.808	-20.62
225.042	2.38
225.277	-1.62
225.511	3.38
225.746	5.38
225.98	7.38
226.215	-0.62
226.449	5.38
226.683	20.38
226.918	23.38
227.152	30.38
227.387	24.38
227.621	26.38
227.856	36.38
228.09	35.38
228.324	58.38
228.559	55.38
228.793	87.38
229.027	204.38
229.262	205.38
229.496	214.38
229.73	224.38
229.964	259.38
230.199	255.38
230.433	254.38
230.667	268.38
230.901	301.38
231.136	250.38
231.37	264.38
231.604	263.38
231.838	275.38
232.072	273.38
232.306	253.38
232.541	270.38
232.775	306.38
233.009	320.38
233.243	292.38
233.477	301.38
233.711	298.38
233.945	311.38
234.179	291.38
234.413	321.38
234.647	319.38
234.881	323.38
235.115	287.38
235.349	310.38
235.583	315.38
235.817	292.38
236.051	275.38
236.285	303.38
236.519	337.38
236.753	352.38
236.987	359.38
237.221	368.38
237.455	386.38
237.689	388.38
237.922	358.38
238.156	349.38
238.39	339.38
238.624	378.38
238.858	409.38
239.091	417.38
239.325	426.38
239.559	460.38
239.793	508.38
240.027	534.38
240.26	485.38
240.494	398.38
240.728	368.38
240.961	405.38
241.195	404.38
241.429	436.38
241.662	412.38
241.896	385.38
242.13	405.38
242.363	423.38
242.597	467.38
242.83	465.38
243.064	472.38
243.298	504.38
243.531	483.38
243.765	474.38
243.998	488.38
244.232	432.38
244.465	392.38
244.699	419.38
244.932	469.38
245.166	534.38
245.399	476.38
245.633	452.38
245.866	465.38
246.099	494.38
246.333	487.38
246.566	498.38
246.8	542.38
247.033	570.38
247.266	541.38
247.5	526.38
247.733	529.38
247.966	566.38
248.2	615.38
248.433	614.38
248.666	624.38
248.899	656.38
249.133	749.38
249.366	830.38
249.599	680.38
249.832	640.38
250.066	607.38
250.299	615.38
250.532	576.38
250.765	539.38
250.998	582.38
251.231	608.38
251.465	614.38
251.698	582.38
251.931	584.38
252.164	604.38
252.397	595.38
252.63	633.38
252.863	539.38
253.096	565.38
253.329	585.38
253.562	606.38
253.795	637.38
254.028	603.38
254.261	590.38
254.494	585.38
254.727	576.38
254.96	580.38
255.193	645.38
255.426	726.38
255.659	801.38
255.892	788.38
256.124	688.38
256.357	677.38
256.59	684.38
256.823	702.38
257.056	728.38
257.289	848.38
257.521	905.38
257.754	794.38
257.987	770.38
258.22	830.38
258.452	832.38
258.685	690.38
258.918	678.38
259.151	666.38
259.383	623.38
259.616	590.38
259.849	648.38
260.081	724.38
260.314	746.38
260.547	820.38
260.779	848.38
261.012	766.38
261.244	695.38
261.477	673.38
261.71	723.38
261.942	713.38
262.175	694.38
262.407	722.38
262.64	659.38
262.872	629.38
263.105	639.38
263.337	639.38
263.57	640.38
263.802	648.38
264.035	626.38
264.267	578.38
264.499	573.38
264.732	604.38
264.964	671.38
265.197	689.38
265.429	725.38
265.661	786.38
265.894	866.38
266.126	903.38
266.358	800.38
266.591	842.38
266.823	856.38
267.055	822.38
267.287	804.38
267.52	774.38
267.752	763.38
267.984	771.38
268.216	828.38
268.448	823.38
268.681	821.38
268.913	738.38
269.145	690.38
269.377	704.38
269.609	790.38
269.841	896.38
270.073	1029.38
270.306	1108.38
270.538	1108.38
270.77	956.38
271.002	844.38
271.234	857.38
271.466	827.38
271.698	940.38
271.93	1093.38
272.162	1070.38
272.394	978.38
272.626	926.38
272.858	827.38
273.09	741.38
273.322	722.38
273.553	695.38
273.785	705.38
274.017	725.38
274.249	768.38
274.481	774.38
274.713	721.38
274.945	692.38
275.176	703.38
275.408	694.38
275.64	685.38
275.872	695.38
276.104	772.38
276.335	825.38
276.567	939.38
276.799	947.38
277.031	853.38
277.262	814.38
277.494	866.38
277.726	900.38
277.957	907.38
278.189	811.38
278.421	777.38
278.652	756.38
278.884	743.38
279.115	755.38
279.347	760.38
279.579	757.38
279.81	764.38
280.042	844.38
280.273	891.38
280.505	903.38
280.736	903.38
280.968	845.38
281.199	746.38
281.431	727.38
281.662	733.38
281.894	734.38
282.125	751.38
282.356	784.38
282.588	784.38
282.819	790.38
283.051	871.38
283.282	932.38
283.513	868.38
283.745	780.38
283.976	724.38
284.207	735.38
284.439	740.38
284.67	780.38
284.901	788.38
285.132	790.38
285.364	775.38
285.595	832.38
285.826	770.38
286.057	746.38
286.288	764.38
286.52	791.38
286.751	867.38
286.982	873.38
287.213	796.38
287.444	719.38
287.675	768.38
287.906	803.38
288.138	852.38
288.369	833.38
288.6	751.38
288.831	752.38
289.062	747.38
289.293	764.38
289.524	767.38
289.755	819.38
289.986	805.38
290.217	763.38
290.448	751.38
290.679	804.38
290.91	823.38
291.141	810.38
291.371	831.38
291.602	822.38
291.833	823.38
292.064	847.38
292.295	844.38
292.526	886.38
292.757	874.38
292.987	819.38
293.218	828.38
293.449	887.38
293.68	1006.38
293.91	1030.38
294.141	983.38
294.372	917.38
294.603	966.38
294.833	1001.38
295.064	950.38
295.295	840.38
295.525	845.38
295.756	771.38
295.987	753.38
296.217	762.38
296.448	783.38
296.679	800.38
296.909	791.38
297.14	767.38
297.37	806.38
297.601	842.38
297.831	922.38
298.062	874.38
298.292	804.38
298.523	788.38
298.753	805.38
298.984	781.38
299.214	821.38
299.445	847.38
299.675	863.38
299.905	862.38
300.136	814.38
300.366	788.38
300.597	751.38
300.827	784.38
301.057	841.38
301.288	859.38
301.518	863.38
301.748	861.38
301.979	921.38
302.209	940.38
302.439	1008.38
302.669	998.38
302.9	963.38
303.13	840.38
303.36	858.38
303.59	874.38
303.82	862.38
304.051	865.38
304.281	890.38
304.511	890.38
304.741	939.38
304.971	1027.38
305.201	1093.38
305.431	992.38
305.661	822.38
305.891	770.38
306.121	764.38
306.352	818.38
306.582	869.38
306.812	902.38
307.042	970.38
307.272	955.38
307.502	1001.38
307.731	1067.38
307.961	1115.38
308.191	1014.38
308.421	924.38
308.651	856.38
308.881	846.38
309.111	872.38
309.341	847.38
309.571	846.38
309.8	854.38
310.03	827.38
310.26	840.38
310.49	839.38
310.72	868.38
310.949	914.38
311.179	892.38
311.409	893.38
311.639	847.38
311.868	845.38
312.098	871.38
312.328	847.38
312.557	821.38
312.787	868.38
313.017	887.38
313.246	869.38
313.476	870.38
313.706	923.38
313.935	916.38
314.165	900.38
314.394	954.38
314.624	998.38
314.853	1032.38
315.083	1074.38
315.312	1096.38
315.542	1022.38
315.771	908.38
316.001	926.38
316.23	987.38
316.46	974.38
316.689	955.38
316.919	912.38
317.148	865.38
317.377	914.38
317.607	1018.38
317.836	1101.38
318.065	1102.38
318.295	1046.38
318.524	1024.38
318.753	954.38
318.983	990.38
319.212	950.38
319.441	932.38
319.67	894.38
319.9	921.38
320.129	1013.38
320.358	1024.38
320.587	1070.38
320.816	1035.38
321.046	1025.38
321.275	963.38
321.504	981.38
321.733	1074.38
321.962	1022.38
322.191	945.38
322.42	926.38
322.649	938.38
322.878	917.38
323.108	956.38
323.337	972.38
323.566	973.38
323.795	959.38
324.024	956.38
324.253	948.38
324.482	981.38
324.71	930.38
324.939	900.38
325.168	917.38
325.397	943.38
325.626	984.38
325.855	955.38
326.084	946.38
326.313	926.38
326.542	971.38
326.77	984.38
326.999	990.38
327.228	902.38
327.457	885.38
327.686	884.38
327.914	905.38
328.143	955.38
328.372	959.38
328.6	927.38
328.829	919.38
329.058	912.38
329.287	945.38
329.515	942.38
329.744	984.38
329.972	1039.38
330.201	1076.38
330.43	1006.38
330.658	977.38
330.887	976.38
331.115	996.38
331.344	1029.38
331.572	1004.38
331.801	1013.38
332.03	999.38
332.258	1015.38
332.486	1043.38
332.715	1058.38
332.943	1016.38
333.172	992.38
333.4	989.38
333.629	1065.38
333.857	1127.38
334.085	1238.38
334.314	1399.38
334.542	1477.38
334.771	1311.38
334.999	1175.38
335.227	1106.38
335.455	1078.38
335.684	1037.38
335.912	1125.38
336.14	1089.38
336.369	1045.38
336.597	1028.38
336.825	1057.38
337.053	1053.38
337.281	1160.38
337.51	1184.38
337.738	1206.38
337.966	1146.38
338.194	1028.38
338.422	1012.38
338.65	964.38
338.878	991.38
339.106	982.38
339.334	941.38
339.562	942.38
339.79	966.38
340.018	1006.38
340.246	1073.38
340.474	1040.38
340.702	1031.38
340.93	1046.38
341.158	995.38
341.386	1009.38
341.614	1009.38
341.842	997.38
342.07	995.38
342.298	994.38
342.526	1027.38
342.754	995.38
342.981	959.38
343.209	978.38
343.437	965.38
343.665	974.38
343.893	1025.38
344.12	1071.38
344.348	1097.38
344.576	1027.38
344.804	986.38
345.031	965.38
345.259	998.38
345.487	958.38
345.714	931.38
345.942	931.38
346.17	908.38
346.397	941.38
346.625	941.38
346.853	885.38
347.08	891.38
347.308	899.38
347.535	949.38
347.763	947.38
347.99	927.38
348.218	916.38
348.445	923.38
348.673	954.38
348.9	941.38
349.128	1007.38
349.355	1029.38
349.583	1016.38
349.81	919.38
350.037	863.38
350.265	891.38
350.492	886.38
350.72	934.38
350.947	933.38
351.174	946.38
351.402	915.38
351.629	867.38
351.856	857.38
352.083	868.38
352.311	864.38
352.538	912.38
352.765	942.38
352.992	961.38
353.22	890.38
353.447	892.38
353.674	946.38
353.901	919.38
354.128	898.38
354.355	901.38
354.583	948.38
354.81	965.38
355.037	971.38
355.264	965.38
355.491	952.38
355.718	926.38
355.945	905.38
356.172	906.38
356.399	900.38
356.626	903.38
356.853	949.38
357.08	1033.38
357.307	1152.38
357.534	1072.38
357.761	955.38
357.988	862.38
358.215	869.38
358.441	923.38
358.668	862.38
358.895	912.38
359.122	997.38
359.349	1064.38
359.576	1022.38
359.802	923.38
360.029	884.38
360.256	888.38
360.483	916.38
360.709	982.38
360.936	1004.38
361.163	998.38
361.39	1137.38
361.616	1138.38
361.843	1112.38
362.07	1067.38
362.296	960.38
362.523	914.38
362.749	925.38
362.976	942.38
363.203	971.38
363.429	938.38
363.656	920.38
363.882	979.38
364.109	1060.38
364.335	1109.38
364.562	1001.38
364.788	989.38
365.015	932.38
365.241	886.38
365.468	970.38
365.694	1014.38
365.92	1027.38
366.147	940.38
366.373	889.38
366.599	922.38
366.826	909.38
367.052	910.38
367.278	939.38
367.505	962.38
367.731	987.38
367.957	978.38
368.184	1020.38
368.41	1066.38
368.636	1078.38
368.862	1079.38
369.089	1077.38
369.315	1059.38
369.541	976.38
369.767	941.38
369.993	938.38
370.219	949.38
370.445	985.38
370.672	1056.38
370.898	1078.38
371.124	1051.38
371.35	1020.38
371.576	1051.38
371.802	1062.38
372.028	1019.38
372.254	962.38
372.48	958.38
372.706	962.38
372.932	960.38
373.158	974.38
373.384	987.38
373.61	1048.38
373.835	1034.38
374.061	1004.38
374.287	990.38
374.513	960.38
374.739	1007.38
374.965	1028.38
375.191	1029.38
375.416	1033.38
375.642	1058.38
375.868	1115.38
376.094	1107.38
376.319	1069.38
376.545	989.38
376.771	1039.38
376.997	1106.38
377.222	1070.38
377.448	1038.38
377.674	1074.38
377.899	1062.38
378.125	1132.38
378.35	1090.38
378.576	1007.38
378.802	958.38
379.027	948.38
379.253	971.38
379.478	1022.38
379.704	988.38
379.929	989.38
380.155	989.38
380.38	1008.38
380.606	1025.38
380.831	1025.38
381.057	1116.38
381.282	1075.38
381.507	1037.38
381.733	1135.38
381.958	1146.38
382.184	1064.38
382.409	1047.38
382.634	1045.38
382.86	1038.38
383.085	1002.38
383.31	1090.38
383.535	1181.38
383.761	1239.38
383.986	1184.38
384.211	1140.38
384.436	1152.38
384.662	1157.38
384.887	1230.38
385.112	1148.38
385.337	1160.38
385.562	1143.38
385.787	1109.38
386.013	1181.38
386.238	1166.38
386.463	1166.38
386.688	1278.38
386.913	1328.38
387.138	1248.38
387.363	1217.38
387.588	1178.38
387.813	1157.38
388.038	1202.38
388.263	1206.38
388.488	1166.38
388.713	1092.38
388.938	1104.38
389.163	1117.38
389.387	1122.38
389.612	1157.38
389.837	1151.38
390.062	1165.38
390.287	1132.38
390.512	1135.38
390.736	1121.38
390.961	1104.38
391.186	1094.38
391.411	1132.38
391.636	1142.38
391.86	1145.38
392.085	1152.38
392.31	1117.38
392.534	1160.38
392.759	1170.38
392.984	1136.38
393.208	1161.38
393.433	1191.38
393.658	1255.38
393.882	1247.38
394.107	1183.38
394.331	1143.38
394.556	1124.38
394.78	1160.38
395.005	1231.38
395.229	1276.38
395.454	1344.38
395.678	1311.38
395.903	1255.38
396.127	1217.38
396.352	1250.38
396.576	1284.38
396.801	1249.38
397.025	1264.38
397.249	1232.38
397.474	1251.38
397.698	1216.38
397.922	1277.38
398.147	1353.38
398.371	1409.38
398.595	1367.38
398.82	1348.38
399.044	1346.38
399.268	1419.38
399.492	1472.38
399.717	1509.38
399.941	1531.38
400.165	1464.38
400.389	1447.38
400.613	1446.38
400.837	1671.38
401.062	1856.38
401.286	1589.38
401.51	1448.38
401.734	1502.38
401.958	1411.38
402.182	1352.38
402.406	1302.38
402.63	1319.38
402.854	1315.38
403.078	1355.38
403.302	1330.38
403.526	1377.38
403.75	1355.38
403.974	1396.38
404.198	1330.38
404.422	1441.38
404.645	1490.38
404.869	1432.38
405.093	1286.38
405.317	1310.38
405.541	1345.38
405.765	1389.38
405.988	1360.38
406.212	1410.38
406.436	1440.38
406.66	1496.38
406.883	1507.38
407.107	1691.38
407.331	1835.38
407.555	1944.38
407.778	1667.38
408.002	1463.38
408.226	1422.38
408.449	1448.38
408.673	1377.38
408.896	1416.38
409.12	1410.38
409.344	1387.38
409.567	1352.38
409.791	1342.38
410.014	1412.38
410.238	1501.38
410.461	1582.38
410.685	1394.38
410.908	1359.38
411.132	1379.38
411.355	1371.38
411.578	1333.38
411.802	1384.38
412.025	1377.38
412.249	1335.38
412.472	1298.38
412.695	1326.38
412.919	1298.38
413.142	1283.38
413.365	1330.38
413.589	1350.38
413.812	1437.38
414.035	1462.38
414.258	1342.38
414.482	1308.38
414.705	1352.38
414.928	1284.38
415.151	1296.38
415.374	1310.38
415.597	1355.38
415.821	1355.38
416.044	1358.38
416.267	1355.38
416.49	1272.38
416.713	1277.38
416.936	1330.38
417.159	1383.38
417.382	1404.38
417.605	1339.38
417.828	1355.38
418.051	1364.38
418.274	1336.38
418.497	1333.38
418.72	1276.38
418.943	1281.38
419.166	1350.38
419.389	1397.38
419.611	1350.38
419.834	1328.38
420.057	1332.38
420.28	1282.38
420.503	1290.38
420.726	1336.38
420.948	1343.38
421.171	1306.38
421.394	1315.38
421.617	1348.38
421.839	1336.38
422.062	1342.38
422.285	1283.38
422.507	1320.38
422.73	1254.38
422.953	1228.38
423.175	1223.38
423.398	1294.38
423.621	1288.38
423.843	1336.38
424.066	1346.38
424.288	1409.38
424.511	1449.38
424.733	1383.38
424.956	1257.38
425.178	1266.38
425.401	1297.38
425.623	1303.38
425.846	1279.38
426.068	1354.38
426.291	1368.38
426.513	1382.38
426.735	1349.38
426.958	1465.38
427.18	1498.38
427.402	1404.38
427.625	1410.38
427.847	1398.38
428.069	1278.38
428.292	1260.38
428.514	1254.38
428.736	1226.38
428.958	1232.38
429.181	1288.38
429.403	1498.38
429.625	1776.38
429.847	1495.38
430.069	1301.38
430.292	1479.38
430.514	1446.38
430.736	1382.38
430.958	1410.38
431.18	1323.38
431.402	1242.38
431.624	1211.38
431.846	1205.38
432.068	1161.38
432.29	1142.38
432.512	1183.38
432.734	1272.38
432.956	1282.38
433.178	1363.38
433.4	1344.38
433.622	1336.38
433.844	1238.38
434.066	1196.38
434.287	1217.38
434.509	1216.38
434.731	1300.38
434.953	1389.38
435.175	1352.38
435.397	1258.38
435.618	1296.38
435.84	1260.38
436.062	1241.38
436.284	1260.38
436.505	1326.38
436.727	1301.38
436.949	1279.38
437.17	1238.38
437.392	1256.38
437.614	1242.38
437.835	1211.38
438.057	1235.38
438.278	1254.38
438.5	1265.38
438.721	1246.38
438.943	1261.38
439.165	1214.38
439.386	1204.38
439.608	1241.38
439.829	1251.38
440.05	1242.38
440.272	1272.38
440.493	1256.38
440.715	1292.38
440.936	1387.38
441.158	1451.38
441.379	1429.38
441.6	1398.38
441.822	1400.38
442.043	1366.38
442.264	1330.38
442.486	1299.38
442.707	1296.38
442.928	1284.38
443.149	1318.38
443.371	1343.38
443.592	1395.38
443.813	1396.38
444.034	1374.38
444.255	1393.38
444.476	1418.38
444.698	1416.38
444.919	1390.38
445.14	1478.38
445.361	1412.38
445.582	1444.38
445.803	1401.38
446.024	1362.38
446.245	1445.38
446.466	1391.38
446.687	1359.38
446.908	1329.38
447.129	1300.38
447.35	1318.38
447.571	1319.38
447.792	1292.38
448.013	1254.38
448.234	1297.38
448.455	1351.38
448.675	1359.38
448.896	1208.38
449.117	1221.38
449.338	1280.38
449.559	1291.38
449.779	1339.38
450	1430.38
450.221	1524.38
450.442	1438.38
450.662	1303.38
450.883	1222.38
451.104	1164.38
451.324	1210.38
451.545	1228.38
451.766	1195.38
451.986	1126.38
452.207	1136.38
452.428	1100.38
452.648	1101.38
452.869	1110.38
453.089	1126.38
453.31	1182.38
453.53	1179.38
453.751	1127.38
453.971	1074.38
454.192	1114.38
454.412	1147.38
454.633	1174.38
454.853	1099.38
455.073	1089.38
455.294	1091.38
455.514	1063.38
455.734	1092.38
455.955	1100.38
456.175	1068.38
456.395	1057.38
456.616	1111.38
456.836	1122.38
457.056	1090.38
457.276	1096.38
457.497	1077.38
457.717	1051.38
457.937	1048.38
458.157	1060.38
458.377	1062.38
458.598	1049.38
458.818	1044.38
459.038	1111.38
459.258	1168.38
459.478	1182.38
459.698	1115.38
459.918	1191.38
460.138	1238.38
460.358	1253.38
460.578	1281.38
460.798	1316.38
461.018	1370.38
461.238	1324.38
461.458	1264.38
461.678	1273.38
461.898	1254.38
462.118	1226.38
462.338	1255.38
462.558	1266.38
462.777	1282.38
462.997	1327.38
463.217	1359.38
463.437	1361.38
463.657	1294.38
463.876	1261.38
464.096	1249.38
464.316	1302.38
464.536	1301.38
464.755	1317.38
464.975	1294.38
465.195	1288.38
465.414	1328.38
465.634	1290.38
465.854	1324.38
466.073	1407.38
466.293	1367.38
466.512	1210.38
466.732	1203.38
466.951	1265.38
467.171	1248.38
467.391	1216.38
467.61	1219.38
467.829	1229.38
468.049	1358.38
468.268	1478.38
468.488	1346.38
468.707	1287.38
468.927	1246.38
469.146	1258.38
469.365	1202.38
469.585	1228.38
469.804	1226.38
470.023	1239.38
470.243	1236.38
470.462	1239.38
470.681	1217.38
470.901	1254.38
471.12	1249.38
471.339	1232.38
471.558	1221.38
471.777	1176.38
471.997	1198.38
472.216	1202.38
472.435	1140.38
472.654	1142.38
472.873	1208.38
473.092	1247.38
473.311	1187.38
473.53	1146.38
473.749	1124.38
473.968	1189.38
474.187	1246.38
474.406	1234.38
474.625	1219.38
474.844	1228.38
475.063	1228.38
475.282	1240.38
475.501	1226.38
475.72	1211.38
475.939	1304.38
476.158	1231.38
476.377	1238.38
476.596	1194.38
476.814	1232.38
477.033	1239.38
477.252	1260.38
477.471	1320.38
477.69	1297.38
477.908	1303.38
478.127	1392.38
478.346	1436.38
478.564	1421.38
478.783	1445.38
479.002	1460.38
479.22	1430.38
479.439	1489.38
479.658	1607.38
479.876	1553.38
480.095	1397.38
480.313	1317.38
480.532	1298.38
480.751	1319.38
480.969	1325.38
481.188	1289.38
481.406	1291.38
481.624	1226.38
481.843	1262.38
482.061	1294.38
482.28	1367.38
482.498	1380.38
482.717	1298.38
482.935	1290.38
483.153	1346.38
483.372	1388.38
483.59	1397.38
483.808	1360.38
484.027	1392.38
484.245	1485.38
484.463	1768.38
484.681	1934.38
484.9	1523.38
485.118	1413.38
485.336	1330.38
485.554	1371.38
485.772	1408.38
485.99	1368.38
486.209	1420.38
486.427	1414.38
486.645	1426.38
486.863	1423.38
487.081	1477.38
487.299	1464.38
487.517	1450.38
487.735	1430.38
487.953	1520.38
488.171	1542.38
488.389	1483.38
488.607	1488.38
488.825	1618.38
489.043	1552.38
489.261	1427.38
489.479	1493.38
489.696	1488.38
489.914	1479.38
490.132	1438.38
490.35	1487.38
490.568	1533.38
490.786	1517.38
491.003	1476.38
491.221	1525.38
491.439	1609.38
491.657	1606.38
491.874	1651.38
492.092	1680.38
492.31	1713.38
492.527	1664.38
492.745	1622.38
492.963	1623.38
493.18	1619.38
493.398	1722.38
