Data from WStandard_LampEnergy8_LIBS07252019.E.O._I.C._HRD10591_15-59-11-929.txt Node
Date: Thu Jul 25 15:59:11 EDT 2019
User: cochatt
Spectrometer: HR+D1059
Trigger mode: 1
Integration Time (sec): 1.000000E-1
Scans to average: 1
Electric dark correction enabled: true
Nonlinearity correction enabled: false
Boxcar width: 0
XAxis mode: Wavelengths
Number of Pixels in Spectrum: 2048
>>>>>Begin Spectral Data<<<<<
223.165	-13.25
223.4	-13.25
223.635	-13.25
223.869	-16.25
224.104	-26.25
224.338	-7.25
224.573	-19.25
224.808	-8.25
225.042	-4.25
225.277	-11.25
225.511	8.75
225.746	7.75
225.98	5.75
226.215	5.75
226.449	12.75
226.683	26.75
226.918	21.75
227.152	16.75
227.387	43.75
227.621	42.75
227.856	50.75
228.09	34.75
228.324	52.75
228.559	57.75
228.793	85.75
229.027	214.75
229.262	206.75
229.496	216.75
229.73	231.75
229.964	231.75
230.199	244.75
230.433	257.75
230.667	280.75
230.901	283.75
231.136	265.75
231.37	247.75
231.604	259.75
231.838	290.75
232.072	264.75
232.306	243.75
232.541	274.75
232.775	308.75
233.009	310.75
233.243	310.75
233.477	265.75
233.711	306.75
233.945	302.75
234.179	312.75
234.413	316.75
234.647	334.75
234.881	313.75
235.115	290.75
235.349	304.75
235.583	296.75
235.817	302.75
236.051	297.75
236.285	270.75
236.519	323.75
236.753	336.75
236.987	350.75
237.221	356.75
237.455	389.75
237.689	355.75
237.922	332.75
238.156	344.75
238.39	337.75
238.624	366.75
238.858	378.75
239.091	408.75
239.325	424.75
239.559	457.75
239.793	462.75
240.027	517.75
240.26	508.75
240.494	382.75
240.728	369.75
240.961	381.75
241.195	397.75
241.429	395.75
241.662	410.75
241.896	407.75
242.13	393.75
242.363	427.75
242.597	466.75
242.83	447.75
243.064	453.75
243.298	435.75
243.531	458.75
243.765	460.75
243.998	462.75
244.232	402.75
244.465	402.75
244.699	412.75
244.932	476.75
245.166	493.75
245.399	493.75
245.633	448.75
245.866	440.75
246.099	478.75
246.333	501.75
246.566	501.75
246.8	538.75
247.033	569.75
247.266	493.75
247.5	522.75
247.733	532.75
247.966	572.75
248.2	604.75
248.433	572.75
248.666	641.75
248.899	670.75
249.133	728.75
249.366	801.75
249.599	664.75
249.832	628.75
250.066	604.75
250.299	615.75
250.532	582.75
250.765	518.75
250.998	560.75
251.231	576.75
251.465	578.75
251.698	552.75
251.931	577.75
252.164	602.75
252.397	610.75
252.63	593.75
252.863	537.75
253.096	522.75
253.329	579.75
253.562	586.75
253.795	612.75
254.028	587.75
254.261	561.75
254.494	573.75
254.727	561.75
254.96	582.75
255.193	640.75
255.426	690.75
255.659	768.75
255.892	768.75
256.124	676.75
256.357	637.75
256.59	690.75
256.823	692.75
257.056	692.75
257.289	793.75
257.521	896.75
257.754	775.75
257.987	773.75
258.22	842.75
258.452	792.75
258.685	678.75
258.918	676.75
259.151	657.75
259.383	633.75
259.616	582.75
259.849	613.75
260.081	667.75
260.314	741.75
260.547	793.75
260.779	796.75
261.012	758.75
261.244	686.75
261.477	649.75
261.71	674.75
261.942	712.75
262.175	666.75
262.407	691.75
262.64	660.75
262.872	612.75
263.105	617.75
263.337	652.75
263.57	631.75
263.802	611.75
264.035	588.75
264.267	557.75
264.499	552.75
264.732	579.75
264.964	640.75
265.197	662.75
265.429	723.75
265.661	755.75
265.894	843.75
266.126	853.75
266.358	792.75
266.591	829.75
266.823	861.75
267.055	791.75
267.287	776.75
267.52	770.75
267.752	749.75
267.984	776.75
268.216	806.75
268.448	804.75
268.681	801.75
268.913	707.75
269.145	675.75
269.377	672.75
269.609	764.75
269.841	880.75
270.073	981.75
270.306	1088.75
270.538	1087.75
270.77	949.75
271.002	868.75
271.234	804.75
271.466	825.75
271.698	914.75
271.93	1053.75
272.162	1029.75
272.394	941.75
272.626	881.75
272.858	801.75
273.09	692.75
273.322	680.75
273.553	683.75
273.785	692.75
274.017	704.75
274.249	752.75
274.481	736.75
274.713	693.75
274.945	694.75
275.176	698.75
275.408	690.75
275.64	669.75
275.872	701.75
276.104	734.75
276.335	834.75
276.567	905.75
276.799	888.75
277.031	842.75
277.262	805.75
277.494	847.75
277.726	887.75
277.957	866.75
278.189	790.75
278.421	738.75
278.652	734.75
278.884	739.75
279.115	723.75
279.347	740.75
279.579	713.75
279.81	742.75
280.042	801.75
280.273	885.75
280.505	859.75
280.736	892.75
280.968	792.75
281.199	727.75
281.431	712.75
281.662	734.75
281.894	738.75
282.125	742.75
282.356	762.75
282.588	764.75
282.819	762.75
283.051	825.75
283.282	892.75
283.513	834.75
283.745	764.75
283.976	709.75
284.207	734.75
284.439	738.75
284.67	774.75
284.901	743.75
285.132	778.75
285.364	774.75
285.595	734.75
285.826	772.75
286.057	776.75
286.288	737.75
286.52	788.75
286.751	858.75
286.982	867.75
287.213	790.75
287.444	733.75
287.675	743.75
287.906	805.75
288.138	821.75
288.369	775.75
288.6	739.75
288.831	717.75
289.062	750.75
289.293	753.75
289.524	778.75
289.755	795.75
289.986	772.75
290.217	712.75
290.448	773.75
290.679	766.75
290.91	800.75
291.141	797.75
291.371	843.75
291.602	805.75
291.833	793.75
292.064	827.75
292.295	844.75
292.526	813.75
292.757	867.75
292.987	852.75
293.218	786.75
293.449	873.75
293.68	964.75
293.91	1018.75
294.141	948.75
294.372	915.75
294.603	931.75
294.833	960.75
295.064	903.75
295.295	816.75
295.525	794.75
295.756	772.75
295.987	762.75
296.217	744.75
296.448	750.75
296.679	789.75
296.909	767.75
297.14	784.75
297.37	808.75
297.601	830.75
297.831	897.75
298.062	832.75
298.292	842.75
298.523	779.75
298.753	788.75
298.984	796.75
299.214	788.75
299.445	833.75
299.675	839.75
299.905	822.75
300.136	789.75
300.366	790.75
300.597	748.75
300.827	804.75
301.057	830.75
301.288	847.75
301.518	858.75
301.748	886.75
301.979	893.75
302.209	938.75
302.439	972.75
302.669	985.75
302.9	930.75
303.13	856.75
303.36	850.75
303.59	875.75
303.82	875.75
304.051	858.75
304.281	850.75
304.511	885.75
304.741	967.75
304.971	1016.75
305.201	1103.75
305.431	939.75
305.661	811.75
305.891	777.75
306.121	773.75
306.352	810.75
306.582	856.75
306.812	904.75
307.042	932.75
307.272	928.75
307.502	995.75
307.731	1032.75
307.961	1088.75
308.191	987.75
308.421	880.75
308.651	850.75
308.881	824.75
309.111	838.75
309.341	823.75
309.571	832.75
309.8	821.75
310.03	828.75
310.26	802.75
310.49	803.75
310.72	844.75
310.949	873.75
311.179	902.75
311.409	870.75
311.639	853.75
311.868	848.75
312.098	845.75
312.328	840.75
312.557	836.75
312.787	861.75
313.017	876.75
313.246	863.75
313.476	867.75
313.706	883.75
313.935	888.75
314.165	897.75
314.394	923.75
314.624	960.75
314.853	1026.75
315.083	1043.75
315.312	1064.75
315.542	992.75
315.771	930.75
316.001	931.75
316.23	978.75
316.46	955.75
316.689	914.75
316.919	903.75
317.148	850.75
317.377	872.75
317.607	968.75
317.836	1062.75
318.065	1100.75
318.295	1033.75
318.524	972.75
318.753	941.75
318.983	964.75
319.212	916.75
319.441	925.75
319.67	911.75
319.9	950.75
320.129	975.75
320.358	1012.75
320.587	1008.75
320.816	1031.75
321.046	986.75
321.275	987.75
321.504	972.75
321.733	1064.75
321.962	983.75
322.191	926.75
322.42	895.75
322.649	900.75
322.878	903.75
323.108	947.75
323.337	942.75
323.566	958.75
323.795	966.75
324.024	954.75
324.253	912.75
324.482	936.75
324.71	908.75
324.939	859.75
325.168	909.75
325.397	932.75
325.626	944.75
325.855	954.75
326.084	923.75
326.313	914.75
326.542	942.75
326.77	969.75
326.999	982.75
327.228	922.75
327.457	868.75
327.686	903.75
327.914	885.75
328.143	962.75
328.372	959.75
328.6	930.75
328.829	911.75
329.058	921.75
329.287	924.75
329.515	952.75
329.744	969.75
329.972	999.75
330.201	1031.75
330.43	995.75
330.658	996.75
330.887	982.75
331.115	994.75
331.344	987.75
331.572	971.75
331.801	982.75
332.03	975.75
332.258	985.75
332.486	987.75
332.715	1011.75
332.943	1015.75
333.172	972.75
333.4	1013.75
333.629	1008.75
333.857	1122.75
334.085	1218.75
334.314	1366.75
334.542	1373.75
334.771	1280.75
334.999	1141.75
335.227	1113.75
335.455	1089.75
335.684	1074.75
335.912	1109.75
336.14	1094.75
336.369	1073.75
336.597	997.75
336.825	979.75
337.053	1054.75
337.281	1128.75
337.51	1127.75
337.738	1157.75
337.966	1094.75
338.194	1026.75
338.422	979.75
338.65	999.75
338.878	957.75
339.106	960.75
339.334	939.75
339.562	951.75
339.79	996.75
340.018	1043.75
340.246	1060.75
340.474	1057.75
340.702	1018.75
340.93	1020.75
341.158	1012.75
341.386	1001.75
341.614	1016.75
341.842	983.75
342.07	980.75
342.298	990.75
342.526	990.75
342.754	992.75
342.981	992.75
343.209	968.75
343.437	962.75
343.665	984.75
343.893	1034.75
344.12	1059.75
344.348	1044.75
344.576	1016.75
344.804	970.75
345.031	961.75
345.259	978.75
345.487	925.75
345.714	914.75
345.942	899.75
346.17	930.75
346.397	933.75
346.625	962.75
346.853	894.75
347.08	882.75
347.308	906.75
347.535	902.75
347.763	949.75
347.99	936.75
348.218	902.75
348.445	924.75
348.673	918.75
348.9	968.75
349.128	990.75
349.355	976.75
349.583	960.75
349.81	920.75
350.037	868.75
350.265	892.75
350.492	880.75
350.72	910.75
350.947	955.75
351.174	950.75
351.402	912.75
351.629	892.75
351.856	855.75
352.083	843.75
352.311	893.75
352.538	906.75
352.765	942.75
352.992	935.75
353.22	893.75
353.447	901.75
353.674	924.75
353.901	925.75
354.128	910.75
354.355	924.75
354.583	960.75
354.81	960.75
355.037	944.75
355.264	946.75
355.491	941.75
355.718	952.75
355.945	910.75
356.172	887.75
356.399	894.75
356.626	916.75
356.853	948.75
357.08	1048.75
357.307	1084.75
357.534	1058.75
357.761	940.75
357.988	902.75
358.215	865.75
358.441	896.75
358.668	880.75
358.895	895.75
359.122	972.75
359.349	1084.75
359.576	1018.75
359.802	947.75
360.029	896.75
360.256	928.75
360.483	925.75
360.709	922.75
360.936	959.75
361.163	1024.75
361.39	1109.75
361.616	1146.75
361.843	1132.75
362.07	1046.75
362.296	941.75
362.523	920.75
362.749	940.75
362.976	954.75
363.203	966.75
363.429	932.75
363.656	905.75
363.882	949.75
364.109	1033.75
364.335	1098.75
364.562	1026.75
364.788	993.75
365.015	914.75
365.241	884.75
365.468	947.75
365.694	979.75
365.92	985.75
366.147	952.75
366.373	907.75
366.599	900.75
366.826	901.75
367.052	913.75
367.278	914.75
367.505	937.75
367.731	963.75
367.957	969.75
368.184	1022.75
368.41	1073.75
368.636	1054.75
368.862	1084.75
369.089	1054.75
369.315	1013.75
369.541	978.75
369.767	937.75
369.993	922.75
370.219	897.75
370.445	967.75
370.672	996.75
370.898	1081.75
371.124	1016.75
371.35	982.75
371.576	1046.75
371.802	1048.75
372.028	1000.75
372.254	930.75
372.48	946.75
372.706	958.75
372.932	954.75
373.158	971.75
373.384	972.75
373.61	1005.75
373.835	1040.75
374.061	1015.75
374.287	983.75
374.513	975.75
374.739	993.75
374.965	990.75
375.191	1022.75
375.416	1012.75
375.642	1028.75
375.868	1115.75
376.094	1121.75
376.319	1052.75
376.545	1026.75
376.771	1058.75
376.997	1098.75
377.222	1048.75
377.448	980.75
377.674	1008.75
377.899	1053.75
378.125	1091.75
378.35	1081.75
378.576	980.75
378.802	944.75
379.027	948.75
379.253	1018.75
379.478	983.75
379.704	1016.75
379.929	981.75
380.155	991.75
380.38	1000.75
380.606	1000.75
380.831	1006.75
381.057	1066.75
381.282	1069.75
381.507	1054.75
381.733	1100.75
381.958	1164.75
382.184	1043.75
382.409	1042.75
382.634	1039.75
382.86	1053.75
383.085	1069.75
383.31	1126.75
383.535	1162.75
383.761	1180.75
383.986	1145.75
384.211	1094.75
384.436	1106.75
384.662	1154.75
384.887	1203.75
385.112	1143.75
385.337	1145.75
385.562	1131.75
385.787	1162.75
386.013	1171.75
386.238	1150.75
386.463	1184.75
386.688	1255.75
386.913	1317.75
387.138	1241.75
387.363	1149.75
387.588	1176.75
387.813	1185.75
388.038	1203.75
388.263	1200.75
388.488	1173.75
388.713	1082.75
388.938	1074.75
389.163	1095.75
389.387	1142.75
389.612	1132.75
389.837	1152.75
390.062	1165.75
390.287	1127.75
390.512	1136.75
390.736	1123.75
390.961	1101.75
391.186	1095.75
391.411	1110.75
391.636	1111.75
391.86	1121.75
392.085	1105.75
392.31	1125.75
392.534	1142.75
392.759	1146.75
392.984	1149.75
393.208	1179.75
393.433	1182.75
393.658	1241.75
393.882	1205.75
394.107	1165.75
394.331	1137.75
394.556	1124.75
394.78	1164.75
395.005	1191.75
395.229	1247.75
395.454	1287.75
395.678	1290.75
395.903	1221.75
396.127	1178.75
396.352	1219.75
396.576	1236.75
396.801	1250.75
397.025	1269.75
397.249	1265.75
397.474	1224.75
397.698	1229.75
397.922	1277.75
398.147	1304.75
398.371	1350.75
398.595	1354.75
398.82	1307.75
399.044	1325.75
399.268	1398.75
399.492	1460.75
399.717	1509.75
399.941	1513.75
400.165	1473.75
400.389	1431.75
400.613	1451.75
400.837	1674.75
401.062	1771.75
401.286	1514.75
401.51	1455.75
401.734	1496.75
401.958	1398.75
402.182	1363.75
402.406	1308.75
402.63	1276.75
402.854	1291.75
403.078	1316.75
403.302	1331.75
403.526	1364.75
403.75	1363.75
403.974	1357.75
404.198	1345.75
404.422	1435.75
404.645	1488.75
404.869	1446.75
405.093	1340.75
405.317	1347.75
405.541	1355.75
405.765	1376.75
405.988	1342.75
406.212	1381.75
406.436	1420.75
406.66	1478.75
406.883	1516.75
407.107	1662.75
407.331	1806.75
407.555	1947.75
407.778	1684.75
408.002	1408.75
408.226	1419.75
408.449	1431.75
408.673	1396.75
408.896	1371.75
409.12	1426.75
409.344	1412.75
409.567	1336.75
409.791	1335.75
410.014	1432.75
410.238	1486.75
410.461	1527.75
410.685	1379.75
410.908	1379.75
411.132	1387.75
411.355	1339.75
411.578	1304.75
411.802	1350.75
412.025	1383.75
412.249	1316.75
412.472	1316.75
412.695	1341.75
412.919	1307.75
413.142	1314.75
413.365	1338.75
413.589	1348.75
413.812	1394.75
414.035	1480.75
414.258	1347.75
414.482	1308.75
414.705	1296.75
414.928	1276.75
415.151	1293.75
415.374	1314.75
415.597	1328.75
415.821	1312.75
416.044	1357.75
416.267	1339.75
416.49	1286.75
416.713	1260.75
416.936	1317.75
417.159	1344.75
417.382	1379.75
417.605	1312.75
417.828	1353.75
418.051	1313.75
418.274	1305.75
418.497	1301.75
418.72	1290.75
418.943	1258.75
419.166	1340.75
419.389	1354.75
419.611	1336.75
419.834	1301.75
420.057	1313.75
420.28	1293.75
420.503	1287.75
420.726	1292.75
420.948	1308.75
421.171	1297.75
421.394	1328.75
421.617	1334.75
421.839	1342.75
422.062	1332.75
422.285	1285.75
422.507	1289.75
422.73	1266.75
422.953	1225.75
423.175	1243.75
423.398	1283.75
423.621	1315.75
423.843	1279.75
424.066	1325.75
424.288	1389.75
424.511	1399.75
424.733	1354.75
424.956	1228.75
425.178	1253.75
425.401	1259.75
425.623	1257.75
425.846	1268.75
426.068	1336.75
426.291	1362.75
426.513	1320.75
426.735	1320.75
426.958	1445.75
427.18	1506.75
427.402	1373.75
427.625	1400.75
427.847	1370.75
428.069	1274.75
428.292	1261.75
428.514	1225.75
428.736	1201.75
428.958	1242.75
429.181	1291.75
429.403	1496.75
429.625	1750.75
429.847	1462.75
430.069	1299.75
430.292	1452.75
430.514	1439.75
430.736	1365.75
430.958	1412.75
431.18	1308.75
431.402	1264.75
431.624	1208.75
431.846	1210.75
432.068	1127.75
432.29	1177.75
432.512	1210.75
432.734	1280.75
432.956	1264.75
433.178	1334.75
433.4	1338.75
433.622	1321.75
433.844	1254.75
434.066	1195.75
434.287	1174.75
434.509	1246.75
434.731	1322.75
434.953	1363.75
435.175	1351.75
435.397	1300.75
435.618	1262.75
435.84	1253.75
436.062	1227.75
436.284	1243.75
436.505	1312.75
436.727	1334.75
436.949	1253.75
437.17	1261.75
437.392	1256.75
437.614	1203.75
437.835	1208.75
438.057	1212.75
438.278	1261.75
438.5	1225.75
438.721	1203.75
438.943	1230.75
439.165	1233.75
439.386	1233.75
439.608	1253.75
439.829	1234.75
440.05	1270.75
440.272	1261.75
440.493	1252.75
440.715	1282.75
440.936	1348.75
441.158	1417.75
441.379	1389.75
441.6	1331.75
441.822	1340.75
442.043	1318.75
442.264	1335.75
442.486	1252.75
442.707	1295.75
442.928	1275.75
443.149	1293.75
443.371	1373.75
443.592	1395.75
443.813	1360.75
444.034	1367.75
444.255	1357.75
444.476	1394.75
444.698	1414.75
444.919	1409.75
445.14	1456.75
445.361	1453.75
445.582	1438.75
445.803	1401.75
446.024	1356.75
446.245	1421.75
446.466	1392.75
446.687	1303.75
446.908	1326.75
447.129	1319.75
447.35	1344.75
447.571	1269.75
447.792	1226.75
448.013	1213.75
448.234	1296.75
448.455	1325.75
448.675	1305.75
448.896	1204.75
449.117	1201.75
449.338	1217.75
449.559	1249.75
449.779	1317.75
450	1419.75
450.221	1506.75
450.442	1416.75
450.662	1276.75
450.883	1169.75
451.104	1189.75
451.324	1173.75
451.545	1228.75
451.766	1203.75
451.986	1139.75
452.207	1136.75
452.428	1084.75
452.648	1100.75
452.869	1129.75
453.089	1145.75
453.31	1141.75
453.53	1185.75
453.751	1120.75
453.971	1042.75
454.192	1128.75
454.412	1141.75
454.633	1158.75
454.853	1113.75
455.073	1069.75
455.294	1062.75
455.514	1060.75
455.734	1081.75
455.955	1092.75
456.175	1067.75
456.395	1043.75
456.616	1106.75
456.836	1149.75
457.056	1107.75
457.276	1085.75
457.497	1032.75
457.717	1013.75
457.937	1047.75
458.157	1069.75
458.377	1038.75
458.598	1043.75
458.818	1051.75
459.038	1107.75
459.258	1149.75
459.478	1167.75
459.698	1108.75
459.918	1167.75
460.138	1222.75
460.358	1276.75
460.578	1233.75
460.798	1309.75
461.018	1335.75
461.238	1299.75
461.458	1282.75
461.678	1250.75
461.898	1225.75
462.118	1188.75
462.338	1266.75
462.558	1274.75
462.777	1291.75
462.997	1370.75
463.217	1364.75
463.437	1345.75
463.657	1308.75
463.876	1252.75
464.096	1231.75
464.316	1294.75
464.536	1300.75
464.755	1304.75
464.975	1291.75
465.195	1280.75
465.414	1309.75
465.634	1296.75
465.854	1325.75
466.073	1364.75
466.293	1364.75
466.512	1217.75
466.732	1231.75
466.951	1224.75
467.171	1219.75
467.391	1207.75
467.61	1195.75
467.829	1227.75
468.049	1359.75
468.268	1458.75
468.488	1316.75
468.707	1265.75
468.927	1252.75
469.146	1208.75
469.365	1219.75
469.585	1227.75
469.804	1237.75
470.023	1228.75
470.243	1244.75
470.462	1232.75
470.681	1235.75
470.901	1237.75
471.12	1274.75
471.339	1214.75
471.558	1205.75
471.777	1171.75
471.997	1202.75
472.216	1186.75
472.435	1139.75
472.654	1126.75
472.873	1170.75
473.092	1229.75
473.311	1212.75
473.53	1126.75
473.749	1152.75
473.968	1184.75
474.187	1194.75
474.406	1228.75
474.625	1213.75
474.844	1202.75
475.063	1192.75
475.282	1205.75
475.501	1207.75
475.72	1194.75
475.939	1318.75
476.158	1254.75
476.377	1200.75
476.596	1177.75
476.814	1210.75
477.033	1186.75
477.252	1268.75
477.471	1313.75
477.69	1272.75
477.908	1277.75
478.127	1328.75
478.346	1448.75
478.564	1428.75
478.783	1402.75
479.002	1473.75
479.22	1401.75
479.439	1447.75
479.658	1576.75
479.876	1498.75
480.095	1394.75
480.313	1341.75
480.532	1304.75
480.751	1307.75
480.969	1288.75
481.188	1251.75
481.406	1238.75
481.624	1230.75
481.843	1268.75
482.061	1323.75
482.28	1316.75
482.498	1334.75
482.717	1317.75
482.935	1317.75
483.153	1368.75
483.372	1365.75
483.59	1364.75
483.808	1337.75
484.027	1363.75
484.245	1442.75
484.463	1730.75
484.681	1866.75
484.9	1490.75
485.118	1403.75
485.336	1360.75
485.554	1364.75
485.772	1401.75
485.99	1330.75
486.209	1402.75
486.427	1399.75
486.645	1390.75
486.863	1428.75
487.081	1480.75
487.299	1456.75
487.517	1392.75
487.735	1449.75
487.953	1474.75
488.171	1486.75
488.389	1454.75
488.607	1457.75
488.825	1593.75
489.043	1537.75
489.261	1395.75
489.479	1444.75
489.696	1467.75
489.914	1454.75
490.132	1427.75
490.35	1450.75
490.568	1551.75
490.786	1526.75
491.003	1469.75
491.221	1563.75
491.439	1602.75
491.657	1588.75
491.874	1640.75
492.092	1664.75
492.31	1714.75
492.527	1673.75
492.745	1648.75
492.963	1556.75
493.18	1626.75
493.398	1712.75
493.615	1735.75
493.833	1564.75
