Data from WStandard_LampEnergy8_LIBS07252019.E.O._I.C._HRD10591_15-59-27-930.txt Node
Date: Thu Jul 25 15:59:27 EDT 2019
User: cochatt
Spectrometer: HR+D1059
Trigger mode: 1
Integration Time (sec): 1.000000E-1
Scans to average: 1
Electric dark correction enabled: true
Nonlinearity correction enabled: false
Boxcar width: 0
XAxis mode: Wavelengths
Number of Pixels in Spectrum: 2048
>>>>>Begin Spectral Data<<<<<
223.165	-11.44
223.4	-11.44
223.635	-11.44
223.869	-16.44
224.104	-21.44
224.338	-14.44
224.573	-10.44
224.808	-13.44
225.042	-1.44
225.277	-6.44
225.511	-9.44
225.746	-4.44
225.98	5.56
226.215	9.56
226.449	17.56
226.683	19.56
226.918	25.56
227.152	31.56
227.387	42.56
227.621	37.56
227.856	37.56
228.09	55.56
228.324	44.56
228.559	32.56
228.793	102.56
229.027	187.56
229.262	211.56
229.496	216.56
229.73	211.56
229.964	237.56
230.199	253.56
230.433	253.56
230.667	248.56
230.901	284.56
231.136	269.56
231.37	272.56
231.604	263.56
231.838	267.56
232.072	262.56
232.306	253.56
232.541	272.56
232.775	302.56
233.009	318.56
233.243	305.56
233.477	286.56
233.711	292.56
233.945	312.56
234.179	288.56
234.413	315.56
234.647	342.56
234.881	320.56
235.115	302.56
235.349	293.56
235.583	298.56
235.817	286.56
236.051	300.56
236.285	287.56
236.519	300.56
236.753	327.56
236.987	356.56
237.221	330.56
237.455	390.56
237.689	368.56
237.922	333.56
238.156	330.56
238.39	330.56
238.624	374.56
238.858	375.56
239.091	392.56
239.325	401.56
239.559	472.56
239.793	460.56
240.027	482.56
240.26	494.56
240.494	385.56
240.728	358.56
240.961	370.56
241.195	396.56
241.429	409.56
241.662	420.56
241.896	384.56
242.13	395.56
242.363	418.56
242.597	454.56
242.83	434.56
243.064	428.56
243.298	468.56
243.531	451.56
243.765	450.56
243.998	450.56
244.232	405.56
244.465	394.56
244.699	423.56
244.932	441.56
245.166	495.56
245.399	490.56
245.633	455.56
245.866	461.56
246.099	477.56
246.333	477.56
246.566	497.56
246.8	534.56
247.033	566.56
247.266	534.56
247.5	531.56
247.733	515.56
247.966	537.56
248.2	610.56
248.433	601.56
248.666	615.56
248.899	665.56
249.133	738.56
249.366	790.56
249.599	674.56
249.832	615.56
250.066	592.56
250.299	618.56
250.532	609.56
250.765	548.56
250.998	535.56
251.231	592.56
251.465	607.56
251.698	568.56
251.931	566.56
252.164	594.56
252.397	614.56
252.63	585.56
252.863	532.56
253.096	551.56
253.329	572.56
253.562	576.56
253.795	584.56
254.028	606.56
254.261	568.56
254.494	546.56
254.727	555.56
254.96	586.56
255.193	640.56
255.426	686.56
255.659	785.56
255.892	800.56
256.124	669.56
256.357	660.56
256.59	700.56
256.823	694.56
257.056	711.56
257.289	818.56
257.521	881.56
257.754	790.56
257.987	782.56
258.22	848.56
258.452	788.56
258.685	682.56
258.918	674.56
259.151	650.56
259.383	622.56
259.616	573.56
259.849	633.56
260.081	684.56
260.314	781.56
260.547	808.56
260.779	798.56
261.012	737.56
261.244	681.56
261.477	656.56
261.71	678.56
261.942	672.56
262.175	660.56
262.407	699.56
262.64	646.56
262.872	626.56
263.105	611.56
263.337	622.56
263.57	644.56
263.802	616.56
264.035	588.56
264.267	569.56
264.499	562.56
264.732	605.56
264.964	639.56
265.197	668.56
265.429	699.56
265.661	772.56
265.894	844.56
266.126	828.56
266.358	758.56
266.591	822.56
266.823	861.56
267.055	799.56
267.287	786.56
267.52	777.56
267.752	760.56
267.984	742.56
268.216	740.56
268.448	797.56
268.681	800.56
268.913	722.56
269.145	675.56
269.377	676.56
269.609	758.56
269.841	873.56
270.073	985.56
270.306	1084.56
270.538	1100.56
270.77	925.56
271.002	848.56
271.234	786.56
271.466	812.56
271.698	898.56
271.93	1038.56
272.162	1054.56
272.394	921.56
272.626	878.56
272.858	789.56
273.09	732.56
273.322	691.56
273.553	666.56
273.785	673.56
274.017	716.56
274.249	734.56
274.481	775.56
274.713	706.56
274.945	701.56
275.176	693.56
275.408	713.56
275.64	687.56
275.872	678.56
276.104	720.56
276.335	831.56
276.567	904.56
276.799	889.56
277.031	817.56
277.262	807.56
277.494	852.56
277.726	900.56
277.957	844.56
278.189	827.56
278.421	735.56
278.652	721.56
278.884	700.56
279.115	716.56
279.347	747.56
279.579	732.56
279.81	735.56
280.042	808.56
280.273	872.56
280.505	871.56
280.736	862.56
280.968	817.56
281.199	720.56
281.431	718.56
281.662	713.56
281.894	721.56
282.125	753.56
282.356	744.56
282.588	764.56
282.819	779.56
283.051	834.56
283.282	886.56
283.513	840.56
283.745	748.56
283.976	702.56
284.207	702.56
284.439	725.56
284.67	699.56
284.901	768.56
285.132	761.56
285.364	764.56
285.595	776.56
285.826	749.56
286.057	752.56
286.288	731.56
286.52	779.56
286.751	847.56
286.982	868.56
287.213	775.56
287.444	711.56
287.675	720.56
287.906	753.56
288.138	830.56
288.369	802.56
288.6	738.56
288.831	737.56
289.062	741.56
289.293	745.56
289.524	732.56
289.755	778.56
289.986	807.56
290.217	739.56
290.448	748.56
290.679	786.56
290.91	772.56
291.141	800.56
291.371	814.56
291.602	792.56
291.833	790.56
292.064	800.56
292.295	807.56
292.526	851.56
292.757	849.56
292.987	805.56
293.218	801.56
293.449	865.56
293.68	948.56
293.91	997.56
294.141	949.56
294.372	902.56
294.603	946.56
294.833	960.56
295.064	884.56
295.295	790.56
295.525	797.56
295.756	787.56
295.987	727.56
296.217	739.56
296.448	746.56
296.679	755.56
296.909	766.56
297.14	751.56
297.37	769.56
297.601	817.56
297.831	880.56
298.062	857.56
298.292	790.56
298.523	802.56
298.753	789.56
298.984	769.56
299.214	797.56
299.445	829.56
299.675	820.56
299.905	816.56
300.136	790.56
300.366	770.56
300.597	741.56
300.827	750.56
301.057	785.56
301.288	838.56
301.518	857.56
301.748	864.56
301.979	892.56
302.209	896.56
302.439	973.56
302.669	993.56
302.9	915.56
303.13	857.56
303.36	848.56
303.59	849.56
303.82	846.56
304.051	835.56
304.281	854.56
304.511	841.56
304.741	914.56
304.971	990.56
305.201	1029.56
305.431	914.56
305.661	814.56
305.891	735.56
306.121	768.56
306.352	820.56
306.582	833.56
306.812	856.56
307.042	933.56
307.272	949.56
307.502	990.56
307.731	1062.56
307.961	1079.56
308.191	993.56
308.421	849.56
308.651	847.56
308.881	821.56
309.111	811.56
309.341	815.56
309.571	808.56
309.8	804.56
310.03	812.56
310.26	800.56
310.49	808.56
310.72	833.56
310.949	863.56
311.179	886.56
311.409	844.56
311.639	824.56
311.868	848.56
312.098	850.56
312.328	833.56
312.557	812.56
312.787	882.56
313.017	881.56
313.246	863.56
313.476	869.56
313.706	896.56
313.935	880.56
314.165	889.56
314.394	904.56
314.624	956.56
314.853	1032.56
315.083	1057.56
315.312	1043.56
315.542	954.56
315.771	890.56
316.001	916.56
316.23	964.56
316.46	941.56
316.689	926.56
316.919	862.56
317.148	838.56
317.377	884.56
317.607	931.56
317.836	1039.56
318.065	1085.56
318.295	1026.56
318.524	970.56
318.753	934.56
318.983	947.56
319.212	892.56
319.441	906.56
319.67	911.56
319.9	936.56
320.129	953.56
320.358	1015.56
320.587	1040.56
320.816	1020.56
321.046	975.56
321.275	970.56
321.504	968.56
321.733	1031.56
321.962	960.56
322.191	899.56
322.42	927.56
322.649	937.56
322.878	920.56
323.108	902.56
323.337	968.56
323.566	910.56
323.795	944.56
324.024	948.56
324.253	952.56
324.482	893.56
324.71	900.56
324.939	837.56
325.168	902.56
325.397	926.56
325.626	912.56
325.855	928.56
326.084	912.56
326.313	921.56
326.542	925.56
326.77	975.56
326.999	952.56
327.228	913.56
327.457	871.56
327.686	864.56
327.914	898.56
328.143	909.56
328.372	919.56
328.6	904.56
328.829	910.56
329.058	887.56
329.287	896.56
329.515	933.56
329.744	973.56
329.972	1000.56
330.201	1028.56
330.43	1008.56
330.658	962.56
330.887	918.56
331.115	988.56
331.344	977.56
331.572	967.56
331.801	963.56
332.03	951.56
332.258	946.56
332.486	998.56
332.715	966.56
332.943	971.56
333.172	988.56
333.4	989.56
333.629	1023.56
333.857	1103.56
334.085	1200.56
334.314	1342.56
334.542	1423.56
334.771	1280.56
334.999	1135.56
335.227	1057.56
335.455	1036.56
335.684	1048.56
335.912	1054.56
336.14	1120.56
336.369	1037.56
336.597	988.56
336.825	972.56
337.053	1030.56
337.281	1090.56
337.51	1151.56
337.738	1148.56
337.966	1115.56
338.194	1026.56
338.422	984.56
338.65	932.56
338.878	953.56
339.106	932.56
339.334	938.56
339.562	933.56
339.79	951.56
340.018	1004.56
340.246	1036.56
340.474	1026.56
340.702	1000.56
340.93	1025.56
341.158	999.56
341.386	977.56
341.614	989.56
341.842	952.56
342.07	968.56
342.298	957.56
342.526	986.56
342.754	945.56
342.981	980.56
343.209	956.56
343.437	948.56
343.665	977.56
343.893	1026.56
344.12	1029.56
344.348	1021.56
344.576	986.56
344.804	948.56
345.031	938.56
345.259	964.56
345.487	948.56
345.714	906.56
345.942	910.56
346.17	914.56
346.397	929.56
346.625	900.56
346.853	880.56
347.08	886.56
347.308	892.56
347.535	920.56
347.763	937.56
347.99	901.56
348.218	898.56
348.445	931.56
348.673	916.56
348.9	932.56
349.128	996.56
349.355	1016.56
349.583	971.56
349.81	900.56
350.037	887.56
350.265	847.56
350.492	872.56
350.72	917.56
350.947	928.56
351.174	925.56
351.402	886.56
351.629	869.56
351.856	874.56
352.083	862.56
352.311	849.56
352.538	874.56
352.765	935.56
352.992	958.56
353.22	889.56
353.447	888.56
353.674	886.56
353.901	872.56
354.128	878.56
354.355	848.56
354.583	925.56
354.81	960.56
355.037	940.56
355.264	933.56
355.491	928.56
355.718	926.56
355.945	913.56
356.172	890.56
356.399	893.56
356.626	880.56
356.853	919.56
357.08	1037.56
357.307	1102.56
357.534	1062.56
357.761	904.56
357.988	873.56
358.215	866.56
358.441	860.56
358.668	871.56
358.895	852.56
359.122	963.56
359.349	1027.56
359.576	960.56
359.802	892.56
360.029	893.56
360.256	869.56
360.483	860.56
360.709	936.56
360.936	981.56
361.163	1003.56
361.39	1104.56
361.616	1135.56
361.843	1127.56
362.07	1069.56
362.296	927.56
362.523	902.56
362.749	928.56
362.976	917.56
363.203	944.56
363.429	919.56
363.656	855.56
363.882	935.56
364.109	1030.56
364.335	1073.56
364.562	982.56
364.788	958.56
365.015	946.56
365.241	922.56
365.468	934.56
365.694	990.56
365.92	1007.56
366.147	930.56
366.373	883.56
366.599	906.56
366.826	888.56
367.052	868.56
367.278	923.56
367.505	916.56
367.731	956.56
367.957	944.56
368.184	1001.56
368.41	1041.56
368.636	1048.56
368.862	1052.56
369.089	1049.56
369.315	980.56
369.541	945.56
369.767	934.56
369.993	928.56
370.219	930.56
370.445	944.56
370.672	1010.56
370.898	1033.56
371.124	1033.56
371.35	997.56
371.576	992.56
371.802	1007.56
372.028	996.56
372.254	954.56
372.48	916.56
372.706	910.56
372.932	951.56
373.158	940.56
373.384	969.56
373.61	1006.56
373.835	1034.56
374.061	970.56
374.287	974.56
374.513	966.56
374.739	988.56
374.965	993.56
375.191	997.56
375.416	1004.56
375.642	1010.56
375.868	1055.56
376.094	1094.56
376.319	1053.56
376.545	997.56
376.771	1001.56
376.997	1081.56
377.222	1042.56
377.448	1005.56
377.674	1064.56
377.899	1030.56
378.125	1097.56
378.35	1042.56
378.576	969.56
378.802	948.56
379.027	925.56
379.253	950.56
379.478	969.56
379.704	961.56
379.929	983.56
380.155	957.56
380.38	982.56
380.606	974.56
380.831	986.56
381.057	1024.56
381.282	1042.56
381.507	1050.56
381.733	1104.56
381.958	1121.56
382.184	1035.56
382.409	976.56
382.634	1028.56
382.86	1019.56
383.085	1035.56
383.31	1040.56
383.535	1159.56
383.761	1151.56
383.986	1128.56
384.211	1097.56
384.436	1098.56
384.662	1156.56
384.887	1160.56
385.112	1142.56
385.337	1127.56
385.562	1094.56
385.787	1126.56
386.013	1152.56
386.238	1132.56
386.463	1120.56
386.688	1233.56
386.913	1312.56
387.138	1242.56
387.363	1160.56
387.588	1153.56
387.813	1145.56
388.038	1148.56
388.263	1218.56
388.488	1115.56
388.713	1042.56
388.938	1078.56
389.163	1038.56
389.387	1090.56
389.612	1101.56
389.837	1111.56
390.062	1114.56
390.287	1123.56
390.512	1124.56
390.736	1096.56
390.961	1099.56
391.186	1056.56
391.411	1040.56
391.636	1096.56
391.86	1090.56
392.085	1108.56
392.31	1089.56
392.534	1082.56
392.759	1132.56
392.984	1109.56
393.208	1151.56
393.433	1162.56
393.658	1216.56
393.882	1213.56
394.107	1129.56
394.331	1110.56
394.556	1110.56
394.78	1152.56
395.005	1180.56
395.229	1218.56
395.454	1261.56
395.678	1253.56
395.903	1204.56
396.127	1183.56
396.352	1196.56
396.576	1241.56
396.801	1221.56
397.025	1230.56
397.249	1237.56
397.474	1170.56
397.698	1200.56
397.922	1212.56
398.147	1298.56
398.371	1346.56
398.595	1337.56
398.82	1264.56
399.044	1308.56
399.268	1340.56
399.492	1413.56
399.717	1466.56
399.941	1482.56
400.165	1446.56
400.389	1434.56
400.613	1435.56
400.837	1633.56
401.062	1736.56
401.286	1486.56
401.51	1413.56
401.734	1452.56
401.958	1400.56
402.182	1324.56
402.406	1240.56
402.63	1257.56
402.854	1264.56
403.078	1300.56
403.302	1287.56
403.526	1298.56
403.75	1294.56
403.974	1356.56
404.198	1325.56
404.422	1426.56
404.645	1452.56
404.869	1406.56
405.093	1280.56
405.317	1264.56
405.541	1323.56
405.765	1324.56
405.988	1328.56
406.212	1318.56
406.436	1371.56
406.66	1426.56
406.883	1444.56
407.107	1631.56
407.331	1804.56
407.555	1861.56
407.778	1640.56
408.002	1429.56
408.226	1374.56
408.449	1379.56
408.673	1346.56
408.896	1353.56
409.12	1371.56
409.344	1388.56
409.567	1288.56
409.791	1351.56
410.014	1377.56
410.238	1449.56
410.461	1493.56
410.685	1386.56
410.908	1326.56
411.132	1332.56
411.355	1332.56
411.578	1297.56
411.802	1288.56
412.025	1329.56
412.249	1286.56
412.472	1292.56
412.695	1280.56
412.919	1269.56
413.142	1302.56
413.365	1294.56
413.589	1317.56
413.812	1388.56
414.035	1440.56
414.258	1303.56
414.482	1305.56
414.705	1302.56
414.928	1287.56
415.151	1260.56
415.374	1277.56
415.597	1302.56
415.821	1292.56
416.044	1316.56
416.267	1317.56
416.49	1237.56
416.713	1234.56
416.936	1294.56
417.159	1350.56
417.382	1349.56
417.605	1264.56
417.828	1292.56
418.051	1315.56
418.274	1280.56
418.497	1282.56
418.72	1271.56
418.943	1253.56
419.166	1311.56
419.389	1358.56
419.611	1282.56
419.834	1244.56
420.057	1314.56
420.28	1260.56
420.503	1287.56
420.726	1322.56
420.948	1271.56
421.171	1247.56
421.394	1282.56
421.617	1315.56
421.839	1316.56
422.062	1279.56
422.285	1253.56
422.507	1213.56
422.73	1214.56
422.953	1209.56
423.175	1207.56
423.398	1242.56
423.621	1280.56
423.843	1269.56
424.066	1319.56
424.288	1368.56
424.511	1385.56
424.733	1367.56
424.956	1232.56
425.178	1227.56
425.401	1223.56
425.623	1262.56
425.846	1254.56
426.068	1288.56
426.291	1315.56
426.513	1278.56
426.735	1286.56
426.958	1413.56
427.18	1456.56
427.402	1351.56
427.625	1358.56
427.847	1338.56
428.069	1248.56
428.292	1235.56
428.514	1221.56
428.736	1196.56
428.958	1247.56
429.181	1280.56
429.403	1455.56
429.625	1732.56
429.847	1451.56
430.069	1310.56
430.292	1416.56
430.514	1423.56
430.736	1341.56
430.958	1350.56
431.18	1289.56
431.402	1189.56
431.624	1185.56
431.846	1156.56
432.068	1102.56
432.29	1141.56
432.512	1169.56
432.734	1218.56
432.956	1286.56
433.178	1289.56
433.4	1284.56
433.622	1287.56
433.844	1226.56
434.066	1191.56
434.287	1185.56
434.509	1201.56
434.731	1197.56
434.953	1340.56
435.175	1344.56
435.397	1276.56
435.618	1234.56
435.84	1219.56
436.062	1193.56
436.284	1260.56
436.505	1296.56
436.727	1309.56
436.949	1246.56
437.17	1231.56
437.392	1192.56
437.614	1203.56
437.835	1161.56
438.057	1200.56
438.278	1233.56
438.5	1181.56
438.721	1200.56
438.943	1204.56
439.165	1232.56
439.386	1220.56
439.608	1256.56
439.829	1221.56
440.05	1232.56
440.272	1245.56
440.493	1252.56
440.715	1226.56
440.936	1328.56
441.158	1424.56
441.379	1362.56
441.6	1343.56
441.822	1324.56
442.043	1306.56
442.264	1268.56
442.486	1245.56
442.707	1226.56
442.928	1230.56
443.149	1261.56
443.371	1309.56
443.592	1334.56
443.813	1351.56
444.034	1359.56
444.255	1350.56
444.476	1339.56
444.698	1393.56
444.919	1358.56
445.14	1470.56
445.361	1454.56
445.582	1434.56
445.803	1375.56
446.024	1356.56
446.245	1410.56
446.466	1380.56
446.687	1319.56
446.908	1330.56
447.129	1278.56
447.35	1312.56
447.571	1309.56
447.792	1231.56
448.013	1219.56
448.234	1250.56
448.455	1308.56
448.675	1280.56
448.896	1192.56
449.117	1165.56
449.338	1192.56
449.559	1241.56
449.779	1305.56
450	1383.56
450.221	1477.56
450.442	1412.56
450.662	1305.56
450.883	1181.56
451.104	1152.56
451.324	1172.56
451.545	1218.56
451.766	1175.56
451.986	1148.56
452.207	1111.56
452.428	1080.56
452.648	1087.56
452.869	1094.56
453.089	1116.56
453.31	1126.56
453.53	1137.56
453.751	1126.56
453.971	1059.56
454.192	1064.56
454.412	1127.56
454.633	1121.56
454.853	1076.56
455.073	1038.56
455.294	1054.56
455.514	1038.56
455.734	1027.56
455.955	1072.56
456.175	1074.56
456.395	1053.56
456.616	1093.56
456.836	1057.56
457.056	1082.56
457.276	1052.56
457.497	1012.56
457.717	1006.56
457.937	1034.56
458.157	1074.56
458.377	1020.56
458.598	999.56
458.818	1037.56
459.038	1111.56
459.258	1142.56
459.478	1135.56
459.698	1106.56
459.918	1119.56
460.138	1190.56
460.358	1243.56
460.578	1213.56
460.798	1277.56
461.018	1310.56
461.238	1281.56
461.458	1231.56
461.678	1220.56
461.898	1177.56
462.118	1204.56
462.338	1196.56
462.558	1222.56
462.777	1252.56
462.997	1324.56
463.217	1324.56
463.437	1336.56
463.657	1252.56
463.876	1245.56
464.096	1216.56
464.316	1235.56
464.536	1288.56
464.755	1280.56
464.975	1312.56
465.195	1234.56
465.414	1305.56
465.634	1305.56
465.854	1317.56
466.073	1374.56
466.293	1289.56
466.512	1190.56
466.732	1176.56
466.951	1208.56
467.171	1202.56
467.391	1173.56
467.61	1142.56
467.829	1204.56
468.049	1340.56
468.268	1410.56
468.488	1315.56
468.707	1244.56
468.927	1200.56
469.146	1175.56
469.365	1217.56
469.585	1214.56
469.804	1209.56
470.023	1225.56
470.243	1216.56
470.462	1215.56
470.681	1196.56
470.901	1239.56
471.12	1211.56
471.339	1185.56
471.558	1186.56
471.777	1179.56
471.997	1185.56
472.216	1174.56
472.435	1139.56
472.654	1125.56
472.873	1146.56
473.092	1206.56
473.311	1183.56
473.53	1115.56
473.749	1117.56
473.968	1142.56
474.187	1166.56
474.406	1225.56
474.625	1200.56
474.844	1191.56
475.063	1174.56
475.282	1200.56
475.501	1173.56
475.72	1199.56
475.939	1315.56
476.158	1257.56
476.377	1215.56
476.596	1200.56
476.814	1219.56
477.033	1187.56
477.252	1252.56
477.471	1289.56
477.69	1246.56
477.908	1244.56
478.127	1314.56
478.346	1386.56
478.564	1395.56
478.783	1378.56
479.002	1398.56
479.22	1394.56
479.439	1449.56
479.658	1554.56
479.876	1486.56
480.095	1362.56
480.313	1326.56
480.532	1288.56
480.751	1288.56
480.969	1289.56
481.188	1250.56
481.406	1241.56
481.624	1235.56
481.843	1234.56
482.061	1248.56
482.28	1325.56
482.498	1310.56
482.717	1288.56
482.935	1267.56
483.153	1327.56
483.372	1356.56
483.59	1314.56
483.808	1391.56
484.027	1372.56
484.245	1422.56
484.463	1711.56
484.681	1863.56
484.9	1458.56
485.118	1363.56
485.336	1336.56
485.554	1361.56
485.772	1375.56
485.99	1339.56
486.209	1367.56
486.427	1340.56
486.645	1372.56
486.863	1409.56
487.081	1424.56
487.299	1432.56
487.517	1448.56
487.735	1439.56
487.953	1493.56
488.171	1453.56
488.389	1418.56
488.607	1436.56
488.825	1561.56
489.043	1517.56
489.261	1395.56
489.479	1428.56
489.696	1448.56
489.914	1445.56
490.132	1389.56
490.35	1458.56
490.568	1480.56
490.786	1486.56
491.003	1472.56
491.221	1523.56
491.439	1548.56
491.657	1538.56
491.874	1591.56
492.092	1630.56
492.31	1644.56
492.527	1646.56
492.745	1598.56
492.963	1570.56
493.18	1586.56
493.398	1683.56
493.615	1696.56
493.833	1582.56
