Data from WStandard_LampEnergy10_LIBS07252019.E.O._I.C._HRD10591_15-54-19-928.txt Node
Date: Thu Jul 25 15:54:19 EDT 2019
User: cochatt
Spectrometer: HR+D1059
Trigger mode: 1
Integration Time (sec): 1.000000E-1
Scans to average: 1
Electric dark correction enabled: true
Nonlinearity correction enabled: false
Boxcar width: 0
XAxis mode: Wavelengths
Number of Pixels in Spectrum: 2048
>>>>>Begin Spectral Data<<<<<
223.165	-5.31
223.4	-5.31
223.635	-5.31
223.869	-20.31
224.104	-18.31
224.338	-11.31
224.573	-14.31
224.808	-14.31
225.042	-5.31
225.277	-8.31
225.511	-11.31
225.746	8.69
225.98	5.69
226.215	0.69
226.449	12.69
226.683	21.69
226.918	24.69
227.152	34.69
227.387	20.69
227.621	42.69
227.856	43.69
228.09	39.69
228.324	60.69
228.559	57.69
228.793	91.69
229.027	139.69
229.262	141.69
229.496	145.69
229.73	141.69
229.964	173.69
230.199	160.69
230.433	164.69
230.667	181.69
230.901	183.69
231.136	170.69
231.37	187.69
231.604	181.69
231.838	165.69
232.072	168.69
232.306	179.69
232.541	202.69
232.775	196.69
233.009	216.69
233.243	203.69
233.477	185.69
233.711	187.69
233.945	204.69
234.179	198.69
234.413	211.69
234.647	213.69
234.881	185.69
235.115	211.69
235.349	201.69
235.583	201.69
235.817	211.69
236.051	197.69
236.285	188.69
236.519	218.69
236.753	212.69
236.987	229.69
237.221	231.69
237.455	220.69
237.689	227.69
237.922	210.69
238.156	228.69
238.39	213.69
238.624	224.69
238.858	231.69
239.091	259.69
239.325	233.69
239.559	285.69
239.793	278.69
240.027	310.69
240.26	291.69
240.494	229.69
240.728	243.69
240.961	250.69
241.195	236.69
241.429	259.69
241.662	248.69
241.896	244.69
242.13	248.69
242.363	266.69
242.597	290.69
242.83	266.69
243.064	276.69
243.298	293.69
243.531	282.69
243.765	277.69
243.998	271.69
244.232	248.69
244.465	242.69
244.699	261.69
244.932	281.69
245.166	321.69
245.399	289.69
245.633	299.69
245.866	266.69
246.099	297.69
246.333	305.69
246.566	317.69
246.8	315.69
247.033	350.69
247.266	323.69
247.5	305.69
247.733	316.69
247.966	319.69
248.2	375.69
248.433	354.69
248.666	358.69
248.899	384.69
249.133	438.69
249.366	478.69
249.599	377.69
249.832	370.69
250.066	354.69
250.299	373.69
250.532	341.69
250.765	314.69
250.998	346.69
251.231	338.69
251.465	354.69
251.698	333.69
251.931	352.69
252.164	344.69
252.397	363.69
252.63	348.69
252.863	320.69
253.096	332.69
253.329	336.69
253.562	344.69
253.795	384.69
254.028	342.69
254.261	339.69
254.494	335.69
254.727	338.69
254.96	384.69
255.193	373.69
255.426	419.69
255.659	442.69
255.892	439.69
256.124	407.69
256.357	368.69
256.59	405.69
256.823	389.69
257.056	431.69
257.289	473.69
257.521	490.69
257.754	461.69
257.987	467.69
258.22	497.69
258.452	441.69
258.685	394.69
258.918	388.69
259.151	394.69
259.383	384.69
259.616	368.69
259.849	365.69
260.081	409.69
260.314	452.69
260.547	489.69
260.779	472.69
261.012	435.69
261.244	402.69
261.477	393.69
261.71	391.69
261.942	414.69
262.175	401.69
262.407	395.69
262.64	373.69
262.872	373.69
263.105	358.69
263.337	378.69
263.57	378.69
263.802	377.69
264.035	359.69
264.267	357.69
264.499	354.69
264.732	373.69
264.964	373.69
265.197	410.69
265.429	415.69
265.661	441.69
265.894	495.69
266.126	492.69
266.358	470.69
266.591	464.69
266.823	493.69
267.055	443.69
267.287	440.69
267.52	451.69
267.752	447.69
267.984	445.69
268.216	452.69
268.448	457.69
268.681	454.69
268.913	418.69
269.145	410.69
269.377	423.69
269.609	426.69
269.841	495.69
270.073	570.69
270.306	605.69
270.538	621.69
270.77	530.69
271.002	467.69
271.234	460.69
271.466	476.69
271.698	537.69
271.93	606.69
272.162	589.69
272.394	541.69
272.626	517.69
272.858	453.69
273.09	429.69
273.322	443.69
273.553	397.69
273.785	405.69
274.017	409.69
274.249	450.69
274.481	439.69
274.713	423.69
274.945	437.69
275.176	419.69
275.408	401.69
275.64	400.69
275.872	406.69
276.104	434.69
276.335	463.69
276.567	535.69
276.799	531.69
277.031	485.69
277.262	469.69
277.494	483.69
277.726	527.69
277.957	530.69
278.189	470.69
278.421	457.69
278.652	419.69
278.884	418.69
279.115	434.69
279.347	454.69
279.579	436.69
279.81	448.69
280.042	472.69
280.273	511.69
280.505	492.69
280.736	511.69
280.968	460.69
281.199	433.69
281.431	443.69
281.662	424.69
281.894	419.69
282.125	421.69
282.356	468.69
282.588	453.69
282.819	451.69
283.051	491.69
283.282	520.69
283.513	484.69
283.745	448.69
283.976	421.69
284.207	422.69
284.439	428.69
284.67	438.69
284.901	445.69
285.132	460.69
285.364	453.69
285.595	458.69
285.826	452.69
286.057	445.69
286.288	452.69
286.52	463.69
286.751	496.69
286.982	509.69
287.213	450.69
287.444	434.69
287.675	448.69
287.906	484.69
288.138	513.69
288.369	471.69
288.6	457.69
288.831	455.69
289.062	440.69
289.293	451.69
289.524	451.69
289.755	445.69
289.986	461.69
290.217	438.69
290.448	459.69
290.679	459.69
290.91	473.69
291.141	475.69
291.371	497.69
291.602	472.69
291.833	497.69
292.064	474.69
292.295	514.69
292.526	509.69
292.757	533.69
292.987	513.69
293.218	479.69
293.449	536.69
293.68	584.69
293.91	586.69
294.141	539.69
294.372	521.69
294.603	544.69
294.833	578.69
295.064	533.69
295.295	497.69
295.525	470.69
295.756	456.69
295.987	436.69
296.217	451.69
296.448	477.69
296.679	443.69
296.909	478.69
297.14	449.69
297.37	471.69
297.601	501.69
297.831	538.69
298.062	514.69
298.292	481.69
298.523	480.69
298.753	473.69
298.984	480.69
299.214	492.69
299.445	497.69
299.675	491.69
299.905	493.69
300.136	481.69
300.366	477.69
300.597	463.69
300.827	497.69
301.057	518.69
301.288	524.69
301.518	509.69
301.748	502.69
301.979	549.69
302.209	550.69
302.439	572.69
302.669	597.69
302.9	565.69
303.13	504.69
303.36	513.69
303.59	545.69
303.82	522.69
304.051	523.69
304.281	529.69
304.511	532.69
304.741	570.69
304.971	607.69
305.201	632.69
305.431	547.69
305.661	490.69
305.891	460.69
306.121	451.69
306.352	490.69
306.582	509.69
306.812	539.69
307.042	581.69
307.272	579.69
307.502	611.69
307.731	625.69
307.961	647.69
308.191	569.69
308.421	530.69
308.651	525.69
308.881	512.69
309.111	506.69
309.341	498.69
309.571	509.69
309.8	505.69
310.03	491.69
310.26	499.69
310.49	513.69
310.72	507.69
310.949	531.69
311.179	512.69
311.409	533.69
311.639	524.69
311.868	531.69
312.098	535.69
312.328	491.69
312.557	512.69
312.787	519.69
313.017	518.69
313.246	509.69
313.476	526.69
313.706	518.69
313.935	529.69
314.165	554.69
314.394	568.69
314.624	593.69
314.853	618.69
315.083	623.69
315.312	609.69
315.542	575.69
315.771	553.69
316.001	519.69
316.23	584.69
316.46	568.69
316.689	547.69
316.919	513.69
317.148	536.69
317.377	518.69
317.607	586.69
317.836	621.69
318.065	643.69
318.295	633.69
318.524	586.69
318.753	581.69
318.983	576.69
319.212	584.69
319.441	543.69
319.67	542.69
319.9	573.69
320.129	613.69
320.358	605.69
320.587	645.69
320.816	608.69
321.046	601.69
321.275	592.69
321.504	597.69
321.733	637.69
321.962	600.69
322.191	573.69
322.42	551.69
322.649	557.69
322.878	539.69
323.108	563.69
323.337	580.69
323.566	596.69
323.795	604.69
324.024	564.69
324.253	574.69
324.482	568.69
324.71	544.69
324.939	525.69
325.168	527.69
325.397	586.69
325.626	596.69
325.855	584.69
326.084	581.69
326.313	554.69
326.542	559.69
326.77	596.69
326.999	569.69
327.228	550.69
327.457	553.69
327.686	530.69
327.914	541.69
328.143	551.69
328.372	547.69
328.6	562.69
328.829	557.69
329.058	547.69
329.287	555.69
329.515	569.69
329.744	603.69
329.972	616.69
330.201	625.69
330.43	625.69
330.658	593.69
330.887	634.69
331.115	603.69
331.344	607.69
331.572	592.69
331.801	569.69
332.03	587.69
332.258	615.69
332.486	634.69
332.715	617.69
332.943	597.69
333.172	597.69
333.4	615.69
333.629	648.69
333.857	671.69
334.085	761.69
334.314	827.69
334.542	844.69
334.771	760.69
334.999	682.69
335.227	670.69
335.455	623.69
335.684	643.69
335.912	674.69
336.14	648.69
336.369	657.69
336.597	613.69
336.825	609.69
337.053	642.69
337.281	681.69
337.51	680.69
337.738	680.69
337.966	668.69
338.194	634.69
338.422	600.69
338.65	588.69
338.878	585.69
339.106	570.69
339.334	554.69
339.562	553.69
339.79	589.69
340.018	630.69
340.246	629.69
340.474	640.69
340.702	617.69
340.93	641.69
341.158	623.69
341.386	597.69
341.614	613.69
341.842	578.69
342.07	599.69
342.298	599.69
342.526	615.69
342.754	600.69
342.981	611.69
343.209	580.69
343.437	587.69
343.665	594.69
343.893	613.69
344.12	645.69
344.348	657.69
344.576	597.69
344.804	591.69
345.031	609.69
345.259	598.69
345.487	570.69
345.714	550.69
345.942	544.69
346.17	578.69
346.397	577.69
346.625	575.69
346.853	546.69
347.08	531.69
347.308	557.69
347.535	577.69
347.763	582.69
347.99	567.69
348.218	580.69
348.445	556.69
348.673	542.69
348.9	600.69
349.128	586.69
349.355	609.69
349.583	581.69
349.81	554.69
350.037	539.69
350.265	533.69
350.492	538.69
350.72	544.69
350.947	597.69
351.174	575.69
351.402	565.69
351.629	533.69
351.856	521.69
352.083	520.69
352.311	535.69
352.538	548.69
352.765	561.69
352.992	575.69
353.22	559.69
353.447	563.69
353.674	561.69
353.901	590.69
354.128	550.69
354.355	570.69
354.583	573.69
354.81	582.69
355.037	596.69
355.264	588.69
355.491	577.69
355.718	561.69
355.945	575.69
356.172	554.69
356.399	547.69
356.626	560.69
356.853	600.69
357.08	639.69
357.307	689.69
357.534	645.69
357.761	576.69
357.988	581.69
358.215	573.69
358.441	544.69
358.668	551.69
358.895	569.69
359.122	618.69
359.349	615.69
359.576	622.69
359.802	593.69
360.029	556.69
360.256	538.69
360.483	569.69
360.709	598.69
360.936	611.69
361.163	631.69
361.39	691.69
361.616	714.69
361.843	710.69
362.07	641.69
362.296	567.69
362.523	590.69
362.749	579.69
362.976	581.69
363.203	602.69
363.429	563.69
363.656	586.69
363.882	616.69
364.109	648.69
364.335	655.69
364.562	651.69
364.788	593.69
365.015	571.69
365.241	577.69
365.468	593.69
365.694	607.69
365.92	620.69
366.147	576.69
366.373	562.69
366.599	569.69
366.826	563.69
367.052	556.69
367.278	561.69
367.505	575.69
367.731	603.69
367.957	600.69
368.184	630.69
368.41	682.69
368.636	661.69
368.862	682.69
369.089	661.69
369.315	637.69
369.541	628.69
369.767	618.69
369.993	597.69
370.219	600.69
370.445	614.69
370.672	670.69
370.898	673.69
371.124	661.69
371.35	647.69
371.576	672.69
371.802	678.69
372.028	647.69
372.254	639.69
372.48	614.69
372.706	600.69
372.932	578.69
373.158	603.69
373.384	647.69
373.61	655.69
373.835	664.69
374.061	641.69
374.287	648.69
374.513	645.69
374.739	638.69
374.965	645.69
375.191	644.69
375.416	635.69
375.642	675.69
375.868	705.69
376.094	708.69
376.319	671.69
376.545	656.69
376.771	691.69
376.997	722.69
377.222	692.69
377.448	654.69
377.674	665.69
377.899	687.69
378.125	699.69
378.35	693.69
378.576	647.69
378.802	618.69
379.027	602.69
379.253	645.69
379.478	673.69
379.704	631.69
379.929	635.69
380.155	623.69
380.38	653.69
380.606	651.69
380.831	649.69
381.057	722.69
381.282	704.69
381.507	687.69
381.733	719.69
381.958	744.69
382.184	689.69
382.409	683.69
382.634	676.69
382.86	671.69
383.085	673.69
383.31	727.69
383.535	781.69
383.761	791.69
383.986	760.69
384.211	742.69
384.436	753.69
384.662	782.69
384.887	764.69
385.112	739.69
385.337	739.69
385.562	716.69
385.787	751.69
386.013	751.69
386.238	758.69
386.463	792.69
386.688	826.69
386.913	874.69
387.138	812.69
387.363	794.69
387.588	753.69
387.813	756.69
388.038	807.69
388.263	796.69
388.488	744.69
388.713	716.69
388.938	724.69
389.163	724.69
389.387	756.69
389.612	748.69
389.837	761.69
390.062	785.69
390.287	780.69
390.512	767.69
390.736	707.69
390.961	724.69
391.186	737.69
391.411	736.69
391.636	756.69
391.86	751.69
392.085	773.69
392.31	785.69
392.534	773.69
392.759	753.69
392.984	756.69
393.208	765.69
393.433	797.69
393.658	828.69
393.882	818.69
394.107	783.69
394.331	755.69
394.556	812.69
394.78	781.69
395.005	821.69
395.229	830.69
395.454	897.69
395.678	853.69
395.903	836.69
396.127	827.69
396.352	835.69
396.576	843.69
396.801	853.69
397.025	833.69
397.249	844.69
397.474	792.69
397.698	831.69
397.922	857.69
398.147	872.69
398.371	929.69
398.595	938.69
398.82	889.69
399.044	890.69
399.268	936.69
399.492	951.69
399.717	995.69
399.941	974.69
400.165	983.69
400.389	953.69
400.613	986.69
400.837	1139.69
401.062	1237.69
401.286	1044.69
401.51	1000.69
401.734	987.69
401.958	967.69
402.182	909.69
402.406	868.69
402.63	907.69
402.854	879.69
403.078	866.69
403.302	909.69
403.526	938.69
403.75	940.69
403.974	930.69
404.198	945.69
404.422	992.69
404.645	1003.69
404.869	955.69
405.093	936.69
405.317	908.69
405.541	938.69
405.765	935.69
405.988	923.69
406.212	941.69
406.436	975.69
406.66	985.69
406.883	1016.69
407.107	1150.69
407.331	1204.69
407.555	1273.69
407.778	1127.69
408.002	1009.69
408.226	970.69
408.449	989.69
408.673	963.69
408.896	953.69
409.12	963.69
409.344	978.69
409.567	928.69
409.791	955.69
410.014	1007.69
410.238	1056.69
410.461	1062.69
410.685	986.69
410.908	945.69
411.132	945.69
411.355	944.69
411.578	940.69
411.802	949.69
412.025	938.69
412.249	927.69
412.472	919.69
412.695	937.69
412.919	908.69
413.142	889.69
413.365	912.69
413.589	959.69
413.812	1001.69
414.035	1006.69
414.258	967.69
414.482	934.69
414.705	920.69
414.928	912.69
415.151	922.69
415.374	916.69
415.597	938.69
415.821	960.69
416.044	963.69
416.267	951.69
416.49	916.69
416.713	921.69
416.936	949.69
417.159	972.69
417.382	968.69
417.605	925.69
417.828	925.69
418.051	974.69
418.274	952.69
418.497	949.69
418.72	917.69
418.943	932.69
419.166	949.69
419.389	978.69
419.611	958.69
419.834	960.69
420.057	946.69
420.28	928.69
420.503	949.69
420.726	932.69
420.948	931.69
421.171	930.69
421.394	962.69
421.617	992.69
421.839	983.69
422.062	979.69
422.285	943.69
422.507	920.69
422.73	903.69
422.953	895.69
423.175	903.69
423.398	944.69
423.621	925.69
423.843	948.69
424.066	992.69
424.288	1044.69
424.511	1026.69
424.733	1011.69
424.956	933.69
425.178	921.69
425.401	928.69
425.623	935.69
425.846	929.69
426.068	969.69
426.291	973.69
426.513	940.69
426.735	947.69
426.958	1041.69
427.18	1083.69
427.402	1000.69
427.625	1020.69
427.847	1004.69
428.069	922.69
428.292	936.69
428.514	896.69
428.736	897.69
428.958	927.69
429.181	920.69
429.403	1091.69
429.625	1235.69
429.847	1050.69
430.069	964.69
430.292	1017.69
430.514	1011.69
430.736	982.69
430.958	987.69
431.18	928.69
431.402	884.69
431.624	875.69
431.846	805.69
432.068	748.69
432.29	752.69
432.512	820.69
432.734	902.69
432.956	943.69
433.178	985.69
433.4	957.69
433.622	947.69
433.844	908.69
434.066	853.69
434.287	828.69
434.509	797.69
434.731	821.69
434.953	911.69
435.175	922.69
435.397	907.69
435.618	907.69
435.84	851.69
436.062	836.69
436.284	915.69
436.505	919.69
436.727	947.69
436.949	937.69
437.17	910.69
437.392	899.69
437.614	852.69
437.835	801.69
438.057	838.69
438.278	864.69
438.5	854.69
438.721	914.69
438.943	930.69
439.165	925.69
439.386	906.69
439.608	972.69
439.829	970.69
440.05	959.69
440.272	969.69
440.493	964.69
440.715	965.69
440.936	1029.69
441.158	1040.69
441.379	1095.69
441.6	1025.69
441.822	1042.69
442.043	1035.69
442.264	993.69
442.486	969.69
442.707	983.69
442.928	940.69
443.149	975.69
443.371	993.69
443.592	1017.69
443.813	1029.69
444.034	1012.69
444.255	1031.69
444.476	1046.69
444.698	1033.69
444.919	1060.69
445.14	1176.69
445.361	1115.69
445.582	1091.69
445.803	1073.69
446.024	1043.69
446.245	1086.69
446.466	1095.69
446.687	1063.69
446.908	1064.69
447.129	1052.69
447.35	972.69
447.571	1000.69
447.792	960.69
448.013	968.69
448.234	969.69
448.455	967.69
448.675	979.69
448.896	913.69
449.117	918.69
449.338	933.69
449.559	943.69
449.779	973.69
450	1037.69
450.221	1072.69
450.442	1028.69
450.662	931.69
450.883	860.69
451.104	897.69
451.324	895.69
451.545	892.69
451.766	893.69
451.986	857.69
452.207	836.69
452.428	809.69
452.648	789.69
452.869	777.69
453.089	780.69
453.31	780.69
453.53	787.69
453.751	730.69
453.971	721.69
454.192	714.69
454.412	780.69
454.633	793.69
454.853	773.69
455.073	761.69
455.294	779.69
455.514	787.69
455.734	753.69
455.955	756.69
456.175	757.69
456.395	742.69
456.616	751.69
456.836	745.69
457.056	766.69
457.276	743.69
457.497	697.69
457.717	705.69
457.937	715.69
458.157	710.69
458.377	708.69
458.598	705.69
458.818	659.69
459.038	712.69
459.258	703.69
459.478	717.69
459.698	734.69
459.918	755.69
460.138	785.69
460.358	817.69
460.578	843.69
460.798	856.69
461.018	909.69
461.238	875.69
461.458	856.69
461.678	869.69
461.898	858.69
462.118	829.69
462.338	845.69
462.558	841.69
462.777	863.69
462.997	874.69
463.217	918.69
463.437	874.69
463.657	823.69
463.876	836.69
464.096	835.69
464.316	840.69
464.536	869.69
464.755	861.69
464.975	880.69
465.195	869.69
465.414	882.69
465.634	884.69
465.854	901.69
466.073	981.69
466.293	948.69
466.512	882.69
466.732	882.69
466.951	923.69
467.171	907.69
467.391	906.69
467.61	897.69
467.829	908.69
468.049	1002.69
468.268	1044.69
468.488	961.69
468.707	910.69
468.927	915.69
469.146	920.69
469.365	919.69
469.585	937.69
469.804	921.69
470.023	936.69
470.243	955.69
470.462	938.69
470.681	945.69
470.901	939.69
471.12	922.69
471.339	948.69
471.558	931.69
471.777	895.69
471.997	913.69
472.216	842.69
472.435	777.69
472.654	781.69
472.873	772.69
473.092	855.69
473.311	824.69
473.53	812.69
473.749	819.69
473.968	847.69
474.187	860.69
474.406	837.69
474.625	848.69
474.844	872.69
475.063	872.69
475.282	880.69
475.501	844.69
475.72	887.69
475.939	936.69
476.158	897.69
476.377	859.69
476.596	850.69
476.814	874.69
477.033	815.69
477.252	853.69
477.471	915.69
477.69	907.69
477.908	942.69
478.127	1000.69
478.346	1023.69
478.564	1023.69
478.783	1018.69
479.002	1048.69
479.22	1000.69
479.439	1045.69
479.658	1067.69
479.876	1013.69
480.095	910.69
480.313	917.69
480.532	876.69
480.751	881.69
480.969	829.69
481.188	802.69
481.406	807.69
481.624	804.69
481.843	778.69
482.061	835.69
482.28	897.69
482.498	916.69
482.717	890.69
482.935	920.69
483.153	963.69
483.372	1035.69
483.59	1006.69
483.808	977.69
484.027	964.69
484.245	1003.69
484.463	1198.69
484.681	1301.69
484.9	1005.69
485.118	988.69
485.336	935.69
485.554	910.69
485.772	897.69
485.99	882.69
486.209	899.69
486.427	906.69
486.645	951.69
486.863	1026.69
487.081	1028.69
487.299	1004.69
487.517	1037.69
487.735	1114.69
487.953	1203.69
488.171	1213.69
488.389	1126.69
488.607	1079.69
488.825	1157.69
489.043	1071.69
489.261	981.69
489.479	1053.69
489.696	1076.69
489.914	1069.69
490.132	1041.69
490.35	1118.69
490.568	1189.69
490.786	1175.69
491.003	1213.69
491.221	1248.69
491.439	1310.69
491.657	1344.69
491.874	1349.69
492.092	1460.69
492.31	1501.69
492.527	1467.69
492.745	1386.69
492.963	1320.69
493.18	1317.69
493.398	1355.69
493.615	1327.69
493.833	1231.69
494.05	1240.69
494.268	1228.69
494.485	1267.69
494.703	1250.69
494.92	1247.69
495.138	1227.69
495.355	1242.69
495.573	1292.69
495.79	1315.69
496.008	1305.69
496.225	1245.69
496.442	1264.69
496.66	1279.69
496.877	1226.69
497.094	1233.69
497.312	1238.69
497.529	1189.69
497.746	1199.69
497.963	1267.69
498.181	1343.69
498.398	1284.69
498.615	1249.69
498.832	1155.69
499.049	1153.69
499.267	1187.69
499.484	1268.69
499.701	1367.69
499.918	1442.69
500.135	1480.69
