Data from WStandard_LampEnergy10_LIBS07252019.E.O._I.C._HRD10591_15-53-44-928.txt Node
Date: Thu Jul 25 15:53:44 EDT 2019
User: cochatt
Spectrometer: HR+D1059
Trigger mode: 1
Integration Time (sec): 1.000000E-1
Scans to average: 1
Electric dark correction enabled: true
Nonlinearity correction enabled: false
Boxcar width: 0
XAxis mode: Wavelengths
Number of Pixels in Spectrum: 2048
>>>>>Begin Spectral Data<<<<<
223.165	-13.62
223.4	-13.62
223.635	-13.62
223.869	-14.62
224.104	-13.62
224.338	-12.62
224.573	-16.62
224.808	-13.62
225.042	-9.62
225.277	-11.62
225.511	-11.62
225.746	0.38
225.98	-0.62
226.215	9.38
226.449	23.38
226.683	20.38
226.918	44.38
227.152	20.38
227.387	31.38
227.621	24.38
227.856	33.38
228.09	36.38
228.324	48.38
228.559	58.38
228.793	82.38
229.027	134.38
229.262	143.38
229.496	151.38
229.73	153.38
229.964	157.38
230.199	167.38
230.433	172.38
230.667	185.38
230.901	186.38
231.136	172.38
231.37	184.38
231.604	189.38
231.838	170.38
232.072	184.38
232.306	194.38
232.541	185.38
232.775	208.38
233.009	212.38
233.243	207.38
233.477	190.38
233.711	226.38
233.945	211.38
234.179	183.38
234.413	218.38
234.647	206.38
234.881	204.38
235.115	192.38
235.349	206.38
235.583	215.38
235.817	201.38
236.051	200.38
236.285	205.38
236.519	204.38
236.753	220.38
236.987	219.38
237.221	230.38
237.455	239.38
237.689	241.38
237.922	208.38
238.156	220.38
238.39	219.38
238.624	242.38
238.858	244.38
239.091	273.38
239.325	254.38
239.559	294.38
239.793	297.38
240.027	329.38
240.26	303.38
240.494	250.38
240.728	240.38
240.961	239.38
241.195	249.38
241.429	275.38
241.662	256.38
241.896	245.38
242.13	248.38
242.363	278.38
242.597	296.38
242.83	303.38
243.064	266.38
243.298	291.38
243.531	268.38
243.765	307.38
243.998	262.38
244.232	240.38
244.465	232.38
244.699	257.38
244.932	271.38
245.166	308.38
245.399	298.38
245.633	280.38
245.866	289.38
246.099	293.38
246.333	300.38
246.566	283.38
246.8	333.38
247.033	349.38
247.266	335.38
247.5	346.38
247.733	331.38
247.966	351.38
248.2	364.38
248.433	357.38
248.666	387.38
248.899	401.38
249.133	451.38
249.366	476.38
249.599	413.38
249.832	370.38
250.066	381.38
250.299	391.38
250.532	361.38
250.765	322.38
250.998	354.38
251.231	375.38
251.465	367.38
251.698	361.38
251.931	357.38
252.164	342.38
252.397	380.38
252.63	359.38
252.863	360.38
253.096	342.38
253.329	350.38
253.562	364.38
253.795	375.38
254.028	396.38
254.261	348.38
254.494	354.38
254.727	317.38
254.96	353.38
255.193	385.38
255.426	425.38
255.659	458.38
255.892	459.38
256.124	396.38
256.357	403.38
256.59	404.38
256.823	436.38
257.056	448.38
257.289	484.38
257.521	528.38
257.754	472.38
257.987	455.38
258.22	479.38
258.452	451.38
258.685	387.38
258.918	405.38
259.151	389.38
259.383	363.38
259.616	372.38
259.849	391.38
260.081	410.38
260.314	453.38
260.547	503.38
260.779	473.38
261.012	467.38
261.244	408.38
261.477	384.38
261.71	410.38
261.942	401.38
262.175	393.38
262.407	421.38
262.64	384.38
262.872	395.38
263.105	376.38
263.337	385.38
263.57	391.38
263.802	392.38
264.035	351.38
264.267	345.38
264.499	357.38
264.732	388.38
264.964	388.38
265.197	427.38
265.429	428.38
265.661	480.38
265.894	529.38
266.126	516.38
266.358	437.38
266.591	476.38
266.823	500.38
267.055	480.38
267.287	449.38
267.52	443.38
267.752	450.38
267.984	452.38
268.216	466.38
268.448	476.38
268.681	457.38
268.913	425.38
269.145	424.38
269.377	432.38
269.609	477.38
269.841	538.38
270.073	579.38
270.306	625.38
270.538	626.38
270.77	551.38
271.002	497.38
271.234	492.38
271.466	497.38
271.698	557.38
271.93	625.38
272.162	601.38
272.394	554.38
272.626	533.38
272.858	460.38
273.09	418.38
273.322	425.38
273.553	401.38
273.785	420.38
274.017	423.38
274.249	450.38
274.481	451.38
274.713	434.38
274.945	427.38
275.176	410.38
275.408	425.38
275.64	422.38
275.872	428.38
276.104	464.38
276.335	498.38
276.567	538.38
276.799	531.38
277.031	488.38
277.262	490.38
277.494	488.38
277.726	518.38
277.957	502.38
278.189	493.38
278.421	437.38
278.652	449.38
278.884	448.38
279.115	422.38
279.347	440.38
279.579	465.38
279.81	444.38
280.042	502.38
280.273	511.38
280.505	540.38
280.736	507.38
280.968	477.38
281.199	455.38
281.431	450.38
281.662	443.38
281.894	434.38
282.125	446.38
282.356	456.38
282.588	478.38
282.819	463.38
283.051	496.38
283.282	520.38
283.513	485.38
283.745	453.38
283.976	436.38
284.207	441.38
284.439	465.38
284.67	463.38
284.901	475.38
285.132	489.38
285.364	469.38
285.595	489.38
285.826	468.38
286.057	479.38
286.288	480.38
286.52	482.38
286.751	508.38
286.982	532.38
287.213	465.38
287.444	433.38
287.675	432.38
287.906	472.38
288.138	469.38
288.369	469.38
288.6	447.38
288.831	431.38
289.062	452.38
289.293	464.38
289.524	447.38
289.755	484.38
289.986	472.38
290.217	448.38
290.448	417.38
290.679	466.38
290.91	489.38
291.141	482.38
291.371	513.38
291.602	489.38
291.833	503.38
292.064	517.38
292.295	500.38
292.526	490.38
292.757	522.38
292.987	504.38
293.218	471.38
293.449	515.38
293.68	573.38
293.91	591.38
294.141	556.38
294.372	546.38
294.603	560.38
294.833	587.38
295.064	537.38
295.295	501.38
295.525	491.38
295.756	458.38
295.987	439.38
296.217	469.38
296.448	462.38
296.679	484.38
296.909	459.38
297.14	470.38
297.37	472.38
297.601	506.38
297.831	526.38
298.062	533.38
298.292	495.38
298.523	470.38
298.753	472.38
298.984	482.38
299.214	483.38
299.445	503.38
299.675	512.38
299.905	507.38
300.136	499.38
300.366	481.38
300.597	489.38
300.827	478.38
301.057	499.38
301.288	534.38
301.518	508.38
301.748	519.38
301.979	557.38
302.209	579.38
302.439	584.38
302.669	580.38
302.9	562.38
303.13	521.38
303.36	507.38
303.59	533.38
303.82	540.38
304.051	515.38
304.281	524.38
304.511	545.38
304.741	592.38
304.971	617.38
305.201	632.38
305.431	563.38
305.661	490.38
305.891	479.38
306.121	466.38
306.352	496.38
306.582	502.38
306.812	539.38
307.042	572.38
307.272	602.38
307.502	615.38
307.731	657.38
307.961	650.38
308.191	586.38
308.421	515.38
308.651	518.38
308.881	502.38
309.111	479.38
309.341	487.38
309.571	519.38
309.8	511.38
310.03	470.38
310.26	478.38
310.49	498.38
310.72	499.38
310.949	537.38
311.179	540.38
311.409	521.38
311.639	516.38
311.868	525.38
312.098	520.38
312.328	512.38
312.557	496.38
312.787	523.38
313.017	529.38
313.246	537.38
313.476	529.38
313.706	547.38
313.935	539.38
314.165	569.38
314.394	558.38
314.624	611.38
314.853	631.38
315.083	634.38
315.312	636.38
315.542	590.38
315.771	541.38
316.001	543.38
316.23	599.38
316.46	597.38
316.689	560.38
316.919	533.38
317.148	525.38
317.377	564.38
317.607	602.38
317.836	639.38
318.065	630.38
318.295	614.38
318.524	589.38
318.753	579.38
318.983	555.38
319.212	576.38
319.441	552.38
319.67	548.38
319.9	576.38
320.129	619.38
320.358	629.38
320.587	645.38
320.816	620.38
321.046	616.38
321.275	604.38
321.504	617.38
321.733	644.38
321.962	596.38
322.191	572.38
322.42	587.38
322.649	543.38
322.878	544.38
323.108	580.38
323.337	585.38
323.566	598.38
323.795	568.38
324.024	591.38
324.253	568.38
324.482	577.38
324.71	523.38
324.939	528.38
325.168	563.38
325.397	553.38
325.626	570.38
325.855	579.38
326.084	561.38
326.313	567.38
326.542	589.38
326.77	625.38
326.999	610.38
327.228	540.38
327.457	536.38
327.686	547.38
327.914	549.38
328.143	583.38
328.372	564.38
328.6	560.38
328.829	560.38
329.058	575.38
329.287	550.38
329.515	584.38
329.744	604.38
329.972	616.38
330.201	647.38
330.43	608.38
330.658	599.38
330.887	607.38
331.115	606.38
331.344	583.38
331.572	609.38
331.801	584.38
332.03	580.38
332.258	606.38
332.486	601.38
332.715	598.38
332.943	601.38
333.172	584.38
333.4	616.38
333.629	629.38
333.857	674.38
334.085	741.38
334.314	851.38
334.542	857.38
334.771	776.38
334.999	697.38
335.227	671.38
335.455	650.38
335.684	645.38
335.912	667.38
336.14	653.38
336.369	637.38
336.597	620.38
336.825	623.38
337.053	643.38
337.281	685.38
337.51	693.38
337.738	715.38
337.966	653.38
338.194	586.38
338.422	602.38
338.65	591.38
338.878	604.38
339.106	573.38
339.334	556.38
339.562	575.38
339.79	602.38
340.018	625.38
340.246	636.38
340.474	635.38
340.702	612.38
340.93	622.38
341.158	632.38
341.386	609.38
341.614	602.38
341.842	588.38
342.07	593.38
342.298	610.38
342.526	597.38
342.754	578.38
342.981	599.38
343.209	587.38
343.437	586.38
343.665	586.38
343.893	616.38
344.12	645.38
344.348	657.38
344.576	630.38
344.804	607.38
345.031	589.38
345.259	591.38
345.487	573.38
345.714	579.38
345.942	586.38
346.17	584.38
346.397	584.38
346.625	575.38
346.853	562.38
347.08	553.38
347.308	552.38
347.535	572.38
347.763	579.38
347.99	565.38
348.218	568.38
348.445	567.38
348.673	555.38
348.9	596.38
349.128	620.38
349.355	630.38
349.583	616.38
349.81	570.38
350.037	528.38
350.265	531.38
350.492	528.38
350.72	563.38
350.947	599.38
351.174	593.38
351.402	535.38
351.629	552.38
351.856	528.38
352.083	520.38
352.311	549.38
352.538	559.38
352.765	595.38
352.992	587.38
353.22	555.38
353.447	564.38
353.674	554.38
353.901	600.38
354.128	559.38
354.355	581.38
354.583	564.38
354.81	587.38
355.037	596.38
355.264	577.38
355.491	573.38
355.718	584.38
355.945	564.38
356.172	551.38
356.399	536.38
356.626	563.38
356.853	601.38
357.08	658.38
357.307	706.38
357.534	657.38
357.761	580.38
357.988	553.38
358.215	531.38
358.441	557.38
358.668	551.38
358.895	552.38
359.122	625.38
359.349	641.38
359.576	621.38
359.802	553.38
360.029	564.38
360.256	565.38
360.483	555.38
360.709	603.38
360.936	598.38
361.163	644.38
361.39	699.38
361.616	721.38
361.843	721.38
362.07	640.38
362.296	576.38
362.523	557.38
362.749	577.38
362.976	599.38
363.203	603.38
363.429	551.38
363.656	579.38
363.882	611.38
364.109	686.38
364.335	701.38
364.562	651.38
364.788	636.38
365.015	549.38
365.241	584.38
365.468	578.38
365.694	627.38
365.92	619.38
366.147	600.38
366.373	560.38
366.599	564.38
366.826	556.38
367.052	561.38
367.278	568.38
367.505	576.38
367.731	588.38
367.957	631.38
368.184	634.38
368.41	671.38
368.636	689.38
368.862	691.38
369.089	684.38
369.315	640.38
369.541	614.38
369.767	581.38
369.993	584.38
370.219	577.38
370.445	629.38
370.672	650.38
370.898	699.38
371.124	679.38
371.35	655.38
371.576	655.38
371.802	676.38
372.028	635.38
372.254	619.38
372.48	620.38
372.706	592.38
372.932	595.38
373.158	620.38
373.384	639.38
373.61	645.38
373.835	664.38
374.061	618.38
374.287	641.38
374.513	636.38
374.739	649.38
374.965	643.38
375.191	639.38
375.416	648.38
375.642	663.38
375.868	704.38
376.094	739.38
376.319	667.38
376.545	647.38
376.771	685.38
376.997	704.38
377.222	694.38
377.448	689.38
377.674	679.38
377.899	714.38
378.125	728.38
378.35	708.38
378.576	654.38
378.802	630.38
379.027	644.38
379.253	641.38
379.478	639.38
379.704	644.38
379.929	634.38
380.155	637.38
380.38	659.38
380.606	683.38
380.831	681.38
381.057	718.38
381.282	691.38
381.507	694.38
381.733	719.38
381.958	744.38
382.184	696.38
382.409	665.38
382.634	689.38
382.86	672.38
383.085	698.38
383.31	716.38
383.535	778.38
383.761	795.38
383.986	765.38
384.211	735.38
384.436	752.38
384.662	799.38
384.887	788.38
385.112	721.38
385.337	735.38
385.562	757.38
385.787	727.38
386.013	800.38
386.238	775.38
386.463	764.38
386.688	818.38
386.913	884.38
387.138	829.38
387.363	767.38
387.588	765.38
387.813	779.38
388.038	785.38
388.263	812.38
388.488	780.38
388.713	741.38
388.938	741.38
389.163	738.38
389.387	751.38
389.612	734.38
389.837	771.38
390.062	765.38
390.287	736.38
390.512	767.38
390.736	743.38
390.961	723.38
391.186	729.38
391.411	732.38
391.636	754.38
391.86	763.38
392.085	784.38
392.31	762.38
392.534	745.38
392.759	785.38
392.984	757.38
393.208	842.38
393.433	835.38
393.658	836.38
393.882	827.38
394.107	787.38
394.331	781.38
394.556	763.38
394.78	803.38
395.005	807.38
395.229	857.38
395.454	895.38
395.678	840.38
395.903	820.38
396.127	841.38
396.352	838.38
396.576	844.38
396.801	850.38
397.025	832.38
397.249	845.38
397.474	844.38
397.698	848.38
397.922	847.38
398.147	890.38
398.371	920.38
398.595	925.38
398.82	891.38
399.044	871.38
399.268	927.38
399.492	979.38
399.717	1017.38
399.941	995.38
400.165	979.38
400.389	977.38
400.613	1004.38
400.837	1132.38
401.062	1161.38
401.286	1030.38
401.51	965.38
401.734	995.38
401.958	949.38
402.182	898.38
402.406	872.38
402.63	860.38
402.854	903.38
403.078	907.38
403.302	893.38
403.526	904.38
403.75	919.38
403.974	950.38
404.198	948.38
404.422	982.38
404.645	1004.38
404.869	975.38
405.093	907.38
405.317	915.38
405.541	928.38
405.765	942.38
405.988	933.38
406.212	956.38
406.436	961.38
406.66	991.38
406.883	1032.38
407.107	1164.38
407.331	1221.38
407.555	1332.38
407.778	1124.38
408.002	992.38
408.226	976.38
408.449	983.38
408.673	951.38
408.896	947.38
409.12	975.38
409.344	949.38
409.567	925.38
409.791	946.38
410.014	975.38
410.238	1038.38
410.461	1066.38
410.685	973.38
410.908	951.38
411.132	939.38
411.355	952.38
411.578	945.38
411.802	959.38
412.025	953.38
412.249	933.38
412.472	935.38
412.695	916.38
412.919	936.38
413.142	932.38
413.365	943.38
413.589	955.38
413.812	1010.38
414.035	981.38
414.258	949.38
414.482	936.38
414.705	935.38
414.928	940.38
415.151	935.38
415.374	951.38
415.597	946.38
415.821	950.38
416.044	952.38
416.267	940.38
416.49	923.38
416.713	933.38
416.936	961.38
417.159	994.38
417.382	983.38
417.605	959.38
417.828	961.38
418.051	980.38
418.274	970.38
418.497	961.38
418.72	963.38
418.943	945.38
419.166	981.38
419.389	992.38
419.611	972.38
419.834	939.38
420.057	959.38
420.28	943.38
420.503	983.38
420.726	976.38
420.948	966.38
421.171	930.38
421.394	940.38
421.617	1010.38
421.839	1015.38
422.062	958.38
422.285	923.38
422.507	937.38
422.73	887.38
422.953	891.38
423.175	905.38
423.398	919.38
423.621	923.38
423.843	946.38
424.066	984.38
424.288	1042.38
424.511	1069.38
424.733	1029.38
424.956	950.38
425.178	918.38
425.401	966.38
425.623	974.38
425.846	942.38
426.068	970.38
426.291	969.38
426.513	944.38
426.735	977.38
426.958	1040.38
427.18	1083.38
427.402	987.38
427.625	1058.38
427.847	1011.38
428.069	938.38
428.292	931.38
428.514	920.38
428.736	909.38
428.958	928.38
429.181	925.38
429.403	1081.38
429.625	1218.38
429.847	1057.38
430.069	950.38
430.292	1067.38
430.514	1043.38
430.736	992.38
430.958	1000.38
431.18	931.38
431.402	889.38
431.624	854.38
431.846	781.38
432.068	746.38
432.29	746.38
432.512	796.38
432.734	883.38
432.956	929.38
433.178	971.38
433.4	966.38
433.622	984.38
433.844	938.38
434.066	857.38
434.287	802.38
434.509	791.38
434.731	844.38
434.953	945.38
435.175	940.38
435.397	945.38
435.618	891.38
435.84	855.38
436.062	858.38
436.284	952.38
436.505	935.38
436.727	994.38
436.949	943.38
437.17	936.38
437.392	876.38
437.614	865.38
437.835	796.38
438.057	822.38
438.278	897.38
438.5	891.38
438.721	908.38
438.943	931.38
439.165	896.38
439.386	932.38
439.608	948.38
439.829	973.38
440.05	985.38
440.272	945.38
440.493	979.38
440.715	1003.38
440.936	1036.38
441.158	1052.38
441.379	1060.38
441.6	1073.38
441.822	1027.38
442.043	1016.38
442.264	1024.38
442.486	957.38
442.707	967.38
442.928	976.38
443.149	987.38
443.371	982.38
443.592	1018.38
443.813	1023.38
444.034	1015.38
444.255	1041.38
444.476	1040.38
444.698	1066.38
444.919	1051.38
445.14	1135.38
445.361	1107.38
445.582	1077.38
445.803	1079.38
446.024	1049.38
446.245	1096.38
446.466	1068.38
446.687	1069.38
446.908	1082.38
447.129	1023.38
447.35	1041.38
447.571	1012.38
447.792	972.38
448.013	974.38
448.234	991.38
448.455	992.38
448.675	980.38
448.896	941.38
449.117	926.38
449.338	901.38
449.559	975.38
449.779	1000.38
450	1061.38
450.221	1081.38
450.442	1052.38
450.662	953.38
450.883	888.38
451.104	861.38
451.324	890.38
451.545	886.38
451.766	870.38
451.986	855.38
452.207	830.38
452.428	817.38
452.648	806.38
452.869	803.38
453.089	802.38
453.31	780.38
453.53	785.38
453.751	728.38
453.971	735.38
454.192	737.38
454.412	794.38
454.633	800.38
454.853	821.38
455.073	759.38
455.294	786.38
455.514	766.38
455.734	768.38
455.955	743.38
456.175	749.38
456.395	743.38
456.616	754.38
456.836	763.38
457.056	738.38
457.276	716.38
457.497	701.38
457.717	693.38
457.937	698.38
458.157	719.38
458.377	720.38
458.598	691.38
458.818	674.38
459.038	687.38
459.258	715.38
459.478	706.38
459.698	705.38
459.918	753.38
460.138	815.38
460.358	848.38
460.578	839.38
460.798	869.38
461.018	899.38
461.238	876.38
461.458	876.38
461.678	859.38
461.898	840.38
462.118	826.38
462.338	847.38
462.558	816.38
462.777	834.38
462.997	870.38
463.217	876.38
463.437	890.38
463.657	877.38
463.876	853.38
464.096	820.38
464.316	829.38
464.536	891.38
464.755	900.38
464.975	873.38
465.195	884.38
465.414	881.38
465.634	869.38
465.854	905.38
466.073	981.38
466.293	913.38
466.512	885.38
466.732	868.38
466.951	943.38
467.171	899.38
467.391	896.38
467.61	877.38
467.829	914.38
468.049	981.38
468.268	1062.38
468.488	964.38
468.707	943.38
468.927	941.38
469.146	920.38
469.365	949.38
469.585	936.38
469.804	924.38
470.023	936.38
470.243	929.38
470.462	939.38
470.681	932.38
470.901	960.38
471.12	973.38
471.339	938.38
471.558	951.38
471.777	905.38
471.997	902.38
472.216	838.38
472.435	800.38
472.654	802.38
472.873	788.38
473.092	860.38
473.311	833.38
473.53	839.38
473.749	820.38
473.968	835.38
474.187	856.38
474.406	856.38
474.625	883.38
474.844	906.38
475.063	896.38
475.282	905.38
475.501	842.38
475.72	853.38
475.939	919.38
476.158	869.38
476.377	863.38
476.596	861.38
476.814	852.38
477.033	836.38
477.252	868.38
477.471	882.38
477.69	904.38
477.908	947.38
478.127	988.38
478.346	989.38
478.564	992.38
478.783	1049.38
479.002	1074.38
479.22	1039.38
479.439	1041.38
479.658	1080.38
479.876	1000.38
480.095	894.38
480.313	915.38
480.532	891.38
480.751	883.38
480.969	840.38
481.188	816.38
481.406	802.38
481.624	767.38
481.843	811.38
482.061	839.38
482.28	890.38
482.498	901.38
482.717	859.38
482.935	908.38
483.153	995.38
483.372	1053.38
483.59	1049.38
483.808	999.38
484.027	971.38
484.245	1023.38
484.463	1250.38
484.681	1302.38
484.9	1028.38
485.118	1005.38
485.336	969.38
485.554	893.38
485.772	905.38
485.99	887.38
486.209	914.38
486.427	928.38
486.645	956.38
486.863	1017.38
487.081	1035.38
487.299	1001.38
487.517	1012.38
487.735	1124.38
487.953	1229.38
488.171	1170.38
488.389	1139.38
488.607	1119.38
488.825	1149.38
489.043	1045.38
489.261	972.38
489.479	1050.38
489.696	1051.38
489.914	1054.38
490.132	1057.38
490.35	1093.38
490.568	1158.38
490.786	1183.38
491.003	1239.38
491.221	1254.38
491.439	1294.38
491.657	1361.38
491.874	1397.38
492.092	1450.38
492.31	1498.38
492.527	1473.38
492.745	1391.38
492.963	1313.38
493.18	1345.38
493.398	1377.38
493.615	1357.38
493.833	1318.38
494.05	1256.38
494.268	1233.38
494.485	1260.38
494.703	1239.38
494.92	1231.38
495.138	1229.38
495.355	1264.38
495.573	1257.38
495.79	1295.38
496.008	1320.38
496.225	1223.38
496.442	1255.38
496.66	1269.38
496.877	1256.38
497.094	1251.38
497.312	1216.38
497.529	1199.38
497.746	1223.38
497.963	1311.38
498.181	1331.38
498.398	1255.38
498.615	1218.38
498.832	1178.38
499.049	1157.38
499.267	1224.38
499.484	1277.38
499.701	1321.38
499.918	1378.38
500.135	1514.38
