Data from WStandard_LampEnergy8_LIBS07252019.E.O._I.C._HRD10591_15-58-11-929.txt Node
Date: Thu Jul 25 15:58:11 EDT 2019
User: cochatt
Spectrometer: HR+D1059
Trigger mode: 1
Integration Time (sec): 1.000000E-1
Scans to average: 1
Electric dark correction enabled: true
Nonlinearity correction enabled: false
Boxcar width: 0
XAxis mode: Wavelengths
Number of Pixels in Spectrum: 2048
>>>>>Begin Spectral Data<<<<<
223.165	-21.06
223.4	-21.06
223.635	-21.06
223.869	-17.06
224.104	-11.06
224.338	-32.06
224.573	-21.06
224.808	-21.06
225.042	-15.06
225.277	10.94
225.511	0.94
225.746	2.94
225.98	10.94
226.215	16.94
226.449	23.94
226.683	9.94
226.918	17.94
227.152	43.94
227.387	33.94
227.621	38.94
227.856	53.94
228.09	51.94
228.324	41.94
228.559	33.94
228.793	106.94
229.027	197.94
229.262	206.94
229.496	214.94
229.73	225.94
229.964	226.94
230.199	261.94
230.433	251.94
230.667	269.94
230.901	290.94
231.136	267.94
231.37	265.94
231.604	243.94
231.838	276.94
232.072	253.94
232.306	271.94
232.541	269.94
232.775	297.94
233.009	333.94
233.243	307.94
233.477	285.94
233.711	297.94
233.945	311.94
234.179	305.94
234.413	307.94
234.647	334.94
234.881	335.94
235.115	314.94
235.349	294.94
235.583	305.94
235.817	287.94
236.051	305.94
236.285	307.94
236.519	328.94
236.753	343.94
236.987	350.94
237.221	354.94
237.455	384.94
237.689	355.94
237.922	355.94
238.156	336.94
238.39	349.94
238.624	372.94
238.858	412.94
239.091	420.94
239.325	439.94
239.559	462.94
239.793	491.94
240.027	537.94
240.26	497.94
240.494	389.94
240.728	384.94
240.961	387.94
241.195	376.94
241.429	396.94
241.662	416.94
241.896	383.94
242.13	391.94
242.363	430.94
242.597	455.94
242.83	437.94
243.064	458.94
243.298	493.94
243.531	485.94
243.765	473.94
243.998	493.94
244.232	395.94
244.465	407.94
244.699	411.94
244.932	458.94
245.166	513.94
245.399	498.94
245.633	434.94
245.866	446.94
246.099	479.94
246.333	495.94
246.566	482.94
246.8	520.94
247.033	568.94
247.266	552.94
247.5	569.94
247.733	527.94
247.966	561.94
248.2	591.94
248.433	580.94
248.666	609.94
248.899	681.94
249.133	759.94
249.366	835.94
249.599	674.94
249.832	621.94
250.066	645.94
250.299	653.94
250.532	581.94
250.765	519.94
250.998	540.94
251.231	591.94
251.465	616.94
251.698	587.94
251.931	605.94
252.164	594.94
252.397	606.94
252.63	626.94
252.863	559.94
253.096	555.94
253.329	570.94
253.562	592.94
253.795	641.94
254.028	616.94
254.261	575.94
254.494	575.94
254.727	552.94
254.96	594.94
255.193	665.94
255.426	703.94
255.659	810.94
255.892	804.94
256.124	694.94
256.357	657.94
256.59	715.94
256.823	713.94
257.056	759.94
257.289	858.94
257.521	893.94
257.754	812.94
257.987	787.94
258.22	853.94
258.452	803.94
258.685	707.94
258.918	696.94
259.151	685.94
259.383	658.94
259.616	596.94
259.849	623.94
260.081	682.94
260.314	775.94
260.547	833.94
260.779	833.94
261.012	764.94
261.244	715.94
261.477	667.94
261.71	693.94
261.942	701.94
262.175	686.94
262.407	705.94
262.64	677.94
262.872	644.94
263.105	637.94
263.337	625.94
263.57	634.94
263.802	634.94
264.035	614.94
264.267	585.94
264.499	577.94
264.732	612.94
264.964	633.94
265.197	691.94
265.429	721.94
265.661	811.94
265.894	854.94
266.126	888.94
266.358	775.94
266.591	811.94
266.823	882.94
267.055	797.94
267.287	789.94
267.52	754.94
267.752	740.94
267.984	764.94
268.216	820.94
268.448	821.94
268.681	791.94
268.913	734.94
269.145	720.94
269.377	706.94
269.609	794.94
269.841	893.94
270.073	1017.94
270.306	1122.94
270.538	1113.94
270.77	955.94
271.002	871.94
271.234	821.94
271.466	835.94
271.698	917.94
271.93	1077.94
272.162	1083.94
272.394	962.94
272.626	906.94
272.858	811.94
273.09	710.94
273.322	699.94
273.553	691.94
273.785	682.94
274.017	722.94
274.249	753.94
274.481	780.94
274.713	721.94
274.945	686.94
275.176	690.94
275.408	701.94
275.64	703.94
275.872	690.94
276.104	732.94
276.335	848.94
276.567	945.94
276.799	893.94
277.031	814.94
277.262	792.94
277.494	840.94
277.726	942.94
277.957	899.94
278.189	817.94
278.421	736.94
278.652	738.94
278.884	739.94
279.115	736.94
279.347	770.94
279.579	728.94
279.81	744.94
280.042	813.94
280.273	893.94
280.505	881.94
280.736	891.94
280.968	843.94
281.199	736.94
281.431	718.94
281.662	713.94
281.894	732.94
282.125	755.94
282.356	767.94
282.588	750.94
282.819	776.94
283.051	855.94
283.282	892.94
283.513	871.94
283.745	759.94
283.976	705.94
284.207	709.94
284.439	749.94
284.67	763.94
284.901	772.94
285.132	809.94
285.364	777.94
285.595	771.94
285.826	749.94
286.057	736.94
286.288	760.94
286.52	791.94
286.751	844.94
286.982	861.94
287.213	775.94
287.444	729.94
287.675	733.94
287.906	795.94
288.138	809.94
288.369	792.94
288.6	757.94
288.831	777.94
289.062	759.94
289.293	761.94
289.524	786.94
289.755	805.94
289.986	817.94
290.217	743.94
290.448	726.94
290.679	775.94
290.91	780.94
291.141	804.94
291.371	837.94
291.602	821.94
291.833	838.94
292.064	843.94
292.295	818.94
292.526	842.94
292.757	858.94
292.987	848.94
293.218	798.94
293.449	905.94
293.68	1019.94
293.91	1018.94
294.141	960.94
294.372	913.94
294.603	938.94
294.833	953.94
295.064	905.94
295.295	838.94
295.525	813.94
295.756	768.94
295.987	738.94
296.217	729.94
296.448	768.94
296.679	774.94
296.909	805.94
297.14	786.94
297.37	801.94
297.601	859.94
297.831	897.94
298.062	881.94
298.292	817.94
298.523	769.94
298.753	761.94
298.984	797.94
299.214	803.94
299.445	811.94
299.675	860.94
299.905	845.94
300.136	813.94
300.366	789.94
300.597	782.94
300.827	779.94
301.057	805.94
301.288	858.94
301.518	855.94
301.748	848.94
301.979	918.94
302.209	927.94
302.439	973.94
302.669	997.94
302.9	909.94
303.13	834.94
303.36	862.94
303.59	867.94
303.82	861.94
304.051	840.94
304.281	877.94
304.511	882.94
304.741	952.94
304.971	1051.94
305.201	1067.94
305.431	964.94
305.661	798.94
305.891	773.94
306.121	792.94
306.352	821.94
306.582	858.94
306.812	917.94
307.042	939.94
307.272	921.94
307.502	997.94
307.731	1071.94
307.961	1091.94
308.191	1038.94
308.421	868.94
308.651	857.94
308.881	845.94
309.111	820.94
309.341	832.94
309.571	808.94
309.8	818.94
310.03	812.94
310.26	794.94
310.49	823.94
310.72	834.94
310.949	913.94
311.179	901.94
311.409	864.94
311.639	870.94
311.868	846.94
312.098	875.94
312.328	839.94
312.557	840.94
312.787	869.94
313.017	881.94
313.246	870.94
313.476	860.94
313.706	891.94
313.935	870.94
314.165	872.94
314.394	939.94
314.624	965.94
314.853	1039.94
315.083	1069.94
315.312	1059.94
315.542	979.94
315.771	880.94
316.001	926.94
316.23	939.94
316.46	951.94
316.689	908.94
316.919	859.94
317.148	865.94
317.377	884.94
317.607	961.94
317.836	1074.94
318.065	1086.94
318.295	1057.94
318.524	996.94
318.753	949.94
318.983	921.94
319.212	905.94
319.441	920.94
319.67	931.94
319.9	942.94
320.129	986.94
320.358	1033.94
320.587	1033.94
320.816	1044.94
321.046	1001.94
321.275	977.94
321.504	938.94
321.733	1037.94
321.962	984.94
322.191	945.94
322.42	938.94
322.649	911.94
322.878	914.94
323.108	907.94
323.337	969.94
323.566	960.94
323.795	906.94
324.024	933.94
324.253	945.94
324.482	969.94
324.71	900.94
324.939	871.94
325.168	891.94
325.397	936.94
325.626	963.94
325.855	947.94
326.084	926.94
326.313	941.94
326.542	947.94
326.77	993.94
326.999	970.94
327.228	901.94
327.457	867.94
327.686	899.94
327.914	930.94
328.143	936.94
328.372	909.94
328.6	938.94
328.829	930.94
329.058	911.94
329.287	913.94
329.515	935.94
329.744	934.94
329.972	1025.94
330.201	1047.94
330.43	992.94
330.658	1001.94
330.887	1009.94
331.115	981.94
331.344	990.94
331.572	960.94
331.801	975.94
332.03	1005.94
332.258	1008.94
332.486	1002.94
332.715	1005.94
332.943	1005.94
333.172	978.94
333.4	993.94
333.629	1009.94
333.857	1091.94
334.085	1222.94
334.314	1372.94
334.542	1413.94
334.771	1311.94
334.999	1156.94
335.227	1079.94
335.455	1049.94
335.684	1047.94
335.912	1100.94
336.14	1111.94
336.369	1077.94
336.597	1003.94
336.825	981.94
337.053	1030.94
337.281	1121.94
337.51	1151.94
337.738	1172.94
337.966	1111.94
338.194	1005.94
338.422	975.94
338.65	998.94
338.878	944.94
339.106	930.94
339.334	923.94
339.562	925.94
339.79	968.94
340.018	1033.94
340.246	1063.94
340.474	1029.94
340.702	1008.94
340.93	1013.94
341.158	1041.94
341.386	1002.94
341.614	993.94
341.842	995.94
342.07	963.94
342.298	999.94
342.526	993.94
342.754	952.94
342.981	948.94
343.209	989.94
343.437	941.94
343.665	994.94
343.893	1027.94
344.12	1083.94
344.348	1050.94
344.576	991.94
344.804	988.94
345.031	947.94
345.259	974.94
345.487	933.94
345.714	921.94
345.942	909.94
346.17	904.94
346.397	941.94
346.625	919.94
346.853	909.94
347.08	880.94
347.308	904.94
347.535	928.94
347.763	948.94
347.99	916.94
348.218	926.94
348.445	898.94
348.673	942.94
348.9	961.94
349.128	983.94
349.355	996.94
349.583	980.94
349.81	906.94
350.037	886.94
350.265	861.94
350.492	860.94
350.72	894.94
350.947	938.94
351.174	947.94
351.402	899.94
351.629	844.94
351.856	846.94
352.083	843.94
352.311	867.94
352.538	889.94
352.765	955.94
352.992	906.94
353.22	907.94
353.447	901.94
353.674	911.94
353.901	900.94
354.128	909.94
354.355	917.94
354.583	952.94
354.81	954.94
355.037	961.94
355.264	935.94
355.491	929.94
355.718	974.94
355.945	936.94
356.172	905.94
356.399	892.94
356.626	887.94
356.853	944.94
357.08	1013.94
357.307	1132.94
357.534	1069.94
357.761	941.94
357.988	882.94
358.215	853.94
358.441	910.94
358.668	861.94
358.895	901.94
359.122	999.94
359.349	1077.94
359.576	1001.94
359.802	941.94
360.029	863.94
360.256	896.94
360.483	903.94
360.709	945.94
360.936	984.94
361.163	1032.94
361.39	1091.94
361.616	1156.94
361.843	1125.94
362.07	1043.94
362.296	944.94
362.523	919.94
362.749	913.94
362.976	931.94
363.203	947.94
363.429	918.94
363.656	887.94
363.882	947.94
364.109	1055.94
364.335	1064.94
364.562	1016.94
364.788	967.94
365.015	927.94
365.241	903.94
365.468	939.94
365.694	974.94
365.92	996.94
366.147	932.94
366.373	905.94
366.599	881.94
366.826	879.94
367.052	901.94
367.278	915.94
367.505	916.94
367.731	973.94
367.957	970.94
368.184	1001.94
368.41	1071.94
368.636	1041.94
368.862	1048.94
369.089	1051.94
369.315	1028.94
369.541	1007.94
369.767	932.94
369.993	935.94
370.219	911.94
370.445	954.94
370.672	1019.94
370.898	1049.94
371.124	1021.94
371.35	975.94
371.576	1021.94
371.802	1070.94
372.028	1018.94
372.254	955.94
372.48	923.94
372.706	925.94
372.932	928.94
373.158	950.94
373.384	959.94
373.61	994.94
373.835	1059.94
374.061	975.94
374.287	968.94
374.513	977.94
374.739	981.94
374.965	1009.94
375.191	1011.94
375.416	1005.94
375.642	1025.94
375.868	1096.94
376.094	1089.94
376.319	1051.94
376.545	986.94
376.771	1041.94
376.997	1080.94
377.222	1048.94
377.448	1025.94
377.674	1045.94
377.899	1031.94
378.125	1116.94
378.35	1083.94
378.576	963.94
378.802	948.94
379.027	945.94
379.253	979.94
379.478	985.94
379.704	988.94
379.929	957.94
380.155	995.94
380.38	1024.94
380.606	1005.94
380.831	998.94
381.057	1050.94
381.282	1041.94
381.507	1008.94
381.733	1134.94
381.958	1128.94
382.184	1025.94
382.409	1017.94
382.634	1017.94
382.86	1040.94
383.085	1049.94
383.31	1060.94
383.535	1160.94
383.761	1213.94
383.986	1139.94
384.211	1103.94
384.436	1121.94
384.662	1170.94
384.887	1190.94
385.112	1120.94
385.337	1136.94
385.562	1125.94
385.787	1145.94
386.013	1159.94
386.238	1163.94
386.463	1161.94
386.688	1235.94
386.913	1287.94
387.138	1254.94
387.363	1161.94
387.588	1176.94
387.813	1134.94
388.038	1145.94
388.263	1211.94
388.488	1160.94
388.713	1088.94
388.938	1085.94
389.163	1072.94
389.387	1104.94
389.612	1098.94
389.837	1118.94
390.062	1125.94
390.287	1142.94
390.512	1150.94
390.736	1090.94
390.961	1082.94
391.186	1077.94
391.411	1109.94
391.636	1115.94
391.86	1124.94
392.085	1108.94
392.31	1125.94
392.534	1115.94
392.759	1113.94
392.984	1151.94
393.208	1176.94
393.433	1175.94
393.658	1208.94
393.882	1234.94
394.107	1152.94
394.331	1121.94
394.556	1107.94
394.78	1142.94
395.005	1190.94
395.229	1223.94
395.454	1296.94
395.678	1288.94
395.903	1221.94
396.127	1185.94
396.352	1199.94
396.576	1235.94
396.801	1260.94
397.025	1239.94
397.249	1249.94
397.474	1207.94
397.698	1229.94
397.922	1237.94
398.147	1320.94
398.371	1342.94
398.595	1333.94
398.82	1289.94
399.044	1305.94
399.268	1367.94
399.492	1416.94
399.717	1486.94
399.941	1498.94
400.165	1450.94
400.389	1406.94
400.613	1443.94
400.837	1602.94
401.062	1814.94
401.286	1503.94
401.51	1441.94
401.734	1444.94
401.958	1368.94
402.182	1333.94
402.406	1265.94
402.63	1283.94
402.854	1278.94
403.078	1286.94
403.302	1323.94
403.526	1345.94
403.75	1309.94
403.974	1372.94
404.198	1355.94
404.422	1415.94
404.645	1477.94
404.869	1405.94
405.093	1320.94
405.317	1307.94
405.541	1325.94
405.765	1341.94
405.988	1332.94
406.212	1370.94
406.436	1385.94
406.66	1428.94
406.883	1479.94
407.107	1702.94
407.331	1792.94
407.555	1860.94
407.778	1643.94
408.002	1431.94
408.226	1421.94
408.449	1405.94
408.673	1368.94
408.896	1377.94
409.12	1372.94
409.344	1365.94
409.567	1345.94
409.791	1399.94
410.014	1387.94
410.238	1477.94
410.461	1537.94
410.685	1357.94
410.908	1357.94
411.132	1366.94
411.355	1314.94
411.578	1315.94
411.802	1320.94
412.025	1361.94
412.249	1297.94
412.472	1296.94
412.695	1258.94
412.919	1305.94
413.142	1293.94
413.365	1309.94
413.589	1334.94
413.812	1435.94
414.035	1401.94
414.258	1308.94
414.482	1320.94
414.705	1283.94
414.928	1307.94
415.151	1240.94
415.374	1300.94
415.597	1351.94
415.821	1316.94
416.044	1350.94
416.267	1314.94
416.49	1255.94
416.713	1272.94
416.936	1331.94
417.159	1365.94
417.382	1359.94
417.605	1318.94
417.828	1328.94
418.051	1337.94
418.274	1340.94
418.497	1282.94
418.72	1250.94
418.943	1269.94
419.166	1320.94
419.389	1381.94
419.611	1322.94
419.834	1296.94
420.057	1313.94
420.28	1270.94
420.503	1297.94
420.726	1337.94
420.948	1303.94
421.171	1258.94
421.394	1278.94
421.617	1323.94
421.839	1337.94
422.062	1319.94
422.285	1247.94
422.507	1261.94
422.73	1235.94
422.953	1238.94
423.175	1235.94
423.398	1267.94
423.621	1247.94
423.843	1295.94
424.066	1317.94
424.288	1347.94
424.511	1411.94
424.733	1347.94
424.956	1238.94
425.178	1232.94
425.401	1240.94
425.623	1233.94
425.846	1252.94
426.068	1311.94
426.291	1320.94
426.513	1299.94
426.735	1311.94
426.958	1420.94
427.18	1485.94
427.402	1365.94
427.625	1433.94
427.847	1356.94
428.069	1295.94
428.292	1265.94
428.514	1230.94
428.736	1248.94
428.958	1222.94
429.181	1266.94
429.403	1514.94
429.625	1749.94
429.847	1489.94
430.069	1287.94
430.292	1448.94
430.514	1450.94
430.736	1354.94
430.958	1336.94
431.18	1293.94
431.402	1234.94
431.624	1205.94
431.846	1180.94
432.068	1099.94
432.29	1155.94
432.512	1175.94
432.734	1227.94
432.956	1274.94
433.178	1310.94
433.4	1330.94
433.622	1283.94
433.844	1243.94
434.066	1203.94
434.287	1181.94
434.509	1218.94
434.731	1238.94
434.953	1366.94
435.175	1331.94
435.397	1291.94
435.618	1261.94
435.84	1256.94
436.062	1239.94
436.284	1269.94
436.505	1280.94
436.727	1318.94
436.949	1248.94
437.17	1229.94
437.392	1231.94
437.614	1217.94
437.835	1191.94
438.057	1253.94
438.278	1253.94
438.5	1217.94
438.721	1230.94
438.943	1245.94
439.165	1249.94
439.386	1202.94
439.608	1230.94
439.829	1241.94
440.05	1237.94
440.272	1235.94
440.493	1244.94
440.715	1263.94
440.936	1331.94
441.158	1431.94
441.379	1369.94
441.6	1397.94
441.822	1337.94
442.043	1346.94
442.264	1308.94
442.486	1245.94
442.707	1243.94
442.928	1267.94
443.149	1301.94
443.371	1368.94
443.592	1382.94
443.813	1367.94
444.034	1367.94
444.255	1338.94
444.476	1362.94
444.698	1390.94
444.919	1390.94
445.14	1486.94
445.361	1427.94
445.582	1445.94
445.803	1407.94
446.024	1389.94
446.245	1417.94
446.466	1395.94
446.687	1344.94
446.908	1352.94
447.129	1275.94
447.35	1299.94
447.571	1309.94
447.792	1229.94
448.013	1243.94
448.234	1252.94
448.455	1309.94
448.675	1297.94
448.896	1198.94
449.117	1176.94
449.338	1240.94
449.559	1246.94
449.779	1317.94
450	1407.94
450.221	1475.94
450.442	1440.94
450.662	1295.94
450.883	1144.94
451.104	1157.94
451.324	1221.94
451.545	1231.94
451.766	1179.94
451.986	1134.94
452.207	1109.94
452.428	1097.94
452.648	1085.94
452.869	1124.94
453.089	1174.94
453.31	1175.94
453.53	1148.94
453.751	1095.94
453.971	1043.94
454.192	1064.94
454.412	1175.94
454.633	1144.94
454.853	1101.94
455.073	1039.94
455.294	1066.94
455.514	1061.94
455.734	1050.94
455.955	1082.94
456.175	1088.94
456.395	1105.94
456.616	1115.94
456.836	1089.94
457.056	1077.94
457.276	1082.94
457.497	1045.94
457.717	1008.94
457.937	1022.94
458.157	1079.94
458.377	1011.94
458.598	1017.94
458.818	1058.94
459.038	1108.94
459.258	1142.94
459.478	1115.94
459.698	1105.94
459.918	1145.94
460.138	1220.94
460.358	1270.94
460.578	1219.94
460.798	1284.94
461.018	1342.94
461.238	1281.94
461.458	1267.94
461.678	1230.94
461.898	1221.94
462.118	1213.94
462.338	1231.94
462.558	1215.94
462.777	1263.94
462.997	1321.94
463.217	1389.94
463.437	1306.94
463.657	1282.94
463.876	1271.94
464.096	1233.94
464.316	1241.94
464.536	1287.94
464.755	1291.94
464.975	1327.94
465.195	1252.94
465.414	1301.94
465.634	1295.94
465.854	1317.94
466.073	1378.94
466.293	1325.94
466.512	1205.94
466.732	1206.94
466.951	1240.94
467.171	1187.94
467.391	1162.94
467.61	1189.94
467.829	1213.94
468.049	1319.94
468.268	1455.94
468.488	1301.94
468.707	1237.94
468.927	1249.94
469.146	1221.94
469.365	1193.94
469.585	1257.94
469.804	1194.94
470.023	1216.94
470.243	1235.94
470.462	1221.94
470.681	1202.94
470.901	1218.94
471.12	1239.94
471.339	1223.94
471.558	1171.94
471.777	1193.94
471.997	1235.94
472.216	1143.94
472.435	1126.94
472.654	1106.94
472.873	1146.94
473.092	1243.94
473.311	1187.94
473.53	1147.94
473.749	1142.94
473.968	1153.94
474.187	1199.94
474.406	1233.94
474.625	1213.94
474.844	1186.94
475.063	1203.94
475.282	1217.94
475.501	1195.94
475.72	1197.94
475.939	1310.94
476.158	1244.94
476.377	1215.94
476.596	1210.94
476.814	1203.94
477.033	1216.94
477.252	1261.94
477.471	1314.94
477.69	1287.94
477.908	1287.94
478.127	1323.94
478.346	1433.94
478.564	1425.94
478.783	1381.94
479.002	1428.94
479.22	1393.94
479.439	1450.94
479.658	1569.94
479.876	1449.94
480.095	1368.94
480.313	1317.94
480.532	1261.94
480.751	1266.94
480.969	1276.94
481.188	1280.94
481.406	1249.94
481.624	1201.94
481.843	1251.94
482.061	1287.94
482.28	1315.94
482.498	1334.94
482.717	1312.94
482.935	1291.94
483.153	1339.94
483.372	1371.94
483.59	1351.94
483.808	1347.94
484.027	1358.94
484.245	1380.94
484.463	1714.94
484.681	1861.94
484.9	1454.94
485.118	1354.94
485.336	1297.94
485.554	1365.94
485.772	1376.94
485.99	1356.94
486.209	1368.94
486.427	1365.94
486.645	1383.94
486.863	1405.94
487.081	1429.94
487.299	1474.94
487.517	1430.94
487.735	1428.94
487.953	1520.94
488.171	1455.94
488.389	1433.94
488.607	1449.94
488.825	1568.94
489.043	1539.94
489.261	1375.94
489.479	1483.94
489.696	1457.94
489.914	1454.94
490.132	1426.94
490.35	1439.94
490.568	1499.94
490.786	1479.94
491.003	1453.94
491.221	1553.94
491.439	1539.94
491.657	1582.94
491.874	1611.94
492.092	1636.94
492.31	1697.94
492.527	1652.94
492.745	1589.94
492.963	1592.94
493.18	1619.94
493.398	1700.94
493.615	1699.94
