Data from WStandard_LampEnergy5.5LIBS07252019.E.O._I.C._HRD10591_16-08-14-921.txt Node
Date: Thu Jul 25 16:08:14 EDT 2019
User: cochatt
Spectrometer: HR+D1059
Trigger mode: 1
Integration Time (sec): 1.000000E-1
Scans to average: 1
Electric dark correction enabled: true
Nonlinearity correction enabled: false
Boxcar width: 0
XAxis mode: Wavelengths
Number of Pixels in Spectrum: 2048
>>>>>Begin Spectral Data<<<<<
223.165	-3.12
223.4	-3.12
223.635	-3.12
223.869	-23.12
224.104	-30.12
224.338	-2.12
224.573	-1.12
224.808	-4.12
225.042	-7.12
225.277	-21.12
225.511	3.88
225.746	-2.12
225.98	-2.12
226.215	7.88
226.449	22.88
226.683	13.88
226.918	24.88
227.152	22.88
227.387	33.88
227.621	33.88
227.856	47.88
228.09	46.88
228.324	49.88
228.559	60.88
228.793	152.88
229.027	351.88
229.262	360.88
229.496	372.88
229.73	400.88
229.964	434.88
230.199	438.88
230.433	470.88
230.667	484.88
230.901	522.88
231.136	474.88
231.37	450.88
231.604	444.88
231.838	457.88
232.072	497.88
232.306	448.88
232.541	467.88
232.775	538.88
233.009	591.88
233.243	577.88
233.477	517.88
233.711	553.88
233.945	559.88
234.179	527.88
234.413	558.88
234.647	636.88
234.881	598.88
235.115	546.88
235.349	555.88
235.583	555.88
235.817	553.88
236.051	560.88
236.285	565.88
236.519	587.88
236.753	666.88
236.987	689.88
237.221	661.88
237.455	741.88
237.689	738.88
237.922	657.88
238.156	655.88
238.39	683.88
238.624	698.88
238.858	745.88
239.091	764.88
239.325	785.88
239.559	893.88
239.793	948.88
240.027	1013.88
240.26	1044.88
240.494	753.88
240.728	728.88
240.961	733.88
241.195	738.88
241.429	806.88
241.662	800.88
241.896	752.88
242.13	761.88
242.363	849.88
242.597	908.88
242.83	870.88
243.064	899.88
243.298	951.88
243.531	952.88
243.765	930.88
243.998	927.88
244.232	795.88
244.465	765.88
244.699	791.88
244.932	888.88
245.166	1025.88
245.399	973.88
245.633	917.88
245.866	907.88
246.099	906.88
246.333	940.88
246.566	963.88
246.8	1010.88
247.033	1148.88
247.266	1061.88
247.5	1044.88
247.733	1042.88
247.966	1099.88
248.2	1227.88
248.433	1173.88
248.666	1193.88
248.899	1298.88
249.133	1519.88
249.366	1751.88
249.599	1433.88
249.832	1221.88
250.066	1256.88
250.299	1305.88
250.532	1176.88
250.765	1059.88
250.998	1143.88
251.231	1209.88
251.465	1224.88
251.698	1184.88
251.931	1175.88
252.164	1203.88
252.397	1244.88
252.63	1241.88
252.863	1093.88
253.096	1111.88
253.329	1151.88
253.562	1185.88
253.795	1275.88
254.028	1269.88
254.261	1174.88
254.494	1161.88
254.727	1110.88
254.96	1147.88
255.193	1236.88
255.426	1384.88
255.659	1577.88
255.892	1652.88
256.124	1383.88
256.357	1293.88
256.59	1416.88
256.823	1403.88
257.056	1373.88
257.289	1667.88
257.521	1875.88
257.754	1685.88
257.987	1556.88
258.22	1721.88
258.452	1734.88
258.685	1376.88
258.918	1341.88
259.151	1379.88
259.383	1313.88
259.616	1161.88
259.849	1245.88
260.081	1393.88
260.314	1501.88
260.547	1658.88
260.779	1701.88
261.012	1609.88
261.244	1407.88
261.477	1328.88
261.71	1415.88
261.942	1407.88
262.175	1336.88
262.407	1431.88
262.64	1374.88
262.872	1297.88
263.105	1258.88
263.337	1287.88
263.57	1311.88
263.802	1314.88
264.035	1226.88
264.267	1131.88
264.499	1125.88
264.732	1233.88
264.964	1289.88
265.197	1347.88
265.429	1411.88
265.661	1551.88
265.894	1721.88
266.126	1811.88
266.358	1593.88
266.591	1590.88
266.823	1815.88
267.055	1578.88
267.287	1616.88
267.52	1545.88
267.752	1541.88
267.984	1544.88
268.216	1623.88
268.448	1603.88
268.681	1624.88
268.913	1517.88
269.145	1409.88
269.377	1378.88
269.609	1465.88
269.841	1713.88
270.073	1964.88
270.306	2247.88
270.538	2399.88
270.77	2073.88
271.002	1738.88
271.234	1681.88
271.466	1618.88
271.698	1779.88
271.93	2193.88
272.162	2155.88
272.394	1995.88
272.626	1903.88
272.858	1657.88
273.09	1458.88
273.322	1417.88
273.553	1399.88
273.785	1404.88
274.017	1427.88
274.249	1564.88
274.481	1576.88
274.713	1414.88
274.945	1385.88
275.176	1421.88
275.408	1417.88
275.64	1363.88
275.872	1343.88
276.104	1450.88
276.335	1622.88
276.567	1821.88
276.799	1879.88
277.031	1699.88
277.262	1621.88
277.494	1653.88
277.726	1831.88
277.957	1785.88
278.189	1669.88
278.421	1551.88
278.652	1469.88
278.884	1450.88
279.115	1498.88
279.347	1512.88
279.579	1477.88
279.81	1473.88
280.042	1585.88
280.273	1755.88
280.505	1766.88
280.736	1791.88
280.968	1697.88
281.199	1488.88
281.431	1404.88
281.662	1401.88
281.894	1408.88
282.125	1445.88
282.356	1519.88
282.588	1546.88
282.819	1528.88
283.051	1615.88
283.282	1774.88
283.513	1763.88
283.745	1533.88
283.976	1411.88
284.207	1399.88
284.439	1478.88
284.67	1471.88
284.901	1514.88
285.132	1525.88
285.364	1539.88
285.595	1542.88
285.826	1473.88
286.057	1489.88
286.288	1460.88
286.52	1543.88
286.751	1665.88
286.982	1740.88
287.213	1592.88
287.444	1477.88
287.675	1462.88
287.906	1549.88
288.138	1634.88
288.369	1618.88
288.6	1537.88
288.831	1459.88
289.062	1485.88
289.293	1506.88
289.524	1482.88
289.755	1524.88
289.986	1541.88
290.217	1437.88
290.448	1449.88
290.679	1517.88
290.91	1552.88
291.141	1558.88
291.371	1667.88
291.602	1624.88
291.833	1555.88
292.064	1613.88
292.295	1618.88
292.526	1674.88
292.757	1738.88
292.987	1699.88
293.218	1529.88
293.449	1672.88
293.68	1850.88
293.91	2010.88
294.141	1892.88
294.372	1750.88
294.603	1799.88
294.833	1888.88
295.064	1824.88
295.295	1640.88
295.525	1602.88
295.756	1517.88
295.987	1390.88
296.217	1436.88
296.448	1496.88
296.679	1487.88
296.909	1474.88
297.14	1485.88
297.37	1502.88
297.601	1566.88
297.831	1712.88
298.062	1730.88
298.292	1596.88
298.523	1497.88
298.753	1485.88
298.984	1523.88
299.214	1534.88
299.445	1543.88
299.675	1598.88
299.905	1621.88
300.136	1557.88
300.366	1566.88
300.597	1490.88
300.827	1489.88
301.057	1541.88
301.288	1603.88
301.518	1615.88
301.748	1656.88
301.979	1715.88
302.209	1731.88
302.439	1877.88
302.669	1975.88
302.9	1806.88
303.13	1605.88
303.36	1611.88
303.59	1642.88
303.82	1638.88
304.051	1621.88
304.281	1669.88
304.511	1640.88
304.741	1719.88
304.971	1858.88
305.201	2074.88
305.431	1947.88
305.661	1598.88
305.891	1474.88
306.121	1449.88
306.352	1511.88
306.582	1570.88
306.812	1654.88
307.042	1826.88
307.272	1803.88
307.502	1813.88
307.731	1961.88
307.961	2144.88
308.191	1953.88
308.421	1707.88
308.651	1600.88
308.881	1565.88
309.111	1576.88
309.341	1562.88
309.571	1568.88
309.8	1562.88
310.03	1554.88
310.26	1568.88
310.49	1568.88
310.72	1572.88
310.949	1654.88
311.179	1703.88
311.409	1670.88
311.639	1600.88
311.868	1613.88
312.098	1617.88
312.328	1615.88
312.557	1581.88
312.787	1639.88
313.017	1674.88
313.246	1635.88
313.476	1627.88
313.706	1699.88
313.935	1670.88
314.165	1665.88
314.394	1738.88
314.624	1756.88
314.853	1917.88
315.083	1933.88
315.312	2048.88
315.542	1921.88
315.771	1673.88
316.001	1661.88
316.23	1813.88
316.46	1803.88
316.689	1769.88
316.919	1668.88
317.148	1618.88
317.377	1601.88
317.607	1742.88
317.836	1953.88
318.065	2045.88
318.295	1949.88
318.524	1865.88
318.753	1777.88
318.983	1776.88
319.212	1709.88
319.441	1683.88
319.67	1686.88
319.9	1752.88
320.129	1793.88
320.358	1838.88
320.587	1940.88
320.816	1928.88
321.046	1877.88
321.275	1778.88
321.504	1756.88
321.733	1956.88
321.962	1897.88
322.191	1727.88
322.42	1719.88
322.649	1694.88
322.878	1675.88
323.108	1754.88
323.337	1799.88
323.566	1824.88
323.795	1773.88
324.024	1763.88
324.253	1713.88
324.482	1825.88
324.71	1695.88
324.939	1606.88
325.168	1687.88
325.397	1753.88
325.626	1779.88
325.855	1759.88
326.084	1745.88
326.313	1768.88
326.542	1793.88
326.77	1804.88
326.999	1813.88
327.228	1736.88
327.457	1654.88
327.686	1653.88
327.914	1668.88
328.143	1703.88
328.372	1706.88
328.6	1730.88
328.829	1726.88
329.058	1666.88
329.287	1667.88
329.515	1727.88
329.744	1755.88
329.972	1800.88
330.201	1926.88
330.43	1874.88
330.658	1835.88
330.887	1843.88
331.115	1832.88
331.344	1870.88
331.572	1837.88
331.801	1810.88
332.03	1802.88
332.258	1793.88
332.486	1846.88
332.715	1847.88
332.943	1849.88
333.172	1833.88
333.4	1872.88
333.629	1865.88
333.857	2007.88
334.085	2205.88
334.314	2390.88
334.542	2681.88
334.771	2521.88
334.999	2195.88
335.227	2055.88
335.455	1981.88
335.684	1926.88
335.912	1985.88
336.14	2074.88
336.369	1983.88
336.597	1863.88
336.825	1831.88
337.053	1890.88
337.281	2024.88
337.51	2063.88
337.738	2161.88
337.966	2084.88
338.194	1874.88
338.422	1838.88
338.65	1823.88
338.878	1767.88
339.106	1759.88
339.334	1727.88
339.562	1713.88
339.79	1717.88
340.018	1828.88
340.246	1944.88
340.474	1911.88
340.702	1875.88
340.93	1880.88
341.158	1856.88
341.386	1816.88
341.614	1811.88
341.842	1814.88
342.07	1803.88
342.298	1851.88
342.526	1827.88
342.754	1780.88
342.981	1797.88
343.209	1734.88
343.437	1762.88
343.665	1809.88
343.893	1841.88
344.12	1931.88
344.348	1971.88
344.576	1888.88
344.804	1815.88
345.031	1802.88
345.259	1826.88
345.487	1731.88
345.714	1701.88
345.942	1683.88
346.17	1702.88
346.397	1684.88
346.625	1706.88
346.853	1578.88
347.08	1591.88
347.308	1594.88
347.535	1663.88
347.763	1760.88
347.99	1705.88
348.218	1625.88
348.445	1629.88
348.673	1687.88
348.9	1722.88
349.128	1737.88
349.355	1848.88
349.583	1757.88
349.81	1721.88
350.037	1560.88
350.265	1547.88
350.492	1582.88
350.72	1619.88
350.947	1691.88
351.174	1739.88
351.402	1626.88
351.629	1583.88
351.856	1585.88
352.083	1538.88
352.311	1570.88
352.538	1622.88
352.765	1663.88
352.992	1717.88
353.22	1637.88
353.447	1623.88
353.674	1621.88
353.901	1612.88
354.128	1600.88
354.355	1592.88
354.583	1657.88
354.81	1717.88
355.037	1697.88
355.264	1731.88
355.491	1679.88
355.718	1688.88
355.945	1665.88
356.172	1613.88
356.399	1607.88
356.626	1579.88
356.853	1665.88
357.08	1791.88
357.307	1957.88
357.534	1928.88
357.761	1755.88
357.988	1651.88
358.215	1550.88
358.441	1567.88
358.668	1553.88
358.895	1582.88
359.122	1660.88
359.349	1825.88
359.576	1878.88
359.802	1666.88
360.029	1615.88
360.256	1591.88
360.483	1589.88
360.709	1614.88
360.936	1662.88
361.163	1733.88
361.39	1879.88
361.616	2070.88
361.843	2041.88
362.07	1944.88
362.296	1653.88
362.523	1633.88
362.749	1638.88
362.976	1706.88
363.203	1664.88
363.429	1652.88
363.656	1568.88
363.882	1646.88
364.109	1807.88
364.335	1986.88
364.562	1825.88
364.788	1757.88
365.015	1704.88
365.241	1586.88
365.468	1641.88
365.694	1723.88
365.92	1806.88
366.147	1709.88
366.373	1615.88
366.599	1579.88
366.826	1613.88
367.052	1611.88
367.278	1647.88
367.505	1631.88
367.731	1682.88
367.957	1701.88
368.184	1703.88
368.41	1802.88
368.636	1826.88
368.862	1824.88
369.089	1840.88
369.315	1789.88
369.541	1702.88
369.767	1685.88
369.993	1629.88
370.219	1664.88
370.445	1659.88
370.672	1756.88
370.898	1825.88
371.124	1828.88
371.35	1768.88
371.576	1773.88
371.802	1856.88
372.028	1797.88
372.254	1727.88
372.48	1676.88
372.706	1622.88
372.932	1681.88
373.158	1698.88
373.384	1717.88
373.61	1729.88
373.835	1858.88
374.061	1753.88
374.287	1724.88
374.513	1697.88
374.739	1681.88
374.965	1722.88
375.191	1752.88
375.416	1744.88
375.642	1799.88
375.868	1897.88
376.094	1924.88
376.319	1872.88
376.545	1723.88
376.771	1721.88
376.997	1838.88
377.222	1831.88
377.448	1783.88
377.674	1835.88
377.899	1792.88
378.125	1865.88
378.35	1939.88
378.576	1738.88
378.802	1657.88
379.027	1663.88
379.253	1695.88
379.478	1758.88
379.704	1669.88
379.929	1707.88
380.155	1692.88
380.38	1752.88
380.606	1746.88
380.831	1758.88
381.057	1816.88
381.282	1881.88
381.507	1801.88
381.733	1889.88
381.958	2005.88
382.184	1830.88
382.409	1778.88
382.634	1775.88
382.86	1798.88
383.085	1806.88
383.31	1817.88
383.535	1929.88
383.761	2092.88
383.986	2076.88
384.211	1979.88
384.436	1914.88
384.662	2020.88
384.887	2106.88
385.112	1973.88
385.337	2016.88
385.562	1977.88
385.787	1961.88
386.013	2055.88
386.238	2030.88
386.463	1981.88
386.688	2123.88
386.913	2285.88
387.138	2248.88
387.363	2087.88
387.588	2051.88
387.813	2023.88
388.038	1988.88
388.263	2070.88
388.488	2066.88
388.713	1901.88
388.938	1909.88
389.163	1896.88
389.387	1935.88
389.612	1917.88
389.837	1988.88
390.062	2006.88
390.287	1990.88
390.512	1909.88
390.736	1926.88
390.961	1918.88
391.186	1853.88
391.411	1885.88
391.636	1954.88
391.86	1939.88
392.085	1928.88
392.31	1981.88
392.534	1957.88
392.759	2027.88
392.984	1969.88
393.208	1974.88
393.433	2029.88
393.658	2094.88
393.882	2125.88
394.107	2003.88
394.331	1967.88
394.556	1958.88
394.78	1974.88
395.005	2056.88
395.229	2099.88
395.454	2239.88
395.678	2285.88
395.903	2144.88
396.127	2098.88
396.352	2077.88
396.576	2144.88
396.801	2187.88
397.025	2135.88
397.249	2144.88
397.474	2104.88
397.698	2103.88
397.922	2150.88
398.147	2272.88
398.371	2365.88
398.595	2353.88
398.82	2262.88
399.044	2249.88
399.268	2382.88
399.492	2565.88
399.717	2611.88
399.941	2649.88
400.165	2591.88
400.389	2501.88
400.613	2519.88
400.837	2731.88
401.062	3147.88
401.286	2734.88
401.51	2431.88
401.734	2583.88
401.958	2489.88
402.182	2333.88
402.406	2271.88
402.63	2233.88
402.854	2240.88
403.078	2277.88
403.302	2346.88
403.526	2333.88
403.75	2352.88
403.974	2361.88
404.198	2367.88
404.422	2381.88
404.645	2527.88
404.869	2502.88
405.093	2335.88
405.317	2271.88
405.541	2361.88
405.765	2410.88
405.988	2375.88
406.212	2374.88
406.436	2381.88
406.66	2489.88
406.883	2532.88
407.107	2785.88
407.331	3006.88
407.555	3256.88
407.778	3047.88
408.002	2555.88
408.226	2478.88
408.449	2443.88
408.673	2426.88
408.896	2432.88
409.12	2468.88
409.344	2390.88
409.567	2312.88
409.791	2392.88
410.014	2408.88
410.238	2490.88
410.461	2666.88
410.685	2417.88
410.908	2287.88
411.132	2341.88
411.355	2329.88
411.578	2286.88
411.802	2289.88
412.025	2350.88
412.249	2310.88
412.472	2223.88
412.695	2218.88
412.919	2212.88
413.142	2216.88
413.365	2255.88
413.589	2358.88
413.812	2367.88
414.035	2409.88
414.258	2269.88
414.482	2264.88
414.705	2257.88
414.928	2212.88
415.151	2247.88
415.374	2202.88
415.597	2258.88
415.821	2313.88
416.044	2373.88
416.267	2404.88
416.49	2199.88
416.713	2096.88
416.936	2225.88
417.159	2299.88
417.382	2321.88
417.605	2195.88
417.828	2223.88
418.051	2349.88
418.274	2218.88
418.497	2169.88
418.72	2188.88
418.943	2145.88
419.166	2355.88
419.389	2400.88
419.611	2309.88
419.834	2229.88
420.057	2259.88
420.28	2177.88
420.503	2164.88
420.726	2183.88
420.948	2216.88
421.171	2141.88
421.394	2169.88
421.617	2255.88
421.839	2226.88
422.062	2196.88
422.285	2141.88
422.507	2109.88
422.73	2097.88
422.953	2077.88
423.175	2040.88
423.398	2123.88
423.621	2173.88
423.843	2197.88
424.066	2207.88
424.288	2249.88
424.511	2310.88
424.733	2264.88
424.956	2048.88
425.178	2107.88
425.401	2080.88
425.623	2137.88
425.846	2096.88
426.068	2184.88
426.291	2238.88
426.513	2235.88
426.735	2209.88
426.958	2333.88
427.18	2469.88
427.402	2272.88
427.625	2275.88
427.847	2297.88
428.069	2183.88
428.292	2137.88
428.514	2064.88
428.736	2066.88
428.958	2063.88
429.181	2120.88
429.403	2362.88
429.625	2884.88
429.847	2507.88
430.069	2182.88
430.292	2340.88
430.514	2492.88
430.736	2249.88
430.958	2340.88
431.18	2262.88
431.402	2114.88
431.624	2055.88
431.846	2077.88
432.068	2049.88
432.29	2068.88
432.512	2147.88
432.734	2154.88
432.956	2171.88
433.178	2205.88
433.4	2234.88
433.622	2216.88
433.844	2124.88
434.066	2060.88
434.287	2080.88
434.509	2119.88
434.731	2232.88
434.953	2379.88
435.175	2339.88
435.397	2200.88
435.618	2212.88
435.84	2252.88
436.062	2224.88
436.284	2196.88
436.505	2223.88
436.727	2241.88
436.949	2187.88
437.17	2114.88
437.392	2101.88
437.614	2133.88
437.835	2037.88
438.057	2216.88
438.278	2290.88
438.5	2125.88
438.721	2087.88
438.943	2089.88
439.165	2099.88
439.386	2053.88
439.608	2045.88
439.829	2069.88
440.05	2059.88
440.272	2074.88
440.493	2018.88
440.715	2078.88
440.936	2186.88
441.158	2461.88
441.379	2317.88
441.6	2268.88
441.822	2261.88
442.043	2262.88
442.264	2166.88
442.486	2073.88
442.707	2096.88
442.928	2046.88
443.149	2165.88
443.371	2281.88
443.592	2330.88
443.813	2264.88
444.034	2263.88
444.255	2259.88
444.476	2356.88
444.698	2407.88
444.919	2323.88
445.14	2447.88
445.361	2407.88
445.582	2510.88
445.803	2383.88
446.024	2321.88
446.245	2364.88
446.466	2261.88
446.687	2187.88
446.908	2158.88
447.129	2093.88
447.35	2155.88
447.571	2152.88
447.792	2084.88
448.013	2051.88
448.234	2081.88
448.455	2172.88
448.675	2199.88
448.896	1963.88
449.117	2001.88
449.338	2058.88
449.559	2104.88
449.779	2244.88
450	2446.88
450.221	2648.88
450.442	2521.88
450.662	2243.88
450.883	1961.88
451.104	1890.88
451.324	1995.88
451.545	2085.88
451.766	2021.88
451.986	1946.88
452.207	1919.88
452.428	1879.88
452.648	1856.88
452.869	1938.88
453.089	2031.88
453.31	2056.88
453.53	2094.88
453.751	1982.88
453.971	1910.88
454.192	1960.88
454.412	2074.88
454.633	2002.88
454.853	1938.88
455.073	1813.88
455.294	1779.88
455.514	1816.88
455.734	1826.88
455.955	1892.88
456.175	1845.88
456.395	1848.88
456.616	1956.88
456.836	1937.88
457.056	1901.88
457.276	1952.88
457.497	1821.88
457.717	1795.88
457.937	1841.88
458.157	1872.88
458.377	1856.88
458.598	1851.88
458.818	1898.88
459.038	1967.88
459.258	2124.88
459.478	2153.88
459.698	2077.88
459.918	2088.88
460.138	2162.88
460.358	2217.88
460.578	2235.88
460.798	2329.88
461.018	2450.88
461.238	2325.88
461.458	2225.88
461.678	2247.88
461.898	2189.88
462.118	2145.88
462.338	2257.88
462.558	2248.88
462.777	2247.88
462.997	2343.88
463.217	2502.88
463.437	2464.88
463.657	2318.88
463.876	2276.88
464.096	2264.88
464.316	2206.88
464.536	2335.88
464.755	2323.88
464.975	2376.88
465.195	2245.88
465.414	2416.88
465.634	2340.88
465.854	2267.88
466.073	2325.88
466.293	2293.88
466.512	2057.88
466.732	2015.88
466.951	2165.88
467.171	2143.88
467.391	1992.88
467.61	1986.88
467.829	1981.88
468.049	2149.88
468.268	2409.88
468.488	2319.88
468.707	2162.88
468.927	2089.88
469.146	2053.88
469.365	2008.88
469.585	2040.88
469.804	1989.88
470.023	1996.88
470.243	2019.88
470.462	2055.88
470.681	1962.88
470.901	2073.88
471.12	2072.88
471.339	2048.88
471.558	1954.88
471.777	1945.88
471.997	1973.88
472.216	1965.88
472.435	1953.88
472.654	1942.88
472.873	2081.88
473.092	2177.88
473.311	2096.88
473.53	1915.88
473.749	1941.88
473.968	2001.88
474.187	2106.88
474.406	2200.88
474.625	2146.88
474.844	2059.88
475.063	2038.88
475.282	2113.88
475.501	2094.88
475.72	2065.88
475.939	2173.88
476.158	2131.88
476.377	2080.88
476.596	2049.88
476.814	2115.88
477.033	2093.88
477.252	2233.88
477.471	2261.88
477.69	2129.88
477.908	2163.88
478.127	2268.88
478.346	2437.88
478.564	2465.88
478.783	2437.88
479.002	2536.88
479.22	2426.88
479.439	2536.88
479.658	2851.88
479.876	2849.88
480.095	2510.88
480.313	2382.88
480.532	2244.88
480.751	2309.88
480.969	2334.88
481.188	2290.88
481.406	2257.88
481.624	2234.88
481.843	2269.88
482.061	2361.88
482.28	2408.88
482.498	2392.88
482.717	2385.88
482.935	2245.88
483.153	2249.88
483.372	2278.88
483.59	2207.88
483.808	2249.88
484.027	2322.88
484.245	2455.88
484.463	2816.88
484.681	3251.88
484.9	2536.88
485.118	2354.88
485.336	2337.88
485.554	2382.88
485.772	2477.88
485.99	2436.88
486.209	2459.88
486.427	2417.88
486.645	2439.88
486.863	2418.88
487.081	2480.88
487.299	2514.88
487.517	2484.88
