Data from WStandard_LampEnergy5.5LIBS07252019.E.O._I.C._HRD10591_16-07-05-920.txt Node
Date: Thu Jul 25 16:07:05 EDT 2019
User: cochatt
Spectrometer: HR+D1059
Trigger mode: 1
Integration Time (sec): 1.000000E-1
Scans to average: 1
Electric dark correction enabled: true
Nonlinearity correction enabled: false
Boxcar width: 0
XAxis mode: Wavelengths
Number of Pixels in Spectrum: 2048
>>>>>Begin Spectral Data<<<<<
223.165	-21.12
223.4	-21.12
223.635	-21.12
223.869	-20.12
224.104	-26.12
224.338	-12.12
224.573	-18.12
224.808	-8.12
225.042	1.88
225.277	-2.12
225.511	-14.12
225.746	-2.12
225.98	4.88
226.215	18.88
226.449	13.88
226.683	29.88
226.918	28.88
227.152	25.88
227.387	16.88
227.621	43.88
227.856	41.88
228.09	35.88
228.324	51.88
228.559	58.88
228.793	153.88
229.027	385.88
229.262	388.88
229.496	402.88
229.73	415.88
229.964	440.88
230.199	483.88
230.433	503.88
230.667	501.88
230.901	576.88
231.136	490.88
231.37	487.88
231.604	479.88
231.838	477.88
232.072	480.88
232.306	451.88
232.541	481.88
232.775	580.88
233.009	614.88
233.243	606.88
233.477	541.88
233.711	559.88
233.945	615.88
234.179	569.88
234.413	627.88
234.647	673.88
234.881	625.88
235.115	598.88
235.349	581.88
235.583	614.88
235.817	583.88
236.051	546.88
236.285	551.88
236.519	626.88
236.753	675.88
236.987	724.88
237.221	692.88
237.455	790.88
237.689	728.88
237.922	702.88
238.156	675.88
238.39	668.88
238.624	774.88
238.858	792.88
239.091	830.88
239.325	828.88
239.559	951.88
239.793	987.88
240.027	1107.88
240.26	1103.88
240.494	809.88
240.728	769.88
240.961	755.88
241.195	763.88
241.429	858.88
241.662	853.88
241.896	760.88
242.13	797.88
242.363	890.88
242.597	958.88
242.83	922.88
243.064	930.88
243.298	963.88
243.531	958.88
243.765	956.88
243.998	965.88
244.232	841.88
244.465	812.88
244.699	817.88
244.932	910.88
245.166	1063.88
245.399	988.88
245.633	913.88
245.866	903.88
246.099	994.88
246.333	1007.88
246.566	995.88
246.8	1075.88
247.033	1203.88
247.266	1107.88
247.5	1075.88
247.733	1092.88
247.966	1157.88
248.2	1313.88
248.433	1234.88
248.666	1311.88
248.899	1387.88
249.133	1586.88
249.366	1834.88
249.599	1481.88
249.832	1300.88
250.066	1319.88
250.299	1369.88
250.532	1253.88
250.765	1164.88
250.998	1202.88
251.231	1243.88
251.465	1327.88
251.698	1210.88
251.931	1193.88
252.164	1261.88
252.397	1330.88
252.63	1272.88
252.863	1151.88
253.096	1146.88
253.329	1212.88
253.562	1257.88
253.795	1337.88
254.028	1347.88
254.261	1234.88
254.494	1219.88
254.727	1159.88
254.96	1210.88
255.193	1292.88
255.426	1473.88
255.659	1655.88
255.892	1768.88
256.124	1446.88
256.357	1379.88
256.59	1459.88
256.823	1483.88
257.056	1471.88
257.289	1800.88
257.521	1957.88
257.754	1758.88
257.987	1654.88
258.22	1829.88
258.452	1773.88
258.685	1459.88
258.918	1399.88
259.151	1452.88
259.383	1407.88
259.616	1216.88
259.849	1274.88
260.081	1431.88
260.314	1579.88
260.547	1794.88
260.779	1795.88
261.012	1677.88
261.244	1439.88
261.477	1419.88
261.71	1474.88
261.942	1481.88
262.175	1431.88
262.407	1515.88
262.64	1432.88
262.872	1332.88
263.105	1300.88
263.337	1325.88
263.57	1327.88
263.802	1349.88
264.035	1261.88
264.267	1224.88
264.499	1146.88
264.732	1283.88
264.964	1337.88
265.197	1418.88
265.429	1475.88
265.661	1651.88
265.894	1812.88
266.126	1863.88
266.358	1650.88
266.591	1739.88
266.823	1838.88
267.055	1680.88
267.287	1653.88
267.52	1633.88
267.752	1606.88
267.984	1626.88
268.216	1667.88
268.448	1711.88
268.681	1704.88
268.913	1610.88
269.145	1482.88
269.377	1428.88
269.609	1582.88
269.841	1804.88
270.073	2126.88
270.306	2381.88
270.538	2569.88
270.77	2147.88
271.002	1761.88
271.234	1698.88
271.466	1681.88
271.698	1866.88
271.93	2327.88
272.162	2283.88
272.394	2066.88
272.626	2019.88
272.858	1723.88
273.09	1495.88
273.322	1490.88
273.553	1434.88
273.785	1456.88
274.017	1487.88
274.249	1623.88
274.481	1602.88
274.713	1478.88
274.945	1452.88
275.176	1475.88
275.408	1463.88
275.64	1416.88
275.872	1404.88
276.104	1456.88
276.335	1731.88
276.567	1978.88
276.799	1994.88
277.031	1809.88
277.262	1650.88
277.494	1673.88
277.726	1914.88
277.957	1949.88
278.189	1711.88
278.421	1587.88
278.652	1563.88
278.884	1541.88
279.115	1541.88
279.347	1552.88
279.579	1505.88
279.81	1509.88
280.042	1680.88
280.273	1884.88
280.505	1845.88
280.736	1929.88
280.968	1821.88
281.199	1579.88
281.431	1516.88
281.662	1504.88
281.894	1531.88
282.125	1541.88
282.356	1607.88
282.588	1615.88
282.819	1621.88
283.051	1715.88
283.282	1877.88
283.513	1820.88
283.745	1539.88
283.976	1475.88
284.207	1468.88
284.439	1494.88
284.67	1516.88
284.901	1594.88
285.132	1623.88
285.364	1595.88
285.595	1637.88
285.826	1599.88
286.057	1519.88
286.288	1516.88
286.52	1557.88
286.751	1748.88
286.982	1784.88
287.213	1665.88
287.444	1539.88
287.675	1496.88
287.906	1575.88
288.138	1699.88
288.369	1646.88
288.6	1555.88
288.831	1500.88
289.062	1500.88
289.293	1564.88
289.524	1531.88
289.755	1584.88
289.986	1613.88
290.217	1485.88
290.448	1527.88
290.679	1566.88
290.91	1559.88
291.141	1628.88
291.371	1694.88
291.602	1626.88
291.833	1669.88
292.064	1752.88
292.295	1678.88
292.526	1740.88
292.757	1768.88
292.987	1741.88
293.218	1642.88
293.449	1697.88
293.68	1953.88
293.91	2134.88
294.141	1971.88
294.372	1817.88
294.603	1872.88
294.833	2011.88
295.064	1930.88
295.295	1706.88
295.525	1642.88
295.756	1512.88
295.987	1455.88
296.217	1506.88
296.448	1563.88
296.679	1569.88
296.909	1571.88
297.14	1547.88
297.37	1576.88
297.601	1644.88
297.831	1810.88
298.062	1792.88
298.292	1618.88
298.523	1559.88
298.753	1577.88
298.984	1591.88
299.214	1611.88
299.445	1624.88
299.675	1711.88
299.905	1668.88
300.136	1615.88
300.366	1573.88
300.597	1526.88
300.827	1551.88
301.057	1610.88
301.288	1699.88
301.518	1633.88
301.748	1694.88
301.979	1783.88
302.209	1780.88
302.439	1928.88
302.669	2020.88
302.9	1894.88
303.13	1649.88
303.36	1705.88
303.59	1717.88
303.82	1711.88
304.051	1666.88
304.281	1699.88
304.511	1661.88
304.741	1785.88
304.971	1997.88
305.201	2147.88
305.431	1975.88
305.661	1653.88
305.891	1481.88
306.121	1501.88
306.352	1551.88
306.582	1628.88
306.812	1751.88
307.042	1891.88
307.272	1910.88
307.502	1929.88
307.731	2096.88
307.961	2199.88
308.191	2074.88
308.421	1755.88
308.651	1643.88
308.881	1626.88
309.111	1666.88
309.341	1593.88
309.571	1623.88
309.8	1649.88
310.03	1603.88
310.26	1582.88
310.49	1571.88
310.72	1624.88
310.949	1705.88
311.179	1722.88
311.409	1735.88
311.639	1659.88
311.868	1633.88
312.098	1678.88
312.328	1677.88
312.557	1607.88
312.787	1653.88
313.017	1707.88
313.246	1719.88
313.476	1716.88
313.706	1715.88
313.935	1735.88
314.165	1699.88
314.394	1751.88
314.624	1866.88
314.853	1997.88
315.083	2051.88
315.312	2109.88
315.542	2007.88
315.771	1730.88
316.001	1765.88
316.23	1867.88
316.46	1900.88
316.689	1819.88
316.919	1778.88
317.148	1681.88
317.377	1666.88
317.607	1777.88
317.836	2037.88
318.065	2099.88
318.295	2031.88
318.524	1913.88
318.753	1878.88
318.983	1852.88
319.212	1789.88
319.441	1782.88
319.67	1723.88
319.9	1772.88
320.129	1891.88
320.358	1988.88
320.587	2023.88
320.816	2021.88
321.046	1928.88
321.275	1779.88
321.504	1861.88
321.733	1992.88
321.962	2003.88
322.191	1813.88
322.42	1817.88
322.649	1772.88
322.878	1732.88
323.108	1786.88
323.337	1825.88
323.566	1849.88
323.795	1859.88
324.024	1884.88
324.253	1800.88
324.482	1804.88
324.71	1771.88
324.939	1681.88
325.168	1709.88
325.397	1799.88
325.626	1846.88
325.855	1864.88
326.084	1762.88
326.313	1793.88
326.542	1810.88
326.77	1898.88
326.999	1877.88
327.228	1811.88
327.457	1688.88
327.686	1655.88
327.914	1771.88
328.143	1786.88
328.372	1757.88
328.6	1747.88
328.829	1761.88
329.058	1720.88
329.287	1731.88
329.515	1822.88
329.744	1829.88
329.972	1906.88
330.201	1983.88
330.43	1944.88
330.658	1872.88
330.887	1909.88
331.115	1891.88
331.344	1891.88
331.572	1829.88
331.801	1831.88
332.03	1885.88
332.258	1879.88
332.486	1901.88
332.715	1953.88
332.943	1965.88
333.172	1853.88
333.4	1911.88
333.629	1919.88
333.857	2081.88
334.085	2275.88
334.314	2529.88
334.542	2808.88
334.771	2648.88
334.999	2242.88
335.227	2113.88
335.455	2008.88
335.684	1983.88
335.912	2068.88
336.14	2121.88
336.369	2032.88
336.597	1912.88
336.825	1903.88
337.053	1979.88
337.281	2058.88
337.51	2163.88
337.738	2236.88
337.966	2193.88
338.194	1961.88
338.422	1899.88
338.65	1854.88
338.878	1856.88
339.106	1784.88
339.334	1835.88
339.562	1775.88
339.79	1746.88
340.018	1913.88
340.246	2011.88
340.474	2042.88
340.702	1916.88
340.93	1939.88
341.158	1903.88
341.386	1851.88
341.614	1873.88
341.842	1870.88
342.07	1866.88
342.298	1892.88
342.526	1885.88
342.754	1809.88
342.981	1845.88
343.209	1863.88
343.437	1825.88
343.665	1844.88
343.893	1888.88
344.12	2000.88
344.348	1993.88
344.576	1939.88
344.804	1846.88
345.031	1873.88
345.259	1893.88
345.487	1805.88
345.714	1743.88
345.942	1693.88
346.17	1699.88
346.397	1762.88
346.625	1770.88
346.853	1649.88
347.08	1652.88
347.308	1647.88
347.535	1735.88
347.763	1791.88
347.99	1734.88
348.218	1626.88
348.445	1695.88
348.673	1708.88
348.9	1752.88
349.128	1779.88
349.355	1921.88
349.583	1859.88
349.81	1767.88
350.037	1636.88
350.265	1609.88
350.492	1657.88
350.72	1675.88
350.947	1716.88
351.174	1779.88
351.402	1687.88
351.629	1615.88
351.856	1633.88
352.083	1546.88
352.311	1612.88
352.538	1648.88
352.765	1721.88
352.992	1741.88
353.22	1719.88
353.447	1652.88
353.674	1679.88
353.901	1747.88
354.128	1674.88
354.355	1652.88
354.583	1731.88
354.81	1792.88
355.037	1740.88
355.264	1754.88
355.491	1709.88
355.718	1736.88
355.945	1734.88
356.172	1695.88
356.399	1642.88
356.626	1639.88
356.853	1681.88
357.08	1869.88
357.307	2022.88
357.534	2082.88
357.761	1781.88
357.988	1642.88
358.215	1599.88
358.441	1594.88
358.668	1628.88
358.895	1632.88
359.122	1705.88
359.349	1913.88
359.576	1916.88
359.802	1736.88
360.029	1649.88
360.256	1626.88
360.483	1648.88
360.709	1703.88
360.936	1799.88
361.163	1778.88
361.39	1975.88
361.616	2113.88
361.843	2065.88
362.07	1961.88
362.296	1735.88
362.523	1699.88
362.749	1675.88
362.976	1688.88
363.203	1770.88
363.429	1668.88
363.656	1623.88
363.882	1673.88
364.109	1860.88
364.335	2050.88
364.562	1851.88
364.788	1824.88
365.015	1720.88
365.241	1651.88
365.468	1743.88
365.694	1747.88
365.92	1836.88
366.147	1777.88
366.373	1677.88
366.599	1620.88
366.826	1656.88
367.052	1663.88
367.278	1702.88
367.505	1673.88
367.731	1693.88
367.957	1707.88
368.184	1777.88
368.41	1919.88
368.636	1896.88
368.862	1887.88
369.089	1922.88
369.315	1863.88
369.541	1768.88
369.767	1738.88
369.993	1656.88
370.219	1675.88
370.445	1712.88
370.672	1835.88
370.898	1901.88
371.124	1894.88
371.35	1788.88
371.576	1813.88
371.802	1907.88
372.028	1821.88
372.254	1763.88
372.48	1720.88
372.706	1688.88
372.932	1706.88
373.158	1700.88
373.384	1726.88
373.61	1791.88
373.835	1942.88
374.061	1782.88
374.287	1776.88
374.513	1789.88
374.739	1784.88
374.965	1763.88
375.191	1830.88
375.416	1806.88
375.642	1810.88
375.868	1919.88
376.094	1994.88
376.319	1914.88
376.545	1743.88
376.771	1804.88
376.997	1899.88
377.222	1925.88
377.448	1850.88
377.674	1839.88
377.899	1869.88
378.125	1948.88
378.35	1963.88
378.576	1756.88
378.802	1695.88
379.027	1713.88
379.253	1721.88
379.478	1742.88
379.704	1702.88
379.929	1739.88
380.155	1798.88
380.38	1795.88
380.606	1840.88
380.831	1756.88
381.057	1863.88
381.282	1903.88
381.507	1799.88
381.733	1915.88
381.958	2088.88
382.184	1912.88
382.409	1802.88
382.634	1836.88
382.86	1827.88
383.085	1822.88
383.31	1880.88
383.535	1996.88
383.761	2159.88
383.986	2070.88
384.211	1994.88
384.436	1973.88
384.662	2029.88
384.887	2146.88
385.112	2027.88
385.337	2023.88
385.562	2035.88
385.787	2030.88
386.013	2057.88
386.238	2078.88
386.463	2029.88
386.688	2175.88
386.913	2340.88
387.138	2236.88
387.363	2065.88
387.588	2125.88
387.813	2084.88
388.038	2098.88
388.263	2166.88
388.488	2136.88
388.713	1947.88
388.938	1889.88
389.163	1967.88
389.387	2002.88
389.612	1994.88
389.837	2013.88
390.062	2068.88
390.287	2006.88
390.512	2004.88
390.736	2006.88
390.961	1962.88
391.186	1899.88
391.411	1960.88
391.636	1999.88
391.86	2011.88
392.085	2000.88
392.31	1947.88
392.534	2019.88
392.759	2058.88
392.984	2031.88
393.208	2064.88
393.433	2084.88
393.658	2148.88
393.882	2232.88
394.107	2023.88
394.331	1997.88
394.556	1947.88
394.78	2049.88
395.005	2106.88
395.229	2171.88
395.454	2331.88
395.678	2382.88
395.903	2257.88
396.127	2148.88
396.352	2161.88
396.576	2215.88
396.801	2264.88
397.025	2264.88
397.249	2244.88
397.474	2171.88
397.698	2159.88
397.922	2229.88
398.147	2317.88
398.371	2448.88
398.595	2451.88
398.82	2314.88
399.044	2355.88
399.268	2481.88
399.492	2588.88
399.717	2712.88
399.941	2759.88
400.165	2691.88
400.389	2579.88
400.613	2568.88
400.837	2786.88
401.062	3272.88
401.286	2768.88
401.51	2514.88
401.734	2658.88
401.958	2596.88
402.182	2368.88
402.406	2341.88
402.63	2248.88
402.854	2261.88
403.078	2291.88
403.302	2388.88
403.526	2390.88
403.75	2387.88
403.974	2417.88
404.198	2408.88
404.422	2474.88
404.645	2631.88
404.869	2560.88
405.093	2357.88
405.317	2345.88
405.541	2455.88
405.765	2442.88
405.988	2396.88
406.212	2454.88
406.436	2490.88
406.66	2565.88
406.883	2569.88
407.107	2894.88
407.331	3120.88
407.555	3403.88
407.778	3171.88
408.002	2597.88
408.226	2540.88
408.449	2519.88
408.673	2459.88
408.896	2477.88
409.12	2555.88
409.344	2423.88
409.567	2362.88
409.791	2387.88
410.014	2451.88
410.238	2552.88
410.461	2713.88
410.685	2497.88
410.908	2342.88
411.132	2407.88
411.355	2368.88
411.578	2346.88
411.802	2349.88
412.025	2400.88
412.249	2337.88
412.472	2277.88
412.695	2245.88
412.919	2281.88
413.142	2274.88
413.365	2312.88
413.589	2354.88
413.812	2408.88
414.035	2551.88
414.258	2367.88
414.482	2292.88
414.705	2307.88
414.928	2268.88
415.151	2316.88
415.374	2280.88
415.597	2346.88
415.821	2347.88
416.044	2439.88
416.267	2461.88
416.49	2189.88
416.713	2204.88
416.936	2268.88
417.159	2381.88
417.382	2355.88
417.605	2248.88
417.828	2337.88
418.051	2336.88
418.274	2288.88
418.497	2224.88
418.72	2237.88
418.943	2181.88
419.166	2331.88
419.389	2483.88
419.611	2310.88
419.834	2253.88
420.057	2314.88
420.28	2245.88
420.503	2182.88
420.726	2260.88
420.948	2268.88
421.171	2202.88
421.394	2192.88
421.617	2331.88
421.839	2250.88
422.062	2254.88
422.285	2191.88
422.507	2178.88
422.73	2165.88
422.953	2108.88
423.175	2135.88
423.398	2189.88
423.621	2205.88
423.843	2237.88
424.066	2262.88
424.288	2327.88
424.511	2332.88
424.733	2335.88
424.956	2097.88
425.178	2096.88
425.401	2145.88
425.623	2159.88
425.846	2143.88
426.068	2226.88
426.291	2284.88
426.513	2300.88
426.735	2256.88
426.958	2373.88
427.18	2572.88
427.402	2337.88
427.625	2371.88
427.847	2479.88
428.069	2251.88
428.292	2166.88
428.514	2091.88
428.736	2086.88
428.958	2136.88
429.181	2145.88
429.403	2401.88
429.625	3010.88
429.847	2673.88
430.069	2239.88
430.292	2419.88
430.514	2547.88
430.736	2311.88
430.958	2415.88
431.18	2275.88
431.402	2183.88
431.624	2130.88
431.846	2103.88
432.068	2061.88
432.29	2122.88
432.512	2143.88
432.734	2244.88
432.956	2220.88
433.178	2305.88
433.4	2293.88
433.622	2316.88
433.844	2189.88
434.066	2138.88
434.287	2123.88
434.509	2182.88
434.731	2297.88
434.953	2471.88
435.175	2431.88
435.397	2231.88
435.618	2263.88
435.84	2261.88
436.062	2218.88
436.284	2227.88
436.505	2223.88
436.727	2318.88
436.949	2224.88
437.17	2203.88
437.392	2184.88
437.614	2162.88
437.835	2134.88
438.057	2234.88
438.278	2371.88
438.5	2184.88
438.721	2100.88
438.943	2166.88
439.165	2149.88
439.386	2101.88
439.608	2164.88
439.829	2124.88
440.05	2107.88
440.272	2087.88
440.493	2051.88
440.715	2170.88
440.936	2275.88
441.158	2517.88
441.379	2443.88
441.6	2389.88
441.822	2343.88
442.043	2290.88
442.264	2223.88
442.486	2086.88
442.707	2126.88
442.928	2102.88
443.149	2241.88
443.371	2400.88
443.592	2449.88
443.813	2359.88
444.034	2378.88
444.255	2332.88
444.476	2421.88
444.698	2418.88
444.919	2405.88
445.14	2505.88
445.361	2509.88
445.582	2561.88
445.803	2494.88
446.024	2353.88
446.245	2479.88
446.466	2355.88
446.687	2217.88
446.908	2263.88
447.129	2157.88
447.35	2182.88
447.571	2222.88
447.792	2146.88
448.013	2090.88
448.234	2133.88
448.455	2195.88
448.675	2257.88
448.896	2045.88
449.117	2013.88
449.338	2097.88
449.559	2171.88
449.779	2314.88
450	2517.88
450.221	2723.88
450.442	2683.88
450.662	2365.88
450.883	2099.88
451.104	1996.88
451.324	2067.88
451.545	2117.88
451.766	2102.88
451.986	2021.88
452.207	1993.88
452.428	1942.88
452.648	1879.88
452.869	1942.88
453.089	2095.88
453.31	2110.88
453.53	2129.88
453.751	2090.88
453.971	1941.88
454.192	1958.88
454.412	2176.88
454.633	2060.88
454.853	1987.88
455.073	1905.88
455.294	1870.88
455.514	1845.88
455.734	1913.88
455.955	1916.88
456.175	1924.88
456.395	1930.88
456.616	1984.88
456.836	1994.88
457.056	1953.88
457.276	1971.88
457.497	1921.88
457.717	1852.88
457.937	1827.88
458.157	1937.88
458.377	1937.88
458.598	1911.88
458.818	1905.88
459.038	2039.88
459.258	2171.88
459.478	2196.88
459.698	2117.88
459.918	2138.88
460.138	2236.88
460.358	2258.88
460.578	2295.88
460.798	2399.88
461.018	2509.88
461.238	2405.88
461.458	2293.88
461.678	2323.88
461.898	2231.88
462.118	2148.88
462.338	2311.88
462.558	2301.88
462.777	2251.88
462.997	2384.88
463.217	2541.88
463.437	2539.88
463.657	2361.88
463.876	2294.88
464.096	2248.88
464.316	2297.88
464.536	2391.88
464.755	2374.88
464.975	2400.88
465.195	2330.88
465.414	2457.88
465.634	2420.88
465.854	2312.88
466.073	2393.88
466.293	2385.88
466.512	2136.88
466.732	2089.88
466.951	2174.88
467.171	2180.88
467.391	2101.88
467.61	2015.88
467.829	2101.88
468.049	2194.88
468.268	2555.88
468.488	2298.88
468.707	2183.88
468.927	2157.88
469.146	2147.88
469.365	2075.88
469.585	2080.88
469.804	2051.88
470.023	2057.88
470.243	2145.88
470.462	2086.88
470.681	2048.88
470.901	2097.88
471.12	2119.88
471.339	2083.88
471.558	2008.88
471.777	2037.88
471.997	2076.88
472.216	2047.88
472.435	1996.88
472.654	2003.88
472.873	2107.88
473.092	2260.88
473.311	2125.88
473.53	1998.88
473.749	1969.88
473.968	2078.88
474.187	2187.88
474.406	2289.88
474.625	2156.88
474.844	2081.88
475.063	2120.88
475.282	2196.88
475.501	2189.88
475.72	2124.88
475.939	2268.88
476.158	2203.88
476.377	2109.88
476.596	2139.88
476.814	2195.88
477.033	2228.88
477.252	2290.88
477.471	2361.88
477.69	2205.88
477.908	2195.88
478.127	2351.88
478.346	2547.88
478.564	2567.88
478.783	2482.88
479.002	2583.88
479.22	2501.88
479.439	2618.88
479.658	2948.88
479.876	2935.88
480.095	2534.88
480.313	2432.88
480.532	2368.88
480.751	2393.88
480.969	2445.88
481.188	2367.88
481.406	2364.88
481.624	2279.88
481.843	2342.88
482.061	2412.88
482.28	2424.88
482.498	2482.88
482.717	2428.88
482.935	2299.88
483.153	2337.88
483.372	2315.88
483.59	2270.88
483.808	2344.88
484.027	2397.88
484.245	2549.88
484.463	2897.88
484.681	3414.88
484.9	2606.88
485.118	2439.88
485.336	2353.88
485.554	2455.88
485.772	2616.88
485.99	2481.88
486.209	2527.88
486.427	2519.88
486.645	2507.88
486.863	2464.88
487.081	2489.88
487.299	2618.88
