Data from WStandard_LampEnergy5.5LIBS07252019.E.O._I.C._HRD10591_16-08-20-921.txt Node
Date: Thu Jul 25 16:08:20 EDT 2019
User: cochatt
Spectrometer: HR+D1059
Trigger mode: 1
Integration Time (sec): 1.000000E-1
Scans to average: 1
Electric dark correction enabled: true
Nonlinearity correction enabled: false
Boxcar width: 0
XAxis mode: Wavelengths
Number of Pixels in Spectrum: 2048
>>>>>Begin Spectral Data<<<<<
223.165	-12.12
223.4	-12.12
223.635	-12.12
223.869	-17.12
224.104	-6.12
224.338	-8.12
224.573	-17.12
224.808	-1.12
225.042	-14.12
225.277	-9.12
225.511	-10.12
225.746	16.88
225.98	2.88
226.215	7.88
226.449	12.88
226.683	22.88
226.918	14.88
227.152	16.88
227.387	19.88
227.621	38.88
227.856	41.88
228.09	18.88
228.324	46.88
228.559	58.88
228.793	155.88
229.027	339.88
229.262	360.88
229.496	366.88
229.73	386.88
229.964	425.88
230.199	453.88
230.433	441.88
230.667	471.88
230.901	512.88
231.136	484.88
231.37	442.88
231.604	448.88
231.838	448.88
232.072	472.88
232.306	442.88
232.541	471.88
232.775	529.88
233.009	608.88
233.243	562.88
233.477	500.88
233.711	534.88
233.945	556.88
234.179	549.88
234.413	570.88
234.647	634.88
234.881	578.88
235.115	524.88
235.349	530.88
235.583	546.88
235.817	579.88
236.051	524.88
236.285	545.88
236.519	558.88
236.753	655.88
236.987	662.88
237.221	655.88
237.455	713.88
237.689	709.88
237.922	664.88
238.156	633.88
238.39	648.88
238.624	675.88
238.858	713.88
239.091	734.88
239.325	735.88
239.559	878.88
239.793	922.88
240.027	1048.88
240.26	1043.88
240.494	739.88
240.728	680.88
240.961	718.88
241.195	706.88
241.429	806.88
241.662	810.88
241.896	758.88
242.13	742.88
242.363	833.88
242.597	895.88
242.83	871.88
243.064	856.88
243.298	922.88
243.531	896.88
243.765	897.88
243.998	895.88
244.232	802.88
244.465	737.88
244.699	790.88
244.932	867.88
245.166	1032.88
245.399	955.88
245.633	889.88
245.866	882.88
246.099	913.88
246.333	914.88
246.566	943.88
246.8	1026.88
247.033	1127.88
247.266	1026.88
247.5	1022.88
247.733	994.88
247.966	1075.88
248.2	1176.88
248.433	1159.88
248.666	1191.88
248.899	1291.88
249.133	1482.88
249.366	1671.88
249.599	1358.88
249.832	1221.88
250.066	1224.88
250.299	1237.88
250.532	1156.88
250.765	1045.88
250.998	1123.88
251.231	1165.88
251.465	1225.88
251.698	1176.88
251.931	1179.88
252.164	1161.88
252.397	1226.88
252.63	1204.88
252.863	1089.88
253.096	1090.88
253.329	1099.88
253.562	1144.88
253.795	1226.88
254.028	1232.88
254.261	1138.88
254.494	1145.88
254.727	1086.88
254.96	1080.88
255.193	1222.88
255.426	1374.88
255.659	1555.88
255.892	1613.88
256.124	1351.88
256.357	1260.88
256.59	1368.88
256.823	1387.88
257.056	1378.88
257.289	1662.88
257.521	1836.88
257.754	1641.88
257.987	1543.88
258.22	1725.88
258.452	1682.88
258.685	1368.88
258.918	1339.88
259.151	1343.88
259.383	1282.88
259.616	1141.88
259.849	1210.88
260.081	1347.88
260.314	1515.88
260.547	1648.88
260.779	1687.88
261.012	1563.88
261.244	1366.88
261.477	1303.88
261.71	1374.88
261.942	1372.88
262.175	1304.88
262.407	1415.88
262.64	1338.88
262.872	1252.88
263.105	1190.88
263.337	1232.88
263.57	1266.88
263.802	1270.88
264.035	1176.88
264.267	1128.88
264.499	1094.88
264.732	1195.88
264.964	1262.88
265.197	1302.88
265.429	1344.88
265.661	1528.88
265.894	1658.88
266.126	1760.88
266.358	1532.88
266.591	1594.88
266.823	1758.88
267.055	1584.88
267.287	1546.88
267.52	1510.88
267.752	1470.88
267.984	1523.88
268.216	1550.88
268.448	1637.88
268.681	1605.88
268.913	1494.88
269.145	1378.88
269.377	1350.88
269.609	1444.88
269.841	1654.88
270.073	1956.88
270.306	2192.88
270.538	2362.88
270.77	1931.88
271.002	1687.88
271.234	1601.88
271.466	1591.88
271.698	1792.88
271.93	2130.88
272.162	2136.88
272.394	1906.88
272.626	1872.88
272.858	1606.88
273.09	1406.88
273.322	1392.88
273.553	1283.88
273.785	1365.88
274.017	1390.88
274.249	1530.88
274.481	1559.88
274.713	1424.88
274.945	1338.88
275.176	1372.88
275.408	1347.88
275.64	1336.88
275.872	1320.88
276.104	1396.88
276.335	1606.88
276.567	1793.88
276.799	1884.88
277.031	1648.88
277.262	1569.88
277.494	1602.88
277.726	1759.88
277.957	1797.88
278.189	1633.88
278.421	1503.88
278.652	1457.88
278.884	1416.88
279.115	1430.88
279.347	1483.88
279.579	1444.88
279.81	1382.88
280.042	1569.88
280.273	1764.88
280.505	1719.88
280.736	1720.88
280.968	1663.88
281.199	1451.88
281.431	1396.88
281.662	1388.88
281.894	1426.88
282.125	1412.88
282.356	1506.88
282.588	1502.88
282.819	1473.88
283.051	1651.88
283.282	1723.88
283.513	1719.88
283.745	1484.88
283.976	1378.88
284.207	1390.88
284.439	1418.88
284.67	1457.88
284.901	1502.88
285.132	1551.88
285.364	1486.88
285.595	1496.88
285.826	1489.88
286.057	1472.88
286.288	1430.88
286.52	1488.88
286.751	1670.88
286.982	1702.88
287.213	1531.88
287.444	1424.88
287.675	1390.88
287.906	1438.88
288.138	1611.88
288.369	1536.88
288.6	1459.88
288.831	1418.88
289.062	1387.88
289.293	1451.88
289.524	1467.88
289.755	1495.88
289.986	1538.88
290.217	1392.88
290.448	1419.88
290.679	1514.88
290.91	1478.88
291.141	1526.88
291.371	1565.88
291.602	1562.88
291.833	1536.88
292.064	1635.88
292.295	1576.88
292.526	1610.88
292.757	1683.88
292.987	1619.88
293.218	1504.88
293.449	1618.88
293.68	1835.88
293.91	1934.88
294.141	1826.88
294.372	1693.88
294.603	1791.88
294.833	1884.88
295.064	1733.88
295.295	1605.88
295.525	1527.88
295.756	1445.88
295.987	1364.88
296.217	1386.88
296.448	1482.88
296.679	1460.88
296.909	1483.88
297.14	1420.88
297.37	1457.88
297.601	1568.88
297.831	1654.88
298.062	1680.88
298.292	1550.88
298.523	1442.88
298.753	1481.88
298.984	1507.88
299.214	1481.88
299.445	1545.88
299.675	1570.88
299.905	1579.88
300.136	1520.88
300.366	1494.88
300.597	1434.88
300.827	1443.88
301.057	1532.88
301.288	1568.88
301.518	1598.88
301.748	1618.88
301.979	1683.88
302.209	1714.88
302.439	1834.88
302.669	1888.88
302.9	1769.88
303.13	1618.88
303.36	1602.88
303.59	1639.88
303.82	1602.88
304.051	1584.88
304.281	1602.88
304.511	1595.88
304.741	1649.88
304.971	1847.88
305.201	2007.88
305.431	1878.88
305.661	1566.88
305.891	1400.88
306.121	1402.88
306.352	1469.88
306.582	1553.88
306.812	1638.88
307.042	1764.88
307.272	1776.88
307.502	1782.88
307.731	1944.88
307.961	2096.88
308.191	1924.88
308.421	1671.88
308.651	1520.88
308.881	1550.88
309.111	1538.88
309.341	1492.88
309.571	1540.88
309.8	1506.88
310.03	1523.88
310.26	1497.88
310.49	1503.88
310.72	1530.88
310.949	1586.88
311.179	1627.88
311.409	1612.88
311.639	1583.88
311.868	1526.88
312.098	1538.88
312.328	1553.88
312.557	1527.88
312.787	1569.88
313.017	1607.88
313.246	1639.88
313.476	1586.88
313.706	1646.88
313.935	1640.88
314.165	1641.88
314.394	1662.88
314.624	1792.88
314.853	1833.88
315.083	1945.88
315.312	1996.88
315.542	1865.88
315.771	1656.88
316.001	1653.88
316.23	1743.88
316.46	1722.88
316.689	1727.88
316.919	1623.88
317.148	1530.88
317.377	1621.88
317.607	1668.88
317.836	1918.88
318.065	1957.88
318.295	1914.88
318.524	1792.88
318.753	1774.88
318.983	1710.88
319.212	1693.88
319.441	1663.88
319.67	1658.88
319.9	1658.88
320.129	1734.88
320.358	1860.88
320.587	1859.88
320.816	1862.88
321.046	1807.88
321.275	1733.88
321.504	1726.88
321.733	1936.88
321.962	1894.88
322.191	1697.88
322.42	1714.88
322.649	1686.88
322.878	1635.88
323.108	1660.88
323.337	1704.88
323.566	1767.88
323.795	1728.88
324.024	1741.88
324.253	1688.88
324.482	1737.88
324.71	1698.88
324.939	1562.88
325.168	1621.88
325.397	1686.88
325.626	1737.88
325.855	1735.88
326.084	1668.88
326.313	1673.88
326.542	1705.88
326.77	1743.88
326.999	1747.88
327.228	1688.88
327.457	1613.88
327.686	1588.88
327.914	1630.88
328.143	1678.88
328.372	1682.88
328.6	1676.88
328.829	1663.88
329.058	1617.88
329.287	1637.88
329.515	1679.88
329.744	1710.88
329.972	1765.88
330.201	1853.88
330.43	1863.88
330.658	1782.88
330.887	1766.88
331.115	1753.88
331.344	1784.88
331.572	1754.88
331.801	1748.88
332.03	1752.88
332.258	1787.88
332.486	1792.88
332.715	1820.88
332.943	1842.88
333.172	1756.88
333.4	1814.88
333.629	1870.88
333.857	1934.88
334.085	2130.88
334.314	2380.88
334.542	2634.88
334.771	2457.88
334.999	2124.88
335.227	2006.88
335.455	1920.88
335.684	1868.88
335.912	1913.88
336.14	2010.88
336.369	1918.88
336.597	1806.88
336.825	1782.88
337.053	1873.88
337.281	1989.88
337.51	2039.88
337.738	2138.88
337.966	2038.88
338.194	1859.88
338.422	1778.88
338.65	1789.88
338.878	1770.88
339.106	1685.88
339.334	1703.88
339.562	1653.88
339.79	1689.88
340.018	1760.88
340.246	1859.88
340.474	1840.88
340.702	1811.88
340.93	1860.88
341.158	1804.88
341.386	1794.88
341.614	1799.88
341.842	1718.88
342.07	1773.88
342.298	1798.88
342.526	1765.88
342.754	1734.88
342.981	1743.88
343.209	1765.88
343.437	1725.88
343.665	1738.88
343.893	1842.88
344.12	1884.88
344.348	1874.88
344.576	1840.88
344.804	1738.88
345.031	1753.88
345.259	1804.88
345.487	1674.88
345.714	1630.88
345.942	1606.88
346.17	1596.88
346.397	1658.88
346.625	1672.88
346.853	1589.88
347.08	1539.88
347.308	1581.88
347.535	1615.88
347.763	1692.88
347.99	1663.88
348.218	1588.88
348.445	1568.88
348.673	1609.88
348.9	1658.88
349.128	1715.88
349.355	1784.88
349.583	1724.88
349.81	1626.88
350.037	1556.88
350.265	1543.88
350.492	1548.88
350.72	1577.88
350.947	1638.88
351.174	1650.88
351.402	1604.88
351.629	1533.88
351.856	1510.88
352.083	1526.88
352.311	1492.88
352.538	1556.88
352.765	1640.88
352.992	1699.88
353.22	1634.88
353.447	1540.88
353.674	1611.88
353.901	1608.88
354.128	1595.88
354.355	1562.88
354.583	1636.88
354.81	1664.88
355.037	1666.88
355.264	1684.88
355.491	1651.88
355.718	1618.88
355.945	1619.88
356.172	1592.88
356.399	1591.88
356.626	1580.88
356.853	1604.88
357.08	1749.88
357.307	1919.88
357.534	1907.88
357.761	1639.88
357.988	1591.88
358.215	1524.88
358.441	1575.88
358.668	1543.88
358.895	1562.88
359.122	1629.88
359.349	1759.88
359.576	1781.88
359.802	1635.88
360.029	1550.88
360.256	1569.88
360.483	1563.88
360.709	1629.88
360.936	1629.88
361.163	1731.88
361.39	1907.88
361.616	2025.88
361.843	2000.88
362.07	1879.88
362.296	1596.88
362.523	1600.88
362.749	1568.88
362.976	1656.88
363.203	1667.88
363.429	1586.88
363.656	1558.88
363.882	1630.88
364.109	1767.88
364.335	1906.88
364.562	1834.88
364.788	1690.88
365.015	1632.88
365.241	1556.88
365.468	1646.88
365.694	1681.88
365.92	1734.88
366.147	1666.88
366.373	1576.88
366.599	1556.88
366.826	1538.88
367.052	1570.88
367.278	1580.88
367.505	1591.88
367.731	1640.88
367.957	1620.88
368.184	1681.88
368.41	1737.88
368.636	1787.88
368.862	1770.88
369.089	1760.88
369.315	1753.88
369.541	1659.88
369.767	1659.88
369.993	1622.88
370.219	1618.88
370.445	1631.88
370.672	1744.88
370.898	1798.88
371.124	1772.88
371.35	1649.88
371.576	1743.88
371.802	1834.88
372.028	1723.88
372.254	1701.88
372.48	1629.88
372.706	1618.88
372.932	1631.88
373.158	1586.88
373.384	1638.88
373.61	1695.88
373.835	1786.88
374.061	1737.88
374.287	1661.88
374.513	1663.88
374.739	1720.88
374.965	1694.88
375.191	1734.88
375.416	1739.88
375.642	1742.88
375.868	1805.88
376.094	1887.88
376.319	1819.88
376.545	1668.88
376.771	1729.88
376.997	1814.88
377.222	1788.88
377.448	1727.88
377.674	1758.88
377.899	1732.88
378.125	1839.88
378.35	1873.88
378.576	1705.88
378.802	1648.88
379.027	1639.88
379.253	1654.88
379.478	1652.88
379.704	1664.88
379.929	1665.88
380.155	1656.88
380.38	1668.88
380.606	1707.88
380.831	1704.88
381.057	1766.88
381.282	1815.88
381.507	1771.88
381.733	1833.88
381.958	1971.88
382.184	1769.88
382.409	1739.88
382.634	1777.88
382.86	1736.88
383.085	1754.88
383.31	1779.88
383.535	1957.88
383.761	2012.88
383.986	1939.88
384.211	1906.88
384.436	1836.88
384.662	1932.88
384.887	2051.88
385.112	1915.88
385.337	1942.88
385.562	1925.88
385.787	1937.88
386.013	1967.88
386.238	1966.88
386.463	1943.88
386.688	2068.88
386.913	2197.88
387.138	2167.88
387.363	1983.88
387.588	2001.88
387.813	1980.88
388.038	1979.88
388.263	2057.88
388.488	1992.88
388.713	1882.88
388.938	1867.88
389.163	1881.88
389.387	1911.88
389.612	1913.88
389.837	1959.88
390.062	1978.88
390.287	1951.88
390.512	1952.88
390.736	1907.88
390.961	1828.88
391.186	1814.88
391.411	1874.88
391.636	1898.88
391.86	1906.88
392.085	1928.88
392.31	1902.88
392.534	1900.88
392.759	1951.88
392.984	1927.88
393.208	1890.88
393.433	1978.88
393.658	2019.88
393.882	2114.88
394.107	1990.88
394.331	1922.88
394.556	1898.88
394.78	1918.88
395.005	2013.88
395.229	2055.88
395.454	2183.88
395.678	2226.88
395.903	2123.88
396.127	2038.88
396.352	2019.88
396.576	2092.88
396.801	2135.88
397.025	2072.88
397.249	2086.88
397.474	2099.88
397.698	2053.88
397.922	2124.88
398.147	2223.88
398.371	2302.88
398.595	2297.88
398.82	2177.88
399.044	2245.88
399.268	2346.88
399.492	2433.88
399.717	2601.88
399.941	2620.88
400.165	2569.88
400.389	2484.88
400.613	2403.88
400.837	2668.88
401.062	3068.88
401.286	2659.88
401.51	2399.88
401.734	2515.88
401.958	2489.88
402.182	2257.88
402.406	2200.88
402.63	2122.88
402.854	2200.88
403.078	2211.88
403.302	2278.88
403.526	2300.88
403.75	2288.88
403.974	2315.88
404.198	2298.88
404.422	2367.88
404.645	2505.88
404.869	2430.88
405.093	2251.88
405.317	2232.88
405.541	2306.88
405.765	2315.88
405.988	2268.88
406.212	2363.88
406.436	2367.88
406.66	2418.88
406.883	2474.88
407.107	2739.88
407.331	2982.88
407.555	3200.88
407.778	3011.88
408.002	2494.88
408.226	2384.88
408.449	2382.88
408.673	2329.88
408.896	2374.88
409.12	2401.88
409.344	2335.88
409.567	2274.88
409.791	2310.88
410.014	2323.88
410.238	2437.88
410.461	2598.88
410.685	2380.88
410.908	2222.88
411.132	2320.88
411.355	2324.88
411.578	2243.88
411.802	2239.88
412.025	2322.88
412.249	2267.88
412.472	2145.88
412.695	2172.88
412.919	2176.88
413.142	2180.88
413.365	2223.88
413.589	2239.88
413.812	2330.88
414.035	2419.88
414.258	2233.88
414.482	2199.88
414.705	2209.88
414.928	2202.88
415.151	2166.88
415.374	2194.88
415.597	2244.88
415.821	2211.88
416.044	2342.88
416.267	2299.88
416.49	2108.88
416.713	2113.88
416.936	2174.88
417.159	2222.88
417.382	2284.88
417.605	2142.88
417.828	2246.88
418.051	2231.88
418.274	2206.88
418.497	2138.88
418.72	2149.88
418.943	2103.88
419.166	2232.88
419.389	2402.88
419.611	2246.88
419.834	2185.88
420.057	2197.88
420.28	2116.88
420.503	2120.88
420.726	2168.88
420.948	2170.88
421.171	2090.88
421.394	2129.88
421.617	2197.88
421.839	2167.88
422.062	2097.88
422.285	2072.88
422.507	2088.88
422.73	2045.88
422.953	1999.88
423.175	2034.88
423.398	2068.88
423.621	2108.88
423.843	2110.88
424.066	2147.88
424.288	2209.88
424.511	2246.88
424.733	2197.88
424.956	2055.88
425.178	2034.88
425.401	2017.88
425.623	2074.88
425.846	2026.88
426.068	2126.88
426.291	2186.88
426.513	2112.88
426.735	2130.88
426.958	2272.88
427.18	2435.88
427.402	2180.88
427.625	2311.88
427.847	2294.88
428.069	2153.88
428.292	2082.88
428.514	2038.88
428.736	2006.88
428.958	2041.88
429.181	2084.88
429.403	2312.88
429.625	2840.88
429.847	2466.88
430.069	2060.88
430.292	2278.88
430.514	2402.88
430.736	2222.88
430.958	2289.88
431.18	2224.88
431.402	2005.88
431.624	2050.88
431.846	2050.88
432.068	1989.88
432.29	2018.88
432.512	2014.88
432.734	2056.88
432.956	2128.88
433.178	2198.88
433.4	2180.88
433.622	2174.88
433.844	2099.88
434.066	2084.88
434.287	2055.88
434.509	2103.88
434.731	2177.88
434.953	2349.88
435.175	2302.88
435.397	2141.88
435.618	2175.88
435.84	2160.88
436.062	2158.88
436.284	2141.88
436.505	2155.88
436.727	2157.88
436.949	2117.88
437.17	2055.88
437.392	2053.88
437.614	2053.88
437.835	1979.88
438.057	2103.88
438.278	2247.88
438.5	2052.88
438.721	2015.88
438.943	2083.88
439.165	2059.88
439.386	2020.88
439.608	2019.88
439.829	2035.88
440.05	2052.88
440.272	2026.88
440.493	1958.88
440.715	2026.88
440.936	2146.88
441.158	2369.88
441.379	2321.88
441.6	2222.88
441.822	2170.88
442.043	2170.88
442.264	2163.88
442.486	2023.88
442.707	2051.88
442.928	2020.88
443.149	2104.88
443.371	2255.88
443.592	2282.88
443.813	2233.88
444.034	2243.88
444.255	2240.88
444.476	2278.88
444.698	2341.88
444.919	2283.88
445.14	2365.88
445.361	2362.88
445.582	2439.88
445.803	2352.88
446.024	2246.88
446.245	2329.88
446.466	2235.88
446.687	2155.88
446.908	2108.88
447.129	2044.88
447.35	2107.88
447.571	2161.88
447.792	1990.88
448.013	1974.88
448.234	2018.88
448.455	2127.88
448.675	2153.88
448.896	1960.88
449.117	1952.88
449.338	1994.88
449.559	2077.88
449.779	2172.88
450	2383.88
450.221	2584.88
450.442	2509.88
450.662	2220.88
450.883	1977.88
451.104	1915.88
451.324	1945.88
451.545	2055.88
451.766	1991.88
451.986	1873.88
452.207	1891.88
452.428	1873.88
452.648	1779.88
452.869	1843.88
453.089	2009.88
453.31	1986.88
453.53	2023.88
453.751	1984.88
453.971	1857.88
454.192	1896.88
454.412	2023.88
454.633	1944.88
454.853	1868.88
455.073	1758.88
455.294	1742.88
455.514	1770.88
455.734	1774.88
455.955	1815.88
456.175	1848.88
456.395	1805.88
456.616	1860.88
456.836	1924.88
457.056	1876.88
457.276	1903.88
457.497	1848.88
457.717	1734.88
457.937	1796.88
458.157	1849.88
458.377	1845.88
458.598	1769.88
458.818	1864.88
459.038	1938.88
459.258	2062.88
459.478	2035.88
459.698	1995.88
459.918	2030.88
460.138	2140.88
460.358	2144.88
460.578	2187.88
460.798	2240.88
461.018	2393.88
461.238	2249.88
461.458	2160.88
461.678	2211.88
461.898	2156.88
462.118	2107.88
462.338	2159.88
462.558	2192.88
462.777	2182.88
462.997	2240.88
463.217	2511.88
463.437	2438.88
463.657	2246.88
463.876	2198.88
464.096	2177.88
464.316	2170.88
464.536	2306.88
464.755	2279.88
464.975	2284.88
465.195	2161.88
465.414	2331.88
465.634	2294.88
465.854	2121.88
466.073	2282.88
466.293	2273.88
466.512	1996.88
466.732	1986.88
466.951	2084.88
467.171	2074.88
467.391	1999.88
467.61	1923.88
467.829	1961.88
468.049	2134.88
468.268	2347.88
468.488	2228.88
468.707	2128.88
468.927	2033.88
469.146	1996.88
469.365	1972.88
469.585	2024.88
469.804	1930.88
470.023	1980.88
470.243	2021.88
470.462	1969.88
470.681	1947.88
470.901	1984.88
471.12	1988.88
471.339	1970.88
471.558	1897.88
471.777	1888.88
471.997	1917.88
472.216	1922.88
472.435	1879.88
472.654	1914.88
472.873	2002.88
473.092	2110.88
473.311	2036.88
473.53	1897.88
473.749	1904.88
473.968	1967.88
474.187	2068.88
474.406	2176.88
474.625	2052.88
474.844	1997.88
475.063	1995.88
475.282	2090.88
475.501	2031.88
475.72	1996.88
475.939	2100.88
476.158	2058.88
476.377	2019.88
476.596	1992.88
476.814	2088.88
477.033	2101.88
477.252	2157.88
477.471	2201.88
477.69	2139.88
477.908	2092.88
478.127	2220.88
478.346	2407.88
478.564	2386.88
478.783	2316.88
479.002	2439.88
479.22	2363.88
479.439	2493.88
479.658	2775.88
479.876	2842.88
480.095	2439.88
480.313	2328.88
480.532	2261.88
480.751	2236.88
480.969	2286.88
481.188	2238.88
481.406	2230.88
481.624	2123.88
481.843	2180.88
482.061	2314.88
482.28	2326.88
482.498	2340.88
482.717	2360.88
482.935	2215.88
483.153	2214.88
483.372	2237.88
483.59	2207.88
483.808	2199.88
484.027	2280.88
484.245	2438.88
484.463	2792.88
484.681	3172.88
484.9	2469.88
485.118	2295.88
485.336	2242.88
485.554	2354.88
485.772	2452.88
485.99	2372.88
486.209	2400.88
486.427	2354.88
486.645	2430.88
486.863	2364.88
487.081	2399.88
487.299	2493.88
487.517	2487.88
