Data from WStandard_LampEnergy8_LIBS07252019.E.O._I.C._HRD10591_15-58-23-929.txt Node
Date: Thu Jul 25 15:58:23 EDT 2019
User: cochatt
Spectrometer: HR+D1059
Trigger mode: 1
Integration Time (sec): 1.000000E-1
Scans to average: 1
Electric dark correction enabled: true
Nonlinearity correction enabled: false
Boxcar width: 0
XAxis mode: Wavelengths
Number of Pixels in Spectrum: 2048
>>>>>Begin Spectral Data<<<<<
223.165	-19.19
223.4	-19.19
223.635	-19.19
223.869	-12.19
224.104	-11.19
224.338	-9.19
224.573	-17.19
224.808	-28.19
225.042	-17.19
225.277	5.81
225.511	-12.19
225.746	6.81
225.98	9.81
226.215	11.81
226.449	8.81
226.683	26.81
226.918	23.81
227.152	32.81
227.387	42.81
227.621	48.81
227.856	54.81
228.09	50.81
228.324	48.81
228.559	57.81
228.793	103.81
229.027	196.81
229.262	202.81
229.496	203.81
229.73	220.81
229.964	253.81
230.199	254.81
230.433	270.81
230.667	283.81
230.901	281.81
231.136	269.81
231.37	260.81
231.604	268.81
231.838	260.81
232.072	271.81
232.306	262.81
232.541	270.81
232.775	323.81
233.009	316.81
233.243	317.81
233.477	288.81
233.711	284.81
233.945	290.81
234.179	306.81
234.413	315.81
234.647	316.81
234.881	311.81
235.115	323.81
235.349	294.81
235.583	287.81
235.817	312.81
236.051	316.81
236.285	320.81
236.519	314.81
236.753	350.81
236.987	337.81
237.221	388.81
237.455	415.81
237.689	377.81
237.922	346.81
238.156	345.81
238.39	360.81
238.624	378.81
238.858	386.81
239.091	419.81
239.325	416.81
239.559	466.81
239.793	488.81
240.027	512.81
240.26	507.81
240.494	378.81
240.728	364.81
240.961	370.81
241.195	368.81
241.429	406.81
241.662	409.81
241.896	388.81
242.13	405.81
242.363	440.81
242.597	456.81
242.83	441.81
243.064	449.81
243.298	482.81
243.531	482.81
243.765	468.81
243.998	475.81
244.232	408.81
244.465	411.81
244.699	432.81
244.932	459.81
245.166	511.81
245.399	495.81
245.633	437.81
245.866	440.81
246.099	479.81
246.333	476.81
246.566	494.81
246.8	528.81
247.033	602.81
247.266	560.81
247.5	518.81
247.733	539.81
247.966	577.81
248.2	606.81
248.433	597.81
248.666	649.81
248.899	662.81
249.133	736.81
249.366	817.81
249.599	667.81
249.832	603.81
250.066	633.81
250.299	638.81
250.532	614.81
250.765	531.81
250.998	594.81
251.231	594.81
251.465	606.81
251.698	561.81
251.931	582.81
252.164	592.81
252.397	614.81
252.63	619.81
252.863	554.81
253.096	560.81
253.329	590.81
253.562	599.81
253.795	610.81
254.028	614.81
254.261	580.81
254.494	556.81
254.727	550.81
254.96	561.81
255.193	623.81
255.426	721.81
255.659	786.81
255.892	775.81
256.124	656.81
256.357	651.81
256.59	738.81
256.823	710.81
257.056	738.81
257.289	825.81
257.521	913.81
257.754	818.81
257.987	767.81
258.22	843.81
258.452	817.81
258.685	703.81
258.918	678.81
259.151	677.81
259.383	647.81
259.616	586.81
259.849	634.81
260.081	671.81
260.314	782.81
260.547	826.81
260.779	842.81
261.012	751.81
261.244	692.81
261.477	660.81
261.71	697.81
261.942	708.81
262.175	675.81
262.407	719.81
262.64	650.81
262.872	642.81
263.105	644.81
263.337	624.81
263.57	635.81
263.802	616.81
264.035	584.81
264.267	584.81
264.499	580.81
264.732	606.81
264.964	645.81
265.197	678.81
265.429	696.81
265.661	780.81
265.894	855.81
266.126	865.81
266.358	806.81
266.591	806.81
266.823	846.81
267.055	771.81
267.287	784.81
267.52	774.81
267.752	732.81
267.984	748.81
268.216	775.81
268.448	834.81
268.681	800.81
268.913	732.81
269.145	698.81
269.377	699.81
269.609	772.81
269.841	887.81
270.073	999.81
270.306	1086.81
270.538	1113.81
270.77	924.81
271.002	820.81
271.234	802.81
271.466	815.81
271.698	912.81
271.93	1053.81
272.162	1054.81
272.394	964.81
272.626	904.81
272.858	785.81
273.09	718.81
273.322	699.81
273.553	682.81
273.785	683.81
274.017	727.81
274.249	726.81
274.481	762.81
274.713	721.81
274.945	714.81
275.176	698.81
275.408	700.81
275.64	690.81
275.872	697.81
276.104	758.81
276.335	823.81
276.567	912.81
276.799	913.81
277.031	825.81
277.262	824.81
277.494	838.81
277.726	925.81
277.957	884.81
278.189	839.81
278.421	757.81
278.652	750.81
278.884	741.81
279.115	754.81
279.347	761.81
279.579	735.81
279.81	766.81
280.042	803.81
280.273	857.81
280.505	875.81
280.736	881.81
280.968	850.81
281.199	745.81
281.431	721.81
281.662	718.81
281.894	724.81
282.125	734.81
282.356	766.81
282.588	771.81
282.819	781.81
283.051	856.81
283.282	872.81
283.513	842.81
283.745	775.81
283.976	689.81
284.207	743.81
284.439	730.81
284.67	745.81
284.901	782.81
285.132	773.81
285.364	796.81
285.595	804.81
285.826	764.81
286.057	786.81
286.288	787.81
286.52	791.81
286.751	845.81
286.982	855.81
287.213	807.81
287.444	741.81
287.675	741.81
287.906	805.81
288.138	826.81
288.369	816.81
288.6	749.81
288.831	745.81
289.062	753.81
289.293	743.81
289.524	742.81
289.755	800.81
289.986	778.81
290.217	755.81
290.448	755.81
290.679	814.81
290.91	793.81
291.141	798.81
291.371	830.81
291.602	823.81
291.833	805.81
292.064	854.81
292.295	838.81
292.526	852.81
292.757	882.81
292.987	844.81
293.218	810.81
293.449	878.81
293.68	986.81
293.91	1036.81
294.141	942.81
294.372	924.81
294.603	944.81
294.833	987.81
295.064	938.81
295.295	855.81
295.525	811.81
295.756	770.81
295.987	713.81
296.217	738.81
296.448	780.81
296.679	789.81
296.909	772.81
297.14	774.81
297.37	808.81
297.601	842.81
297.831	916.81
298.062	906.81
298.292	794.81
298.523	786.81
298.753	790.81
298.984	802.81
299.214	796.81
299.445	826.81
299.675	828.81
299.905	824.81
300.136	820.81
300.366	818.81
300.597	788.81
300.827	786.81
301.057	818.81
301.288	863.81
301.518	880.81
301.748	858.81
301.979	890.81
302.209	959.81
302.439	998.81
302.669	1003.81
302.9	955.81
303.13	888.81
303.36	871.81
303.59	866.81
303.82	854.81
304.051	883.81
304.281	868.81
304.511	912.81
304.741	968.81
304.971	1012.81
305.201	1063.81
305.431	956.81
305.661	817.81
305.891	750.81
306.121	772.81
306.352	802.81
306.582	857.81
306.812	916.81
307.042	980.81
307.272	965.81
307.502	1003.81
307.731	1058.81
307.961	1100.81
308.191	983.81
308.421	870.81
308.651	854.81
308.881	830.81
309.111	819.81
309.341	822.81
309.571	825.81
309.8	820.81
310.03	823.81
310.26	835.81
310.49	816.81
310.72	851.81
310.949	905.81
311.179	879.81
311.409	846.81
311.639	863.81
311.868	875.81
312.098	854.81
312.328	851.81
312.557	843.81
312.787	868.81
313.017	866.81
313.246	888.81
313.476	886.81
313.706	905.81
313.935	912.81
314.165	893.81
314.394	949.81
314.624	960.81
314.853	1014.81
315.083	1080.81
315.312	1078.81
315.542	972.81
315.771	906.81
316.001	937.81
316.23	944.81
316.46	926.81
316.689	949.81
316.919	902.81
317.148	858.81
317.377	892.81
317.607	998.81
317.836	1074.81
318.065	1077.81
318.295	1011.81
318.524	995.81
318.753	938.81
318.983	965.81
319.212	952.81
319.441	944.81
319.67	926.81
319.9	939.81
320.129	968.81
320.358	995.81
320.587	1056.81
320.816	1051.81
321.046	997.81
321.275	944.81
321.504	958.81
321.733	1038.81
321.962	1037.81
322.191	961.81
322.42	908.81
322.649	929.81
322.878	933.81
323.108	924.81
323.337	984.81
323.566	977.81
323.795	978.81
324.024	923.81
324.253	931.81
324.482	962.81
324.71	938.81
324.939	904.81
325.168	900.81
325.397	943.81
325.626	946.81
325.855	954.81
326.084	921.81
326.313	915.81
326.542	923.81
326.77	963.81
326.999	944.81
327.228	938.81
327.457	898.81
327.686	878.81
327.914	917.81
328.143	960.81
328.372	944.81
328.6	932.81
328.829	932.81
329.058	909.81
329.287	924.81
329.515	971.81
329.744	978.81
329.972	1010.81
330.201	1066.81
330.43	1024.81
330.658	984.81
330.887	1000.81
331.115	977.81
331.344	983.81
331.572	983.81
331.801	977.81
332.03	990.81
332.258	1007.81
332.486	1002.81
332.715	1032.81
332.943	1032.81
333.172	1001.81
333.4	1031.81
333.629	1092.81
333.857	1126.81
334.085	1242.81
334.314	1352.81
334.542	1414.81
334.771	1304.81
334.999	1145.81
335.227	1108.81
335.455	1054.81
335.684	1050.81
335.912	1100.81
336.14	1110.81
336.369	1066.81
336.597	993.81
336.825	1008.81
337.053	1040.81
337.281	1146.81
337.51	1149.81
337.738	1198.81
337.966	1128.81
338.194	1023.81
338.422	993.81
338.65	997.81
338.878	975.81
339.106	949.81
339.334	966.81
339.562	945.81
339.79	973.81
340.018	1041.81
340.246	1054.81
340.474	1041.81
340.702	1054.81
340.93	1040.81
341.158	1015.81
341.386	1003.81
341.614	987.81
341.842	1010.81
342.07	1005.81
342.298	981.81
342.526	999.81
342.754	972.81
342.981	998.81
343.209	982.81
343.437	979.81
343.665	994.81
343.893	1038.81
344.12	1057.81
344.348	1052.81
344.576	1033.81
344.804	981.81
345.031	1003.81
345.259	964.81
345.487	958.81
345.714	931.81
345.942	908.81
346.17	947.81
346.397	950.81
346.625	961.81
346.853	904.81
347.08	896.81
347.308	891.81
347.535	926.81
347.763	979.81
347.99	932.81
348.218	893.81
348.445	946.81
348.673	922.81
348.9	970.81
349.128	984.81
349.355	1011.81
349.583	955.81
349.81	940.81
350.037	878.81
350.265	875.81
350.492	902.81
350.72	926.81
350.947	954.81
351.174	968.81
351.402	912.81
351.629	842.81
351.856	862.81
352.083	850.81
352.311	864.81
352.538	913.81
352.765	953.81
352.992	946.81
353.22	944.81
353.447	925.81
353.674	922.81
353.901	938.81
354.128	906.81
354.355	934.81
354.583	978.81
354.81	977.81
355.037	981.81
355.264	941.81
355.491	928.81
355.718	936.81
355.945	950.81
356.172	894.81
356.399	882.81
356.626	880.81
356.853	950.81
357.08	1026.81
357.307	1100.81
357.534	1077.81
357.761	944.81
357.988	905.81
358.215	877.81
358.441	905.81
358.668	859.81
358.895	917.81
359.122	984.81
359.349	1055.81
359.576	1008.81
359.802	946.81
360.029	909.81
360.256	908.81
360.483	935.81
360.709	978.81
360.936	998.81
361.163	1045.81
361.39	1097.81
361.616	1188.81
361.843	1164.81
362.07	1050.81
362.296	935.81
362.523	903.81
362.749	944.81
362.976	974.81
363.203	986.81
363.429	930.81
363.656	946.81
363.882	975.81
364.109	1074.81
364.335	1107.81
364.562	1058.81
364.788	962.81
365.015	980.81
365.241	952.81
365.468	964.81
365.694	975.81
365.92	984.81
366.147	935.81
366.373	916.81
366.599	889.81
366.826	914.81
367.052	901.81
367.278	928.81
367.505	943.81
367.731	967.81
367.957	981.81
368.184	1011.81
368.41	1026.81
368.636	1048.81
368.862	1034.81
369.089	1062.81
369.315	1024.81
369.541	1006.81
369.767	965.81
369.993	946.81
370.219	950.81
370.445	966.81
370.672	1028.81
370.898	1052.81
371.124	1046.81
371.35	1009.81
371.576	1029.81
371.802	1043.81
372.028	973.81
372.254	958.81
372.48	939.81
372.706	937.81
372.932	944.81
373.158	967.81
373.384	976.81
373.61	1014.81
373.835	1067.81
374.061	1000.81
374.287	988.81
374.513	1011.81
374.739	985.81
374.965	1003.81
375.191	1010.81
375.416	1014.81
375.642	1028.81
375.868	1079.81
376.094	1111.81
376.319	1058.81
376.545	1000.81
376.771	1055.81
376.997	1087.81
377.222	1082.81
377.448	1042.81
377.674	1046.81
377.899	1047.81
378.125	1124.81
378.35	1088.81
378.576	975.81
378.802	920.81
379.027	990.81
379.253	965.81
379.478	981.81
379.704	1001.81
379.929	971.81
380.155	1010.81
380.38	1028.81
380.606	1014.81
380.831	1036.81
381.057	1118.81
381.282	1083.81
381.507	1071.81
381.733	1123.81
381.958	1157.81
382.184	1076.81
382.409	1022.81
382.634	1043.81
382.86	1037.81
383.085	1030.81
383.31	1090.81
383.535	1194.81
383.761	1233.81
383.986	1173.81
384.211	1124.81
384.436	1154.81
384.662	1206.81
384.887	1194.81
385.112	1183.81
385.337	1163.81
385.562	1138.81
385.787	1142.81
386.013	1177.81
386.238	1160.81
386.463	1170.81
386.688	1271.81
386.913	1334.81
387.138	1284.81
387.363	1186.81
387.588	1177.81
387.813	1180.81
388.038	1156.81
388.263	1231.81
388.488	1188.81
388.713	1086.81
388.938	1092.81
389.163	1091.81
389.387	1127.81
389.612	1118.81
389.837	1149.81
390.062	1178.81
390.287	1153.81
390.512	1150.81
390.736	1143.81
390.961	1117.81
391.186	1108.81
391.411	1152.81
391.636	1139.81
391.86	1155.81
392.085	1152.81
392.31	1120.81
392.534	1154.81
392.759	1152.81
392.984	1144.81
393.208	1182.81
393.433	1175.81
393.658	1260.81
393.882	1243.81
394.107	1168.81
394.331	1177.81
394.556	1110.81
394.78	1190.81
395.005	1235.81
395.229	1263.81
395.454	1354.81
395.678	1312.81
395.903	1243.81
396.127	1216.81
396.352	1226.81
396.576	1257.81
396.801	1257.81
397.025	1265.81
397.249	1283.81
397.474	1238.81
397.698	1243.81
397.922	1322.81
398.147	1351.81
398.371	1360.81
398.595	1355.81
398.82	1305.81
399.044	1336.81
399.268	1391.81
399.492	1448.81
399.717	1493.81
399.941	1509.81
400.165	1496.81
400.389	1455.81
400.613	1487.81
400.837	1663.81
401.062	1831.81
401.286	1575.81
401.51	1411.81
401.734	1503.81
401.958	1435.81
402.182	1322.81
402.406	1331.81
402.63	1315.81
402.854	1296.81
403.078	1332.81
403.302	1349.81
403.526	1337.81
403.75	1392.81
403.974	1420.81
404.198	1382.81
404.422	1426.81
404.645	1470.81
404.869	1417.81
405.093	1341.81
405.317	1326.81
405.541	1336.81
405.765	1361.81
405.988	1344.81
406.212	1404.81
406.436	1451.81
406.66	1478.81
406.883	1504.81
407.107	1696.81
407.331	1822.81
407.555	1908.81
407.778	1722.81
408.002	1473.81
408.226	1425.81
408.449	1423.81
408.673	1351.81
408.896	1386.81
409.12	1416.81
409.344	1374.81
409.567	1343.81
409.791	1353.81
410.014	1430.81
410.238	1502.81
410.461	1564.81
410.685	1375.81
410.908	1336.81
411.132	1416.81
411.355	1348.81
411.578	1326.81
411.802	1352.81
412.025	1390.81
412.249	1343.81
412.472	1326.81
412.695	1330.81
412.919	1311.81
413.142	1306.81
413.365	1311.81
413.589	1334.81
413.812	1425.81
414.035	1460.81
414.258	1344.81
414.482	1336.81
414.705	1333.81
414.928	1287.81
415.151	1316.81
415.374	1327.81
415.597	1325.81
415.821	1327.81
416.044	1337.81
416.267	1368.81
416.49	1310.81
416.713	1300.81
416.936	1360.81
417.159	1417.81
417.382	1383.81
417.605	1310.81
417.828	1313.81
418.051	1338.81
418.274	1298.81
418.497	1282.81
418.72	1307.81
418.943	1294.81
419.166	1350.81
419.389	1420.81
419.611	1359.81
419.834	1319.81
420.057	1322.81
420.28	1302.81
420.503	1312.81
420.726	1336.81
420.948	1316.81
421.171	1290.81
421.394	1292.81
421.617	1379.81
421.839	1304.81
422.062	1375.81
422.285	1310.81
422.507	1281.81
422.73	1264.81
422.953	1219.81
423.175	1263.81
423.398	1296.81
423.621	1297.81
423.843	1269.81
424.066	1340.81
424.288	1368.81
424.511	1424.81
424.733	1345.81
424.956	1235.81
425.178	1236.81
425.401	1239.81
425.623	1278.81
425.846	1304.81
426.068	1371.81
426.291	1376.81
426.513	1333.81
426.735	1364.81
426.958	1465.81
427.18	1532.81
427.402	1402.81
427.625	1432.81
427.847	1387.81
428.069	1273.81
428.292	1284.81
428.514	1263.81
428.736	1269.81
428.958	1287.81
429.181	1291.81
429.403	1505.81
429.625	1758.81
429.847	1494.81
430.069	1326.81
430.292	1472.81
430.514	1494.81
430.736	1338.81
430.958	1402.81
431.18	1317.81
431.402	1235.81
431.624	1214.81
431.846	1207.81
432.068	1131.81
432.29	1168.81
432.512	1189.81
432.734	1228.81
432.956	1306.81
433.178	1343.81
433.4	1349.81
433.622	1323.81
433.844	1260.81
434.066	1198.81
434.287	1216.81
434.509	1220.81
434.731	1266.81
434.953	1368.81
435.175	1344.81
435.397	1259.81
435.618	1265.81
435.84	1249.81
436.062	1204.81
436.284	1284.81
436.505	1283.81
436.727	1311.81
436.949	1263.81
437.17	1267.81
437.392	1245.81
437.614	1224.81
437.835	1188.81
438.057	1228.81
438.278	1243.81
438.5	1244.81
438.721	1238.81
438.943	1234.81
439.165	1258.81
439.386	1224.81
439.608	1266.81
439.829	1257.81
440.05	1245.81
440.272	1278.81
440.493	1271.81
440.715	1314.81
440.936	1361.81
441.158	1429.81
441.379	1430.81
441.6	1381.81
441.822	1366.81
442.043	1359.81
442.264	1330.81
442.486	1265.81
442.707	1284.81
442.928	1269.81
443.149	1340.81
443.371	1363.81
443.592	1411.81
443.813	1379.81
444.034	1383.81
444.255	1396.81
444.476	1412.81
444.698	1407.81
444.919	1433.81
445.14	1490.81
445.361	1455.81
445.582	1454.81
445.803	1397.81
446.024	1410.81
446.245	1452.81
446.466	1393.81
446.687	1348.81
446.908	1360.81
447.129	1331.81
447.35	1330.81
447.571	1291.81
447.792	1238.81
448.013	1250.81
448.234	1302.81
448.455	1315.81
448.675	1319.81
448.896	1225.81
449.117	1187.81
449.338	1240.81
449.559	1302.81
449.779	1318.81
450	1426.81
450.221	1483.81
450.442	1428.81
450.662	1286.81
450.883	1202.81
451.104	1163.81
451.324	1212.81
451.545	1218.81
451.766	1211.81
451.986	1147.81
452.207	1135.81
452.428	1106.81
452.648	1074.81
452.869	1115.81
453.089	1151.81
453.31	1165.81
453.53	1155.81
453.751	1119.81
453.971	1050.81
454.192	1103.81
454.412	1130.81
454.633	1154.81
454.853	1107.81
455.073	1094.81
455.294	1077.81
455.514	1073.81
455.734	1102.81
455.955	1107.81
456.175	1080.81
456.395	1087.81
456.616	1104.81
456.836	1111.81
457.056	1113.81
457.276	1099.81
457.497	1103.81
457.717	1039.81
457.937	1030.81
458.157	1058.81
458.377	1028.81
458.598	1034.81
458.818	1071.81
459.038	1112.81
459.258	1155.81
459.478	1176.81
459.698	1130.81
459.918	1159.81
460.138	1228.81
460.358	1287.81
460.578	1255.81
460.798	1288.81
461.018	1357.81
461.238	1292.81
461.458	1291.81
461.678	1278.81
461.898	1239.81
462.118	1192.81
462.338	1266.81
462.558	1264.81
462.777	1270.81
462.997	1359.81
463.217	1393.81
463.437	1348.81
463.657	1310.81
463.876	1272.81
464.096	1279.81
464.316	1285.81
464.536	1307.81
464.755	1317.81
464.975	1305.81
465.195	1252.81
465.414	1333.81
465.634	1306.81
465.854	1283.81
466.073	1382.81
466.293	1377.81
466.512	1230.81
466.732	1168.81
466.951	1251.81
467.171	1220.81
467.391	1185.81
467.61	1213.81
467.829	1244.81
468.049	1355.81
468.268	1470.81
468.488	1348.81
468.707	1251.81
468.927	1251.81
469.146	1198.81
469.365	1228.81
469.585	1267.81
469.804	1248.81
470.023	1248.81
470.243	1265.81
470.462	1228.81
470.681	1214.81
470.901	1243.81
471.12	1252.81
471.339	1212.81
471.558	1212.81
471.777	1222.81
471.997	1222.81
472.216	1146.81
472.435	1150.81
472.654	1141.81
472.873	1198.81
473.092	1243.81
473.311	1178.81
473.53	1156.81
473.749	1150.81
473.968	1158.81
474.187	1195.81
474.406	1250.81
474.625	1204.81
474.844	1232.81
475.063	1219.81
475.282	1226.81
475.501	1213.81
475.72	1214.81
475.939	1290.81
476.158	1273.81
476.377	1223.81
476.596	1218.81
476.814	1236.81
477.033	1236.81
477.252	1307.81
477.471	1327.81
477.69	1294.81
477.908	1298.81
478.127	1390.81
478.346	1434.81
478.564	1407.81
478.783	1426.81
479.002	1459.81
479.22	1397.81
479.439	1468.81
479.658	1620.81
479.876	1510.81
480.095	1379.81
480.313	1372.81
480.532	1287.81
480.751	1286.81
480.969	1318.81
481.188	1282.81
481.406	1250.81
481.624	1253.81
481.843	1279.81
482.061	1302.81
482.28	1351.81
482.498	1355.81
482.717	1321.81
482.935	1326.81
483.153	1339.81
483.372	1378.81
483.59	1364.81
483.808	1355.81
484.027	1383.81
484.245	1492.81
484.463	1739.81
484.681	1906.81
484.9	1462.81
485.118	1395.81
485.336	1367.81
485.554	1386.81
485.772	1398.81
485.99	1340.81
486.209	1406.81
486.427	1422.81
486.645	1421.81
486.863	1440.81
487.081	1476.81
487.299	1459.81
487.517	1464.81
487.735	1492.81
487.953	1510.81
488.171	1462.81
488.389	1476.81
488.607	1487.81
488.825	1628.81
489.043	1563.81
489.261	1410.81
489.479	1483.81
489.696	1484.81
489.914	1451.81
490.132	1431.81
490.35	1454.81
490.568	1542.81
490.786	1517.81
491.003	1486.81
491.221	1545.81
491.439	1579.81
491.657	1611.81
491.874	1629.81
492.092	1646.81
492.31	1708.81
492.527	1683.81
492.745	1622.81
492.963	1609.81
493.18	1631.81
493.398	1705.81
