Data from WStandard_LampEnergy5.5LIBS07252019.E.O._I.C._HRD10591_16-06-17-921.txt Node
Date: Thu Jul 25 16:06:17 EDT 2019
User: cochatt
Spectrometer: HR+D1059
Trigger mode: 1
Integration Time (sec): 1.000000E-1
Scans to average: 1
Electric dark correction enabled: true
Nonlinearity correction enabled: false
Boxcar width: 0
XAxis mode: Wavelengths
Number of Pixels in Spectrum: 2048
>>>>>Begin Spectral Data<<<<<
223.165	5.12
223.4	5.12
223.635	5.12
223.869	-20.88
224.104	-21.88
224.338	-14.88
224.573	-15.88
224.808	-19.88
225.042	-23.88
225.277	7.12
225.511	1.12
225.746	-2.88
225.98	3.12
226.215	24.12
226.449	6.12
226.683	8.12
226.918	32.12
227.152	33.12
227.387	29.12
227.621	43.12
227.856	40.12
228.09	45.12
228.324	36.12
228.559	58.12
228.793	147.12
229.027	332.12
229.262	333.12
229.496	337.12
229.73	374.12
229.964	391.12
230.199	415.12
230.433	427.12
230.667	427.12
230.901	482.12
231.136	433.12
231.37	399.12
231.604	411.12
231.838	423.12
232.072	437.12
232.306	392.12
232.541	416.12
232.775	484.12
233.009	546.12
233.243	511.12
233.477	465.12
233.711	480.12
233.945	505.12
234.179	486.12
234.413	545.12
234.647	556.12
234.881	550.12
235.115	489.12
235.349	488.12
235.583	484.12
235.817	482.12
236.051	469.12
236.285	471.12
236.519	524.12
236.753	616.12
236.987	614.12
237.221	597.12
237.455	671.12
237.689	635.12
237.922	609.12
238.156	595.12
238.39	595.12
238.624	608.12
238.858	656.12
239.091	675.12
239.325	722.12
239.559	832.12
239.793	860.12
240.027	909.12
240.26	898.12
240.494	639.12
240.728	633.12
240.961	627.12
241.195	640.12
241.429	725.12
241.662	736.12
241.896	707.12
242.13	659.12
242.363	739.12
242.597	804.12
242.83	785.12
243.064	762.12
243.298	838.12
243.531	818.12
243.765	821.12
243.998	799.12
244.232	704.12
244.465	696.12
244.699	705.12
244.932	798.12
245.166	900.12
245.399	861.12
245.633	779.12
245.866	778.12
246.099	797.12
246.333	801.12
246.566	833.12
246.8	899.12
247.033	996.12
247.266	935.12
247.5	958.12
247.733	914.12
247.966	989.12
248.2	1079.12
248.433	1031.12
248.666	1044.12
248.899	1144.12
249.133	1335.12
249.366	1530.12
249.599	1250.12
249.832	1073.12
250.066	1099.12
250.299	1143.12
250.532	1088.12
250.765	939.12
250.998	980.12
251.231	1036.12
251.465	1071.12
251.698	1029.12
251.931	1035.12
252.164	1055.12
252.397	1092.12
252.63	1084.12
252.863	964.12
253.096	917.12
253.329	981.12
253.562	1021.12
253.795	1117.12
254.028	1096.12
254.261	1027.12
254.494	1037.12
254.727	968.12
254.96	974.12
255.193	1056.12
255.426	1205.12
255.659	1427.12
255.892	1457.12
256.124	1185.12
256.357	1138.12
256.59	1213.12
256.823	1220.12
257.056	1215.12
257.289	1490.12
257.521	1681.12
257.754	1448.12
257.987	1384.12
258.22	1522.12
258.452	1488.12
258.685	1228.12
258.918	1181.12
259.151	1217.12
259.383	1129.12
259.616	1025.12
259.849	1093.12
260.081	1205.12
260.314	1353.12
260.547	1477.12
260.779	1474.12
261.012	1396.12
261.244	1231.12
261.477	1153.12
261.71	1209.12
261.942	1233.12
262.175	1168.12
262.407	1295.12
262.64	1222.12
262.872	1110.12
263.105	1027.12
263.337	1082.12
263.57	1106.12
263.802	1115.12
264.035	1059.12
264.267	996.12
264.499	1003.12
264.732	1054.12
264.964	1135.12
265.197	1179.12
265.429	1207.12
265.661	1363.12
265.894	1485.12
266.126	1540.12
266.358	1358.12
266.591	1420.12
266.823	1559.12
267.055	1411.12
267.287	1352.12
267.52	1322.12
267.752	1343.12
267.984	1346.12
268.216	1380.12
268.448	1416.12
268.681	1409.12
268.913	1327.12
269.145	1232.12
269.377	1191.12
269.609	1272.12
269.841	1507.12
270.073	1749.12
270.306	1874.12
270.538	2096.12
270.77	1760.12
271.002	1459.12
271.234	1401.12
271.466	1423.12
271.698	1567.12
271.93	1884.12
272.162	1881.12
272.394	1689.12
272.626	1603.12
272.858	1432.12
273.09	1255.12
273.322	1271.12
273.553	1188.12
273.785	1227.12
274.017	1261.12
274.249	1380.12
274.481	1379.12
274.713	1223.12
274.945	1190.12
275.176	1222.12
275.408	1216.12
275.64	1191.12
275.872	1175.12
276.104	1277.12
276.335	1421.12
276.567	1580.12
276.799	1625.12
277.031	1472.12
277.262	1378.12
277.494	1354.12
277.726	1612.12
277.957	1601.12
278.189	1453.12
278.421	1333.12
278.652	1276.12
278.884	1267.12
279.115	1297.12
279.347	1320.12
279.579	1280.12
279.81	1272.12
280.042	1396.12
280.273	1536.12
280.505	1552.12
280.736	1573.12
280.968	1462.12
281.199	1308.12
281.431	1238.12
281.662	1232.12
281.894	1222.12
282.125	1295.12
282.356	1359.12
282.588	1358.12
282.819	1318.12
283.051	1415.12
283.282	1524.12
283.513	1489.12
283.745	1318.12
283.976	1240.12
284.207	1265.12
284.439	1269.12
284.67	1266.12
284.901	1281.12
285.132	1300.12
285.364	1322.12
285.595	1336.12
285.826	1284.12
286.057	1307.12
286.288	1270.12
286.52	1352.12
286.751	1437.12
286.982	1528.12
287.213	1395.12
287.444	1292.12
287.675	1288.12
287.906	1305.12
288.138	1389.12
288.369	1361.12
288.6	1337.12
288.831	1274.12
289.062	1281.12
289.293	1331.12
289.524	1352.12
289.755	1343.12
289.986	1340.12
290.217	1241.12
290.448	1330.12
290.679	1349.12
290.91	1321.12
291.141	1379.12
291.371	1402.12
291.602	1461.12
291.833	1377.12
292.064	1443.12
292.295	1405.12
292.526	1424.12
292.757	1533.12
292.987	1417.12
293.218	1349.12
293.449	1427.12
293.68	1635.12
293.91	1785.12
294.141	1642.12
294.372	1507.12
294.603	1482.12
294.833	1599.12
295.064	1555.12
295.295	1394.12
295.525	1388.12
295.756	1318.12
295.987	1262.12
296.217	1274.12
296.448	1292.12
296.679	1298.12
296.909	1325.12
297.14	1320.12
297.37	1315.12
297.601	1396.12
297.831	1464.12
298.062	1472.12
298.292	1362.12
298.523	1291.12
298.753	1285.12
298.984	1357.12
299.214	1343.12
299.445	1384.12
299.675	1427.12
299.905	1391.12
300.136	1372.12
300.366	1372.12
300.597	1300.12
300.827	1314.12
301.057	1349.12
301.288	1445.12
301.518	1422.12
301.748	1403.12
301.979	1481.12
302.209	1512.12
302.439	1596.12
302.669	1683.12
302.9	1589.12
303.13	1437.12
303.36	1431.12
303.59	1469.12
303.82	1415.12
304.051	1435.12
304.281	1424.12
304.511	1402.12
304.741	1467.12
304.971	1625.12
305.201	1815.12
305.431	1707.12
305.661	1400.12
305.891	1285.12
306.121	1270.12
306.352	1303.12
306.582	1412.12
306.812	1491.12
307.042	1593.12
307.272	1583.12
307.502	1610.12
307.731	1763.12
307.961	1897.12
308.191	1756.12
308.421	1521.12
308.651	1396.12
308.881	1353.12
309.111	1378.12
309.341	1345.12
309.571	1366.12
309.8	1411.12
310.03	1425.12
310.26	1378.12
310.49	1370.12
310.72	1397.12
310.949	1431.12
311.179	1464.12
311.409	1454.12
311.639	1401.12
311.868	1382.12
312.098	1415.12
312.328	1365.12
312.557	1399.12
312.787	1425.12
313.017	1500.12
313.246	1483.12
313.476	1475.12
313.706	1512.12
313.935	1474.12
314.165	1455.12
314.394	1496.12
314.624	1595.12
314.853	1676.12
315.083	1780.12
315.312	1820.12
315.542	1679.12
315.771	1519.12
316.001	1470.12
316.23	1587.12
316.46	1588.12
316.689	1552.12
316.919	1440.12
317.148	1411.12
317.377	1462.12
317.607	1566.12
317.836	1680.12
318.065	1792.12
318.295	1743.12
318.524	1687.12
318.753	1578.12
318.983	1560.12
319.212	1533.12
319.441	1491.12
319.67	1510.12
319.9	1526.12
320.129	1624.12
320.358	1656.12
320.587	1680.12
320.816	1683.12
321.046	1620.12
321.275	1549.12
321.504	1552.12
321.733	1671.12
321.962	1679.12
322.191	1507.12
322.42	1556.12
322.649	1544.12
322.878	1520.12
323.108	1521.12
323.337	1578.12
323.566	1537.12
323.795	1567.12
324.024	1590.12
324.253	1540.12
324.482	1572.12
324.71	1551.12
324.939	1465.12
325.168	1492.12
325.397	1514.12
325.626	1549.12
325.855	1577.12
326.084	1525.12
326.313	1518.12
326.542	1533.12
326.77	1628.12
326.999	1621.12
327.228	1577.12
327.457	1471.12
327.686	1473.12
327.914	1500.12
328.143	1520.12
328.372	1539.12
328.6	1562.12
328.829	1528.12
329.058	1491.12
329.287	1494.12
329.515	1521.12
329.744	1580.12
329.972	1631.12
330.201	1690.12
330.43	1689.12
330.658	1631.12
330.887	1607.12
331.115	1674.12
331.344	1649.12
331.572	1598.12
331.801	1611.12
332.03	1602.12
332.258	1642.12
332.486	1651.12
332.715	1640.12
332.943	1644.12
333.172	1603.12
333.4	1668.12
333.629	1706.12
333.857	1846.12
334.085	1963.12
334.314	2182.12
334.542	2377.12
334.771	2225.12
334.999	1971.12
335.227	1874.12
335.455	1792.12
335.684	1773.12
335.912	1782.12
336.14	1831.12
336.369	1821.12
336.597	1687.12
336.825	1680.12
337.053	1685.12
337.281	1810.12
337.51	1857.12
337.738	1971.12
337.966	1859.12
338.194	1695.12
338.422	1639.12
338.65	1610.12
338.878	1592.12
339.106	1541.12
339.334	1593.12
339.562	1532.12
339.79	1563.12
340.018	1694.12
340.246	1737.12
340.474	1722.12
340.702	1679.12
340.93	1672.12
341.158	1660.12
341.386	1678.12
341.614	1606.12
341.842	1621.12
342.07	1641.12
342.298	1639.12
342.526	1643.12
342.754	1591.12
342.981	1602.12
343.209	1604.12
343.437	1612.12
343.665	1634.12
343.893	1712.12
344.12	1730.12
344.348	1779.12
344.576	1675.12
344.804	1651.12
345.031	1626.12
345.259	1617.12
345.487	1608.12
345.714	1529.12
345.942	1497.12
346.17	1492.12
346.397	1555.12
346.625	1562.12
346.853	1468.12
347.08	1457.12
347.308	1431.12
347.535	1517.12
347.763	1569.12
347.99	1484.12
348.218	1459.12
348.445	1483.12
348.673	1474.12
348.9	1544.12
349.128	1567.12
349.355	1671.12
349.583	1583.12
349.81	1493.12
350.037	1439.12
350.265	1412.12
350.492	1463.12
350.72	1484.12
350.947	1495.12
351.174	1529.12
351.402	1499.12
351.629	1419.12
351.856	1419.12
352.083	1381.12
352.311	1401.12
352.538	1420.12
352.765	1532.12
352.992	1553.12
353.22	1490.12
353.447	1442.12
353.674	1469.12
353.901	1481.12
354.128	1463.12
354.355	1437.12
354.583	1491.12
354.81	1558.12
355.037	1562.12
355.264	1562.12
355.491	1525.12
355.718	1537.12
355.945	1521.12
356.172	1490.12
356.399	1463.12
356.626	1447.12
356.853	1488.12
357.08	1560.12
357.307	1731.12
357.534	1787.12
357.761	1564.12
357.988	1443.12
358.215	1399.12
358.441	1417.12
358.668	1452.12
358.895	1440.12
359.122	1549.12
359.349	1655.12
359.576	1649.12
359.802	1484.12
360.029	1459.12
360.256	1432.12
360.483	1443.12
360.709	1480.12
360.936	1541.12
361.163	1557.12
361.39	1741.12
361.616	1842.12
361.843	1765.12
362.07	1702.12
362.296	1503.12
362.523	1493.12
362.749	1509.12
362.976	1442.12
363.203	1514.12
363.429	1484.12
363.656	1446.12
363.882	1473.12
364.109	1649.12
364.335	1759.12
364.562	1667.12
364.788	1623.12
365.015	1515.12
365.241	1473.12
365.468	1487.12
365.694	1573.12
365.92	1654.12
366.147	1563.12
366.373	1482.12
366.599	1418.12
366.826	1478.12
367.052	1466.12
367.278	1467.12
367.505	1477.12
367.731	1483.12
367.957	1486.12
368.184	1532.12
368.41	1614.12
368.636	1628.12
368.862	1655.12
369.089	1673.12
369.315	1628.12
369.541	1575.12
369.767	1539.12
369.993	1477.12
370.219	1481.12
370.445	1532.12
370.672	1617.12
370.898	1665.12
371.124	1664.12
371.35	1542.12
371.576	1648.12
371.802	1693.12
372.028	1641.12
372.254	1549.12
372.48	1512.12
372.706	1474.12
372.932	1525.12
373.158	1529.12
373.384	1554.12
373.61	1604.12
373.835	1685.12
374.061	1599.12
374.287	1575.12
374.513	1591.12
374.739	1601.12
374.965	1621.12
375.191	1615.12
375.416	1596.12
375.642	1628.12
375.868	1695.12
376.094	1739.12
376.319	1653.12
376.545	1590.12
376.771	1569.12
376.997	1606.12
377.222	1630.12
377.448	1609.12
377.674	1650.12
377.899	1622.12
378.125	1725.12
378.35	1705.12
378.576	1576.12
378.802	1550.12
379.027	1556.12
379.253	1526.12
379.478	1597.12
379.704	1572.12
379.929	1566.12
380.155	1543.12
380.38	1603.12
380.606	1619.12
380.831	1578.12
381.057	1640.12
381.282	1650.12
381.507	1636.12
381.733	1701.12
381.958	1782.12
382.184	1649.12
382.409	1632.12
382.634	1637.12
382.86	1635.12
383.085	1669.12
383.31	1647.12
383.535	1793.12
383.761	1894.12
383.986	1830.12
384.211	1773.12
384.436	1793.12
384.662	1863.12
384.887	1895.12
385.112	1788.12
385.337	1821.12
385.562	1844.12
385.787	1819.12
386.013	1906.12
386.238	1893.12
386.463	1823.12
386.688	1897.12
386.913	1989.12
387.138	1948.12
387.363	1881.12
387.588	1859.12
387.813	1853.12
388.038	1844.12
388.263	1920.12
388.488	1881.12
388.713	1741.12
388.938	1761.12
389.163	1752.12
389.387	1798.12
389.612	1792.12
389.837	1835.12
390.062	1862.12
390.287	1837.12
390.512	1847.12
390.736	1808.12
390.961	1754.12
391.186	1763.12
391.411	1798.12
391.636	1811.12
391.86	1851.12
392.085	1866.12
392.31	1830.12
392.534	1852.12
392.759	1889.12
392.984	1922.12
393.208	2071.12
393.433	2407.12
393.658	2512.12
393.882	2101.12
394.107	1883.12
394.331	1844.12
394.556	1823.12
394.78	1887.12
395.005	1954.12
395.229	1955.12
395.454	2012.12
395.678	2096.12
395.903	2006.12
396.127	1939.12
396.352	1977.12
396.576	2026.12
396.801	2193.12
397.025	2338.12
397.249	2199.12
397.474	2021.12
397.698	1981.12
397.922	1996.12
398.147	2042.12
398.371	2134.12
398.595	2172.12
398.82	2124.12
399.044	2182.12
399.268	2264.12
399.492	2367.12
399.717	2514.12
399.941	2561.12
400.165	2463.12
400.389	2381.12
400.613	2294.12
400.837	2457.12
401.062	2726.12
401.286	2425.12
401.51	2213.12
401.734	2355.12
401.958	2243.12
402.182	2145.12
402.406	2090.12
402.63	2100.12
402.854	2075.12
403.078	2119.12
403.302	2167.12
403.526	2171.12
403.75	2197.12
403.974	2182.12
404.198	2142.12
404.422	2215.12
404.645	2269.12
404.869	2255.12
405.093	2123.12
405.317	2114.12
405.541	2209.12
405.765	2203.12
405.988	2218.12
406.212	2275.12
406.436	2295.12
406.66	2336.12
406.883	2313.12
407.107	2565.12
407.331	2757.12
407.555	2923.12
407.778	2768.12
408.002	2394.12
408.226	2341.12
408.449	2289.12
408.673	2233.12
408.896	2272.12
409.12	2259.12
409.344	2266.12
409.567	2151.12
409.791	2215.12
410.014	2235.12
410.238	2307.12
410.461	2422.12
410.685	2228.12
410.908	2129.12
411.132	2161.12
411.355	2177.12
411.578	2123.12
411.802	2122.12
412.025	2168.12
412.249	2164.12
412.472	2089.12
412.695	2042.12
412.919	2055.12
413.142	2065.12
413.365	2071.12
413.589	2161.12
413.812	2174.12
414.035	2258.12
414.258	2090.12
414.482	2095.12
414.705	2121.12
414.928	2085.12
415.151	2058.12
415.374	2096.12
415.597	2127.12
415.821	2120.12
416.044	2209.12
416.267	2163.12
416.49	2025.12
416.713	2011.12
416.936	2043.12
417.159	2099.12
417.382	2106.12
417.605	2035.12
417.828	2139.12
418.051	2131.12
418.274	2107.12
418.497	2028.12
418.72	2040.12
418.943	2018.12
419.166	2205.12
419.389	2295.12
419.611	2124.12
419.834	2072.12
420.057	2078.12
420.28	2024.12
420.503	2007.12
420.726	2018.12
420.948	2038.12
421.171	1968.12
421.394	2017.12
421.617	2095.12
421.839	2096.12
422.062	1978.12
422.285	1940.12
422.507	2036.12
422.73	2014.12
422.953	2037.12
423.175	1959.12
423.398	1989.12
423.621	2006.12
423.843	2003.12
424.066	2052.12
424.288	2097.12
424.511	2042.12
424.733	2073.12
424.956	1957.12
425.178	1886.12
425.401	1951.12
425.623	1933.12
425.846	1902.12
426.068	2034.12
426.291	2042.12
426.513	1992.12
426.735	1983.12
426.958	2085.12
427.18	2203.12
427.402	2036.12
427.625	2078.12
427.847	2119.12
428.069	1974.12
428.292	1970.12
428.514	1899.12
428.736	1896.12
428.958	1928.12
429.181	1974.12
429.403	2140.12
429.625	2527.12
429.847	2307.12
430.069	1977.12
430.292	2123.12
430.514	2180.12
430.736	2042.12
430.958	2149.12
431.18	2057.12
431.402	1934.12
431.624	1911.12
431.846	1930.12
432.068	1913.12
432.29	1945.12
432.512	1960.12
432.734	2017.12
432.956	2043.12
433.178	2081.12
433.4	2039.12
433.622	2070.12
433.844	1978.12
434.066	1887.12
434.287	1909.12
434.509	2006.12
434.731	2101.12
434.953	2202.12
435.175	2111.12
435.397	2008.12
435.618	1983.12
435.84	2037.12
436.062	2026.12
436.284	1992.12
436.505	2019.12
436.727	2011.12
436.949	2022.12
437.17	1956.12
437.392	1940.12
437.614	1932.12
437.835	1887.12
438.057	2039.12
438.278	2127.12
438.5	2003.12
438.721	1968.12
438.943	1971.12
439.165	1940.12
439.386	1868.12
439.608	1890.12
439.829	1926.12
440.05	1919.12
440.272	1870.12
440.493	1859.12
440.715	1935.12
440.936	2017.12
441.158	2230.12
441.379	2212.12
441.6	2163.12
441.822	2101.12
442.043	2083.12
442.264	2004.12
442.486	1939.12
442.707	1916.12
442.928	1925.12
443.149	2026.12
443.371	2108.12
443.592	2158.12
443.813	2137.12
444.034	2124.12
444.255	2128.12
444.476	2155.12
444.698	2241.12
444.919	2171.12
445.14	2263.12
445.361	2253.12
445.582	2353.12
445.803	2244.12
446.024	2115.12
446.245	2232.12
446.466	2127.12
446.687	2031.12
446.908	2014.12
447.129	1940.12
447.35	2018.12
447.571	2011.12
447.792	1930.12
448.013	1871.12
448.234	1891.12
448.455	1977.12
448.675	1962.12
448.896	1866.12
449.117	1819.12
449.338	1873.12
449.559	1930.12
449.779	2043.12
450	2276.12
450.221	2425.12
450.442	2355.12
450.662	2059.12
450.883	1847.12
451.104	1788.12
451.324	1842.12
451.545	1871.12
451.766	1881.12
451.986	1791.12
452.207	1756.12
452.428	1743.12
452.648	1747.12
452.869	1772.12
453.089	1875.12
453.31	1907.12
453.53	1916.12
453.751	1842.12
453.971	1741.12
454.192	1820.12
454.412	1921.12
454.633	1784.12
454.853	1762.12
455.073	1697.12
455.294	1668.12
455.514	1663.12
455.734	1695.12
455.955	1723.12
456.175	1765.12
456.395	1741.12
456.616	1795.12
456.836	1850.12
457.056	1778.12
457.276	1720.12
457.497	1706.12
457.717	1635.12
457.937	1681.12
458.157	1763.12
458.377	1728.12
458.598	1725.12
458.818	1700.12
459.038	1809.12
459.258	1953.12
459.478	1930.12
459.698	1883.12
459.918	1937.12
460.138	1985.12
460.358	2048.12
460.578	2086.12
460.798	2154.12
461.018	2288.12
461.238	2169.12
461.458	2024.12
461.678	2087.12
461.898	2108.12
462.118	2007.12
462.338	2127.12
462.558	2076.12
462.777	2037.12
462.997	2192.12
463.217	2324.12
463.437	2287.12
463.657	2171.12
463.876	2100.12
464.096	2107.12
464.316	2101.12
464.536	2136.12
464.755	2154.12
464.975	2183.12
465.195	2126.12
465.414	2233.12
465.634	2164.12
465.854	2019.12
466.073	2107.12
466.293	2080.12
466.512	1905.12
466.732	1858.12
466.951	1984.12
467.171	1947.12
467.391	1876.12
467.61	1831.12
467.829	1855.12
468.049	1960.12
468.268	2159.12
468.488	2072.12
468.707	2016.12
468.927	1926.12
469.146	1889.12
469.365	1857.12
469.585	1874.12
469.804	1860.12
470.023	1866.12
470.243	1911.12
470.462	1860.12
470.681	1832.12
470.901	1913.12
471.12	1904.12
471.339	1840.12
471.558	1802.12
471.777	1802.12
471.997	1842.12
472.216	1840.12
472.435	1759.12
472.654	1799.12
472.873	1873.12
473.092	2009.12
473.311	1907.12
473.53	1790.12
473.749	1833.12
473.968	1856.12
474.187	1980.12
474.406	2053.12
474.625	1967.12
474.844	1868.12
475.063	1875.12
475.282	1951.12
475.501	1919.12
475.72	1869.12
475.939	1977.12
476.158	1950.12
476.377	1892.12
476.596	1898.12
476.814	1929.12
477.033	2015.12
477.252	2069.12
477.471	2126.12
477.69	2036.12
477.908	1969.12
478.127	2100.12
478.346	2245.12
478.564	2259.12
478.783	2215.12
479.002	2284.12
479.22	2233.12
479.439	2331.12
479.658	2664.12
479.876	2637.12
480.095	2250.12
480.313	2147.12
480.532	2063.12
480.751	2149.12
480.969	2123.12
481.188	2121.12
481.406	2100.12
481.624	2039.12
481.843	2071.12
482.061	2099.12
482.28	2203.12
482.498	2197.12
482.717	2171.12
482.935	2029.12
483.153	2083.12
483.372	2090.12
483.59	2039.12
483.808	2081.12
484.027	2120.12
484.245	2235.12
484.463	2476.12
484.681	2799.12
484.9	2284.12
485.118	2158.12
485.336	2114.12
485.554	2171.12
485.772	2276.12
485.99	2246.12
486.209	2259.12
486.427	2244.12
486.645	2220.12
486.863	2203.12
487.081	2215.12
487.299	2263.12
487.517	2248.12
487.735	2118.12
