Data from WStandard_LampEnergy5.5LIBS07252019.E.O._I.C._HRD10591_16-06-46-919.txt Node
Date: Thu Jul 25 16:06:46 EDT 2019
User: cochatt
Spectrometer: HR+D1059
Trigger mode: 1
Integration Time (sec): 1.000000E-1
Scans to average: 1
Electric dark correction enabled: true
Nonlinearity correction enabled: false
Boxcar width: 0
XAxis mode: Wavelengths
Number of Pixels in Spectrum: 2048
>>>>>Begin Spectral Data<<<<<
223.165	-14.62
223.4	-14.62
223.635	-14.62
223.869	-16.62
224.104	-27.62
224.338	-5.62
224.573	-3.62
224.808	-22.62
225.042	-8.62
225.277	8.38
225.511	1.38
225.746	-2.62
225.98	3.38
226.215	4.38
226.449	26.38
226.683	22.38
226.918	14.38
227.152	21.38
227.387	40.38
227.621	33.38
227.856	61.38
228.09	51.38
228.324	44.38
228.559	60.38
228.793	138.38
229.027	382.38
229.262	374.38
229.496	397.38
229.73	408.38
229.964	436.38
230.199	463.38
230.433	459.38
230.667	517.38
230.901	556.38
231.136	509.38
231.37	474.38
231.604	463.38
231.838	487.38
232.072	479.38
232.306	459.38
232.541	477.38
232.775	572.38
233.009	607.38
233.243	614.38
233.477	551.38
233.711	548.38
233.945	565.38
234.179	549.38
234.413	585.38
234.647	652.38
234.881	622.38
235.115	561.38
235.349	555.38
235.583	582.38
235.817	560.38
236.051	535.38
236.285	568.38
236.519	580.38
236.753	708.38
236.987	715.38
237.221	694.38
237.455	782.38
237.689	741.38
237.922	716.38
238.156	668.38
238.39	669.38
238.624	704.38
238.858	751.38
239.091	775.38
239.325	818.38
239.559	951.38
239.793	968.38
240.027	1096.38
240.26	1041.38
240.494	765.38
240.728	739.38
240.961	754.38
241.195	780.38
241.429	845.38
241.662	841.38
241.896	768.38
242.13	764.38
242.363	882.38
242.597	941.38
242.83	900.38
243.064	924.38
243.298	946.38
243.531	950.38
243.765	939.38
243.998	954.38
244.232	814.38
244.465	806.38
244.699	813.38
244.932	921.38
245.166	1098.38
245.399	1017.38
245.633	924.38
245.866	886.38
246.099	929.38
246.333	970.38
246.566	977.38
246.8	1077.38
247.033	1199.38
247.266	1118.38
247.5	1091.38
247.733	1091.38
247.966	1150.38
248.2	1316.38
248.433	1189.38
248.666	1248.38
248.899	1351.38
249.133	1569.38
249.366	1820.38
249.599	1444.38
249.832	1258.38
250.066	1262.38
250.299	1284.38
250.532	1223.38
250.765	1099.38
250.998	1163.38
251.231	1232.38
251.465	1260.38
251.698	1203.38
251.931	1180.38
252.164	1250.38
252.397	1309.38
252.63	1293.38
252.863	1122.38
253.096	1105.38
253.329	1148.38
253.562	1181.38
253.795	1321.38
254.028	1312.38
254.261	1206.38
254.494	1182.38
254.727	1122.38
254.96	1168.38
255.193	1268.38
255.426	1429.38
255.659	1682.38
255.892	1727.38
256.124	1421.38
256.357	1339.38
256.59	1449.38
256.823	1497.38
257.056	1427.38
257.289	1723.38
257.521	1965.38
257.754	1739.38
257.987	1630.38
258.22	1836.38
258.452	1779.38
258.685	1429.38
258.918	1404.38
259.151	1408.38
259.383	1367.38
259.616	1206.38
259.849	1263.38
260.081	1418.38
260.314	1527.38
260.547	1741.38
260.779	1785.38
261.012	1659.38
261.244	1444.38
261.477	1392.38
261.71	1465.38
261.942	1424.38
262.175	1416.38
262.407	1485.38
262.64	1438.38
262.872	1304.38
263.105	1228.38
263.337	1267.38
263.57	1290.38
263.802	1354.38
264.035	1219.38
264.267	1187.38
264.499	1142.38
264.732	1198.38
264.964	1304.38
265.197	1371.38
265.429	1415.38
265.661	1609.38
265.894	1770.38
266.126	1800.38
266.358	1638.38
266.591	1697.38
266.823	1842.38
267.055	1675.38
267.287	1649.38
267.52	1615.38
267.752	1581.38
267.984	1567.38
268.216	1663.38
268.448	1713.38
268.681	1656.38
268.913	1541.38
269.145	1401.38
269.377	1424.38
269.609	1504.38
269.841	1762.38
270.073	2086.38
270.306	2331.38
270.538	2521.38
270.77	2085.38
271.002	1737.38
271.234	1676.38
271.466	1639.38
271.698	1851.38
271.93	2287.38
272.162	2219.38
272.394	2008.38
272.626	1937.38
272.858	1713.38
273.09	1474.38
273.322	1452.38
273.553	1389.38
273.785	1403.38
274.017	1467.38
274.249	1553.38
274.481	1581.38
274.713	1455.38
274.945	1415.38
275.176	1436.38
275.408	1421.38
275.64	1360.38
275.872	1364.38
276.104	1452.38
276.335	1650.38
276.567	1898.38
276.799	1962.38
277.031	1742.38
277.262	1663.38
277.494	1656.38
277.726	1896.38
277.957	1893.38
278.189	1702.38
278.421	1554.38
278.652	1500.38
278.884	1487.38
279.115	1515.38
279.347	1513.38
279.579	1478.38
279.81	1447.38
280.042	1645.38
280.273	1795.38
280.505	1807.38
280.736	1852.38
280.968	1727.38
281.199	1547.38
281.431	1451.38
281.662	1457.38
281.894	1484.38
282.125	1499.38
282.356	1542.38
282.588	1605.38
282.819	1567.38
283.051	1679.38
283.282	1783.38
283.513	1751.38
283.745	1539.38
283.976	1413.38
284.207	1424.38
284.439	1425.38
284.67	1497.38
284.901	1527.38
285.132	1580.38
285.364	1564.38
285.595	1531.38
285.826	1530.38
286.057	1497.38
286.288	1489.38
286.52	1556.38
286.751	1695.38
286.982	1741.38
287.213	1567.38
287.444	1481.38
287.675	1441.38
287.906	1531.38
288.138	1684.38
288.369	1603.38
288.6	1553.38
288.831	1463.38
289.062	1493.38
289.293	1500.38
289.524	1511.38
289.755	1549.38
289.986	1583.38
290.217	1435.38
290.448	1469.38
290.679	1496.38
290.91	1541.38
291.141	1586.38
291.371	1630.38
291.602	1671.38
291.833	1612.38
292.064	1647.38
292.295	1613.38
292.526	1647.38
292.757	1730.38
292.987	1669.38
293.218	1555.38
293.449	1673.38
293.68	1877.38
293.91	2102.38
294.141	1901.38
294.372	1793.38
294.603	1851.38
294.833	1908.38
295.064	1817.38
295.295	1609.38
295.525	1622.38
295.756	1495.38
295.987	1396.38
296.217	1441.38
296.448	1499.38
296.679	1467.38
296.909	1475.38
297.14	1475.38
297.37	1523.38
297.601	1593.38
297.831	1744.38
298.062	1754.38
298.292	1621.38
298.523	1507.38
298.753	1501.38
298.984	1552.38
299.214	1547.38
299.445	1557.38
299.675	1647.38
299.905	1594.38
300.136	1597.38
300.366	1546.38
300.597	1486.38
300.827	1489.38
301.057	1526.38
301.288	1633.38
301.518	1638.38
301.748	1651.38
301.979	1723.38
302.209	1800.38
302.439	1909.38
302.669	1975.38
302.9	1855.38
303.13	1668.38
303.36	1671.38
303.59	1740.38
303.82	1653.38
304.051	1631.38
304.281	1669.38
304.511	1639.38
304.741	1760.38
304.971	1949.38
305.201	2092.38
305.431	2009.38
305.661	1629.38
305.891	1431.38
306.121	1439.38
306.352	1467.38
306.582	1548.38
306.812	1669.38
307.042	1841.38
307.272	1818.38
307.502	1864.38
307.731	2001.38
307.961	2177.38
308.191	1984.38
308.421	1735.38
308.651	1585.38
308.881	1599.38
309.111	1581.38
309.341	1581.38
309.571	1576.38
309.8	1608.38
310.03	1573.38
310.26	1605.38
310.49	1537.38
310.72	1585.38
310.949	1637.38
311.179	1717.38
311.409	1669.38
311.639	1599.38
311.868	1604.38
312.098	1613.38
312.328	1640.38
312.557	1577.38
312.787	1651.38
313.017	1659.38
313.246	1641.38
313.476	1625.38
313.706	1685.38
313.935	1702.38
314.165	1669.38
314.394	1755.38
314.624	1845.38
314.853	1945.38
315.083	2010.38
315.312	2103.38
315.542	1945.38
315.771	1740.38
316.001	1683.38
316.23	1801.38
316.46	1815.38
316.689	1786.38
316.919	1691.38
317.148	1575.38
317.377	1645.38
317.607	1770.38
317.836	2013.38
318.065	2057.38
318.295	1997.38
318.524	1904.38
318.753	1835.38
318.983	1817.38
319.212	1757.38
319.441	1732.38
319.67	1676.38
319.9	1730.38
320.129	1823.38
320.358	1904.38
320.587	1964.38
320.816	1961.38
321.046	1921.38
321.275	1779.38
321.504	1823.38
321.733	1999.38
321.962	1929.38
322.191	1740.38
322.42	1723.38
322.649	1701.38
322.878	1720.38
323.108	1731.38
323.337	1818.38
323.566	1826.38
323.795	1767.38
324.024	1795.38
324.253	1755.38
324.482	1787.38
324.71	1710.38
324.939	1595.38
325.168	1629.38
325.397	1778.38
325.626	1762.38
325.855	1796.38
326.084	1749.38
326.313	1751.38
326.542	1729.38
326.77	1805.38
326.999	1843.38
327.228	1743.38
327.457	1663.38
327.686	1630.38
327.914	1687.38
328.143	1704.38
328.372	1725.38
328.6	1697.38
328.829	1739.38
329.058	1676.38
329.287	1703.38
329.515	1740.38
329.744	1747.38
329.972	1853.38
330.201	1923.38
330.43	1891.38
330.658	1823.38
330.887	1795.38
331.115	1808.38
331.344	1868.38
331.572	1817.38
331.801	1782.38
332.03	1844.38
332.258	1810.38
332.486	1859.38
332.715	1854.38
332.943	1866.38
333.172	1767.38
333.4	1859.38
333.629	1908.38
333.857	2019.38
334.085	2201.38
334.314	2448.38
334.542	2766.38
334.771	2513.38
334.999	2228.38
335.227	2067.38
335.455	1977.38
335.684	1941.38
335.912	1995.38
336.14	2103.38
336.369	2012.38
336.597	1890.38
336.825	1843.38
337.053	1937.38
337.281	2000.38
337.51	2141.38
337.738	2199.38
337.966	2124.38
338.194	1915.38
338.422	1850.38
338.65	1837.38
338.878	1809.38
339.106	1766.38
339.334	1699.38
339.562	1715.38
339.79	1745.38
340.018	1874.38
340.246	1934.38
340.474	1992.38
340.702	1897.38
340.93	1906.38
341.158	1865.38
341.386	1861.38
341.614	1830.38
341.842	1779.38
342.07	1797.38
342.298	1826.38
342.526	1805.38
342.754	1821.38
342.981	1811.38
343.209	1737.38
343.437	1759.38
343.665	1802.38
343.893	1832.38
344.12	1933.38
344.348	1979.38
344.576	1870.38
344.804	1820.38
345.031	1795.38
345.259	1825.38
345.487	1752.38
345.714	1664.38
345.942	1649.38
346.17	1661.38
346.397	1719.38
346.625	1732.38
346.853	1618.38
347.08	1604.38
347.308	1644.38
347.535	1639.38
347.763	1762.38
347.99	1730.38
348.218	1599.38
348.445	1635.38
348.673	1678.38
348.9	1689.38
349.128	1724.38
349.355	1804.38
349.583	1761.38
349.81	1695.38
350.037	1568.38
350.265	1546.38
350.492	1585.38
350.72	1595.38
350.947	1663.38
351.174	1759.38
351.402	1671.38
351.629	1584.38
351.856	1550.38
352.083	1524.38
352.311	1561.38
352.538	1603.38
352.765	1658.38
352.992	1719.38
353.22	1689.38
353.447	1599.38
353.674	1629.38
353.901	1673.38
354.128	1658.38
354.355	1619.38
354.583	1683.38
354.81	1756.38
355.037	1743.38
355.264	1736.38
355.491	1688.38
355.718	1717.38
355.945	1676.38
356.172	1633.38
356.399	1604.38
356.626	1607.38
356.853	1623.38
357.08	1785.38
357.307	1959.38
357.534	2042.38
357.761	1761.38
357.988	1623.38
358.215	1581.38
358.441	1610.38
358.668	1564.38
358.895	1585.38
359.122	1673.38
359.349	1900.38
359.576	1873.38
359.802	1692.38
360.029	1623.38
360.256	1606.38
360.483	1594.38
360.709	1638.38
360.936	1711.38
361.163	1750.38
361.39	1919.38
361.616	2116.38
361.843	2032.38
362.07	1951.38
362.296	1695.38
362.523	1640.38
362.749	1632.38
362.976	1659.38
363.203	1708.38
363.429	1671.38
363.656	1629.38
363.882	1629.38
364.109	1857.38
364.335	2041.38
364.562	1869.38
364.788	1756.38
365.015	1710.38
365.241	1609.38
365.468	1685.38
365.694	1742.38
365.92	1802.38
366.147	1751.38
366.373	1638.38
366.599	1580.38
366.826	1572.38
367.052	1609.38
367.278	1632.38
367.505	1666.38
367.731	1691.38
367.957	1661.38
368.184	1762.38
368.41	1821.38
368.636	1830.38
368.862	1844.38
369.089	1889.38
369.315	1835.38
369.541	1737.38
369.767	1693.38
369.993	1635.38
370.219	1652.38
370.445	1692.38
370.672	1771.38
370.898	1797.38
371.124	1867.38
371.35	1720.38
371.576	1726.38
371.802	1852.38
372.028	1803.38
372.254	1678.38
372.48	1682.38
372.706	1657.38
372.932	1638.38
373.158	1667.38
373.384	1689.38
373.61	1703.38
373.835	1873.38
374.061	1745.38
374.287	1723.38
374.513	1734.38
374.739	1725.38
374.965	1763.38
375.191	1771.38
375.416	1787.38
375.642	1787.38
375.868	1882.38
376.094	1963.38
376.319	1834.38
376.545	1717.38
376.771	1719.38
376.997	1872.38
377.222	1839.38
377.448	1803.38
377.674	1817.38
377.899	1788.38
378.125	1903.38
378.35	1919.38
378.576	1734.38
378.802	1649.38
379.027	1660.38
379.253	1692.38
379.478	1687.38
379.704	1713.38
379.929	1724.38
380.155	1685.38
380.38	1787.38
380.606	1742.38
380.831	1745.38
381.057	1828.38
381.282	1873.38
381.507	1813.38
381.733	1874.38
381.958	2007.38
382.184	1840.38
382.409	1787.38
382.634	1829.38
382.86	1791.38
383.085	1776.38
383.31	1839.38
383.535	1964.38
383.761	2071.38
383.986	2026.38
384.211	1942.38
384.436	1919.38
384.662	2042.38
384.887	2073.38
385.112	1992.38
385.337	2017.38
385.562	1998.38
385.787	1927.38
386.013	2038.38
386.238	2004.38
386.463	2002.38
386.688	2088.38
386.913	2196.38
387.138	2207.38
387.363	2033.38
387.588	2060.38
387.813	2026.38
388.038	2055.38
388.263	2092.38
388.488	2032.38
388.713	1911.38
388.938	1877.38
389.163	1887.38
389.387	1935.38
389.612	1958.38
389.837	2042.38
390.062	1987.38
390.287	2009.38
390.512	1943.38
390.736	1921.38
390.961	1884.38
391.186	1889.38
391.411	1907.38
391.636	1928.38
391.86	1965.38
392.085	1934.38
392.31	1932.38
392.534	1940.38
392.759	2013.38
392.984	1981.38
393.208	2047.38
393.433	2099.38
393.658	2143.38
393.882	2162.38
394.107	2031.38
394.331	1945.38
394.556	1952.38
394.78	1996.38
395.005	2091.38
395.229	2112.38
395.454	2261.38
395.678	2311.38
395.903	2161.38
396.127	2090.38
396.352	2133.38
396.576	2163.38
396.801	2200.38
397.025	2172.38
397.249	2224.38
397.474	2136.38
397.698	2097.38
397.922	2156.38
398.147	2275.38
398.371	2327.38
398.595	2368.38
398.82	2291.38
399.044	2278.38
399.268	2389.38
399.492	2535.38
399.717	2615.38
399.941	2653.38
400.165	2595.38
400.389	2557.38
400.613	2501.38
400.837	2686.38
401.062	3121.38
401.286	2731.38
401.51	2462.38
401.734	2574.38
401.958	2492.38
402.182	2287.38
402.406	2245.38
402.63	2216.38
402.854	2201.38
403.078	2301.38
403.302	2356.38
403.526	2380.38
403.75	2360.38
403.974	2399.38
404.198	2314.38
404.422	2375.38
404.645	2553.38
404.869	2516.38
405.093	2295.38
405.317	2291.38
405.541	2357.38
405.765	2390.38
405.988	2345.38
406.212	2405.38
406.436	2452.38
406.66	2518.38
406.883	2489.38
407.107	2815.38
407.331	3000.38
407.555	3263.38
407.778	3050.38
408.002	2525.38
408.226	2421.38
408.449	2484.38
408.673	2372.38
408.896	2373.38
409.12	2420.38
409.344	2393.38
409.567	2311.38
409.791	2410.38
410.014	2372.38
410.238	2490.38
410.461	2641.38
410.685	2382.38
410.908	2261.38
411.132	2327.38
411.355	2304.38
411.578	2238.38
411.802	2261.38
412.025	2327.38
412.249	2307.38
412.472	2239.38
412.695	2231.38
412.919	2234.38
413.142	2208.38
413.365	2233.38
413.589	2315.38
413.812	2379.38
414.035	2476.38
414.258	2251.38
414.482	2256.38
414.705	2258.38
414.928	2256.38
415.151	2223.38
415.374	2230.38
415.597	2274.38
415.821	2321.38
416.044	2355.38
416.267	2417.38
416.49	2189.38
416.713	2154.38
416.936	2199.38
417.159	2331.38
417.382	2363.38
417.605	2209.38
417.828	2259.38
418.051	2312.38
418.274	2263.38
418.497	2134.38
418.72	2126.38
418.943	2149.38
419.166	2327.38
419.389	2421.38
419.611	2278.38
419.834	2179.38
420.057	2233.38
420.28	2172.38
420.503	2155.38
420.726	2254.38
420.948	2195.38
421.171	2125.38
421.394	2170.38
421.617	2243.38
421.839	2202.38
422.062	2179.38
422.285	2146.38
422.507	2143.38
422.73	2113.38
422.953	2069.38
423.175	2063.38
423.398	2140.38
423.621	2109.38
423.843	2189.38
424.066	2230.38
424.288	2240.38
424.511	2314.38
424.733	2239.38
424.956	2087.38
425.178	2023.38
425.401	2074.38
425.623	2118.38
425.846	2075.38
426.068	2191.38
426.291	2278.38
426.513	2176.38
426.735	2192.38
426.958	2343.38
427.18	2493.38
427.402	2271.38
427.625	2355.38
427.847	2373.38
428.069	2152.38
428.292	2118.38
428.514	2085.38
428.736	2046.38
428.958	2080.38
429.181	2071.38
429.403	2348.38
429.625	2927.38
429.847	2560.38
430.069	2133.38
430.292	2305.38
430.514	2474.38
430.736	2265.38
430.958	2389.38
431.18	2260.38
431.402	2100.38
431.624	2039.38
431.846	2060.38
432.068	2035.38
432.29	2067.38
432.512	2119.38
432.734	2139.38
432.956	2154.38
433.178	2290.38
433.4	2249.38
433.622	2284.38
433.844	2147.38
434.066	2086.38
434.287	2054.38
434.509	2146.38
434.731	2247.38
434.953	2371.38
435.175	2355.38
435.397	2187.38
435.618	2216.38
435.84	2193.38
436.062	2161.38
436.284	2169.38
436.505	2214.38
436.727	2253.38
436.949	2166.38
437.17	2098.38
437.392	2150.38
437.614	2095.38
437.835	2059.38
438.057	2242.38
438.278	2332.38
438.5	2150.38
438.721	2071.38
438.943	2097.38
439.165	2099.38
439.386	2071.38
439.608	2100.38
439.829	2107.38
440.05	2103.38
440.272	2025.38
440.493	2053.38
440.715	2082.38
440.936	2179.38
441.158	2437.38
441.379	2398.38
441.6	2298.38
441.822	2258.38
442.043	2246.38
442.264	2194.38
442.486	2051.38
442.707	2052.38
442.928	2039.38
443.149	2131.38
443.371	2269.38
443.592	2352.38
443.813	2346.38
444.034	2304.38
444.255	2330.38
444.476	2340.38
444.698	2392.38
444.919	2336.38
445.14	2462.38
445.361	2429.38
445.582	2477.38
445.803	2425.38
446.024	2325.38
446.245	2411.38
446.466	2268.38
446.687	2172.38
446.908	2150.38
447.129	2145.38
447.35	2228.38
447.571	2155.38
447.792	2087.38
448.013	2005.38
448.234	2088.38
448.455	2171.38
448.675	2180.38
448.896	2029.38
449.117	1980.38
449.338	2033.38
449.559	2156.38
449.779	2238.38
450	2487.38
450.221	2680.38
450.442	2565.38
450.662	2223.38
450.883	2016.38
451.104	1960.38
451.324	1969.38
451.545	2075.38
451.766	2046.38
451.986	1955.38
452.207	1891.38
452.428	1859.38
452.648	1847.38
452.869	1919.38
453.089	2038.38
453.31	2048.38
453.53	2124.38
453.751	2023.38
453.971	1917.38
454.192	1967.38
454.412	2123.38
454.633	1962.38
454.853	1909.38
455.073	1847.38
455.294	1809.38
455.514	1826.38
455.734	1835.38
455.955	1886.38
456.175	1861.38
456.395	1871.38
456.616	1935.38
456.836	1996.38
457.056	1895.38
457.276	1906.38
457.497	1853.38
457.717	1738.38
457.937	1783.38
458.157	1891.38
458.377	1896.38
458.598	1850.38
458.818	1859.38
459.038	2005.38
459.258	2058.38
459.478	2137.38
459.698	2036.38
459.918	2102.38
460.138	2226.38
460.358	2224.38
460.578	2285.38
460.798	2374.38
461.018	2418.38
461.238	2351.38
461.458	2199.38
461.678	2266.38
461.898	2205.38
462.118	2125.38
462.338	2242.38
462.558	2244.38
462.777	2229.38
462.997	2356.38
463.217	2481.38
463.437	2431.38
463.657	2299.38
463.876	2238.38
464.096	2243.38
464.316	2216.38
464.536	2315.38
464.755	2347.38
464.975	2405.38
465.195	2263.38
465.414	2409.38
465.634	2411.38
465.854	2231.38
466.073	2385.38
466.293	2389.38
466.512	2027.38
466.732	2050.38
466.951	2168.38
467.171	2156.38
467.391	2047.38
467.61	1962.38
467.829	1995.38
468.049	2151.38
468.268	2417.38
468.488	2293.38
468.707	2172.38
468.927	2078.38
469.146	2065.38
469.365	2003.38
469.585	2061.38
469.804	2018.38
470.023	1974.38
470.243	2048.38
470.462	2091.38
470.681	1979.38
470.901	2041.38
471.12	2056.38
471.339	2013.38
471.558	1964.38
471.777	1979.38
471.997	1995.38
472.216	2018.38
472.435	1963.38
472.654	1957.38
472.873	2058.38
473.092	2203.38
473.311	2105.38
473.53	1950.38
473.749	1956.38
473.968	2026.38
474.187	2112.38
474.406	2271.38
474.625	2116.38
474.844	2060.38
475.063	2065.38
475.282	2131.38
475.501	2044.38
475.72	2039.38
475.939	2219.38
476.158	2146.38
476.377	2099.38
476.596	2090.38
476.814	2125.38
477.033	2135.38
477.252	2244.38
477.471	2287.38
477.69	2134.38
477.908	2183.38
478.127	2282.38
478.346	2470.38
478.564	2476.38
478.783	2436.38
479.002	2533.38
479.22	2439.38
479.439	2557.38
479.658	2863.38
479.876	2876.38
480.095	2453.38
480.313	2360.38
480.532	2227.38
480.751	2283.38
480.969	2343.38
481.188	2323.38
481.406	2270.38
481.624	2199.38
481.843	2259.38
482.061	2331.38
482.28	2328.38
482.498	2385.38
482.717	2368.38
482.935	2220.38
483.153	2238.38
483.372	2294.38
483.59	2212.38
483.808	2292.38
484.027	2313.38
484.245	2499.38
484.463	2853.38
484.681	3302.38
484.9	2532.38
485.118	2336.38
485.336	2291.38
485.554	2407.38
485.772	2464.38
485.99	2446.38
486.209	2516.38
486.427	2463.38
486.645	2475.38
486.863	2377.38
487.081	2523.38
487.299	2572.38
487.517	2435.38
