Data from WStandard_LampEnergy10_LIBS07252019.E.O._I.C._HRD10591_15-54-02-928.txt Node
Date: Thu Jul 25 15:54:02 EDT 2019
User: cochatt
Spectrometer: HR+D1059
Trigger mode: 1
Integration Time (sec): 1.000000E-1
Scans to average: 1
Electric dark correction enabled: true
Nonlinearity correction enabled: false
Boxcar width: 0
XAxis mode: Wavelengths
Number of Pixels in Spectrum: 2048
>>>>>Begin Spectral Data<<<<<
223.165	-10.75
223.4	-10.75
223.635	-10.75
223.869	-21.75
224.104	-24.75
224.338	-8.75
224.573	-28.75
224.808	-14.75
225.042	-11.75
225.277	-4.75
225.511	-1.75
225.746	5.25
225.98	17.25
226.215	10.25
226.449	15.25
226.683	24.25
226.918	30.25
227.152	25.25
227.387	30.25
227.621	48.25
227.856	44.25
228.09	49.25
228.324	44.25
228.559	50.25
228.793	90.25
229.027	144.25
229.262	150.25
229.496	140.25
229.73	156.25
229.964	152.25
230.199	194.25
230.433	179.25
230.667	163.25
230.901	202.25
231.136	171.25
231.37	169.25
231.604	165.25
231.838	185.25
232.072	188.25
232.306	184.25
232.541	191.25
232.775	186.25
233.009	210.25
233.243	203.25
233.477	181.25
233.711	215.25
233.945	200.25
234.179	197.25
234.413	210.25
234.647	213.25
234.881	200.25
235.115	192.25
235.349	188.25
235.583	192.25
235.817	208.25
236.051	185.25
236.285	208.25
236.519	208.25
236.753	229.25
236.987	209.25
237.221	224.25
237.455	240.25
237.689	229.25
237.922	200.25
238.156	225.25
238.39	229.25
238.624	218.25
238.858	249.25
239.091	233.25
239.325	282.25
239.559	282.25
239.793	296.25
240.027	317.25
240.26	292.25
240.494	254.25
240.728	226.25
240.961	227.25
241.195	249.25
241.429	256.25
241.662	250.25
241.896	234.25
242.13	238.25
242.363	269.25
242.597	271.25
242.83	283.25
243.064	285.25
243.298	299.25
243.531	286.25
243.765	287.25
243.998	273.25
244.232	240.25
244.465	242.25
244.699	246.25
244.932	266.25
245.166	311.25
245.399	282.25
245.633	291.25
245.866	290.25
246.099	299.25
246.333	294.25
246.566	311.25
246.8	311.25
247.033	344.25
247.266	314.25
247.5	323.25
247.733	327.25
247.966	332.25
248.2	386.25
248.433	353.25
248.666	372.25
248.899	390.25
249.133	432.25
249.366	461.25
249.599	406.25
249.832	353.25
250.066	372.25
250.299	369.25
250.532	337.25
250.765	322.25
250.998	329.25
251.231	337.25
251.465	369.25
251.698	340.25
251.931	346.25
252.164	356.25
252.397	375.25
252.63	334.25
252.863	310.25
253.096	322.25
253.329	342.25
253.562	340.25
253.795	379.25
254.028	378.25
254.261	335.25
254.494	336.25
254.727	339.25
254.96	343.25
255.193	361.25
255.426	401.25
255.659	435.25
255.892	455.25
256.124	402.25
256.357	390.25
256.59	409.25
256.823	393.25
257.056	397.25
257.289	475.25
257.521	516.25
257.754	473.25
257.987	450.25
258.22	475.25
258.452	442.25
258.685	396.25
258.918	397.25
259.151	393.25
259.383	388.25
259.616	335.25
259.849	359.25
260.081	404.25
260.314	436.25
260.547	460.25
260.779	465.25
261.012	436.25
261.244	398.25
261.477	391.25
261.71	403.25
261.942	401.25
262.175	382.25
262.407	411.25
262.64	386.25
262.872	358.25
263.105	358.25
263.337	347.25
263.57	399.25
263.802	370.25
264.035	359.25
264.267	360.25
264.499	345.25
264.732	366.25
264.964	396.25
265.197	409.25
265.429	425.25
265.661	465.25
265.894	509.25
266.126	490.25
266.358	469.25
266.591	473.25
266.823	490.25
267.055	469.25
267.287	442.25
267.52	452.25
267.752	450.25
267.984	441.25
268.216	460.25
268.448	457.25
268.681	439.25
268.913	418.25
269.145	402.25
269.377	394.25
269.609	439.25
269.841	512.25
270.073	606.25
270.306	635.25
270.538	625.25
270.77	547.25
271.002	478.25
271.234	470.25
271.466	499.25
271.698	527.25
271.93	594.25
272.162	589.25
272.394	536.25
272.626	504.25
272.858	451.25
273.09	424.25
273.322	404.25
273.553	386.25
273.785	395.25
274.017	418.25
274.249	434.25
274.481	440.25
274.713	416.25
274.945	410.25
275.176	417.25
275.408	395.25
275.64	395.25
275.872	417.25
276.104	456.25
276.335	493.25
276.567	514.25
276.799	517.25
277.031	470.25
277.262	470.25
277.494	490.25
277.726	515.25
277.957	515.25
278.189	454.25
278.421	426.25
278.652	448.25
278.884	430.25
279.115	431.25
279.347	460.25
279.579	426.25
279.81	454.25
280.042	468.25
280.273	498.25
280.505	508.25
280.736	506.25
280.968	470.25
281.199	426.25
281.431	405.25
281.662	425.25
281.894	418.25
282.125	450.25
282.356	464.25
282.588	462.25
282.819	468.25
283.051	512.25
283.282	494.25
283.513	472.25
283.745	472.25
283.976	425.25
284.207	432.25
284.439	443.25
284.67	459.25
284.901	442.25
285.132	467.25
285.364	457.25
285.595	450.25
285.826	457.25
286.057	451.25
286.288	455.25
286.52	489.25
286.751	509.25
286.982	518.25
287.213	472.25
287.444	446.25
287.675	446.25
287.906	490.25
288.138	484.25
288.369	487.25
288.6	430.25
288.831	430.25
289.062	465.25
289.293	458.25
289.524	456.25
289.755	464.25
289.986	458.25
290.217	440.25
290.448	434.25
290.679	450.25
290.91	455.25
291.141	477.25
291.371	501.25
291.602	498.25
291.833	479.25
292.064	485.25
292.295	502.25
292.526	503.25
292.757	499.25
292.987	485.25
293.218	466.25
293.449	508.25
293.68	568.25
293.91	594.25
294.141	544.25
294.372	530.25
294.603	564.25
294.833	568.25
295.064	540.25
295.295	495.25
295.525	485.25
295.756	454.25
295.987	433.25
296.217	457.25
296.448	467.25
296.679	464.25
296.909	470.25
297.14	459.25
297.37	476.25
297.601	500.25
297.831	520.25
298.062	515.25
298.292	481.25
298.523	461.25
298.753	474.25
298.984	481.25
299.214	504.25
299.445	494.25
299.675	487.25
299.905	499.25
300.136	482.25
300.366	467.25
300.597	469.25
300.827	484.25
301.057	482.25
301.288	500.25
301.518	502.25
301.748	537.25
301.979	545.25
302.209	569.25
302.439	579.25
302.669	581.25
302.9	556.25
303.13	508.25
303.36	482.25
303.59	510.25
303.82	522.25
304.051	508.25
304.281	522.25
304.511	558.25
304.741	587.25
304.971	615.25
305.201	613.25
305.431	560.25
305.661	484.25
305.891	459.25
306.121	481.25
306.352	496.25
306.582	531.25
306.812	542.25
307.042	563.25
307.272	578.25
307.502	592.25
307.731	623.25
307.961	645.25
308.191	580.25
308.421	512.25
308.651	512.25
308.881	495.25
309.111	509.25
309.341	493.25
309.571	484.25
309.8	506.25
310.03	510.25
310.26	497.25
310.49	517.25
310.72	519.25
310.949	523.25
311.179	536.25
311.409	514.25
311.639	507.25
311.868	510.25
312.098	518.25
312.328	500.25
312.557	475.25
312.787	524.25
313.017	521.25
313.246	534.25
313.476	535.25
313.706	507.25
313.935	524.25
314.165	506.25
314.394	565.25
314.624	579.25
314.853	607.25
315.083	626.25
315.312	612.25
315.542	586.25
315.771	550.25
316.001	582.25
316.23	590.25
316.46	578.25
316.689	562.25
316.919	534.25
317.148	502.25
317.377	550.25
317.607	601.25
317.836	640.25
318.065	645.25
318.295	599.25
318.524	606.25
318.753	567.25
318.983	566.25
319.212	549.25
319.441	563.25
319.67	562.25
319.9	560.25
320.129	599.25
320.358	626.25
320.587	611.25
320.816	607.25
321.046	600.25
321.275	575.25
321.504	589.25
321.733	604.25
321.962	610.25
322.191	551.25
322.42	574.25
322.649	544.25
322.878	553.25
323.108	547.25
323.337	579.25
323.566	607.25
323.795	584.25
324.024	576.25
324.253	569.25
324.482	552.25
324.71	562.25
324.939	537.25
325.168	561.25
325.397	553.25
325.626	567.25
325.855	579.25
326.084	581.25
326.313	574.25
326.542	570.25
326.77	586.25
326.999	561.25
327.228	559.25
327.457	531.25
327.686	540.25
327.914	550.25
328.143	566.25
328.372	562.25
328.6	559.25
328.829	562.25
329.058	547.25
329.287	529.25
329.515	574.25
329.744	586.25
329.972	628.25
330.201	624.25
330.43	598.25
330.658	599.25
330.887	591.25
331.115	623.25
331.344	604.25
331.572	594.25
331.801	575.25
332.03	583.25
332.258	594.25
332.486	607.25
332.715	615.25
332.943	575.25
333.172	595.25
333.4	603.25
333.629	628.25
333.857	672.25
334.085	721.25
334.314	806.25
334.542	836.25
334.771	771.25
334.999	679.25
335.227	658.25
335.455	651.25
335.684	638.25
335.912	632.25
336.14	634.25
336.369	624.25
336.597	606.25
336.825	617.25
337.053	664.25
337.281	669.25
337.51	704.25
337.738	688.25
337.966	653.25
338.194	615.25
338.422	597.25
338.65	604.25
338.878	597.25
339.106	580.25
339.334	566.25
339.562	574.25
339.79	596.25
340.018	635.25
340.246	633.25
340.474	622.25
340.702	626.25
340.93	616.25
341.158	630.25
341.386	619.25
341.614	606.25
341.842	597.25
342.07	593.25
342.298	593.25
342.526	600.25
342.754	606.25
342.981	589.25
343.209	596.25
343.437	581.25
343.665	602.25
343.893	603.25
344.12	641.25
344.348	636.25
344.576	608.25
344.804	599.25
345.031	596.25
345.259	589.25
345.487	598.25
345.714	565.25
345.942	546.25
346.17	582.25
346.397	575.25
346.625	569.25
346.853	529.25
347.08	546.25
347.308	536.25
347.535	584.25
347.763	603.25
347.99	578.25
348.218	566.25
348.445	577.25
348.673	563.25
348.9	583.25
349.128	609.25
349.355	614.25
349.583	589.25
349.81	557.25
350.037	538.25
350.265	535.25
350.492	551.25
350.72	591.25
350.947	574.25
351.174	575.25
351.402	532.25
351.629	544.25
351.856	527.25
352.083	535.25
352.311	536.25
352.538	572.25
352.765	572.25
352.992	574.25
353.22	573.25
353.447	552.25
353.674	553.25
353.901	562.25
354.128	560.25
354.355	550.25
354.583	593.25
354.81	595.25
355.037	580.25
355.264	576.25
355.491	579.25
355.718	594.25
355.945	591.25
356.172	556.25
356.399	560.25
356.626	523.25
356.853	586.25
357.08	649.25
357.307	678.25
357.534	636.25
357.761	576.25
357.988	544.25
358.215	532.25
358.441	534.25
358.668	531.25
358.895	544.25
359.122	571.25
359.349	650.25
359.576	632.25
359.802	591.25
360.029	548.25
360.256	539.25
360.483	553.25
360.709	589.25
360.936	599.25
361.163	627.25
361.39	673.25
361.616	725.25
361.843	717.25
362.07	628.25
362.296	571.25
362.523	564.25
362.749	564.25
362.976	584.25
363.203	600.25
363.429	582.25
363.656	564.25
363.882	611.25
364.109	654.25
364.335	658.25
364.562	602.25
364.788	602.25
365.015	574.25
365.241	572.25
365.468	576.25
365.694	601.25
365.92	625.25
366.147	587.25
366.373	562.25
366.599	564.25
366.826	560.25
367.052	550.25
367.278	575.25
367.505	590.25
367.731	609.25
367.957	618.25
368.184	628.25
368.41	653.25
368.636	676.25
368.862	682.25
369.089	640.25
369.315	654.25
369.541	613.25
369.767	590.25
369.993	611.25
370.219	593.25
370.445	602.25
370.672	653.25
370.898	680.25
371.124	664.25
371.35	617.25
371.576	642.25
371.802	687.25
372.028	632.25
372.254	615.25
372.48	578.25
372.706	608.25
372.932	603.25
373.158	612.25
373.384	638.25
373.61	659.25
373.835	651.25
374.061	639.25
374.287	640.25
374.513	627.25
374.739	624.25
374.965	649.25
375.191	660.25
375.416	640.25
375.642	679.25
375.868	706.25
376.094	723.25
376.319	674.25
376.545	644.25
376.771	663.25
376.997	711.25
377.222	678.25
377.448	662.25
377.674	688.25
377.899	693.25
378.125	732.25
378.35	703.25
378.576	617.25
378.802	618.25
379.027	626.25
379.253	632.25
379.478	642.25
379.704	664.25
379.929	632.25
380.155	652.25
380.38	649.25
380.606	655.25
380.831	688.25
381.057	720.25
381.282	718.25
381.507	693.25
381.733	736.25
381.958	739.25
382.184	682.25
382.409	671.25
382.634	686.25
382.86	723.25
383.085	691.25
383.31	702.25
383.535	787.25
383.761	791.25
383.986	744.25
384.211	732.25
384.436	737.25
384.662	766.25
384.887	772.25
385.112	724.25
385.337	727.25
385.562	717.25
385.787	739.25
386.013	754.25
386.238	778.25
386.463	771.25
386.688	818.25
386.913	831.25
387.138	811.25
387.363	780.25
387.588	767.25
387.813	752.25
388.038	777.25
388.263	792.25
388.488	752.25
388.713	697.25
388.938	737.25
389.163	731.25
389.387	750.25
389.612	748.25
389.837	771.25
390.062	760.25
390.287	753.25
390.512	745.25
390.736	759.25
390.961	736.25
391.186	715.25
391.411	728.25
391.636	727.25
391.86	739.25
392.085	741.25
392.31	748.25
392.534	760.25
392.759	756.25
392.984	767.25
393.208	754.25
393.433	798.25
393.658	803.25
393.882	815.25
394.107	785.25
394.331	756.25
394.556	783.25
394.78	777.25
395.005	820.25
395.229	840.25
395.454	889.25
395.678	886.25
395.903	850.25
396.127	821.25
396.352	803.25
396.576	857.25
396.801	864.25
397.025	838.25
397.249	816.25
397.474	835.25
397.698	862.25
397.922	848.25
398.147	909.25
398.371	922.25
398.595	894.25
398.82	870.25
399.044	875.25
399.268	928.25
399.492	961.25
399.717	1010.25
399.941	1000.25
400.165	989.25
400.389	950.25
400.613	968.25
400.837	1125.25
401.062	1189.25
401.286	1024.25
401.51	1001.25
401.734	991.25
401.958	948.25
402.182	906.25
402.406	886.25
402.63	903.25
402.854	878.25
403.078	887.25
403.302	895.25
403.526	956.25
403.75	946.25
403.974	952.25
404.198	944.25
404.422	972.25
404.645	1025.25
404.869	964.25
405.093	904.25
405.317	906.25
405.541	946.25
405.765	939.25
405.988	950.25
406.212	975.25
406.436	972.25
406.66	992.25
406.883	1036.25
407.107	1126.25
407.331	1215.25
407.555	1265.25
407.778	1138.25
408.002	1002.25
408.226	954.25
408.449	968.25
408.673	960.25
408.896	960.25
409.12	962.25
409.344	968.25
409.567	951.25
409.791	950.25
410.014	989.25
410.238	1042.25
410.461	1059.25
410.685	970.25
410.908	933.25
411.132	937.25
411.355	947.25
411.578	945.25
411.802	934.25
412.025	921.25
412.249	933.25
412.472	934.25
412.695	939.25
412.919	906.25
413.142	895.25
413.365	928.25
413.589	946.25
413.812	1007.25
414.035	1018.25
414.258	954.25
414.482	945.25
414.705	915.25
414.928	912.25
415.151	939.25
415.374	947.25
415.597	942.25
415.821	922.25
416.044	946.25
416.267	948.25
416.49	925.25
416.713	901.25
416.936	962.25
417.159	999.25
417.382	963.25
417.605	909.25
417.828	948.25
418.051	966.25
418.274	956.25
418.497	922.25
418.72	913.25
418.943	930.25
419.166	963.25
419.389	983.25
419.611	979.25
419.834	947.25
420.057	960.25
420.28	984.25
420.503	951.25
420.726	966.25
420.948	942.25
421.171	921.25
421.394	936.25
421.617	990.25
421.839	980.25
422.062	968.25
422.285	913.25
422.507	936.25
422.73	923.25
422.953	882.25
423.175	904.25
423.398	931.25
423.621	902.25
423.843	938.25
424.066	987.25
424.288	995.25
424.511	1042.25
424.733	999.25
424.956	906.25
425.178	934.25
425.401	957.25
425.623	947.25
425.846	935.25
426.068	983.25
426.291	958.25
426.513	958.25
426.735	970.25
426.958	1042.25
427.18	1099.25
427.402	1016.25
427.625	1036.25
427.847	984.25
428.069	919.25
428.292	923.25
428.514	919.25
428.736	894.25
428.958	904.25
429.181	953.25
429.403	1072.25
429.625	1215.25
429.847	1068.25
430.069	943.25
430.292	1036.25
430.514	1049.25
430.736	993.25
430.958	987.25
431.18	934.25
431.402	887.25
431.624	833.25
431.846	803.25
432.068	740.25
432.29	749.25
432.512	804.25
432.734	871.25
432.956	938.25
433.178	952.25
433.4	968.25
433.622	939.25
433.844	914.25
434.066	857.25
434.287	822.25
434.509	782.25
434.731	856.25
434.953	921.25
435.175	948.25
435.397	896.25
435.618	919.25
435.84	827.25
436.062	860.25
436.284	899.25
436.505	944.25
436.727	971.25
436.949	909.25
437.17	899.25
437.392	883.25
437.614	845.25
437.835	799.25
438.057	810.25
438.278	850.25
438.5	870.25
438.721	849.25
438.943	910.25
439.165	950.25
439.386	960.25
439.608	960.25
439.829	937.25
440.05	958.25
440.272	991.25
440.493	961.25
440.715	976.25
440.936	1024.25
441.158	1047.25
441.379	1054.25
441.6	1029.25
441.822	1053.25
442.043	1023.25
442.264	969.25
442.486	970.25
442.707	950.25
442.928	953.25
443.149	971.25
443.371	997.25
443.592	1060.25
443.813	1045.25
444.034	1011.25
444.255	1036.25
444.476	1049.25
444.698	1049.25
444.919	1049.25
445.14	1108.25
445.361	1094.25
445.582	1083.25
445.803	1034.25
446.024	1097.25
446.245	1098.25
446.466	1031.25
446.687	1036.25
446.908	1044.25
447.129	1029.25
447.35	1010.25
447.571	1039.25
447.792	959.25
448.013	963.25
448.234	978.25
448.455	998.25
448.675	989.25
448.896	914.25
449.117	927.25
449.338	922.25
449.559	965.25
449.779	975.25
450	1006.25
450.221	1074.25
450.442	1015.25
450.662	948.25
450.883	874.25
451.104	862.25
451.324	884.25
451.545	908.25
451.766	890.25
451.986	860.25
452.207	830.25
452.428	828.25
452.648	814.25
452.869	800.25
453.089	784.25
453.31	774.25
453.53	800.25
453.751	737.25
453.971	707.25
454.192	730.25
454.412	812.25
454.633	786.25
454.853	780.25
455.073	762.25
455.294	760.25
455.514	767.25
455.734	788.25
455.955	763.25
456.175	759.25
456.395	735.25
456.616	741.25
456.836	755.25
457.056	750.25
457.276	736.25
457.497	724.25
457.717	685.25
457.937	733.25
458.157	715.25
458.377	697.25
458.598	696.25
458.818	672.25
459.038	702.25
459.258	714.25
459.478	701.25
459.698	693.25
459.918	738.25
460.138	789.25
460.358	822.25
460.578	837.25
460.798	873.25
461.018	888.25
461.238	854.25
461.458	858.25
461.678	850.25
461.898	834.25
462.118	811.25
462.338	880.25
462.558	842.25
462.777	860.25
462.997	869.25
463.217	912.25
463.437	873.25
463.657	857.25
463.876	880.25
464.096	817.25
464.316	849.25
464.536	855.25
464.755	898.25
464.975	883.25
465.195	846.25
465.414	898.25
465.634	848.25
465.854	889.25
466.073	950.25
466.293	950.25
466.512	866.25
466.732	904.25
466.951	920.25
467.171	888.25
467.391	898.25
467.61	851.25
467.829	932.25
468.049	993.25
468.268	1056.25
468.488	994.25
468.707	946.25
468.927	920.25
469.146	877.25
469.365	892.25
469.585	893.25
469.804	902.25
470.023	926.25
470.243	936.25
470.462	937.25
470.681	928.25
470.901	931.25
471.12	960.25
471.339	964.25
471.558	919.25
471.777	917.25
471.997	904.25
472.216	858.25
472.435	800.25
472.654	739.25
472.873	794.25
473.092	841.25
473.311	841.25
473.53	820.25
473.749	821.25
473.968	862.25
474.187	854.25
474.406	849.25
474.625	845.25
474.844	879.25
475.063	894.25
475.282	874.25
475.501	836.25
475.72	841.25
475.939	924.25
476.158	889.25
476.377	859.25
476.596	852.25
476.814	851.25
477.033	821.25
477.252	855.25
477.471	917.25
477.69	924.25
477.908	953.25
478.127	988.25
478.346	1029.25
478.564	1009.25
478.783	1001.25
479.002	1006.25
479.22	1013.25
479.439	1028.25
479.658	1044.25
479.876	979.25
480.095	898.25
480.313	898.25
480.532	894.25
480.751	873.25
480.969	850.25
481.188	816.25
481.406	770.25
481.624	784.25
481.843	812.25
482.061	831.25
482.28	908.25
482.498	876.25
482.717	843.25
482.935	884.25
483.153	960.25
483.372	1011.25
483.59	1009.25
483.808	976.25
484.027	918.25
484.245	993.25
484.463	1239.25
484.681	1288.25
484.9	1052.25
485.118	996.25
485.336	938.25
485.554	889.25
485.772	886.25
485.99	863.25
486.209	901.25
486.427	918.25
486.645	931.25
486.863	998.25
487.081	1034.25
487.299	1011.25
487.517	1023.25
487.735	1095.25
487.953	1219.25
488.171	1175.25
488.389	1167.25
488.607	1124.25
488.825	1146.25
489.043	1086.25
489.261	1001.25
489.479	1029.25
489.696	1048.25
489.914	1058.25
490.132	1041.25
490.35	1063.25
490.568	1178.25
490.786	1184.25
491.003	1183.25
491.221	1236.25
491.439	1306.25
491.657	1321.25
491.874	1364.25
492.092	1408.25
492.31	1496.25
492.527	1490.25
492.745	1369.25
492.963	1338.25
493.18	1315.25
493.398	1348.25
493.615	1376.25
493.833	1283.25
494.05	1258.25
494.268	1255.25
494.485	1262.25
494.703	1253.25
494.92	1243.25
495.138	1262.25
495.355	1251.25
495.573	1259.25
495.79	1305.25
496.008	1312.25
496.225	1236.25
496.442	1251.25
496.66	1240.25
496.877	1236.25
497.094	1235.25
497.312	1224.25
497.529	1209.25
497.746	1217.25
497.963	1249.25
498.181	1304.25
498.398	1277.25
498.615	1218.25
498.832	1146.25
499.049	1163.25
499.267	1180.25
499.484	1258.25
499.701	1370.25
499.918	1407.25
500.135	1447.25
500.352	1573.25
