Data from WStandard_LampEnergy8_LIBS07252019.E.O._I.C._HRD10591_16-00-08-929.txt Node
Date: Thu Jul 25 16:00:08 EDT 2019
User: cochatt
Spectrometer: HR+D1059
Trigger mode: 1
Integration Time (sec): 1.000000E-1
Scans to average: 1
Electric dark correction enabled: true
Nonlinearity correction enabled: false
Boxcar width: 0
XAxis mode: Wavelengths
Number of Pixels in Spectrum: 2048
>>>>>Begin Spectral Data<<<<<
223.165	-16.12
223.4	-16.12
223.635	-16.12
223.869	-21.12
224.104	-15.12
224.338	-19.12
224.573	-13.12
224.808	-6.12
225.042	-10.12
225.277	-13.12
225.511	-1.12
225.746	6.88
225.98	2.88
226.215	10.88
226.449	21.88
226.683	23.88
226.918	19.88
227.152	28.88
227.387	42.88
227.621	28.88
227.856	41.88
228.09	52.88
228.324	56.88
228.559	52.88
228.793	95.88
229.027	195.88
229.262	202.88
229.496	225.88
229.73	227.88
229.964	251.88
230.199	256.88
230.433	257.88
230.667	267.88
230.901	287.88
231.136	272.88
231.37	259.88
231.604	255.88
231.838	262.88
232.072	270.88
232.306	267.88
232.541	262.88
232.775	292.88
233.009	309.88
233.243	316.88
233.477	295.88
233.711	310.88
233.945	319.88
234.179	296.88
234.413	314.88
234.647	328.88
234.881	310.88
235.115	308.88
235.349	295.88
235.583	323.88
235.817	282.88
236.051	315.88
236.285	321.88
236.519	311.88
236.753	350.88
236.987	360.88
237.221	368.88
237.455	370.88
237.689	362.88
237.922	341.88
238.156	348.88
238.39	363.88
238.624	367.88
238.858	400.88
239.091	410.88
239.325	425.88
239.559	466.88
239.793	503.88
240.027	508.88
240.26	511.88
240.494	383.88
240.728	376.88
240.961	381.88
241.195	391.88
241.429	439.88
241.662	426.88
241.896	393.88
242.13	411.88
242.363	435.88
242.597	458.88
242.83	444.88
243.064	458.88
243.298	479.88
243.531	471.88
243.765	459.88
243.998	461.88
244.232	421.88
244.465	409.88
244.699	409.88
244.932	451.88
245.166	501.88
245.399	480.88
245.633	439.88
245.866	456.88
246.099	476.88
246.333	494.88
246.566	491.88
246.8	534.88
247.033	589.88
247.266	516.88
247.5	526.88
247.733	517.88
247.966	580.88
248.2	600.88
248.433	592.88
248.666	616.88
248.899	666.88
249.133	759.88
249.366	794.88
249.599	658.88
249.832	604.88
250.066	605.88
250.299	623.88
250.532	597.88
250.765	536.88
250.998	582.88
251.231	600.88
251.465	582.88
251.698	566.88
251.931	573.88
252.164	594.88
252.397	609.88
252.63	603.88
252.863	548.88
253.096	551.88
253.329	561.88
253.562	567.88
253.795	629.88
254.028	603.88
254.261	581.88
254.494	557.88
254.727	556.88
254.96	580.88
255.193	643.88
255.426	705.88
255.659	780.88
255.892	783.88
256.124	681.88
256.357	654.88
256.59	683.88
256.823	680.88
257.056	715.88
257.289	823.88
257.521	876.88
257.754	819.88
257.987	759.88
258.22	838.88
258.452	814.88
258.685	678.88
258.918	651.88
259.151	680.88
259.383	634.88
259.616	587.88
259.849	599.88
260.081	702.88
260.314	791.88
260.547	821.88
260.779	827.88
261.012	752.88
261.244	682.88
261.477	671.88
261.71	693.88
261.942	708.88
262.175	693.88
262.407	688.88
262.64	682.88
262.872	631.88
263.105	610.88
263.337	602.88
263.57	653.88
263.802	638.88
264.035	611.88
264.267	557.88
264.499	566.88
264.732	611.88
264.964	652.88
265.197	649.88
265.429	682.88
265.661	795.88
265.894	852.88
266.126	855.88
266.358	789.88
266.591	809.88
266.823	837.88
267.055	796.88
267.287	795.88
267.52	742.88
267.752	743.88
267.984	771.88
268.216	798.88
268.448	812.88
268.681	781.88
268.913	724.88
269.145	675.88
269.377	670.88
269.609	742.88
269.841	854.88
270.073	994.88
270.306	1081.88
270.538	1133.88
270.77	918.88
271.002	827.88
271.234	797.88
271.466	835.88
271.698	911.88
271.93	1063.88
272.162	1043.88
272.394	943.88
272.626	905.88
272.858	783.88
273.09	682.88
273.322	684.88
273.553	681.88
273.785	682.88
274.017	724.88
274.249	760.88
274.481	744.88
274.713	711.88
274.945	696.88
275.176	679.88
275.408	685.88
275.64	671.88
275.872	682.88
276.104	730.88
276.335	827.88
276.567	929.88
276.799	901.88
277.031	851.88
277.262	821.88
277.494	833.88
277.726	896.88
277.957	877.88
278.189	800.88
278.421	769.88
278.652	730.88
278.884	709.88
279.115	714.88
279.347	726.88
279.579	755.88
279.81	746.88
280.042	815.88
280.273	885.88
280.505	871.88
280.736	871.88
280.968	819.88
281.199	716.88
281.431	732.88
281.662	727.88
281.894	732.88
282.125	725.88
282.356	764.88
282.588	759.88
282.819	777.88
283.051	847.88
283.282	879.88
283.513	841.88
283.745	736.88
283.976	712.88
284.207	703.88
284.439	764.88
284.67	758.88
284.901	757.88
285.132	772.88
285.364	777.88
285.595	795.88
285.826	747.88
286.057	736.88
286.288	761.88
286.52	785.88
286.751	836.88
286.982	856.88
287.213	793.88
287.444	737.88
287.675	727.88
287.906	776.88
288.138	833.88
288.369	783.88
288.6	780.88
288.831	725.88
289.062	739.88
289.293	760.88
289.524	773.88
289.755	771.88
289.986	771.88
290.217	691.88
290.448	754.88
290.679	770.88
290.91	771.88
291.141	812.88
291.371	780.88
291.602	825.88
291.833	822.88
292.064	854.88
292.295	843.88
292.526	840.88
292.757	865.88
292.987	815.88
293.218	791.88
293.449	885.88
293.68	956.88
293.91	994.88
294.141	937.88
294.372	914.88
294.603	979.88
294.833	976.88
295.064	933.88
295.295	850.88
295.525	798.88
295.756	761.88
295.987	729.88
296.217	735.88
296.448	772.88
296.679	770.88
296.909	758.88
297.14	794.88
297.37	823.88
297.601	838.88
297.831	902.88
298.062	878.88
298.292	808.88
298.523	797.88
298.753	792.88
298.984	794.88
299.214	784.88
299.445	814.88
299.675	850.88
299.905	827.88
300.136	817.88
300.366	791.88
300.597	761.88
300.827	766.88
301.057	827.88
301.288	851.88
301.518	855.88
301.748	848.88
301.979	900.88
302.209	916.88
302.439	987.88
302.669	1007.88
302.9	953.88
303.13	849.88
303.36	853.88
303.59	860.88
303.82	862.88
304.051	874.88
304.281	884.88
304.511	876.88
304.741	938.88
304.971	1038.88
305.201	1074.88
305.431	971.88
305.661	799.88
305.891	743.88
306.121	756.88
306.352	801.88
306.582	841.88
306.812	883.88
307.042	949.88
307.272	927.88
307.502	973.88
307.731	1066.88
307.961	1099.88
308.191	980.88
308.421	860.88
308.651	837.88
308.881	842.88
309.111	826.88
309.341	811.88
309.571	843.88
309.8	828.88
310.03	820.88
310.26	805.88
310.49	815.88
310.72	863.88
310.949	866.88
311.179	862.88
311.409	845.88
311.639	817.88
311.868	843.88
312.098	874.88
312.328	854.88
312.557	847.88
312.787	872.88
313.017	872.88
313.246	885.88
313.476	871.88
313.706	896.88
313.935	879.88
314.165	884.88
314.394	907.88
314.624	975.88
314.853	1030.88
315.083	1067.88
315.312	1057.88
315.542	975.88
315.771	926.88
316.001	939.88
316.23	973.88
316.46	949.88
316.689	910.88
316.919	872.88
317.148	888.88
317.377	883.88
317.607	953.88
317.836	1053.88
318.065	1071.88
318.295	1038.88
318.524	992.88
318.753	956.88
318.983	953.88
319.212	913.88
319.441	922.88
319.67	910.88
319.9	939.88
320.129	977.88
320.358	1019.88
320.587	1021.88
320.816	1025.88
321.046	1005.88
321.275	976.88
321.504	1004.88
321.733	1032.88
321.962	980.88
322.191	937.88
322.42	913.88
322.649	909.88
322.878	934.88
323.108	915.88
323.337	946.88
323.566	958.88
323.795	970.88
324.024	952.88
324.253	904.88
324.482	951.88
324.71	901.88
324.939	865.88
325.168	911.88
325.397	949.88
325.626	967.88
325.855	908.88
326.084	917.88
326.313	926.88
326.542	933.88
326.77	967.88
326.999	965.88
327.228	913.88
327.457	873.88
327.686	866.88
327.914	919.88
328.143	926.88
328.372	924.88
328.6	932.88
328.829	896.88
329.058	913.88
329.287	908.88
329.515	916.88
329.744	971.88
329.972	1007.88
330.201	1025.88
330.43	1008.88
330.658	993.88
330.887	997.88
331.115	973.88
331.344	989.88
331.572	975.88
331.801	952.88
332.03	971.88
332.258	986.88
332.486	996.88
332.715	998.88
332.943	978.88
333.172	989.88
333.4	991.88
333.629	1009.88
333.857	1098.88
334.085	1205.88
334.314	1363.88
334.542	1466.88
334.771	1290.88
334.999	1152.88
335.227	1099.88
335.455	1069.88
335.684	1051.88
335.912	1078.88
336.14	1113.88
336.369	1066.88
336.597	1010.88
336.825	1017.88
337.053	1047.88
337.281	1112.88
337.51	1117.88
337.738	1170.88
337.966	1109.88
338.194	1029.88
338.422	972.88
338.65	950.88
338.878	966.88
339.106	963.88
339.334	961.88
339.562	938.88
339.79	943.88
340.018	987.88
340.246	1012.88
340.474	1068.88
340.702	1055.88
340.93	1023.88
341.158	997.88
341.386	976.88
341.614	1001.88
341.842	990.88
342.07	986.88
342.298	996.88
342.526	977.88
342.754	972.88
342.981	988.88
343.209	959.88
343.437	957.88
343.665	956.88
343.893	1020.88
344.12	1042.88
344.348	1038.88
344.576	995.88
344.804	917.88
345.031	1010.88
345.259	994.88
345.487	949.88
345.714	918.88
345.942	873.88
346.17	920.88
346.397	945.88
346.625	936.88
346.853	891.88
347.08	880.88
347.308	887.88
347.535	917.88
347.763	955.88
347.99	913.88
348.218	903.88
348.445	897.88
348.673	947.88
348.9	935.88
349.128	963.88
349.355	1010.88
349.583	979.88
349.81	895.88
350.037	854.88
350.265	835.88
350.492	884.88
350.72	898.88
350.947	928.88
351.174	973.88
351.402	896.88
351.629	862.88
351.856	876.88
352.083	891.88
352.311	863.88
352.538	931.88
352.765	964.88
352.992	946.88
353.22	927.88
353.447	890.88
353.674	940.88
353.901	923.88
354.128	886.88
354.355	912.88
354.583	954.88
354.81	953.88
355.037	979.88
355.264	948.88
355.491	921.88
355.718	954.88
355.945	903.88
356.172	870.88
356.399	885.88
356.626	890.88
356.853	933.88
357.08	1059.88
357.307	1130.88
357.534	1051.88
357.761	903.88
357.988	890.88
358.215	870.88
358.441	897.88
358.668	880.88
358.895	904.88
359.122	975.88
359.349	1034.88
359.576	992.88
359.802	930.88
360.029	870.88
360.256	888.88
360.483	909.88
360.709	913.88
360.936	994.88
361.163	1003.88
361.39	1103.88
361.616	1197.88
361.843	1129.88
362.07	1033.88
362.296	941.88
362.523	907.88
362.749	894.88
362.976	929.88
363.203	973.88
363.429	928.88
363.656	892.88
363.882	950.88
364.109	1062.88
364.335	1080.88
364.562	1041.88
364.788	957.88
365.015	919.88
365.241	917.88
365.468	940.88
365.694	987.88
365.92	1001.88
366.147	932.88
366.373	896.88
366.599	915.88
366.826	887.88
367.052	893.88
367.278	937.88
367.505	913.88
367.731	969.88
367.957	984.88
368.184	989.88
368.41	1035.88
368.636	1045.88
368.862	1044.88
369.089	1029.88
369.315	1031.88
369.541	967.88
369.767	938.88
369.993	895.88
370.219	934.88
370.445	964.88
370.672	1017.88
370.898	1080.88
371.124	1044.88
371.35	1012.88
371.576	1027.88
371.802	1043.88
372.028	992.88
372.254	933.88
372.48	931.88
372.706	932.88
372.932	944.88
373.158	943.88
373.384	961.88
373.61	1027.88
373.835	1051.88
374.061	984.88
374.287	951.88
374.513	996.88
374.739	990.88
374.965	999.88
375.191	1027.88
375.416	1027.88
375.642	1024.88
375.868	1076.88
376.094	1098.88
376.319	1033.88
376.545	991.88
376.771	1053.88
376.997	1083.88
377.222	1045.88
377.448	1010.88
377.674	1041.88
377.899	1044.88
378.125	1097.88
378.35	1068.88
378.576	980.88
378.802	935.88
379.027	968.88
379.253	979.88
379.478	993.88
379.704	955.88
379.929	979.88
380.155	1003.88
380.38	1013.88
380.606	995.88
380.831	1012.88
381.057	1067.88
381.282	1039.88
381.507	1057.88
381.733	1120.88
381.958	1127.88
382.184	1052.88
382.409	1021.88
382.634	1041.88
382.86	1010.88
383.085	1072.88
383.31	1047.88
383.535	1197.88
383.761	1200.88
383.986	1174.88
384.211	1121.88
384.436	1097.88
384.662	1164.88
384.887	1197.88
385.112	1122.88
385.337	1151.88
385.562	1149.88
385.787	1119.88
386.013	1171.88
386.238	1165.88
386.463	1170.88
386.688	1253.88
386.913	1314.88
387.138	1226.88
387.363	1179.88
387.588	1132.88
387.813	1179.88
388.038	1192.88
388.263	1235.88
388.488	1145.88
388.713	1085.88
388.938	1094.88
389.163	1073.88
389.387	1115.88
389.612	1113.88
389.837	1131.88
390.062	1108.88
390.287	1118.88
390.512	1156.88
390.736	1121.88
390.961	1100.88
391.186	1071.88
391.411	1073.88
391.636	1096.88
391.86	1115.88
392.085	1129.88
392.31	1120.88
392.534	1119.88
392.759	1149.88
392.984	1155.88
393.208	1132.88
393.433	1193.88
393.658	1231.88
393.882	1210.88
394.107	1174.88
394.331	1129.88
394.556	1139.88
394.78	1181.88
395.005	1166.88
395.229	1240.88
395.454	1268.88
395.678	1282.88
395.903	1224.88
396.127	1220.88
396.352	1204.88
396.576	1260.88
396.801	1280.88
397.025	1215.88
397.249	1201.88
397.474	1210.88
397.698	1233.88
397.922	1248.88
398.147	1355.88
398.371	1364.88
398.595	1348.88
398.82	1304.88
399.044	1349.88
399.268	1358.88
399.492	1473.88
399.717	1479.88
399.941	1501.88
400.165	1436.88
400.389	1445.88
400.613	1436.88
400.837	1668.88
401.062	1782.88
401.286	1534.88
401.51	1451.88
401.734	1463.88
401.958	1422.88
402.182	1345.88
402.406	1281.88
402.63	1320.88
402.854	1284.88
403.078	1302.88
403.302	1319.88
403.526	1353.88
403.75	1360.88
403.974	1321.88
404.198	1365.88
404.422	1423.88
404.645	1474.88
404.869	1401.88
405.093	1338.88
405.317	1279.88
405.541	1339.88
405.765	1385.88
405.988	1358.88
406.212	1398.88
406.436	1380.88
406.66	1466.88
406.883	1500.88
407.107	1671.88
407.331	1786.88
407.555	1863.88
407.778	1695.88
408.002	1465.88
408.226	1383.88
408.449	1420.88
408.673	1355.88
408.896	1365.88
409.12	1412.88
409.344	1351.88
409.567	1333.88
409.791	1343.88
410.014	1381.88
410.238	1469.88
410.461	1537.88
410.685	1365.88
410.908	1310.88
411.132	1352.88
411.355	1348.88
411.578	1315.88
411.802	1332.88
412.025	1383.88
412.249	1272.88
412.472	1303.88
412.695	1298.88
412.919	1307.88
413.142	1295.88
413.365	1327.88
413.589	1356.88
413.812	1389.88
414.035	1418.88
414.258	1333.88
414.482	1285.88
414.705	1299.88
414.928	1277.88
415.151	1266.88
415.374	1307.88
415.597	1349.88
415.821	1347.88
416.044	1347.88
416.267	1352.88
416.49	1265.88
416.713	1279.88
416.936	1323.88
417.159	1375.88
417.382	1358.88
417.605	1317.88
417.828	1287.88
418.051	1349.88
418.274	1328.88
418.497	1307.88
418.72	1293.88
418.943	1265.88
419.166	1324.88
419.389	1362.88
419.611	1292.88
419.834	1281.88
420.057	1301.88
420.28	1285.88
420.503	1287.88
420.726	1351.88
420.948	1321.88
421.171	1287.88
421.394	1332.88
421.617	1327.88
421.839	1334.88
422.062	1307.88
422.285	1258.88
422.507	1272.88
422.73	1236.88
422.953	1204.88
423.175	1196.88
423.398	1270.88
423.621	1265.88
423.843	1288.88
424.066	1305.88
424.288	1385.88
424.511	1413.88
424.733	1361.88
424.956	1251.88
425.178	1251.88
425.401	1229.88
425.623	1261.88
425.846	1269.88
426.068	1345.88
426.291	1335.88
426.513	1284.88
426.735	1316.88
426.958	1454.88
427.18	1477.88
427.402	1341.88
427.625	1423.88
427.847	1368.88
428.069	1297.88
428.292	1261.88
428.514	1194.88
428.736	1203.88
428.958	1241.88
429.181	1273.88
429.403	1500.88
429.625	1772.88
429.847	1470.88
430.069	1293.88
430.292	1461.88
430.514	1429.88
430.736	1368.88
430.958	1378.88
431.18	1281.88
431.402	1204.88
431.624	1209.88
431.846	1139.88
432.068	1130.88
432.29	1164.88
432.512	1171.88
432.734	1233.88
432.956	1256.88
433.178	1337.88
433.4	1298.88
433.622	1310.88
433.844	1247.88
434.066	1183.88
434.287	1168.88
434.509	1217.88
434.731	1287.88
434.953	1348.88
435.175	1332.88
435.397	1281.88
435.618	1254.88
435.84	1250.88
436.062	1221.88
436.284	1264.88
436.505	1265.88
436.727	1296.88
436.949	1258.88
437.17	1231.88
437.392	1222.88
437.614	1194.88
437.835	1156.88
438.057	1234.88
438.278	1259.88
438.5	1216.88
438.721	1250.88
438.943	1254.88
439.165	1253.88
439.386	1199.88
439.608	1250.88
439.829	1247.88
440.05	1254.88
440.272	1249.88
440.493	1245.88
440.715	1279.88
440.936	1335.88
441.158	1426.88
441.379	1374.88
441.6	1396.88
441.822	1315.88
442.043	1337.88
442.264	1323.88
442.486	1251.88
442.707	1234.88
442.928	1234.88
443.149	1288.88
443.371	1347.88
443.592	1394.88
443.813	1387.88
444.034	1346.88
444.255	1333.88
444.476	1413.88
444.698	1388.88
444.919	1379.88
445.14	1509.88
445.361	1453.88
445.582	1435.88
445.803	1370.88
446.024	1382.88
446.245	1422.88
446.466	1373.88
446.687	1351.88
446.908	1324.88
447.129	1348.88
447.35	1321.88
447.571	1273.88
447.792	1217.88
448.013	1230.88
448.234	1261.88
448.455	1290.88
448.675	1304.88
448.896	1205.88
449.117	1176.88
449.338	1229.88
449.559	1317.88
449.779	1348.88
450	1406.88
450.221	1480.88
450.442	1435.88
450.662	1281.88
450.883	1195.88
451.104	1162.88
451.324	1162.88
451.545	1247.88
451.766	1189.88
451.986	1139.88
452.207	1095.88
452.428	1105.88
452.648	1111.88
452.869	1130.88
453.089	1158.88
453.31	1149.88
453.53	1151.88
453.751	1103.88
453.971	1057.88
454.192	1084.88
454.412	1165.88
454.633	1136.88
454.853	1114.88
455.073	1049.88
455.294	1061.88
455.514	1051.88
455.734	1068.88
455.955	1069.88
456.175	1063.88
456.395	1079.88
456.616	1071.88
456.836	1080.88
457.056	1080.88
457.276	1093.88
457.497	1051.88
457.717	1021.88
457.937	1043.88
458.157	1052.88
458.377	1034.88
458.598	1024.88
458.818	1051.88
459.038	1085.88
459.258	1161.88
459.478	1141.88
459.698	1107.88
459.918	1170.88
460.138	1220.88
460.358	1229.88
460.578	1249.88
460.798	1286.88
461.018	1320.88
461.238	1308.88
461.458	1226.88
461.678	1252.88
461.898	1203.88
462.118	1209.88
462.338	1260.88
462.558	1293.88
462.777	1263.88
462.997	1308.88
463.217	1343.88
463.437	1331.88
463.657	1279.88
463.876	1244.88
464.096	1256.88
464.316	1259.88
464.536	1288.88
464.755	1325.88
464.975	1290.88
465.195	1269.88
465.414	1307.88
465.634	1301.88
465.854	1276.88
466.073	1407.88
466.293	1349.88
466.512	1193.88
466.732	1208.88
466.951	1248.88
467.171	1229.88
467.391	1201.88
467.61	1208.88
467.829	1229.88
468.049	1328.88
468.268	1493.88
468.488	1338.88
468.707	1268.88
468.927	1231.88
469.146	1196.88
469.365	1170.88
469.585	1226.88
469.804	1199.88
470.023	1220.88
470.243	1226.88
470.462	1172.88
470.681	1203.88
470.901	1228.88
471.12	1217.88
471.339	1239.88
471.558	1178.88
471.777	1187.88
471.997	1203.88
472.216	1166.88
472.435	1111.88
472.654	1124.88
472.873	1175.88
473.092	1220.88
473.311	1191.88
473.53	1123.88
473.749	1129.88
473.968	1171.88
474.187	1208.88
474.406	1227.88
474.625	1219.88
474.844	1224.88
475.063	1184.88
475.282	1224.88
475.501	1160.88
475.72	1207.88
475.939	1271.88
476.158	1239.88
476.377	1258.88
476.596	1206.88
476.814	1205.88
477.033	1215.88
477.252	1268.88
477.471	1307.88
477.69	1273.88
477.908	1292.88
478.127	1376.88
478.346	1425.88
478.564	1401.88
478.783	1404.88
479.002	1435.88
479.22	1425.88
479.439	1457.88
479.658	1576.88
479.876	1540.88
480.095	1381.88
480.313	1355.88
480.532	1297.88
480.751	1322.88
480.969	1299.88
481.188	1235.88
481.406	1242.88
481.624	1243.88
481.843	1272.88
482.061	1258.88
482.28	1327.88
482.498	1342.88
482.717	1283.88
482.935	1291.88
483.153	1323.88
483.372	1363.88
483.59	1367.88
483.808	1356.88
484.027	1343.88
484.245	1431.88
484.463	1733.88
484.681	1883.88
484.9	1478.88
485.118	1374.88
485.336	1357.88
485.554	1372.88
485.772	1386.88
485.99	1352.88
486.209	1389.88
486.427	1383.88
486.645	1403.88
486.863	1388.88
487.081	1431.88
487.299	1479.88
487.517	1451.88
487.735	1479.88
487.953	1502.88
488.171	1464.88
488.389	1482.88
488.607	1445.88
488.825	1634.88
489.043	1541.88
489.261	1385.88
489.479	1458.88
489.696	1489.88
489.914	1436.88
490.132	1491.88
490.35	1461.88
490.568	1559.88
490.786	1512.88
491.003	1470.88
491.221	1543.88
491.439	1536.88
491.657	1592.88
491.874	1647.88
492.092	1644.88
492.31	1689.88
492.527	1667.88
492.745	1612.88
492.963	1590.88
493.18	1625.88
493.398	1677.88
493.615	1671.88
