Data from WStandard_LampEnergy10_LIBS07252019.E.O._I.C._HRD10591_15-53-22-927.txt Node
Date: Thu Jul 25 15:53:22 EDT 2019
User: cochatt
Spectrometer: HR+D1059
Trigger mode: 1
Integration Time (sec): 1.000000E-1
Scans to average: 1
Electric dark correction enabled: true
Nonlinearity correction enabled: false
Boxcar width: 0
XAxis mode: Wavelengths
Number of Pixels in Spectrum: 2048
>>>>>Begin Spectral Data<<<<<
223.165	-28.44
223.4	-28.44
223.635	-28.44
223.869	-13.44
224.104	-23.44
224.338	0.56
224.573	-13.44
224.808	-15.44
225.042	-14.44
225.277	-5.44
225.511	-2.44
225.746	0.56
225.98	8.56
226.215	4.56
226.449	20.56
226.683	30.56
226.918	18.56
227.152	32.56
227.387	33.56
227.621	57.56
227.856	33.56
228.09	41.56
228.324	34.56
228.559	50.56
228.793	70.56
229.027	121.56
229.262	136.56
229.496	140.56
229.73	160.56
229.964	151.56
230.199	161.56
230.433	178.56
230.667	186.56
230.901	203.56
231.136	173.56
231.37	161.56
231.604	158.56
231.838	179.56
232.072	168.56
232.306	174.56
232.541	183.56
232.775	204.56
233.009	207.56
233.243	209.56
233.477	193.56
233.711	184.56
233.945	196.56
234.179	188.56
234.413	202.56
234.647	207.56
234.881	202.56
235.115	195.56
235.349	190.56
235.583	205.56
235.817	191.56
236.051	175.56
236.285	189.56
236.519	212.56
236.753	226.56
236.987	222.56
237.221	235.56
237.455	233.56
237.689	231.56
237.922	222.56
238.156	220.56
238.39	254.56
238.624	252.56
238.858	233.56
239.091	238.56
239.325	266.56
239.559	286.56
239.793	305.56
240.027	305.56
240.26	299.56
240.494	241.56
240.728	220.56
240.961	236.56
241.195	244.56
241.429	257.56
241.662	257.56
241.896	256.56
242.13	265.56
242.363	266.56
242.597	289.56
242.83	261.56
243.064	290.56
243.298	290.56
243.531	297.56
243.765	290.56
243.998	263.56
244.232	236.56
244.465	240.56
244.699	244.56
244.932	294.56
245.166	310.56
245.399	296.56
245.633	274.56
245.866	281.56
246.099	289.56
246.333	284.56
246.566	290.56
246.8	327.56
247.033	339.56
247.266	339.56
247.5	322.56
247.733	300.56
247.966	344.56
248.2	358.56
248.433	376.56
248.666	363.56
248.899	395.56
249.133	446.56
249.366	466.56
249.599	396.56
249.832	378.56
250.066	377.56
250.299	363.56
250.532	377.56
250.765	342.56
250.998	339.56
251.231	363.56
251.465	379.56
251.698	360.56
251.931	354.56
252.164	355.56
252.397	359.56
252.63	366.56
252.863	339.56
253.096	357.56
253.329	337.56
253.562	355.56
253.795	350.56
254.028	363.56
254.261	345.56
254.494	343.56
254.727	345.56
254.96	345.56
255.193	383.56
255.426	418.56
255.659	444.56
255.892	464.56
256.124	402.56
256.357	384.56
256.59	410.56
256.823	400.56
257.056	415.56
257.289	515.56
257.521	522.56
257.754	480.56
257.987	458.56
258.22	468.56
258.452	459.56
258.685	388.56
258.918	398.56
259.151	411.56
259.383	375.56
259.616	351.56
259.849	384.56
260.081	408.56
260.314	456.56
260.547	467.56
260.779	460.56
261.012	446.56
261.244	425.56
261.477	400.56
261.71	416.56
261.942	407.56
262.175	384.56
262.407	400.56
262.64	405.56
262.872	372.56
263.105	368.56
263.337	388.56
263.57	371.56
263.802	387.56
264.035	356.56
264.267	354.56
264.499	353.56
264.732	373.56
264.964	399.56
265.197	408.56
265.429	416.56
265.661	474.56
265.894	510.56
266.126	501.56
266.358	475.56
266.591	476.56
266.823	468.56
267.055	461.56
267.287	457.56
267.52	471.56
267.752	468.56
267.984	452.56
268.216	465.56
268.448	484.56
268.681	442.56
268.913	442.56
269.145	413.56
269.377	407.56
269.609	458.56
269.841	528.56
270.073	595.56
270.306	642.56
270.538	634.56
270.77	537.56
271.002	499.56
271.234	486.56
271.466	487.56
271.698	538.56
271.93	601.56
272.162	579.56
272.394	562.56
272.626	537.56
272.858	469.56
273.09	436.56
273.322	438.56
273.553	396.56
273.785	402.56
274.017	450.56
274.249	439.56
274.481	450.56
274.713	408.56
274.945	410.56
275.176	425.56
275.408	410.56
275.64	402.56
275.872	401.56
276.104	464.56
276.335	480.56
276.567	539.56
276.799	530.56
277.031	496.56
277.262	496.56
277.494	494.56
277.726	521.56
277.957	518.56
278.189	471.56
278.421	426.56
278.652	439.56
278.884	428.56
279.115	445.56
279.347	456.56
279.579	458.56
279.81	443.56
280.042	496.56
280.273	493.56
280.505	513.56
280.736	522.56
280.968	495.56
281.199	439.56
281.431	406.56
281.662	435.56
281.894	433.56
282.125	422.56
282.356	455.56
282.588	459.56
282.819	458.56
283.051	498.56
283.282	510.56
283.513	479.56
283.745	444.56
283.976	414.56
284.207	444.56
284.439	423.56
284.67	466.56
284.901	460.56
285.132	463.56
285.364	457.56
285.595	448.56
285.826	459.56
286.057	452.56
286.288	448.56
286.52	483.56
286.751	505.56
286.982	480.56
287.213	484.56
287.444	440.56
287.675	447.56
287.906	467.56
288.138	491.56
288.369	473.56
288.6	458.56
288.831	451.56
289.062	447.56
289.293	448.56
289.524	439.56
289.755	471.56
289.986	468.56
290.217	445.56
290.448	434.56
290.679	460.56
290.91	458.56
291.141	477.56
291.371	458.56
291.602	487.56
291.833	470.56
292.064	487.56
292.295	508.56
292.526	522.56
292.757	519.56
292.987	503.56
293.218	494.56
293.449	547.56
293.68	579.56
293.91	606.56
294.141	567.56
294.372	547.56
294.603	550.56
294.833	574.56
295.064	538.56
295.295	491.56
295.525	463.56
295.756	447.56
295.987	434.56
296.217	451.56
296.448	473.56
296.679	481.56
296.909	471.56
297.14	473.56
297.37	475.56
297.601	509.56
297.831	522.56
298.062	503.56
298.292	507.56
298.523	462.56
298.753	494.56
298.984	488.56
299.214	471.56
299.445	504.56
299.675	494.56
299.905	497.56
300.136	481.56
300.366	458.56
300.597	479.56
300.827	473.56
301.057	489.56
301.288	518.56
301.518	503.56
301.748	518.56
301.979	540.56
302.209	552.56
302.439	606.56
302.669	597.56
302.9	539.56
303.13	499.56
303.36	513.56
303.59	505.56
303.82	512.56
304.051	522.56
304.281	541.56
304.511	534.56
304.741	577.56
304.971	599.56
305.201	628.56
305.431	578.56
305.661	488.56
305.891	464.56
306.121	452.56
306.352	477.56
306.582	526.56
306.812	556.56
307.042	568.56
307.272	586.56
307.502	600.56
307.731	636.56
307.961	647.56
308.191	583.56
308.421	551.56
308.651	503.56
308.881	516.56
309.111	509.56
309.341	490.56
309.571	488.56
309.8	515.56
310.03	498.56
310.26	481.56
310.49	506.56
310.72	539.56
310.949	536.56
311.179	534.56
311.409	533.56
311.639	494.56
311.868	527.56
312.098	518.56
312.328	517.56
312.557	489.56
312.787	522.56
313.017	516.56
313.246	535.56
313.476	524.56
313.706	536.56
313.935	530.56
314.165	525.56
314.394	547.56
314.624	580.56
314.853	629.56
315.083	633.56
315.312	619.56
315.542	590.56
315.771	528.56
316.001	559.56
316.23	570.56
316.46	551.56
316.689	560.56
316.919	530.56
317.148	514.56
317.377	544.56
317.607	614.56
317.836	642.56
318.065	634.56
318.295	631.56
318.524	619.56
318.753	569.56
318.983	587.56
319.212	559.56
319.441	556.56
319.67	553.56
319.9	578.56
320.129	602.56
320.358	620.56
320.587	648.56
320.816	618.56
321.046	623.56
321.275	593.56
321.504	603.56
321.733	634.56
321.962	594.56
322.191	593.56
322.42	583.56
322.649	563.56
322.878	551.56
323.108	570.56
323.337	574.56
323.566	575.56
323.795	587.56
324.024	585.56
324.253	591.56
324.482	563.56
324.71	563.56
324.939	546.56
325.168	545.56
325.397	574.56
325.626	583.56
325.855	585.56
326.084	549.56
326.313	560.56
326.542	564.56
326.77	592.56
326.999	555.56
327.228	553.56
327.457	531.56
327.686	539.56
327.914	556.56
328.143	561.56
328.372	604.56
328.6	579.56
328.829	574.56
329.058	564.56
329.287	563.56
329.515	548.56
329.744	569.56
329.972	597.56
330.201	628.56
330.43	620.56
330.658	613.56
330.887	608.56
331.115	606.56
331.344	609.56
331.572	579.56
331.801	599.56
332.03	594.56
332.258	598.56
332.486	613.56
332.715	594.56
332.943	607.56
333.172	607.56
333.4	634.56
333.629	613.56
333.857	682.56
334.085	757.56
334.314	844.56
334.542	854.56
334.771	775.56
334.999	682.56
335.227	664.56
335.455	635.56
335.684	642.56
335.912	669.56
336.14	671.56
336.369	620.56
336.597	609.56
336.825	614.56
337.053	633.56
337.281	684.56
337.51	687.56
337.738	709.56
337.966	670.56
338.194	619.56
338.422	596.56
338.65	587.56
338.878	597.56
339.106	569.56
339.334	563.56
339.562	575.56
339.79	612.56
340.018	639.56
340.246	635.56
340.474	619.56
340.702	628.56
340.93	622.56
341.158	618.56
341.386	605.56
341.614	607.56
341.842	599.56
342.07	613.56
342.298	600.56
342.526	605.56
342.754	590.56
342.981	599.56
343.209	588.56
343.437	584.56
343.665	593.56
343.893	613.56
344.12	648.56
344.348	642.56
344.576	609.56
344.804	604.56
345.031	618.56
345.259	596.56
345.487	594.56
345.714	574.56
345.942	555.56
346.17	579.56
346.397	580.56
346.625	589.56
346.853	552.56
347.08	546.56
347.308	570.56
347.535	591.56
347.763	574.56
347.99	575.56
348.218	570.56
348.445	558.56
348.673	559.56
348.9	593.56
349.128	600.56
349.355	626.56
349.583	599.56
349.81	566.56
350.037	540.56
350.265	546.56
350.492	557.56
350.72	554.56
350.947	586.56
351.174	569.56
351.402	550.56
351.629	542.56
351.856	569.56
352.083	528.56
352.311	547.56
352.538	570.56
352.765	570.56
352.992	592.56
353.22	560.56
353.447	539.56
353.674	580.56
353.901	578.56
354.128	587.56
354.355	570.56
354.583	558.56
354.81	606.56
355.037	587.56
355.264	586.56
355.491	577.56
355.718	566.56
355.945	577.56
356.172	583.56
356.399	573.56
356.626	561.56
356.853	595.56
357.08	664.56
357.307	701.56
357.534	648.56
357.761	576.56
357.988	559.56
358.215	556.56
358.441	574.56
358.668	546.56
358.895	584.56
359.122	626.56
359.349	652.56
359.576	624.56
359.802	575.56
360.029	560.56
360.256	560.56
360.483	563.56
360.709	578.56
360.936	611.56
361.163	644.56
361.39	698.56
361.616	734.56
361.843	719.56
362.07	670.56
362.296	570.56
362.523	547.56
362.749	578.56
362.976	593.56
363.203	609.56
363.429	571.56
363.656	578.56
363.882	627.56
364.109	652.56
364.335	671.56
364.562	628.56
364.788	616.56
365.015	581.56
365.241	572.56
365.468	598.56
365.694	595.56
365.92	636.56
366.147	589.56
366.373	570.56
366.599	578.56
366.826	567.56
367.052	572.56
367.278	588.56
367.505	607.56
367.731	586.56
367.957	617.56
368.184	629.56
368.41	658.56
368.636	674.56
368.862	656.56
369.089	672.56
369.315	634.56
369.541	629.56
369.767	603.56
369.993	578.56
370.219	575.56
370.445	611.56
370.672	661.56
370.898	662.56
371.124	669.56
371.35	614.56
371.576	646.56
371.802	668.56
372.028	671.56
372.254	614.56
372.48	604.56
372.706	607.56
372.932	576.56
373.158	626.56
373.384	627.56
373.61	658.56
373.835	680.56
374.061	624.56
374.287	641.56
374.513	650.56
374.739	638.56
374.965	643.56
375.191	654.56
375.416	650.56
375.642	664.56
375.868	710.56
376.094	717.56
376.319	683.56
376.545	651.56
376.771	679.56
376.997	697.56
377.222	692.56
377.448	666.56
377.674	654.56
377.899	668.56
378.125	715.56
378.35	700.56
378.576	641.56
378.802	632.56
379.027	632.56
379.253	648.56
379.478	631.56
379.704	628.56
379.929	655.56
380.155	637.56
380.38	679.56
380.606	698.56
380.831	654.56
381.057	706.56
381.282	707.56
381.507	724.56
381.733	736.56
381.958	739.56
382.184	682.56
382.409	674.56
382.634	683.56
382.86	706.56
383.085	694.56
383.31	754.56
383.535	788.56
383.761	791.56
383.986	757.56
384.211	740.56
384.436	757.56
384.662	786.56
384.887	800.56
385.112	755.56
385.337	755.56
385.562	710.56
385.787	773.56
386.013	780.56
386.238	755.56
386.463	762.56
386.688	827.56
386.913	848.56
387.138	831.56
387.363	756.56
387.588	761.56
387.813	768.56
388.038	797.56
388.263	822.56
388.488	739.56
388.713	723.56
388.938	728.56
389.163	734.56
389.387	757.56
389.612	768.56
389.837	779.56
390.062	779.56
390.287	784.56
390.512	760.56
390.736	769.56
390.961	729.56
391.186	731.56
391.411	742.56
391.636	750.56
391.86	755.56
392.085	772.56
392.31	763.56
392.534	778.56
392.759	788.56
392.984	742.56
393.208	779.56
393.433	790.56
393.658	842.56
393.882	824.56
394.107	780.56
394.331	766.56
394.556	772.56
394.78	798.56
395.005	816.56
395.229	873.56
395.454	887.56
395.678	868.56
395.903	825.56
396.127	828.56
396.352	804.56
396.576	862.56
396.801	852.56
397.025	870.56
397.249	862.56
397.474	843.56
397.698	841.56
397.922	884.56
398.147	922.56
398.371	912.56
398.595	942.56
398.82	875.56
399.044	906.56
399.268	956.56
399.492	999.56
399.717	998.56
399.941	1017.56
400.165	995.56
400.389	975.56
400.613	986.56
400.837	1106.56
401.062	1193.56
401.286	1027.56
401.51	977.56
401.734	971.56
401.958	952.56
402.182	932.56
402.406	883.56
402.63	876.56
402.854	884.56
403.078	918.56
403.302	937.56
403.526	911.56
403.75	920.56
403.974	924.56
404.198	959.56
404.422	992.56
404.645	1039.56
404.869	990.56
405.093	921.56
405.317	930.56
405.541	955.56
405.765	914.56
405.988	934.56
406.212	960.56
406.436	955.56
406.66	1011.56
406.883	1026.56
407.107	1127.56
407.331	1223.56
407.555	1282.56
407.778	1125.56
408.002	995.56
408.226	963.56
408.449	972.56
408.673	927.56
408.896	984.56
409.12	969.56
409.344	919.56
409.567	952.56
409.791	951.56
410.014	1001.56
410.238	1034.56
410.461	1072.56
410.685	1006.56
410.908	932.56
411.132	965.56
411.355	946.56
411.578	951.56
411.802	950.56
412.025	923.56
412.249	940.56
412.472	937.56
412.695	951.56
412.919	914.56
413.142	946.56
413.365	916.56
413.589	986.56
413.812	1009.56
414.035	1003.56
414.258	970.56
414.482	939.56
414.705	915.56
414.928	962.56
415.151	953.56
415.374	908.56
415.597	952.56
415.821	942.56
416.044	985.56
416.267	938.56
416.49	921.56
416.713	910.56
416.936	956.56
417.159	993.56
417.382	986.56
417.605	939.56
417.828	938.56
418.051	969.56
418.274	934.56
418.497	965.56
418.72	933.56
418.943	924.56
419.166	988.56
419.389	978.56
419.611	971.56
419.834	966.56
420.057	948.56
420.28	936.56
420.503	959.56
420.726	964.56
420.948	974.56
421.171	931.56
421.394	929.56
421.617	1006.56
421.839	1031.56
422.062	945.56
422.285	950.56
422.507	953.56
422.73	906.56
422.953	897.56
423.175	900.56
423.398	922.56
423.621	932.56
423.843	971.56
424.066	998.56
424.288	1033.56
424.511	1056.56
424.733	1029.56
424.956	905.56
425.178	918.56
425.401	928.56
425.623	975.56
425.846	957.56
426.068	985.56
426.291	962.56
426.513	968.56
426.735	968.56
426.958	1047.56
427.18	1083.56
427.402	1033.56
427.625	1034.56
427.847	1000.56
428.069	945.56
428.292	917.56
428.514	930.56
428.736	914.56
428.958	920.56
429.181	962.56
429.403	1064.56
429.625	1234.56
429.847	1064.56
430.069	947.56
430.292	1074.56
430.514	1052.56
430.736	992.56
430.958	981.56
431.18	910.56
431.402	885.56
431.624	866.56
431.846	816.56
432.068	760.56
432.29	751.56
432.512	807.56
432.734	888.56
432.956	920.56
433.178	965.56
433.4	988.56
433.622	946.56
433.844	940.56
434.066	891.56
434.287	786.56
434.509	752.56
434.731	840.56
434.953	926.56
435.175	948.56
435.397	906.56
435.618	896.56
435.84	881.56
436.062	860.56
436.284	916.56
436.505	952.56
436.727	950.56
436.949	913.56
437.17	897.56
437.392	896.56
437.614	852.56
437.835	801.56
438.057	816.56
438.278	868.56
438.5	885.56
438.721	906.56
438.943	945.56
439.165	961.56
439.386	951.56
439.608	961.56
439.829	966.56
440.05	982.56
440.272	979.56
440.493	954.56
440.715	988.56
440.936	1047.56
441.158	1072.56
441.379	1070.56
441.6	1073.56
441.822	1038.56
442.043	1037.56
442.264	1024.56
442.486	970.56
442.707	976.56
442.928	976.56
443.149	1008.56
443.371	1006.56
443.592	1009.56
443.813	1044.56
444.034	1011.56
444.255	1039.56
444.476	1048.56
444.698	1047.56
444.919	1066.56
445.14	1200.56
445.361	1128.56
445.582	1113.56
445.803	1071.56
446.024	1052.56
446.245	1058.56
446.466	1072.56
446.687	1039.56
446.908	1059.56
447.129	1024.56
447.35	1016.56
447.571	988.56
447.792	975.56
448.013	972.56
448.234	991.56
448.455	1003.56
448.675	988.56
448.896	954.56
449.117	917.56
449.338	934.56
449.559	986.56
449.779	988.56
450	1031.56
450.221	1029.56
450.442	1037.56
450.662	963.56
450.883	892.56
451.104	870.56
451.324	902.56
451.545	885.56
451.766	884.56
451.986	864.56
452.207	822.56
452.428	801.56
452.648	798.56
452.869	800.56
453.089	807.56
453.31	787.56
453.53	787.56
453.751	746.56
453.971	693.56
454.192	743.56
454.412	801.56
454.633	799.56
454.853	788.56
455.073	758.56
455.294	774.56
455.514	790.56
455.734	804.56
455.955	781.56
456.175	758.56
456.395	751.56
456.616	717.56
456.836	744.56
457.056	758.56
457.276	724.56
457.497	729.56
457.717	702.56
457.937	726.56
458.157	720.56
458.377	703.56
458.598	691.56
458.818	689.56
459.038	708.56
459.258	731.56
459.478	721.56
459.698	715.56
459.918	746.56
460.138	794.56
460.358	871.56
460.578	857.56
460.798	849.56
461.018	891.56
461.238	881.56
461.458	846.56
461.678	859.56
461.898	837.56
462.118	818.56
462.338	855.56
462.558	879.56
462.777	862.56
462.997	884.56
463.217	878.56
463.437	874.56
463.657	852.56
463.876	846.56
464.096	855.56
464.316	856.56
464.536	892.56
464.755	886.56
464.975	878.56
465.195	841.56
465.414	894.56
465.634	867.56
465.854	896.56
466.073	978.56
466.293	952.56
466.512	882.56
466.732	885.56
466.951	892.56
467.171	915.56
467.391	901.56
467.61	901.56
467.829	908.56
468.049	993.56
468.268	1011.56
468.488	981.56
468.707	928.56
468.927	928.56
469.146	918.56
469.365	924.56
469.585	933.56
469.804	919.56
470.023	942.56
470.243	920.56
470.462	949.56
470.681	944.56
470.901	945.56
471.12	919.56
471.339	968.56
471.558	906.56
471.777	904.56
471.997	900.56
472.216	855.56
472.435	798.56
472.654	769.56
472.873	798.56
473.092	849.56
473.311	852.56
473.53	822.56
473.749	823.56
473.968	836.56
474.187	894.56
474.406	855.56
474.625	885.56
474.844	876.56
475.063	887.56
475.282	898.56
475.501	831.56
475.72	850.56
475.939	920.56
476.158	904.56
476.377	864.56
476.596	870.56
476.814	830.56
477.033	816.56
477.252	862.56
477.471	910.56
477.69	927.56
477.908	966.56
478.127	1018.56
478.346	1009.56
478.564	1003.56
478.783	1029.56
479.002	1012.56
479.22	1024.56
479.439	1038.56
479.658	1064.56
479.876	999.56
480.095	907.56
480.313	916.56
480.532	882.56
480.751	874.56
480.969	826.56
481.188	806.56
481.406	788.56
481.624	756.56
481.843	768.56
482.061	855.56
482.28	896.56
482.498	924.56
482.717	860.56
482.935	916.56
483.153	970.56
483.372	1020.56
483.59	987.56
483.808	961.56
484.027	956.56
484.245	1015.56
484.463	1210.56
484.681	1312.56
484.9	1074.56
485.118	994.56
485.336	921.56
485.554	907.56
485.772	902.56
485.99	888.56
486.209	908.56
486.427	903.56
486.645	979.56
486.863	1015.56
487.081	1034.56
487.299	1023.56
487.517	1008.56
487.735	1095.56
487.953	1206.56
488.171	1170.56
488.389	1121.56
488.607	1106.56
488.825	1121.56
489.043	1075.56
489.261	1006.56
489.479	1034.56
489.696	1076.56
489.914	1071.56
490.132	1041.56
490.35	1097.56
490.568	1175.56
490.786	1210.56
491.003	1208.56
491.221	1254.56
491.439	1338.56
491.657	1310.56
491.874	1387.56
492.092	1482.56
492.31	1475.56
492.527	1426.56
492.745	1392.56
492.963	1342.56
493.18	1306.56
493.398	1376.56
493.615	1356.56
493.833	1272.56
494.05	1262.56
494.268	1237.56
494.485	1251.56
494.703	1253.56
494.92	1243.56
495.138	1249.56
495.355	1277.56
495.573	1281.56
495.79	1285.56
496.008	1288.56
496.225	1252.56
496.442	1265.56
496.66	1265.56
496.877	1230.56
497.094	1235.56
497.312	1295.56
497.529	1183.56
497.746	1210.56
497.963	1309.56
498.181	1307.56
498.398	1269.56
498.615	1212.56
498.832	1169.56
499.049	1164.56
499.267	1183.56
499.484	1255.56
499.701	1377.56
499.918	1396.56
500.135	1490.56
