Data from WStandard_LampEnergy10_LIBS07252019.E.O._I.C._HRD10591_15-53-35-928.txt Node
Date: Thu Jul 25 15:53:35 EDT 2019
User: cochatt
Spectrometer: HR+D1059
Trigger mode: 1
Integration Time (sec): 1.000000E-1
Scans to average: 1
Electric dark correction enabled: true
Nonlinearity correction enabled: false
Boxcar width: 0
XAxis mode: Wavelengths
Number of Pixels in Spectrum: 2048
>>>>>Begin Spectral Data<<<<<
223.165	-22.81
223.4	-22.81
223.635	-22.81
223.869	-1.81
224.104	-19.81
224.338	-7.81
224.573	-24.81
224.808	-12.81
225.042	-12.81
225.277	-3.81
225.511	10.19
225.746	2.19
225.98	13.19
226.215	8.19
226.449	14.19
226.683	6.19
226.918	24.19
227.152	28.19
227.387	35.19
227.621	37.19
227.856	46.19
228.09	34.19
228.324	39.19
228.559	48.19
228.793	80.19
229.027	133.19
229.262	148.19
229.496	134.19
229.73	159.19
229.964	165.19
230.199	167.19
230.433	167.19
230.667	183.19
230.901	181.19
231.136	154.19
231.37	179.19
231.604	160.19
231.838	192.19
232.072	181.19
232.306	170.19
232.541	184.19
232.775	194.19
233.009	200.19
233.243	202.19
233.477	196.19
233.711	198.19
233.945	207.19
234.179	186.19
234.413	202.19
234.647	202.19
234.881	206.19
235.115	182.19
235.349	191.19
235.583	204.19
235.817	198.19
236.051	176.19
236.285	177.19
236.519	212.19
236.753	230.19
236.987	224.19
237.221	251.19
237.455	241.19
237.689	231.19
237.922	231.19
238.156	203.19
238.39	228.19
238.624	222.19
238.858	228.19
239.091	254.19
239.325	262.19
239.559	283.19
239.793	295.19
240.027	297.19
240.26	273.19
240.494	235.19
240.728	221.19
240.961	234.19
241.195	242.19
241.429	235.19
241.662	254.19
241.896	246.19
242.13	262.19
242.363	274.19
242.597	276.19
242.83	267.19
243.064	261.19
243.298	296.19
243.531	276.19
243.765	272.19
243.998	292.19
244.232	257.19
244.465	256.19
244.699	246.19
244.932	267.19
245.166	316.19
245.399	300.19
245.633	279.19
245.866	264.19
246.099	284.19
246.333	301.19
246.566	295.19
246.8	324.19
247.033	329.19
247.266	311.19
247.5	325.19
247.733	320.19
247.966	338.19
248.2	360.19
248.433	339.19
248.666	385.19
248.899	402.19
249.133	448.19
249.366	464.19
249.599	419.19
249.832	361.19
250.066	382.19
250.299	349.19
250.532	339.19
250.765	325.19
250.998	350.19
251.231	345.19
251.465	367.19
251.698	358.19
251.931	355.19
252.164	323.19
252.397	373.19
252.63	351.19
252.863	332.19
253.096	327.19
253.329	334.19
253.562	361.19
253.795	383.19
254.028	361.19
254.261	346.19
254.494	332.19
254.727	323.19
254.96	374.19
255.193	379.19
255.426	417.19
255.659	460.19
255.892	456.19
256.124	401.19
256.357	397.19
256.59	419.19
256.823	401.19
257.056	411.19
257.289	460.19
257.521	511.19
257.754	455.19
257.987	458.19
258.22	495.19
258.452	457.19
258.685	386.19
258.918	397.19
259.151	399.19
259.383	349.19
259.616	339.19
259.849	361.19
260.081	407.19
260.314	441.19
260.547	456.19
260.779	472.19
261.012	443.19
261.244	392.19
261.477	387.19
261.71	399.19
261.942	395.19
262.175	395.19
262.407	403.19
262.64	413.19
262.872	357.19
263.105	362.19
263.337	391.19
263.57	368.19
263.802	384.19
264.035	354.19
264.267	335.19
264.499	319.19
264.732	388.19
264.964	388.19
265.197	395.19
265.429	447.19
265.661	456.19
265.894	490.19
266.126	502.19
266.358	452.19
266.591	470.19
266.823	500.19
267.055	451.19
267.287	459.19
267.52	449.19
267.752	448.19
267.984	476.19
268.216	453.19
268.448	457.19
268.681	465.19
268.913	426.19
269.145	419.19
269.377	425.19
269.609	469.19
269.841	496.19
270.073	564.19
270.306	638.19
270.538	615.19
270.77	534.19
271.002	473.19
271.234	482.19
271.466	476.19
271.698	544.19
271.93	606.19
272.162	608.19
272.394	546.19
272.626	500.19
272.858	467.19
273.09	400.19
273.322	399.19
273.553	400.19
273.785	434.19
274.017	420.19
274.249	442.19
274.481	443.19
274.713	401.19
274.945	426.19
275.176	394.19
275.408	401.19
275.64	397.19
275.872	405.19
276.104	433.19
276.335	500.19
276.567	542.19
276.799	527.19
277.031	494.19
277.262	476.19
277.494	499.19
277.726	532.19
277.957	500.19
278.189	494.19
278.421	437.19
278.652	431.19
278.884	415.19
279.115	438.19
279.347	434.19
279.579	433.19
279.81	442.19
280.042	475.19
280.273	520.19
280.505	518.19
280.736	532.19
280.968	488.19
281.199	426.19
281.431	419.19
281.662	411.19
281.894	433.19
282.125	437.19
282.356	440.19
282.588	455.19
282.819	458.19
283.051	502.19
283.282	518.19
283.513	506.19
283.745	452.19
283.976	415.19
284.207	442.19
284.439	455.19
284.67	433.19
284.901	456.19
285.132	460.19
285.364	446.19
285.595	469.19
285.826	468.19
286.057	439.19
286.288	467.19
286.52	481.19
286.751	478.19
286.982	521.19
287.213	464.19
287.444	439.19
287.675	451.19
287.906	484.19
288.138	497.19
288.369	466.19
288.6	458.19
288.831	448.19
289.062	426.19
289.293	452.19
289.524	456.19
289.755	463.19
289.986	465.19
290.217	425.19
290.448	459.19
290.679	478.19
290.91	468.19
291.141	485.19
291.371	471.19
291.602	495.19
291.833	488.19
292.064	496.19
292.295	491.19
292.526	500.19
292.757	512.19
292.987	512.19
293.218	496.19
293.449	536.19
293.68	581.19
293.91	590.19
294.141	543.19
294.372	552.19
294.603	541.19
294.833	558.19
295.064	532.19
295.295	522.19
295.525	480.19
295.756	496.19
295.987	425.19
296.217	453.19
296.448	477.19
296.679	455.19
296.909	464.19
297.14	455.19
297.37	491.19
297.601	502.19
297.831	536.19
298.062	507.19
298.292	483.19
298.523	483.19
298.753	477.19
298.984	478.19
299.214	495.19
299.445	490.19
299.675	509.19
299.905	502.19
300.136	488.19
300.366	483.19
300.597	453.19
300.827	474.19
301.057	482.19
301.288	520.19
301.518	515.19
301.748	530.19
301.979	553.19
302.209	562.19
302.439	588.19
302.669	593.19
302.9	560.19
303.13	528.19
303.36	516.19
303.59	488.19
303.82	498.19
304.051	519.19
304.281	528.19
304.511	530.19
304.741	591.19
304.971	623.19
305.201	635.19
305.431	564.19
305.661	501.19
305.891	452.19
306.121	443.19
306.352	470.19
306.582	519.19
306.812	552.19
307.042	596.19
307.272	590.19
307.502	577.19
307.731	635.19
307.961	642.19
308.191	585.19
308.421	527.19
308.651	508.19
308.881	501.19
309.111	487.19
309.341	492.19
309.571	496.19
309.8	498.19
310.03	501.19
310.26	483.19
310.49	498.19
310.72	519.19
310.949	536.19
311.179	522.19
311.409	517.19
311.639	512.19
311.868	533.19
312.098	519.19
312.328	527.19
312.557	511.19
312.787	503.19
313.017	533.19
313.246	518.19
313.476	522.19
313.706	542.19
313.935	545.19
314.165	549.19
314.394	567.19
314.624	594.19
314.853	624.19
315.083	623.19
315.312	632.19
315.542	595.19
315.771	551.19
316.001	558.19
316.23	562.19
316.46	566.19
316.689	544.19
316.919	563.19
317.148	536.19
317.377	574.19
317.607	580.19
317.836	606.19
318.065	644.19
318.295	607.19
318.524	617.19
318.753	573.19
318.983	579.19
319.212	560.19
319.441	562.19
319.67	544.19
319.9	571.19
320.129	617.19
320.358	630.19
320.587	638.19
320.816	612.19
321.046	613.19
321.275	578.19
321.504	587.19
321.733	618.19
321.962	585.19
322.191	560.19
322.42	567.19
322.649	561.19
322.878	572.19
323.108	560.19
323.337	570.19
323.566	583.19
323.795	582.19
324.024	587.19
324.253	557.19
324.482	568.19
324.71	556.19
324.939	525.19
325.168	569.19
325.397	568.19
325.626	610.19
325.855	571.19
326.084	575.19
326.313	571.19
326.542	563.19
326.77	601.19
326.999	563.19
327.228	563.19
327.457	552.19
327.686	544.19
327.914	563.19
328.143	573.19
328.372	571.19
328.6	576.19
328.829	565.19
329.058	551.19
329.287	569.19
329.515	560.19
329.744	588.19
329.972	619.19
330.201	666.19
330.43	607.19
330.658	587.19
330.887	600.19
331.115	595.19
331.344	594.19
331.572	612.19
331.801	584.19
332.03	592.19
332.258	611.19
332.486	610.19
332.715	609.19
332.943	632.19
333.172	594.19
333.4	618.19
333.629	626.19
333.857	669.19
334.085	714.19
334.314	826.19
334.542	835.19
334.771	774.19
334.999	694.19
335.227	662.19
335.455	629.19
335.684	665.19
335.912	650.19
336.14	663.19
336.369	633.19
336.597	629.19
336.825	632.19
337.053	631.19
337.281	648.19
337.51	686.19
337.738	682.19
337.966	675.19
338.194	615.19
338.422	603.19
338.65	592.19
338.878	580.19
339.106	567.19
339.334	564.19
339.562	568.19
339.79	603.19
340.018	628.19
340.246	643.19
340.474	629.19
340.702	616.19
340.93	615.19
341.158	627.19
341.386	606.19
341.614	612.19
341.842	600.19
342.07	606.19
342.298	602.19
342.526	601.19
342.754	605.19
342.981	587.19
343.209	586.19
343.437	586.19
343.665	609.19
343.893	648.19
344.12	634.19
344.348	639.19
344.576	601.19
344.804	598.19
345.031	608.19
345.259	606.19
345.487	558.19
345.714	577.19
345.942	560.19
346.17	547.19
346.397	578.19
346.625	575.19
346.853	548.19
347.08	548.19
347.308	552.19
347.535	578.19
347.763	594.19
347.99	570.19
348.218	550.19
348.445	544.19
348.673	583.19
348.9	603.19
349.128	623.19
349.355	614.19
349.583	629.19
349.81	561.19
350.037	528.19
350.265	540.19
350.492	556.19
350.72	586.19
350.947	582.19
351.174	572.19
351.402	551.19
351.629	537.19
351.856	530.19
352.083	538.19
352.311	526.19
352.538	562.19
352.765	570.19
352.992	579.19
353.22	555.19
353.447	561.19
353.674	567.19
353.901	561.19
354.128	545.19
354.355	570.19
354.583	596.19
354.81	581.19
355.037	587.19
355.264	569.19
355.491	565.19
355.718	571.19
355.945	568.19
356.172	553.19
356.399	574.19
356.626	537.19
356.853	614.19
357.08	631.19
357.307	681.19
357.534	654.19
357.761	592.19
357.988	530.19
358.215	532.19
358.441	568.19
358.668	553.19
358.895	562.19
359.122	616.19
359.349	650.19
359.576	633.19
359.802	565.19
360.029	554.19
360.256	561.19
360.483	565.19
360.709	590.19
360.936	594.19
361.163	615.19
361.39	650.19
361.616	707.19
361.843	696.19
362.07	644.19
362.296	594.19
362.523	564.19
362.749	583.19
362.976	593.19
363.203	588.19
363.429	577.19
363.656	548.19
363.882	594.19
364.109	652.19
364.335	660.19
364.562	635.19
364.788	608.19
365.015	598.19
365.241	569.19
365.468	606.19
365.694	642.19
365.92	639.19
366.147	616.19
366.373	568.19
366.599	572.19
366.826	583.19
367.052	543.19
367.278	586.19
367.505	584.19
367.731	617.19
367.957	605.19
368.184	633.19
368.41	657.19
368.636	663.19
368.862	678.19
369.089	685.19
369.315	629.19
369.541	658.19
369.767	598.19
369.993	591.19
370.219	606.19
370.445	637.19
370.672	640.19
370.898	663.19
371.124	655.19
371.35	650.19
371.576	635.19
371.802	633.19
372.028	647.19
372.254	626.19
372.48	620.19
372.706	592.19
372.932	598.19
373.158	620.19
373.384	635.19
373.61	646.19
373.835	664.19
374.061	678.19
374.287	630.19
374.513	634.19
374.739	647.19
374.965	644.19
375.191	648.19
375.416	658.19
375.642	668.19
375.868	719.19
376.094	716.19
376.319	692.19
376.545	652.19
376.771	667.19
376.997	701.19
377.222	686.19
377.448	691.19
377.674	657.19
377.899	690.19
378.125	755.19
378.35	715.19
378.576	611.19
378.802	615.19
379.027	622.19
379.253	642.19
379.478	663.19
379.704	647.19
379.929	654.19
380.155	674.19
380.38	670.19
380.606	647.19
380.831	681.19
381.057	710.19
381.282	691.19
381.507	703.19
381.733	743.19
381.958	760.19
382.184	696.19
382.409	668.19
382.634	688.19
382.86	672.19
383.085	681.19
383.31	724.19
383.535	793.19
383.761	795.19
383.986	776.19
384.211	728.19
384.436	748.19
384.662	797.19
384.887	781.19
385.112	746.19
385.337	735.19
385.562	769.19
385.787	734.19
386.013	761.19
386.238	755.19
386.463	776.19
386.688	832.19
386.913	850.19
387.138	834.19
387.363	811.19
387.588	801.19
387.813	751.19
388.038	790.19
388.263	814.19
388.488	753.19
388.713	705.19
388.938	723.19
389.163	757.19
389.387	753.19
389.612	755.19
389.837	762.19
390.062	753.19
390.287	748.19
390.512	768.19
390.736	752.19
390.961	734.19
391.186	733.19
391.411	740.19
391.636	743.19
391.86	750.19
392.085	774.19
392.31	747.19
392.534	759.19
392.759	784.19
392.984	763.19
393.208	773.19
393.433	814.19
393.658	833.19
393.882	840.19
394.107	786.19
394.331	759.19
394.556	770.19
394.78	798.19
395.005	810.19
395.229	835.19
395.454	891.19
395.678	863.19
395.903	805.19
396.127	824.19
396.352	848.19
396.576	870.19
396.801	835.19
397.025	834.19
397.249	886.19
397.474	852.19
397.698	828.19
397.922	860.19
398.147	908.19
398.371	923.19
398.595	933.19
398.82	895.19
399.044	900.19
399.268	909.19
399.492	964.19
399.717	992.19
399.941	1012.19
400.165	996.19
400.389	959.19
400.613	984.19
400.837	1126.19
401.062	1209.19
401.286	1056.19
401.51	990.19
401.734	1006.19
401.958	953.19
402.182	896.19
402.406	875.19
402.63	899.19
402.854	878.19
403.078	917.19
403.302	912.19
403.526	911.19
403.75	936.19
403.974	938.19
404.198	945.19
404.422	972.19
404.645	995.19
404.869	996.19
405.093	947.19
405.317	875.19
405.541	909.19
405.765	946.19
405.988	922.19
406.212	949.19
406.436	971.19
406.66	1015.19
406.883	1047.19
407.107	1143.19
407.331	1232.19
407.555	1250.19
407.778	1126.19
408.002	995.19
408.226	992.19
408.449	999.19
408.673	935.19
408.896	954.19
409.12	962.19
409.344	936.19
409.567	938.19
409.791	937.19
410.014	961.19
410.238	1027.19
410.461	1080.19
410.685	982.19
410.908	952.19
411.132	950.19
411.355	966.19
411.578	929.19
411.802	939.19
412.025	955.19
412.249	930.19
412.472	927.19
412.695	926.19
412.919	936.19
413.142	927.19
413.365	942.19
413.589	946.19
413.812	989.19
414.035	1044.19
414.258	940.19
414.482	926.19
414.705	910.19
414.928	949.19
415.151	942.19
415.374	938.19
415.597	945.19
415.821	956.19
416.044	968.19
416.267	958.19
416.49	920.19
416.713	915.19
416.936	976.19
417.159	972.19
417.382	960.19
417.605	954.19
417.828	959.19
418.051	941.19
418.274	947.19
418.497	935.19
418.72	938.19
418.943	931.19
419.166	977.19
419.389	987.19
419.611	962.19
419.834	967.19
420.057	955.19
420.28	954.19
420.503	937.19
420.726	959.19
420.948	974.19
421.171	916.19
421.394	947.19
421.617	981.19
421.839	1027.19
422.062	982.19
422.285	950.19
422.507	952.19
422.73	940.19
422.953	894.19
423.175	890.19
423.398	919.19
423.621	944.19
423.843	942.19
424.066	979.19
424.288	1029.19
424.511	1062.19
424.733	1012.19
424.956	929.19
425.178	950.19
425.401	930.19
425.623	946.19
425.846	930.19
426.068	981.19
426.291	950.19
426.513	959.19
426.735	986.19
426.958	1030.19
427.18	1077.19
427.402	1012.19
427.625	1035.19
427.847	987.19
428.069	930.19
428.292	930.19
428.514	907.19
428.736	934.19
428.958	936.19
429.181	921.19
429.403	1065.19
429.625	1240.19
429.847	1064.19
430.069	966.19
430.292	1046.19
430.514	1032.19
430.736	982.19
430.958	1015.19
431.18	911.19
431.402	908.19
431.624	884.19
431.846	803.19
432.068	721.19
432.29	728.19
432.512	796.19
432.734	895.19
432.956	926.19
433.178	972.19
433.4	971.19
433.622	949.19
433.844	914.19
434.066	852.19
434.287	814.19
434.509	786.19
434.731	839.19
434.953	942.19
435.175	920.19
435.397	908.19
435.618	886.19
435.84	843.19
436.062	852.19
436.284	900.19
436.505	930.19
436.727	971.19
436.949	933.19
437.17	912.19
437.392	896.19
437.614	848.19
437.835	818.19
438.057	821.19
438.278	868.19
438.5	870.19
438.721	916.19
438.943	922.19
439.165	940.19
439.386	919.19
439.608	970.19
439.829	995.19
440.05	947.19
440.272	953.19
440.493	938.19
440.715	974.19
440.936	1034.19
441.158	1080.19
441.379	1083.19
441.6	1015.19
441.822	1022.19
442.043	1033.19
442.264	986.19
442.486	963.19
442.707	969.19
442.928	954.19
443.149	998.19
443.371	1045.19
443.592	1059.19
443.813	1037.19
444.034	1028.19
444.255	1035.19
444.476	1019.19
444.698	1061.19
444.919	1056.19
445.14	1152.19
445.361	1068.19
445.582	1109.19
445.803	1063.19
446.024	1047.19
446.245	1043.19
446.466	1067.19
446.687	1051.19
446.908	1065.19
447.129	1014.19
447.35	1025.19
447.571	1020.19
447.792	985.19
448.013	972.19
448.234	980.19
448.455	1024.19
448.675	998.19
448.896	936.19
449.117	918.19
449.338	940.19
449.559	987.19
449.779	974.19
450	1042.19
450.221	1045.19
450.442	1003.19
450.662	919.19
450.883	913.19
451.104	883.19
451.324	892.19
451.545	890.19
451.766	882.19
451.986	860.19
452.207	828.19
452.428	821.19
452.648	800.19
452.869	804.19
453.089	804.19
453.31	793.19
453.53	772.19
453.751	715.19
453.971	698.19
454.192	736.19
454.412	798.19
454.633	792.19
454.853	826.19
455.073	750.19
455.294	781.19
455.514	773.19
455.734	763.19
455.955	766.19
456.175	756.19
456.395	781.19
456.616	754.19
456.836	790.19
457.056	764.19
457.276	752.19
457.497	707.19
457.717	728.19
457.937	719.19
458.157	727.19
458.377	723.19
458.598	705.19
458.818	691.19
459.038	707.19
459.258	714.19
459.478	699.19
459.698	719.19
459.918	742.19
460.138	809.19
460.358	826.19
460.578	857.19
460.798	876.19
461.018	898.19
461.238	874.19
461.458	866.19
461.678	850.19
461.898	834.19
462.118	818.19
462.338	865.19
462.558	834.19
462.777	852.19
462.997	876.19
463.217	923.19
463.437	890.19
463.657	846.19
463.876	849.19
464.096	824.19
464.316	860.19
464.536	873.19
464.755	864.19
464.975	906.19
465.195	879.19
465.414	890.19
465.634	882.19
465.854	869.19
466.073	962.19
466.293	940.19
466.512	883.19
466.732	908.19
466.951	942.19
467.171	918.19
467.391	885.19
467.61	865.19
467.829	910.19
468.049	993.19
468.268	1064.19
468.488	967.19
468.707	928.19
468.927	929.19
469.146	891.19
469.365	914.19
469.585	946.19
469.804	935.19
470.023	916.19
470.243	946.19
470.462	964.19
470.681	938.19
470.901	946.19
471.12	894.19
471.339	963.19
471.558	936.19
471.777	894.19
471.997	905.19
472.216	862.19
472.435	792.19
472.654	772.19
472.873	794.19
473.092	842.19
473.311	838.19
473.53	815.19
473.749	848.19
473.968	848.19
474.187	862.19
474.406	873.19
474.625	860.19
474.844	875.19
475.063	893.19
475.282	866.19
475.501	814.19
475.72	858.19
475.939	939.19
476.158	882.19
476.377	884.19
476.596	855.19
476.814	830.19
477.033	818.19
477.252	842.19
477.471	897.19
477.69	906.19
477.908	954.19
478.127	1007.19
478.346	1031.19
478.564	986.19
478.783	1036.19
479.002	1032.19
479.22	1011.19
479.439	1052.19
479.658	1051.19
479.876	976.19
480.095	909.19
480.313	890.19
480.532	910.19
480.751	879.19
480.969	828.19
481.188	820.19
481.406	800.19
481.624	775.19
481.843	801.19
482.061	845.19
482.28	867.19
482.498	900.19
482.717	850.19
482.935	894.19
483.153	1001.19
483.372	1050.19
483.59	1019.19
483.808	977.19
484.027	948.19
484.245	971.19
484.463	1247.19
484.681	1302.19
484.9	1013.19
485.118	955.19
485.336	955.19
485.554	930.19
485.772	904.19
485.99	898.19
486.209	914.19
486.427	938.19
486.645	967.19
486.863	1016.19
487.081	1058.19
487.299	1021.19
487.517	1050.19
487.735	1135.19
487.953	1174.19
488.171	1183.19
488.389	1122.19
488.607	1093.19
488.825	1152.19
489.043	1114.19
489.261	1009.19
489.479	1063.19
489.696	1072.19
489.914	1034.19
490.132	1046.19
490.35	1099.19
490.568	1158.19
490.786	1201.19
491.003	1216.19
491.221	1262.19
491.439	1302.19
491.657	1316.19
491.874	1374.19
492.092	1471.19
492.31	1526.19
492.527	1488.19
492.745	1410.19
492.963	1344.19
493.18	1314.19
493.398	1380.19
493.615	1351.19
493.833	1280.19
494.05	1251.19
494.268	1280.19
494.485	1248.19
494.703	1255.19
494.92	1246.19
495.138	1214.19
495.355	1247.19
495.573	1268.19
495.79	1270.19
496.008	1306.19
496.225	1206.19
496.442	1256.19
496.66	1263.19
496.877	1262.19
497.094	1254.19
497.312	1231.19
497.529	1210.19
497.746	1208.19
497.963	1295.19
498.181	1332.19
498.398	1257.19
498.615	1250.19
498.832	1165.19
499.049	1170.19
499.267	1212.19
499.484	1276.19
499.701	1372.19
499.918	1398.19
500.135	1514.19
