Data from WStandard_LampEnergy5.5LIBS07252019.E.O._I.C._HRD10591_16-08-37-921.txt Node
Date: Thu Jul 25 16:08:37 EDT 2019
User: cochatt
Spectrometer: HR+D1059
Trigger mode: 1
Integration Time (sec): 1.000000E-1
Scans to average: 1
Electric dark correction enabled: true
Nonlinearity correction enabled: false
Boxcar width: 0
XAxis mode: Wavelengths
Number of Pixels in Spectrum: 2048
>>>>>Begin Spectral Data<<<<<
223.165	-20.44
223.4	-20.44
223.635	-20.44
223.869	-33.44
224.104	-21.44
224.338	-11.44
224.573	-5.44
224.808	-8.44
225.042	-2.44
225.277	-12.44
225.511	8.56
225.746	-11.44
225.98	2.56
226.215	14.56
226.449	28.56
226.683	17.56
226.918	17.56
227.152	37.56
227.387	35.56
227.621	30.56
227.856	32.56
228.09	33.56
228.324	62.56
228.559	45.56
228.793	141.56
229.027	369.56
229.262	376.56
229.496	388.56
229.73	391.56
229.964	439.56
230.199	443.56
230.433	467.56
230.667	478.56
230.901	516.56
231.136	474.56
231.37	466.56
231.604	469.56
231.838	473.56
232.072	448.56
232.306	438.56
232.541	471.56
232.775	530.56
233.009	592.56
233.243	576.56
233.477	520.56
233.711	530.56
233.945	532.56
234.179	520.56
234.413	586.56
234.647	631.56
234.881	591.56
235.115	544.56
235.349	528.56
235.583	558.56
235.817	562.56
236.051	522.56
236.285	539.56
236.519	586.56
236.753	633.56
236.987	674.56
237.221	665.56
237.455	721.56
237.689	709.56
237.922	661.56
238.156	659.56
238.39	653.56
238.624	711.56
238.858	720.56
239.091	761.56
239.325	772.56
239.559	880.56
239.793	924.56
240.027	1011.56
240.26	1007.56
240.494	745.56
240.728	719.56
240.961	707.56
241.195	749.56
241.429	789.56
241.662	796.56
241.896	760.56
242.13	758.56
242.363	807.56
242.597	904.56
242.83	884.56
243.064	877.56
243.298	930.56
243.531	926.56
243.765	922.56
243.998	913.56
244.232	808.56
244.465	752.56
244.699	792.56
244.932	876.56
245.166	1027.56
245.399	976.56
245.633	888.56
245.866	891.56
246.099	928.56
246.333	936.56
246.566	937.56
246.8	1044.56
247.033	1134.56
247.266	1063.56
247.5	1038.56
247.733	1027.56
247.966	1116.56
248.2	1220.56
248.433	1142.56
248.666	1208.56
248.899	1285.56
249.133	1497.56
249.366	1736.56
249.599	1447.56
249.832	1178.56
250.066	1283.56
250.299	1286.56
250.532	1170.56
250.765	1072.56
250.998	1134.56
251.231	1202.56
251.465	1217.56
251.698	1158.56
251.931	1147.56
252.164	1185.56
252.397	1216.56
252.63	1243.56
252.863	1091.56
253.096	1080.56
253.329	1145.56
253.562	1198.56
253.795	1241.56
254.028	1244.56
254.261	1173.56
254.494	1132.56
254.727	1085.56
254.96	1136.56
255.193	1212.56
255.426	1396.56
255.659	1596.56
255.892	1672.56
256.124	1349.56
256.357	1300.56
256.59	1402.56
256.823	1392.56
257.056	1423.56
257.289	1672.56
257.521	1908.56
257.754	1666.56
257.987	1562.56
258.22	1746.56
258.452	1723.56
258.685	1389.56
258.918	1334.56
259.151	1372.56
259.383	1300.56
259.616	1138.56
259.849	1220.56
260.081	1378.56
260.314	1521.56
260.547	1650.56
260.779	1702.56
261.012	1589.56
261.244	1428.56
261.477	1355.56
261.71	1408.56
261.942	1379.56
262.175	1349.56
262.407	1437.56
262.64	1378.56
262.872	1267.56
263.105	1233.56
263.337	1233.56
263.57	1270.56
263.802	1280.56
264.035	1204.56
264.267	1120.56
264.499	1110.56
264.732	1218.56
264.964	1268.56
265.197	1340.56
265.429	1358.56
265.661	1539.56
265.894	1684.56
266.126	1804.56
266.358	1586.56
266.591	1626.56
266.823	1764.56
267.055	1615.56
267.287	1573.56
267.52	1528.56
267.752	1506.56
267.984	1497.56
268.216	1605.56
268.448	1655.56
268.681	1621.56
268.913	1513.56
269.145	1404.56
269.377	1362.56
269.609	1476.56
269.841	1716.56
270.073	2010.56
270.306	2201.56
270.538	2412.56
270.77	2037.56
271.002	1692.56
271.234	1640.56
271.466	1590.56
271.698	1801.56
271.93	2121.56
272.162	2154.56
272.394	1932.56
272.626	1904.56
272.858	1642.56
273.09	1429.56
273.322	1429.56
273.553	1356.56
273.785	1344.56
274.017	1436.56
274.249	1556.56
274.481	1570.56
274.713	1415.56
274.945	1392.56
275.176	1398.56
275.408	1405.56
275.64	1361.56
275.872	1349.56
276.104	1421.56
276.335	1650.56
276.567	1876.56
276.799	1885.56
277.031	1684.56
277.262	1595.56
277.494	1632.56
277.726	1796.56
277.957	1810.56
278.189	1637.56
278.421	1512.56
278.652	1468.56
278.884	1447.56
279.115	1466.56
279.347	1492.56
279.579	1464.56
279.81	1450.56
280.042	1595.56
280.273	1740.56
280.505	1747.56
280.736	1805.56
280.968	1692.56
281.199	1485.56
281.431	1441.56
281.662	1411.56
281.894	1388.56
282.125	1419.56
282.356	1504.56
282.588	1532.56
282.819	1531.56
283.051	1594.56
283.282	1767.56
283.513	1715.56
283.745	1515.56
283.976	1381.56
284.207	1389.56
284.439	1458.56
284.67	1435.56
284.901	1484.56
285.132	1531.56
285.364	1497.56
285.595	1518.56
285.826	1458.56
286.057	1481.56
286.288	1516.56
286.52	1503.56
286.751	1664.56
286.982	1731.56
287.213	1577.56
287.444	1428.56
287.675	1418.56
287.906	1539.56
288.138	1616.56
288.369	1611.56
288.6	1513.56
288.831	1413.56
289.062	1398.56
289.293	1459.56
289.524	1511.56
289.755	1518.56
289.986	1570.56
290.217	1445.56
290.448	1427.56
290.679	1524.56
290.91	1512.56
291.141	1564.56
291.371	1611.56
291.602	1577.56
291.833	1586.56
292.064	1649.56
292.295	1590.56
292.526	1639.56
292.757	1696.56
292.987	1644.56
293.218	1504.56
293.449	1632.56
293.68	1909.56
293.91	2012.56
294.141	1856.56
294.372	1781.56
294.603	1758.56
294.833	1909.56
295.064	1828.56
295.295	1659.56
295.525	1586.56
295.756	1497.56
295.987	1400.56
296.217	1422.56
296.448	1468.56
296.679	1472.56
296.909	1509.56
297.14	1448.56
297.37	1469.56
297.601	1540.56
297.831	1703.56
298.062	1693.56
298.292	1560.56
298.523	1492.56
298.753	1475.56
298.984	1512.56
299.214	1495.56
299.445	1546.56
299.675	1583.56
299.905	1600.56
300.136	1555.56
300.366	1501.56
300.597	1473.56
300.827	1484.56
301.057	1508.56
301.288	1629.56
301.518	1595.56
301.748	1606.56
301.979	1709.56
302.209	1712.56
302.439	1863.56
302.669	1972.56
302.9	1785.56
303.13	1628.56
303.36	1614.56
303.59	1642.56
303.82	1646.56
304.051	1597.56
304.281	1632.56
304.511	1637.56
304.741	1713.56
304.971	1896.56
305.201	2048.56
305.431	1894.56
305.661	1569.56
305.891	1418.56
306.121	1426.56
306.352	1491.56
306.582	1577.56
306.812	1652.56
307.042	1765.56
307.272	1782.56
307.502	1844.56
307.731	1987.56
307.961	2091.56
308.191	1932.56
308.421	1663.56
308.651	1553.56
308.881	1560.56
309.111	1565.56
309.341	1545.56
309.571	1554.56
309.8	1561.56
310.03	1563.56
310.26	1527.56
310.49	1520.56
310.72	1574.56
310.949	1629.56
311.179	1642.56
311.409	1656.56
311.639	1586.56
311.868	1528.56
312.098	1572.56
312.328	1603.56
312.557	1550.56
312.787	1609.56
313.017	1635.56
313.246	1600.56
313.476	1588.56
313.706	1707.56
313.935	1609.56
314.165	1630.56
314.394	1689.56
314.624	1795.56
314.853	1912.56
315.083	1962.56
315.312	1960.56
315.542	1892.56
315.771	1662.56
316.001	1642.56
316.23	1771.56
316.46	1793.56
316.689	1724.56
316.919	1694.56
317.148	1576.56
317.377	1613.56
317.607	1748.56
317.836	1930.56
318.065	2007.56
318.295	1962.56
318.524	1810.56
318.753	1731.56
318.983	1780.56
319.212	1738.56
319.441	1710.56
319.67	1683.56
319.9	1698.56
320.129	1789.56
320.358	1860.56
320.587	1933.56
320.816	1889.56
321.046	1861.56
321.275	1724.56
321.504	1746.56
321.733	1925.56
321.962	1892.56
322.191	1737.56
322.42	1735.56
322.649	1705.56
322.878	1683.56
323.108	1690.56
323.337	1756.56
323.566	1770.56
323.795	1760.56
324.024	1748.56
324.253	1726.56
324.482	1741.56
324.71	1704.56
324.939	1570.56
325.168	1614.56
325.397	1684.56
325.626	1767.56
325.855	1803.56
326.084	1688.56
326.313	1716.56
326.542	1722.56
326.77	1770.56
326.999	1802.56
327.228	1713.56
327.457	1628.56
327.686	1638.56
327.914	1650.56
328.143	1720.56
328.372	1726.56
328.6	1699.56
328.829	1696.56
329.058	1657.56
329.287	1689.56
329.515	1698.56
329.744	1732.56
329.972	1829.56
330.201	1902.56
330.43	1886.56
330.658	1777.56
330.887	1798.56
331.115	1805.56
331.344	1812.56
331.572	1817.56
331.801	1764.56
332.03	1804.56
332.258	1796.56
332.486	1824.56
332.715	1843.56
332.943	1817.56
333.172	1773.56
333.4	1808.56
333.629	1842.56
333.857	1970.56
334.085	2122.56
334.314	2434.56
334.542	2699.56
334.771	2441.56
334.999	2153.56
335.227	2029.56
335.455	1949.56
335.684	1933.56
335.912	1909.56
336.14	2042.56
336.369	1968.56
336.597	1868.56
336.825	1819.56
337.053	1884.56
337.281	1942.56
337.51	2040.56
337.738	2136.56
337.966	2080.56
338.194	1851.56
338.422	1767.56
338.65	1750.56
338.878	1787.56
339.106	1731.56
339.334	1703.56
339.562	1697.56
339.79	1705.56
340.018	1820.56
340.246	1907.56
340.474	1897.56
340.702	1841.56
340.93	1824.56
341.158	1828.56
341.386	1835.56
341.614	1770.56
341.842	1743.56
342.07	1796.56
342.298	1798.56
342.526	1811.56
342.754	1725.56
342.981	1732.56
343.209	1704.56
343.437	1726.56
343.665	1755.56
343.893	1805.56
344.12	1890.56
344.348	1929.56
344.576	1881.56
344.804	1784.56
345.031	1756.56
345.259	1802.56
345.487	1701.56
345.714	1661.56
345.942	1628.56
346.17	1641.56
346.397	1716.56
346.625	1712.56
346.853	1637.56
347.08	1620.56
347.308	1595.56
347.535	1656.56
347.763	1696.56
347.99	1692.56
348.218	1616.56
348.445	1628.56
348.673	1650.56
348.9	1666.56
349.128	1735.56
349.355	1818.56
349.583	1740.56
349.81	1693.56
350.037	1521.56
350.265	1528.56
350.492	1561.56
350.72	1614.56
350.947	1633.56
351.174	1714.56
351.402	1640.56
351.629	1581.56
351.856	1537.56
352.083	1554.56
352.311	1493.56
352.538	1581.56
352.765	1687.56
352.992	1674.56
353.22	1655.56
353.447	1590.56
353.674	1644.56
353.901	1678.56
354.128	1605.56
354.355	1574.56
354.583	1654.56
354.81	1705.56
355.037	1670.56
355.264	1716.56
355.491	1644.56
355.718	1680.56
355.945	1636.56
356.172	1643.56
356.399	1605.56
356.626	1603.56
356.853	1636.56
357.08	1733.56
357.307	1913.56
357.534	1963.56
357.761	1730.56
357.988	1582.56
358.215	1546.56
358.441	1588.56
358.668	1553.56
358.895	1626.56
359.122	1677.56
359.349	1850.56
359.576	1827.56
359.802	1615.56
360.029	1565.56
360.256	1599.56
360.483	1625.56
360.709	1640.56
360.936	1735.56
361.163	1737.56
361.39	1855.56
361.616	2091.56
361.843	2028.56
362.07	1907.56
362.296	1664.56
362.523	1602.56
362.749	1590.56
362.976	1686.56
363.203	1697.56
363.429	1623.56
363.656	1584.56
363.882	1635.56
364.109	1791.56
364.335	1969.56
364.562	1806.56
364.788	1741.56
365.015	1679.56
365.241	1570.56
365.468	1670.56
365.694	1698.56
365.92	1755.56
366.147	1706.56
366.373	1612.56
366.599	1569.56
366.826	1568.56
367.052	1571.56
367.278	1591.56
367.505	1634.56
367.731	1662.56
367.957	1686.56
368.184	1742.56
368.41	1814.56
368.636	1818.56
368.862	1815.56
369.089	1894.56
369.315	1794.56
369.541	1712.56
369.767	1641.56
369.993	1599.56
370.219	1637.56
370.445	1654.56
370.672	1729.56
370.898	1838.56
371.124	1801.56
371.35	1725.56
371.576	1720.56
371.802	1839.56
372.028	1776.56
372.254	1637.56
372.48	1682.56
372.706	1639.56
372.932	1640.56
373.158	1677.56
373.384	1691.56
373.61	1733.56
373.835	1842.56
374.061	1741.56
374.287	1710.56
374.513	1694.56
374.739	1759.56
374.965	1756.56
375.191	1766.56
375.416	1713.56
375.642	1782.56
375.868	1867.56
376.094	1935.56
376.319	1816.56
376.545	1696.56
376.771	1731.56
376.997	1794.56
377.222	1797.56
377.448	1781.56
377.674	1784.56
377.899	1765.56
378.125	1850.56
378.35	1908.56
378.576	1705.56
378.802	1682.56
379.027	1641.56
379.253	1703.56
379.478	1689.56
379.704	1707.56
379.929	1714.56
380.155	1685.56
380.38	1750.56
380.606	1746.56
380.831	1735.56
381.057	1814.56
381.282	1818.56
381.507	1800.56
381.733	1830.56
381.958	1941.56
382.184	1814.56
382.409	1732.56
382.634	1853.56
382.86	1757.56
383.085	1792.56
383.31	1822.56
383.535	1968.56
383.761	2084.56
383.986	2009.56
384.211	1942.56
384.436	1882.56
384.662	1961.56
384.887	2046.56
385.112	1954.56
385.337	2026.56
385.562	1952.56
385.787	2010.56
386.013	1977.56
386.238	2029.56
386.463	1990.56
386.688	2113.56
386.913	2230.56
387.138	2190.56
387.363	2027.56
387.588	2036.56
387.813	2012.56
388.038	2021.56
388.263	2091.56
388.488	2057.56
388.713	1868.56
388.938	1860.56
389.163	1871.56
389.387	1943.56
389.612	1920.56
389.837	1948.56
390.062	1971.56
390.287	1945.56
390.512	1923.56
390.736	1898.56
390.961	1910.56
391.186	1879.56
391.411	1916.56
391.636	1968.56
391.86	1946.56
392.085	1958.56
392.31	1944.56
392.534	1928.56
392.759	2019.56
392.984	1932.56
393.208	1981.56
393.433	2010.56
393.658	2107.56
393.882	2132.56
394.107	2019.56
394.331	1936.56
394.556	1979.56
394.78	1980.56
395.005	2022.56
395.229	2085.56
395.454	2245.56
395.678	2274.56
395.903	2191.56
396.127	2068.56
396.352	2078.56
396.576	2119.56
396.801	2188.56
397.025	2073.56
397.249	2165.56
397.474	2106.56
397.698	2092.56
397.922	2139.56
398.147	2249.56
398.371	2325.56
398.595	2312.56
398.82	2245.56
399.044	2281.56
399.268	2387.56
399.492	2505.56
399.717	2612.56
399.941	2626.56
400.165	2537.56
400.389	2514.56
400.613	2506.56
400.837	2694.56
401.062	3083.56
401.286	2703.56
401.51	2472.56
401.734	2568.56
401.958	2473.56
402.182	2332.56
402.406	2204.56
402.63	2189.56
402.854	2235.56
403.078	2267.56
403.302	2330.56
403.526	2328.56
403.75	2338.56
403.974	2314.56
404.198	2290.56
404.422	2394.56
404.645	2492.56
404.869	2475.56
405.093	2313.56
405.317	2242.56
405.541	2356.56
405.765	2371.56
405.988	2322.56
406.212	2377.56
406.436	2457.56
406.66	2487.56
406.883	2433.56
407.107	2793.56
407.331	3023.56
407.555	3281.56
407.778	3019.56
408.002	2563.56
408.226	2434.56
408.449	2486.56
408.673	2388.56
408.896	2393.56
409.12	2432.56
409.344	2411.56
409.567	2293.56
409.791	2370.56
410.014	2391.56
410.238	2454.56
410.461	2643.56
410.685	2416.56
410.908	2283.56
411.132	2349.56
411.355	2332.56
411.578	2235.56
411.802	2213.56
412.025	2385.56
412.249	2249.56
412.472	2216.56
412.695	2194.56
412.919	2230.56
413.142	2201.56
413.365	2272.56
413.589	2263.56
413.812	2361.56
414.035	2459.56
414.258	2251.56
414.482	2191.56
414.705	2241.56
414.928	2226.56
415.151	2199.56
415.374	2202.56
415.597	2222.56
415.821	2236.56
416.044	2364.56
416.267	2305.56
416.49	2152.56
416.713	2144.56
416.936	2176.56
417.159	2306.56
417.382	2276.56
417.605	2167.56
417.828	2232.56
418.051	2289.56
418.274	2196.56
418.497	2143.56
418.72	2151.56
418.943	2133.56
419.166	2286.56
419.389	2396.56
419.611	2269.56
419.834	2204.56
420.057	2237.56
420.28	2150.56
420.503	2161.56
420.726	2173.56
420.948	2190.56
421.171	2142.56
421.394	2172.56
421.617	2171.56
421.839	2197.56
422.062	2165.56
422.285	2094.56
422.507	2123.56
422.73	2067.56
422.953	2055.56
423.175	2061.56
423.398	2139.56
423.621	2087.56
423.843	2180.56
424.066	2203.56
424.288	2258.56
424.511	2263.56
424.733	2242.56
424.956	2037.56
425.178	2011.56
425.401	2076.56
425.623	2102.56
425.846	2057.56
426.068	2200.56
426.291	2215.56
426.513	2151.56
426.735	2172.56
426.958	2305.56
427.18	2460.56
427.402	2257.56
427.625	2252.56
427.847	2333.56
428.069	2154.56
428.292	2157.56
428.514	2040.56
428.736	2040.56
428.958	2062.56
429.181	2122.56
429.403	2322.56
429.625	2925.56
429.847	2549.56
430.069	2138.56
430.292	2332.56
430.514	2437.56
430.736	2226.56
430.958	2352.56
431.18	2289.56
431.402	2107.56
431.624	2048.56
431.846	2041.56
432.068	2025.56
432.29	2063.56
432.512	2108.56
432.734	2134.56
432.956	2136.56
433.178	2213.56
433.4	2191.56
433.622	2183.56
433.844	2107.56
434.066	2068.56
434.287	2054.56
434.509	2131.56
434.731	2228.56
434.953	2377.56
435.175	2344.56
435.397	2184.56
435.618	2189.56
435.84	2190.56
436.062	2173.56
436.284	2171.56
436.505	2183.56
436.727	2206.56
436.949	2131.56
437.17	2101.56
437.392	2099.56
437.614	2089.56
437.835	2051.56
438.057	2153.56
438.278	2239.56
438.5	2075.56
438.721	2077.56
438.943	2102.56
439.165	2081.56
439.386	2004.56
439.608	2030.56
439.829	2089.56
440.05	2096.56
440.272	2051.56
440.493	2009.56
440.715	2040.56
440.936	2196.56
441.158	2422.56
441.379	2374.56
441.6	2251.56
441.822	2233.56
442.043	2238.56
442.264	2177.56
442.486	2052.56
442.707	2067.56
442.928	2028.56
443.149	2120.56
443.371	2233.56
443.592	2352.56
443.813	2241.56
444.034	2242.56
444.255	2227.56
444.476	2325.56
444.698	2353.56
444.919	2318.56
445.14	2413.56
445.361	2421.56
445.582	2466.56
445.803	2365.56
446.024	2280.56
446.245	2336.56
446.466	2286.56
446.687	2166.56
446.908	2157.56
447.129	2089.56
447.35	2125.56
447.571	2126.56
447.792	2038.56
448.013	1978.56
448.234	2050.56
448.455	2167.56
448.675	2135.56
448.896	1964.56
449.117	1942.56
449.338	2031.56
449.559	2093.56
449.779	2242.56
450	2446.56
450.221	2636.56
450.442	2497.56
450.662	2258.56
450.883	1945.56
451.104	1930.56
451.324	1943.56
451.545	2042.56
451.766	2008.56
451.986	1937.56
452.207	1923.56
452.428	1836.56
452.648	1800.56
452.869	1909.56
453.089	2036.56
453.31	2092.56
453.53	2099.56
453.751	2025.56
453.971	1873.56
454.192	1936.56
454.412	2063.56
454.633	1978.56
454.853	1915.56
455.073	1795.56
455.294	1768.56
455.514	1835.56
455.734	1802.56
455.955	1872.56
456.175	1844.56
456.395	1839.56
456.616	1908.56
456.836	1941.56
457.056	1915.56
457.276	1863.56
457.497	1836.56
457.717	1777.56
457.937	1794.56
458.157	1842.56
458.377	1843.56
458.598	1820.56
458.818	1851.56
459.038	2022.56
459.258	2116.56
459.478	2101.56
459.698	2020.56
459.918	2098.56
460.138	2178.56
460.358	2230.56
460.578	2207.56
460.798	2265.56
461.018	2427.56
461.238	2314.56
461.458	2207.56
461.678	2205.56
461.898	2154.56
462.118	2052.56
462.338	2220.56
462.558	2248.56
462.777	2204.56
462.997	2313.56
463.217	2500.56
463.437	2429.56
463.657	2265.56
463.876	2185.56
464.096	2204.56
464.316	2215.56
464.536	2296.56
464.755	2298.56
464.975	2333.56
465.195	2270.56
465.414	2324.56
465.634	2378.56
465.854	2208.56
466.073	2339.56
466.293	2264.56
466.512	2036.56
466.732	1984.56
466.951	2130.56
467.171	2134.56
467.391	1982.56
467.61	1969.56
467.829	1972.56
468.049	2154.56
468.268	2404.56
468.488	2297.56
468.707	2119.56
468.927	2052.56
469.146	1973.56
469.365	1974.56
469.585	2050.56
469.804	1991.56
470.023	2013.56
470.243	2078.56
470.462	1997.56
470.681	1930.56
470.901	2068.56
471.12	2028.56
471.339	1988.56
471.558	1952.56
471.777	1913.56
471.997	1971.56
472.216	1984.56
472.435	1914.56
472.654	1921.56
472.873	2010.56
473.092	2170.56
473.311	2063.56
473.53	1909.56
473.749	1918.56
473.968	1976.56
474.187	2079.56
474.406	2196.56
474.625	2081.56
474.844	2071.56
475.063	2021.56
475.282	2105.56
475.501	2060.56
475.72	2065.56
475.939	2186.56
476.158	2093.56
476.377	2027.56
476.596	2078.56
476.814	2133.56
477.033	2149.56
477.252	2219.56
477.471	2246.56
477.69	2125.56
477.908	2145.56
478.127	2210.56
478.346	2430.56
478.564	2440.56
478.783	2396.56
479.002	2488.56
479.22	2405.56
479.439	2507.56
479.658	2791.56
479.876	2846.56
480.095	2422.56
480.313	2357.56
480.532	2228.56
480.751	2312.56
480.969	2338.56
481.188	2305.56
481.406	2269.56
481.624	2256.56
481.843	2244.56
482.061	2284.56
482.28	2311.56
482.498	2404.56
482.717	2349.56
482.935	2260.56
483.153	2238.56
483.372	2292.56
483.59	2240.56
483.808	2275.56
484.027	2302.56
484.245	2492.56
484.463	2786.56
484.681	3222.56
484.9	2478.56
485.118	2317.56
485.336	2292.56
485.554	2367.56
485.772	2490.56
485.99	2433.56
486.209	2442.56
486.427	2467.56
486.645	2466.56
486.863	2422.56
487.081	2456.56
487.299	2477.56
