Data from WStandard_LampEnergy5.5LIBS07252019.E.O._I.C._HRD10591_16-07-23-920.txt Node
Date: Thu Jul 25 16:07:23 EDT 2019
User: cochatt
Spectrometer: HR+D1059
Trigger mode: 1
Integration Time (sec): 1.000000E-1
Scans to average: 1
Electric dark correction enabled: true
Nonlinearity correction enabled: false
Boxcar width: 0
XAxis mode: Wavelengths
Number of Pixels in Spectrum: 2048
>>>>>Begin Spectral Data<<<<<
223.165	-18.62
223.4	-18.62
223.635	-18.62
223.869	-14.62
224.104	-22.62
224.338	-15.62
224.573	-32.62
224.808	-19.62
225.042	2.38
225.277	2.38
225.511	6.38
225.746	-4.62
225.98	0.38
226.215	18.38
226.449	7.38
226.683	17.38
226.918	33.38
227.152	40.38
227.387	35.38
227.621	36.38
227.856	38.38
228.09	38.38
228.324	44.38
228.559	59.38
228.793	147.38
229.027	364.38
229.262	363.38
229.496	383.38
229.73	417.38
229.964	453.38
230.199	469.38
230.433	484.38
230.667	514.38
230.901	565.38
231.136	466.38
231.37	458.38
231.604	456.38
231.838	468.38
232.072	465.38
232.306	443.38
232.541	475.38
232.775	537.38
233.009	628.38
233.243	600.38
233.477	539.38
233.711	534.38
233.945	598.38
234.179	575.38
234.413	580.38
234.647	633.38
234.881	594.38
235.115	568.38
235.349	583.38
235.583	582.38
235.817	577.38
236.051	548.38
236.285	559.38
236.519	602.38
236.753	658.38
236.987	713.38
237.221	696.38
237.455	750.38
237.689	741.38
237.922	692.38
238.156	673.38
238.39	671.38
238.624	751.38
238.858	762.38
239.091	796.38
239.325	825.38
239.559	929.38
239.793	942.38
240.027	1079.38
240.26	1071.38
240.494	775.38
240.728	752.38
240.961	742.38
241.195	768.38
241.429	866.38
241.662	834.38
241.896	768.38
242.13	790.38
242.363	888.38
242.597	950.38
242.83	917.38
243.064	907.38
243.298	951.38
243.531	958.38
243.765	948.38
243.998	945.38
244.232	818.38
244.465	816.38
244.699	809.38
244.932	928.38
245.166	1035.38
245.399	992.38
245.633	916.38
245.866	913.38
246.099	973.38
246.333	967.38
246.566	970.38
246.8	1087.38
247.033	1193.38
247.266	1100.38
247.5	1102.38
247.733	1091.38
247.966	1139.38
248.2	1253.38
248.433	1198.38
248.666	1263.38
248.899	1364.38
249.133	1529.38
249.366	1772.38
249.599	1482.38
249.832	1281.38
250.066	1288.38
250.299	1382.38
250.532	1229.38
250.765	1098.38
250.998	1190.38
251.231	1229.38
251.465	1280.38
251.698	1190.38
251.931	1156.38
252.164	1219.38
252.397	1273.38
252.63	1286.38
252.863	1115.38
253.096	1120.38
253.329	1171.38
253.562	1222.38
253.795	1305.38
254.028	1316.38
254.261	1202.38
254.494	1186.38
254.727	1143.38
254.96	1178.38
255.193	1278.38
255.426	1460.38
255.659	1676.38
255.892	1752.38
256.124	1395.38
256.357	1383.38
256.59	1470.38
256.823	1477.38
257.056	1428.38
257.289	1752.38
257.521	1973.38
257.754	1711.38
257.987	1631.38
258.22	1812.38
258.452	1806.38
258.685	1439.38
258.918	1390.38
259.151	1438.38
259.383	1364.38
259.616	1225.38
259.849	1266.38
260.081	1408.38
260.314	1621.38
260.547	1752.38
260.779	1792.38
261.012	1661.38
261.244	1460.38
261.477	1418.38
261.71	1448.38
261.942	1461.38
262.175	1386.38
262.407	1508.38
262.64	1414.38
262.872	1319.38
263.105	1274.38
263.337	1320.38
263.57	1338.38
263.802	1351.38
264.035	1275.38
264.267	1172.38
264.499	1154.38
264.732	1266.38
264.964	1342.38
265.197	1390.38
265.429	1426.38
265.661	1612.38
265.894	1809.38
266.126	1845.38
266.358	1658.38
266.591	1680.38
266.823	1860.38
267.055	1675.38
267.287	1635.38
267.52	1631.38
267.752	1616.38
267.984	1586.38
268.216	1676.38
268.448	1705.38
268.681	1678.38
268.913	1566.38
269.145	1448.38
269.377	1433.38
269.609	1522.38
269.841	1758.38
270.073	2028.38
270.306	2344.38
270.538	2522.38
270.77	2124.38
271.002	1797.38
271.234	1674.38
271.466	1690.38
271.698	1865.38
271.93	2239.38
272.162	2262.38
272.394	2023.38
272.626	1932.38
272.858	1719.38
273.09	1483.38
273.322	1496.38
273.553	1406.38
273.785	1432.38
274.017	1465.38
274.249	1602.38
274.481	1611.38
274.713	1461.38
274.945	1426.38
275.176	1458.38
275.408	1449.38
275.64	1367.38
275.872	1363.38
276.104	1489.38
276.335	1701.38
276.567	1904.38
276.799	1985.38
277.031	1772.38
277.262	1636.38
277.494	1686.38
277.726	1918.38
277.957	1847.38
278.189	1722.38
278.421	1583.38
278.652	1542.38
278.884	1518.38
279.115	1500.38
279.347	1522.38
279.579	1491.38
279.81	1494.38
280.042	1636.38
280.273	1848.38
280.505	1834.38
280.736	1858.38
280.968	1816.38
281.199	1526.38
281.431	1492.38
281.662	1497.38
281.894	1481.38
282.125	1495.38
282.356	1561.38
282.588	1588.38
282.819	1551.38
283.051	1676.38
283.282	1851.38
283.513	1799.38
283.745	1513.38
283.976	1437.38
284.207	1458.38
284.439	1535.38
284.67	1540.38
284.901	1571.38
285.132	1597.38
285.364	1593.38
285.595	1600.38
285.826	1572.38
286.057	1535.38
286.288	1518.38
286.52	1557.38
286.751	1716.38
286.982	1778.38
287.213	1618.38
287.444	1503.38
287.675	1510.38
287.906	1572.38
288.138	1665.38
288.369	1626.38
288.6	1530.38
288.831	1488.38
289.062	1512.38
289.293	1557.38
289.524	1564.38
289.755	1574.38
289.986	1643.38
290.217	1459.38
290.448	1517.38
290.679	1538.38
290.91	1558.38
291.141	1613.38
291.371	1673.38
291.602	1647.38
291.833	1627.38
292.064	1676.38
292.295	1646.38
292.526	1665.38
292.757	1786.38
292.987	1688.38
293.218	1582.38
293.449	1694.38
293.68	1937.38
293.91	2088.38
294.141	1924.38
294.372	1803.38
294.603	1867.38
294.833	1926.38
295.064	1840.38
295.295	1671.38
295.525	1610.38
295.756	1502.38
295.987	1455.38
296.217	1494.38
296.448	1509.38
296.679	1532.38
296.909	1521.38
297.14	1504.38
297.37	1530.38
297.601	1617.38
297.831	1729.38
298.062	1802.38
298.292	1607.38
298.523	1525.38
298.753	1565.38
298.984	1578.38
299.214	1555.38
299.445	1608.38
299.675	1673.38
299.905	1620.38
300.136	1593.38
300.366	1574.38
300.597	1523.38
300.827	1521.38
301.057	1566.38
301.288	1665.38
301.518	1633.38
301.748	1675.38
301.979	1722.38
302.209	1799.38
302.439	1922.38
302.669	2001.38
302.9	1890.38
303.13	1692.38
303.36	1687.38
303.59	1726.38
303.82	1686.38
304.051	1693.38
304.281	1677.38
304.511	1655.38
304.741	1755.38
304.971	1938.38
305.201	2168.38
305.431	1973.38
305.661	1625.38
305.891	1484.38
306.121	1440.38
306.352	1492.38
306.582	1590.38
306.812	1727.38
307.042	1833.38
307.272	1868.38
307.502	1905.38
307.731	2019.38
307.961	2161.38
308.191	2036.38
308.421	1786.38
308.651	1627.38
308.881	1623.38
309.111	1608.38
309.341	1594.38
309.571	1609.38
309.8	1565.38
310.03	1595.38
310.26	1579.38
310.49	1594.38
310.72	1616.38
310.949	1669.38
311.179	1744.38
311.409	1663.38
311.639	1633.38
311.868	1603.38
312.098	1625.38
312.328	1630.38
312.557	1605.38
312.787	1634.38
313.017	1694.38
313.246	1621.38
313.476	1684.38
313.706	1738.38
313.935	1674.38
314.165	1696.38
314.394	1780.38
314.624	1843.38
314.853	1951.38
315.083	2014.38
315.312	2102.38
315.542	1968.38
315.771	1701.38
316.001	1706.38
316.23	1819.38
316.46	1861.38
316.689	1836.38
316.919	1716.38
317.148	1639.38
317.377	1680.38
317.607	1766.38
317.836	1981.38
318.065	2071.38
318.295	2047.38
318.524	1905.38
318.753	1829.38
318.983	1810.38
319.212	1758.38
319.441	1752.38
319.67	1725.38
319.9	1737.38
320.129	1825.38
320.358	1896.38
320.587	1982.38
320.816	1986.38
321.046	1914.38
321.275	1798.38
321.504	1835.38
321.733	1957.38
321.962	1939.38
322.191	1781.38
322.42	1768.38
322.649	1734.38
322.878	1720.38
323.108	1761.38
323.337	1834.38
323.566	1851.38
323.795	1828.38
324.024	1806.38
324.253	1769.38
324.482	1767.38
324.71	1740.38
324.939	1623.38
325.168	1671.38
325.397	1726.38
325.626	1838.38
325.855	1838.38
326.084	1779.38
326.313	1757.38
326.542	1808.38
326.77	1835.38
326.999	1865.38
327.228	1761.38
327.457	1687.38
327.686	1658.38
327.914	1686.38
328.143	1753.38
328.372	1770.38
328.6	1774.38
328.829	1732.38
329.058	1706.38
329.287	1710.38
329.515	1769.38
329.744	1761.38
329.972	1862.38
330.201	1952.38
330.43	1920.38
330.658	1886.38
330.887	1872.38
331.115	1849.38
331.344	1886.38
331.572	1810.38
331.801	1815.38
332.03	1847.38
332.258	1888.38
332.486	1858.38
332.715	1875.38
332.943	1877.38
333.172	1853.38
333.4	1866.38
333.629	1897.38
333.857	2011.38
334.085	2233.38
334.314	2521.38
334.542	2793.38
334.771	2581.38
334.999	2266.38
335.227	2110.38
335.455	2008.38
335.684	1979.38
335.912	2018.38
336.14	2131.38
336.369	2026.38
336.597	1909.38
336.825	1842.38
337.053	1931.38
337.281	2060.38
337.51	2123.38
337.738	2212.38
337.966	2161.38
338.194	1939.38
338.422	1843.38
338.65	1856.38
338.878	1811.38
339.106	1761.38
339.334	1740.38
339.562	1699.38
339.79	1749.38
340.018	1830.38
340.246	1941.38
340.474	1990.38
340.702	1873.38
340.93	1950.38
341.158	1910.38
341.386	1849.38
341.614	1819.38
341.842	1831.38
342.07	1826.38
342.298	1822.38
342.526	1850.38
342.754	1800.38
342.981	1801.38
343.209	1807.38
343.437	1809.38
343.665	1786.38
343.893	1864.38
344.12	1955.38
344.348	1979.38
344.576	1906.38
344.804	1843.38
345.031	1823.38
345.259	1839.38
345.487	1776.38
345.714	1719.38
345.942	1671.38
346.17	1705.38
346.397	1687.38
346.625	1728.38
346.853	1634.38
347.08	1638.38
347.308	1646.38
347.535	1737.38
347.763	1780.38
347.99	1676.38
348.218	1620.38
348.445	1638.38
348.673	1674.38
348.9	1764.38
349.128	1779.38
349.355	1853.38
349.583	1784.38
349.81	1735.38
350.037	1597.38
350.265	1557.38
350.492	1626.38
350.72	1652.38
350.947	1738.38
351.174	1755.38
351.402	1668.38
351.629	1562.38
351.856	1572.38
352.083	1555.38
352.311	1549.38
352.538	1587.38
352.765	1674.38
352.992	1731.38
353.22	1707.38
353.447	1657.38
353.674	1650.38
353.901	1704.38
354.128	1669.38
354.355	1642.38
354.583	1716.38
354.81	1792.38
355.037	1722.38
355.264	1684.38
355.491	1675.38
355.718	1689.38
355.945	1691.38
356.172	1651.38
356.399	1630.38
356.626	1620.38
356.853	1680.38
357.08	1808.38
357.307	1995.38
357.534	2006.38
357.761	1754.38
357.988	1628.38
358.215	1573.38
358.441	1588.38
358.668	1560.38
358.895	1579.38
359.122	1691.38
359.349	1884.38
359.576	1902.38
359.802	1684.38
360.029	1602.38
360.256	1604.38
360.483	1628.38
360.709	1671.38
360.936	1734.38
361.163	1778.38
361.39	1939.38
361.616	2108.38
361.843	2047.38
362.07	1984.38
362.296	1724.38
362.523	1620.38
362.749	1663.38
362.976	1718.38
363.203	1726.38
363.429	1659.38
363.656	1600.38
363.882	1689.38
364.109	1839.38
364.335	2017.38
364.562	1890.38
364.788	1790.38
365.015	1693.38
365.241	1652.38
365.468	1668.38
365.694	1757.38
365.92	1862.38
366.147	1731.38
366.373	1613.38
366.599	1595.38
366.826	1594.38
367.052	1595.38
367.278	1607.38
367.505	1635.38
367.731	1704.38
367.957	1680.38
368.184	1749.38
368.41	1844.38
368.636	1900.38
368.862	1858.38
369.089	1883.38
369.315	1831.38
369.541	1715.38
369.767	1715.38
369.993	1654.38
370.219	1624.38
370.445	1689.38
370.672	1779.38
370.898	1862.38
371.124	1846.38
371.35	1787.38
371.576	1833.38
371.802	1872.38
372.028	1783.38
372.254	1751.38
372.48	1672.38
372.706	1685.38
372.932	1694.38
373.158	1676.38
373.384	1699.38
373.61	1746.38
373.835	1859.38
374.061	1775.38
374.287	1742.38
374.513	1761.38
374.739	1764.38
374.965	1777.38
375.191	1792.38
375.416	1815.38
375.642	1795.38
375.868	1886.38
376.094	1991.38
376.319	1911.38
376.545	1777.38
376.771	1774.38
376.997	1933.38
377.222	1879.38
377.448	1801.38
377.674	1835.38
377.899	1788.38
378.125	1900.38
378.35	1911.38
378.576	1768.38
378.802	1672.38
379.027	1653.38
379.253	1724.38
379.478	1734.38
379.704	1715.38
379.929	1764.38
380.155	1736.38
380.38	1724.38
380.606	1797.38
380.831	1757.38
381.057	1809.38
381.282	1869.38
381.507	1796.38
381.733	1911.38
381.958	2024.38
382.184	1866.38
382.409	1803.38
382.634	1823.38
382.86	1824.38
383.085	1802.38
383.31	1855.38
383.535	2026.38
383.761	2130.38
383.986	2090.38
384.211	1949.38
384.436	1950.38
384.662	2040.38
384.887	2127.38
385.112	2003.38
385.337	2007.38
385.562	1996.38
385.787	1986.38
386.013	2010.38
386.238	2048.38
386.463	2024.38
386.688	2137.38
386.913	2281.38
387.138	2249.38
387.363	2046.38
387.588	2047.38
387.813	2007.38
388.038	2052.38
388.263	2167.38
388.488	2104.38
388.713	1953.38
388.938	1886.38
389.163	1901.38
389.387	1943.38
389.612	1971.38
389.837	2017.38
390.062	2007.38
390.287	2016.38
390.512	1987.38
390.736	1956.38
390.961	1920.38
391.186	1881.38
391.411	1894.38
391.636	1959.38
391.86	2002.38
392.085	1948.38
392.31	2003.38
392.534	1984.38
392.759	2009.38
392.984	1990.38
393.208	2033.38
393.433	2042.38
393.658	2139.38
393.882	2154.38
394.107	1992.38
394.331	1966.38
394.556	1953.38
394.78	2002.38
395.005	2050.38
395.229	2147.38
395.454	2283.38
395.678	2306.38
395.903	2189.38
396.127	2129.38
396.352	2144.38
396.576	2189.38
396.801	2248.38
397.025	2192.38
397.249	2196.38
397.474	2165.38
397.698	2160.38
397.922	2213.38
398.147	2317.38
398.371	2389.38
398.595	2413.38
398.82	2304.38
399.044	2260.38
399.268	2417.38
399.492	2571.38
399.717	2670.38
399.941	2683.38
400.165	2606.38
400.389	2552.38
400.613	2502.38
400.837	2716.38
401.062	3203.38
401.286	2746.38
401.51	2482.38
401.734	2583.38
401.958	2529.38
402.182	2340.38
402.406	2251.38
402.63	2231.38
402.854	2204.38
403.078	2288.38
403.302	2374.38
403.526	2356.38
403.75	2367.38
403.974	2368.38
404.198	2371.38
404.422	2460.38
404.645	2585.38
404.869	2527.38
405.093	2316.38
405.317	2340.38
405.541	2375.38
405.765	2392.38
405.988	2339.38
406.212	2498.38
406.436	2462.38
406.66	2534.38
406.883	2550.38
407.107	2839.38
407.331	3099.38
407.555	3362.38
407.778	3070.38
408.002	2603.38
408.226	2504.38
408.449	2461.38
408.673	2393.38
408.896	2442.38
409.12	2496.38
409.344	2415.38
409.567	2346.38
409.791	2390.38
410.014	2430.38
410.238	2514.38
410.461	2686.38
410.685	2480.38
410.908	2308.38
411.132	2366.38
411.355	2337.38
411.578	2291.38
411.802	2290.38
412.025	2331.38
412.249	2300.38
412.472	2252.38
412.695	2222.38
412.919	2203.38
413.142	2184.38
413.365	2264.38
413.589	2347.38
413.812	2394.38
414.035	2494.38
414.258	2313.38
414.482	2264.38
414.705	2279.38
414.928	2240.38
415.151	2260.38
415.374	2263.38
415.597	2322.38
415.821	2321.38
416.044	2403.38
416.267	2368.38
416.49	2173.38
416.713	2169.38
416.936	2174.38
417.159	2368.38
417.382	2364.38
417.605	2222.38
417.828	2249.38
418.051	2272.38
418.274	2244.38
418.497	2143.38
418.72	2127.38
418.943	2176.38
419.166	2335.38
419.389	2382.38
419.611	2277.38
419.834	2212.38
420.057	2258.38
420.28	2180.38
420.503	2154.38
420.726	2240.38
420.948	2203.38
421.171	2178.38
421.394	2208.38
421.617	2227.38
421.839	2233.38
422.062	2203.38
422.285	2144.38
422.507	2145.38
422.73	2100.38
422.953	2092.38
423.175	2054.38
423.398	2186.38
423.621	2183.38
423.843	2176.38
424.066	2235.38
424.288	2309.38
424.511	2312.38
424.733	2271.38
424.956	2089.38
425.178	2112.38
425.401	2111.38
425.623	2115.38
425.846	2083.38
426.068	2235.38
426.291	2287.38
426.513	2286.38
426.735	2232.38
426.958	2346.38
427.18	2475.38
427.402	2294.38
427.625	2363.38
427.847	2419.38
428.069	2216.38
428.292	2144.38
428.514	2083.38
428.736	2065.38
428.958	2110.38
429.181	2110.38
429.403	2418.38
429.625	3003.38
429.847	2600.38
430.069	2189.38
430.292	2377.38
430.514	2478.38
430.736	2222.38
430.958	2436.38
431.18	2290.38
431.402	2144.38
431.624	2115.38
431.846	2116.38
432.068	2055.38
432.29	2052.38
432.512	2110.38
432.734	2157.38
432.956	2204.38
433.178	2300.38
433.4	2259.38
433.622	2246.38
433.844	2122.38
434.066	2046.38
434.287	2072.38
434.509	2174.38
434.731	2233.38
434.953	2417.38
435.175	2374.38
435.397	2250.38
435.618	2259.38
435.84	2262.38
436.062	2167.38
436.284	2224.38
436.505	2193.38
436.727	2265.38
436.949	2174.38
437.17	2111.38
437.392	2089.38
437.614	2137.38
437.835	2046.38
438.057	2236.38
438.278	2290.38
438.5	2122.38
438.721	2087.38
438.943	2110.38
439.165	2122.38
439.386	2042.38
439.608	2055.38
439.829	2114.38
440.05	2032.38
440.272	2029.38
440.493	2032.38
440.715	2107.38
440.936	2250.38
441.158	2504.38
441.379	2407.38
441.6	2356.38
441.822	2273.38
442.043	2250.38
442.264	2257.38
442.486	2098.38
442.707	2104.38
442.928	2079.38
443.149	2146.38
443.371	2287.38
443.592	2331.38
443.813	2314.38
444.034	2311.38
444.255	2315.38
444.476	2363.38
444.698	2410.38
444.919	2329.38
445.14	2453.38
445.361	2428.38
445.582	2522.38
445.803	2409.38
446.024	2290.38
446.245	2420.38
446.466	2347.38
446.687	2202.38
446.908	2195.38
447.129	2143.38
447.35	2210.38
447.571	2178.38
447.792	2081.38
448.013	2065.38
448.234	2106.38
448.455	2200.38
448.675	2242.38
448.896	2030.38
449.117	2001.38
449.338	2062.38
449.559	2141.38
449.779	2270.38
450	2473.38
450.221	2692.38
450.442	2612.38
450.662	2278.38
450.883	2009.38
451.104	1954.38
451.324	2043.38
451.545	2124.38
451.766	2036.38
451.986	1952.38
452.207	1974.38
452.428	1872.38
452.648	1860.38
452.869	1947.38
453.089	2038.38
453.31	2087.38
453.53	2123.38
453.751	2049.38
453.971	1948.38
454.192	1950.38
454.412	2086.38
454.633	2015.38
454.853	1963.38
455.073	1819.38
455.294	1824.38
455.514	1846.38
455.734	1843.38
455.955	1894.38
456.175	1891.38
456.395	1912.38
456.616	1946.38
456.836	1970.38
457.056	1976.38
457.276	1932.38
457.497	1894.38
457.717	1765.38
457.937	1824.38
458.157	1906.38
458.377	1879.38
458.598	1853.38
458.818	1851.38
459.038	1994.38
459.258	2123.38
459.478	2152.38
459.698	2046.38
459.918	2147.38
460.138	2208.38
460.358	2288.38
460.578	2281.38
460.798	2382.38
461.018	2455.38
461.238	2394.38
461.458	2243.38
461.678	2265.38
461.898	2256.38
462.118	2157.38
462.338	2265.38
462.558	2286.38
462.777	2236.38
462.997	2328.38
463.217	2506.38
463.437	2458.38
463.657	2310.38
463.876	2272.38
464.096	2298.38
464.316	2220.38
464.536	2340.38
464.755	2340.38
464.975	2410.38
465.195	2294.38
465.414	2418.38
465.634	2403.38
465.854	2198.38
466.073	2384.38
466.293	2369.38
466.512	2083.38
466.732	2065.38
466.951	2152.38
467.171	2139.38
467.391	2026.38
467.61	1964.38
467.829	2048.38
468.049	2226.38
468.268	2485.38
468.488	2324.38
468.707	2179.38
468.927	2121.38
469.146	2082.38
469.365	2016.38
469.585	2117.38
469.804	2019.38
470.023	2034.38
470.243	2056.38
470.462	2076.38
470.681	2031.38
470.901	2027.38
471.12	2080.38
471.339	2024.38
471.558	1963.38
471.777	1949.38
471.997	2005.38
472.216	2034.38
472.435	1961.38
472.654	1958.38
472.873	2110.38
473.092	2195.38
473.311	2114.38
473.53	1962.38
473.749	1959.38
473.968	2027.38
474.187	2144.38
474.406	2267.38
474.625	2110.38
474.844	2066.38
475.063	2050.38
475.282	2171.38
475.501	2086.38
475.72	2104.38
475.939	2212.38
476.158	2162.38
476.377	2080.38
476.596	2104.38
476.814	2174.38
477.033	2171.38
477.252	2302.38
477.471	2296.38
477.69	2230.38
477.908	2151.38
478.127	2288.38
478.346	2502.38
478.564	2444.38
478.783	2466.38
479.002	2521.38
479.22	2484.38
479.439	2566.38
479.658	2896.38
479.876	2855.38
480.095	2510.38
480.313	2383.38
480.532	2295.38
480.751	2345.38
480.969	2402.38
481.188	2349.38
481.406	2306.38
481.624	2266.38
481.843	2296.38
482.061	2366.38
482.28	2371.38
482.498	2412.38
482.717	2452.38
482.935	2291.38
483.153	2280.38
483.372	2302.38
483.59	2282.38
483.808	2309.38
484.027	2383.38
484.245	2530.38
484.463	2910.38
484.681	3415.38
484.9	2594.38
485.118	2370.38
485.336	2339.38
485.554	2431.38
485.772	2570.38
485.99	2466.38
486.209	2516.38
486.427	2480.38
486.645	2503.38
486.863	2414.38
487.081	2503.38
487.299	2548.38
487.517	2510.38
