Data from WStandard_LampEnergy8_LIBS07252019.E.O._I.C._HRD10591_15-57-46-928.txt Node
Date: Thu Jul 25 15:57:46 EDT 2019
User: cochatt
Spectrometer: HR+D1059
Trigger mode: 1
Integration Time (sec): 1.000000E-1
Scans to average: 1
Electric dark correction enabled: true
Nonlinearity correction enabled: false
Boxcar width: 0
XAxis mode: Wavelengths
Number of Pixels in Spectrum: 2048
>>>>>Begin Spectral Data<<<<<
223.165	-12.38
223.4	-12.38
223.635	-12.38
223.869	-24.38
224.104	-23.38
224.338	-10.38
224.573	-7.38
224.808	-6.38
225.042	-14.38
225.277	-18.38
225.511	-13.38
225.746	12.62
225.98	19.62
226.215	14.62
226.449	10.62
226.683	19.62
226.918	15.62
227.152	37.62
227.387	50.62
227.621	41.62
227.856	48.62
228.09	43.62
228.324	53.62
228.559	56.62
228.793	108.62
229.027	206.62
229.262	214.62
229.496	219.62
229.73	234.62
229.964	268.62
230.199	239.62
230.433	283.62
230.667	294.62
230.901	318.62
231.136	286.62
231.37	280.62
231.604	275.62
231.838	271.62
232.072	270.62
232.306	274.62
232.541	266.62
232.775	312.62
233.009	356.62
233.243	330.62
233.477	307.62
233.711	309.62
233.945	332.62
234.179	310.62
234.413	333.62
234.647	339.62
234.881	340.62
235.115	315.62
235.349	310.62
235.583	326.62
235.817	322.62
236.051	314.62
236.285	320.62
236.519	327.62
236.753	373.62
236.987	387.62
237.221	364.62
237.455	429.62
237.689	406.62
237.922	363.62
238.156	366.62
238.39	370.62
238.624	390.62
238.858	420.62
239.091	407.62
239.325	445.62
239.559	528.62
239.793	528.62
240.027	561.62
240.26	529.62
240.494	404.62
240.728	388.62
240.961	411.62
241.195	403.62
241.429	462.62
241.662	436.62
241.896	411.62
242.13	426.62
242.363	461.62
242.597	504.62
242.83	488.62
243.064	485.62
243.298	497.62
243.531	514.62
243.765	515.62
243.998	478.62
244.232	434.62
244.465	420.62
244.699	434.62
244.932	482.62
245.166	544.62
245.399	523.62
245.633	468.62
245.866	496.62
246.099	510.62
246.333	512.62
246.566	528.62
246.8	555.62
247.033	619.62
247.266	574.62
247.5	569.62
247.733	579.62
247.966	582.62
248.2	637.62
248.433	647.62
248.666	652.62
248.899	718.62
249.133	817.62
249.366	859.62
249.599	738.62
249.832	680.62
250.066	656.62
250.299	647.62
250.532	638.62
250.765	560.62
250.998	588.62
251.231	629.62
251.465	644.62
251.698	630.62
251.931	620.62
252.164	619.62
252.397	663.62
252.63	638.62
252.863	598.62
253.096	572.62
253.329	614.62
253.562	640.62
253.795	684.62
254.028	659.62
254.261	601.62
254.494	594.62
254.727	571.62
254.96	631.62
255.193	665.62
255.426	766.62
255.659	841.62
255.892	847.62
256.124	700.62
256.357	686.62
256.59	753.62
256.823	747.62
257.056	770.62
257.289	873.62
257.521	971.62
257.754	859.62
257.987	820.62
258.22	906.62
258.452	875.62
258.685	740.62
258.918	713.62
259.151	715.62
259.383	692.62
259.616	616.62
259.849	680.62
260.081	736.62
260.314	820.62
260.547	846.62
260.779	870.62
261.012	825.62
261.244	758.62
261.477	706.62
261.71	732.62
261.942	728.62
262.175	725.62
262.407	757.62
262.64	705.62
262.872	685.62
263.105	650.62
263.337	650.62
263.57	674.62
263.802	664.62
264.035	638.62
264.267	612.62
264.499	612.62
264.732	643.62
264.964	688.62
265.197	709.62
265.429	772.62
265.661	834.62
265.894	894.62
266.126	921.62
266.358	834.62
266.591	862.62
266.823	906.62
267.055	805.62
267.287	842.62
267.52	818.62
267.752	804.62
267.984	836.62
268.216	850.62
268.448	864.62
268.681	821.62
268.913	777.62
269.145	752.62
269.377	732.62
269.609	813.62
269.841	932.62
270.073	1063.62
270.306	1164.62
270.538	1220.62
270.77	998.62
271.002	894.62
271.234	866.62
271.466	858.62
271.698	987.62
271.93	1127.62
272.162	1133.62
272.394	1028.62
272.626	958.62
272.858	849.62
273.09	718.62
273.322	724.62
273.553	700.62
273.785	733.62
274.017	756.62
274.249	800.62
274.481	805.62
274.713	757.62
274.945	725.62
275.176	749.62
275.408	735.62
275.64	701.62
275.872	734.62
276.104	782.62
276.335	905.62
276.567	979.62
276.799	979.62
277.031	870.62
277.262	861.62
277.494	892.62
277.726	933.62
277.957	922.62
278.189	848.62
278.421	798.62
278.652	772.62
278.884	770.62
279.115	761.62
279.347	795.62
279.579	777.62
279.81	780.62
280.042	874.62
280.273	931.62
280.505	944.62
280.736	933.62
280.968	865.62
281.199	780.62
281.431	733.62
281.662	733.62
281.894	796.62
282.125	789.62
282.356	806.62
282.588	816.62
282.819	844.62
283.051	929.62
283.282	937.62
283.513	905.62
283.745	805.62
283.976	766.62
284.207	750.62
284.439	806.62
284.67	798.62
284.901	832.62
285.132	824.62
285.364	820.62
285.595	814.62
285.826	810.62
286.057	811.62
286.288	777.62
286.52	848.62
286.751	882.62
286.982	914.62
287.213	821.62
287.444	760.62
287.675	773.62
287.906	805.62
288.138	878.62
288.369	847.62
288.6	790.62
288.831	774.62
289.062	792.62
289.293	821.62
289.524	801.62
289.755	837.62
289.986	818.62
290.217	774.62
290.448	791.62
290.679	797.62
290.91	812.62
291.141	844.62
291.371	869.62
291.602	864.62
291.833	875.62
292.064	872.62
292.295	884.62
292.526	901.62
292.757	905.62
292.987	877.62
293.218	850.62
293.449	913.62
293.68	1033.62
293.91	1066.62
294.141	1022.62
294.372	983.62
294.603	989.62
294.833	1033.62
295.064	952.62
295.295	897.62
295.525	836.62
295.756	790.62
295.987	752.62
296.217	780.62
296.448	804.62
296.679	822.62
296.909	839.62
297.14	788.62
297.37	834.62
297.601	885.62
297.831	944.62
298.062	922.62
298.292	843.62
298.523	805.62
298.753	813.62
298.984	802.62
299.214	831.62
299.445	877.62
299.675	860.62
299.905	864.62
300.136	853.62
300.366	827.62
300.597	772.62
300.827	822.62
301.057	846.62
301.288	892.62
301.518	874.62
301.748	904.62
301.979	956.62
302.209	985.62
302.439	1029.62
302.669	1052.62
302.9	978.62
303.13	941.62
303.36	914.62
303.59	900.62
303.82	896.62
304.051	894.62
304.281	923.62
304.511	916.62
304.741	1027.62
304.971	1105.62
305.201	1146.62
305.431	1026.62
305.661	864.62
305.891	766.62
306.121	768.62
306.352	830.62
306.582	889.62
306.812	930.62
307.042	1021.62
307.272	1020.62
307.502	1035.62
307.731	1114.62
307.961	1146.62
308.191	1056.62
308.421	932.62
308.651	887.62
308.881	872.62
309.111	868.62
309.341	868.62
309.571	859.62
309.8	874.62
310.03	850.62
310.26	869.62
310.49	861.62
310.72	898.62
310.949	917.62
311.179	922.62
311.409	906.62
311.639	881.62
311.868	871.62
312.098	896.62
312.328	866.62
312.557	878.62
312.787	898.62
313.017	904.62
313.246	881.62
313.476	914.62
313.706	947.62
313.935	944.62
314.165	934.62
314.394	980.62
314.624	1024.62
314.853	1041.62
315.083	1098.62
315.312	1135.62
315.542	1018.62
315.771	952.62
316.001	949.62
316.23	963.62
316.46	974.62
316.689	972.62
316.919	932.62
317.148	900.62
317.377	923.62
317.607	1045.62
317.836	1113.62
318.065	1140.62
318.295	1089.62
318.524	1056.62
318.753	1025.62
318.983	988.62
319.212	960.62
319.441	946.62
319.67	956.62
319.9	965.62
320.129	1052.62
320.358	1081.62
320.587	1116.62
320.816	1100.62
321.046	1038.62
321.275	1003.62
321.504	1050.62
321.733	1085.62
321.962	1030.62
322.191	980.62
322.42	978.62
322.649	973.62
322.878	953.62
323.108	965.62
323.337	1027.62
323.566	997.62
323.795	991.62
324.024	989.62
324.253	955.62
324.482	979.62
324.71	950.62
324.939	906.62
325.168	924.62
325.397	977.62
325.626	996.62
325.855	982.62
326.084	948.62
326.313	994.62
326.542	958.62
326.77	1029.62
326.999	984.62
327.228	940.62
327.457	906.62
327.686	924.62
327.914	941.62
328.143	977.62
328.372	964.62
328.6	964.62
328.829	946.62
329.058	949.62
329.287	980.62
329.515	988.62
329.744	1029.62
329.972	1066.62
330.201	1100.62
330.43	1063.62
330.658	1010.62
330.887	1041.62
331.115	1020.62
331.344	1014.62
331.572	1029.62
331.801	1028.62
332.03	1028.62
332.258	1060.62
332.486	1031.62
332.715	1054.62
332.943	1055.62
333.172	1023.62
333.4	1027.62
333.629	1078.62
333.857	1171.62
334.085	1292.62
334.314	1456.62
334.542	1530.62
334.771	1349.62
334.999	1197.62
335.227	1154.62
335.455	1101.62
335.684	1098.62
335.912	1147.62
336.14	1171.62
336.369	1081.62
336.597	1054.62
336.825	1016.62
337.053	1097.62
337.281	1166.62
337.51	1188.62
337.738	1236.62
337.966	1163.62
338.194	1038.62
338.422	1048.62
338.65	998.62
338.878	988.62
339.106	982.62
339.334	961.62
339.562	957.62
339.79	1025.62
340.018	1064.62
340.246	1093.62
340.474	1082.62
340.702	1047.62
340.93	1064.62
341.158	1060.62
341.386	1029.62
341.614	1012.62
341.842	1023.62
342.07	1026.62
342.298	1025.62
342.526	1048.62
342.754	992.62
342.981	995.62
343.209	1012.62
343.437	988.62
343.665	1004.62
343.893	1046.62
344.12	1124.62
344.348	1080.62
344.576	1040.62
344.804	1048.62
345.031	1012.62
345.259	1012.62
345.487	953.62
345.714	946.62
345.942	937.62
346.17	975.62
346.397	979.62
346.625	966.62
346.853	919.62
347.08	892.62
347.308	893.62
347.535	950.62
347.763	967.62
347.99	934.62
348.218	944.62
348.445	926.62
348.673	964.62
348.9	1005.62
349.128	1022.62
349.355	1047.62
349.583	1017.62
349.81	944.62
350.037	885.62
350.265	912.62
350.492	926.62
350.72	958.62
350.947	976.62
351.174	986.62
351.402	917.62
351.629	919.62
351.856	873.62
352.083	904.62
352.311	912.62
352.538	960.62
352.765	973.62
352.992	996.62
353.22	943.62
353.447	923.62
353.674	982.62
353.901	958.62
354.128	939.62
354.355	926.62
354.583	996.62
354.81	1014.62
355.037	1010.62
355.264	1008.62
355.491	961.62
355.718	971.62
355.945	936.62
356.172	947.62
356.399	917.62
356.626	919.62
356.853	1010.62
357.08	1097.62
357.307	1192.62
357.534	1134.62
357.761	993.62
357.988	916.62
358.215	914.62
358.441	904.62
358.668	913.62
358.895	940.62
359.122	1010.62
359.349	1096.62
359.576	1057.62
359.802	958.62
360.029	903.62
360.256	916.62
360.483	948.62
360.709	947.62
360.936	987.62
361.163	1051.62
361.39	1174.62
361.616	1202.62
361.843	1187.62
362.07	1110.62
362.296	968.62
362.523	940.62
362.749	954.62
362.976	992.62
363.203	999.62
363.429	955.62
363.656	901.62
363.882	981.62
364.109	1134.62
364.335	1149.62
364.562	1078.62
364.788	1004.62
365.015	963.62
365.241	932.62
365.468	969.62
365.694	1037.62
365.92	1048.62
366.147	999.62
366.373	922.62
366.599	936.62
366.826	938.62
367.052	944.62
367.278	959.62
367.505	966.62
367.731	988.62
367.957	980.62
368.184	1060.62
368.41	1122.62
368.636	1110.62
368.862	1148.62
369.089	1121.62
369.315	1036.62
369.541	1003.62
369.767	980.62
369.993	941.62
370.219	941.62
370.445	992.62
370.672	1059.62
370.898	1112.62
371.124	1074.62
371.35	1017.62
371.576	1043.62
371.802	1086.62
372.028	1001.62
372.254	979.62
372.48	979.62
372.706	952.62
372.932	974.62
373.158	989.62
373.384	1019.62
373.61	1034.62
373.835	1067.62
374.061	993.62
374.287	1004.62
374.513	988.62
374.739	1035.62
374.965	1015.62
375.191	1043.62
375.416	1044.62
375.642	1059.62
375.868	1146.62
376.094	1181.62
376.319	1060.62
376.545	1017.62
376.771	1056.62
376.997	1126.62
377.222	1083.62
377.448	1066.62
377.674	1068.62
377.899	1077.62
378.125	1152.62
378.35	1140.62
378.576	1026.62
378.802	1005.62
379.027	973.62
379.253	1013.62
379.478	1030.62
379.704	1026.62
379.929	1027.62
380.155	1032.62
380.38	1061.62
380.606	1051.62
380.831	1055.62
381.057	1105.62
381.282	1101.62
381.507	1077.62
381.733	1127.62
381.958	1186.62
382.184	1069.62
382.409	1056.62
382.634	1064.62
382.86	1066.62
383.085	1076.62
383.31	1102.62
383.535	1188.62
383.761	1256.62
383.986	1189.62
384.211	1165.62
384.436	1154.62
384.662	1221.62
384.887	1215.62
385.112	1194.62
385.337	1178.62
385.562	1161.62
385.787	1164.62
386.013	1195.62
386.238	1193.62
386.463	1211.62
386.688	1255.62
386.913	1371.62
387.138	1312.62
387.363	1229.62
387.588	1208.62
387.813	1203.62
388.038	1210.62
388.263	1243.62
388.488	1180.62
388.713	1102.62
388.938	1090.62
389.163	1108.62
389.387	1150.62
389.612	1149.62
389.837	1182.62
390.062	1175.62
390.287	1131.62
390.512	1158.62
390.736	1144.62
390.961	1103.62
391.186	1076.62
391.411	1154.62
391.636	1161.62
391.86	1149.62
392.085	1158.62
392.31	1140.62
392.534	1132.62
392.759	1179.62
392.984	1189.62
393.208	1184.62
393.433	1219.62
393.658	1276.62
393.882	1284.62
394.107	1187.62
394.331	1159.62
394.556	1130.62
394.78	1172.62
395.005	1244.62
395.229	1282.62
395.454	1356.62
395.678	1346.62
395.903	1230.62
396.127	1228.62
396.352	1244.62
396.576	1262.62
396.801	1331.62
397.025	1298.62
397.249	1264.62
397.474	1248.62
397.698	1245.62
397.922	1290.62
398.147	1341.62
398.371	1406.62
398.595	1395.62
398.82	1364.62
399.044	1348.62
399.268	1401.62
399.492	1501.62
399.717	1551.62
399.941	1531.62
400.165	1501.62
400.389	1455.62
400.613	1500.62
400.837	1678.62
401.062	1893.62
401.286	1600.62
401.51	1466.62
401.734	1489.62
401.958	1467.62
402.182	1365.62
402.406	1317.62
402.63	1293.62
402.854	1336.62
403.078	1294.62
403.302	1323.62
403.526	1373.62
403.75	1398.62
403.974	1395.62
404.198	1403.62
404.422	1491.62
404.645	1483.62
404.869	1463.62
405.093	1365.62
405.317	1336.62
405.541	1376.62
405.765	1373.62
405.988	1379.62
406.212	1405.62
406.436	1399.62
406.66	1523.62
406.883	1522.62
407.107	1718.62
407.331	1817.62
407.555	1990.62
407.778	1780.62
408.002	1520.62
408.226	1444.62
408.449	1434.62
408.673	1410.62
408.896	1402.62
409.12	1427.62
409.344	1395.62
409.567	1379.62
409.791	1394.62
410.014	1434.62
410.238	1495.62
410.461	1592.62
410.685	1415.62
410.908	1379.62
411.132	1414.62
411.355	1393.62
411.578	1321.62
411.802	1387.62
412.025	1428.62
412.249	1357.62
412.472	1353.62
412.695	1325.62
412.919	1335.62
413.142	1376.62
413.365	1369.62
413.589	1344.62
413.812	1454.62
414.035	1476.62
414.258	1362.62
414.482	1352.62
414.705	1330.62
414.928	1318.62
415.151	1316.62
415.374	1324.62
415.597	1369.62
415.821	1381.62
416.044	1371.62
416.267	1365.62
416.49	1321.62
416.713	1318.62
416.936	1333.62
417.159	1406.62
417.382	1412.62
417.605	1305.62
417.828	1377.62
418.051	1366.62
418.274	1320.62
418.497	1309.62
418.72	1290.62
418.943	1293.62
419.166	1352.62
419.389	1390.62
419.611	1315.62
419.834	1327.62
420.057	1353.62
420.28	1312.62
420.503	1348.62
420.726	1362.62
420.948	1325.62
421.171	1272.62
421.394	1324.62
421.617	1365.62
421.839	1370.62
422.062	1349.62
422.285	1328.62
422.507	1283.62
422.73	1282.62
422.953	1242.62
423.175	1224.62
423.398	1301.62
423.621	1316.62
423.843	1336.62
424.066	1389.62
424.288	1417.62
424.511	1474.62
424.733	1428.62
424.956	1288.62
425.178	1285.62
425.401	1272.62
425.623	1299.62
425.846	1300.62
426.068	1389.62
426.291	1388.62
426.513	1377.62
426.735	1366.62
426.958	1492.62
427.18	1556.62
427.402	1403.62
427.625	1451.62
427.847	1450.62
428.069	1320.62
428.292	1293.62
428.514	1264.62
428.736	1260.62
428.958	1298.62
429.181	1311.62
429.403	1532.62
429.625	1822.62
429.847	1533.62
430.069	1355.62
430.292	1504.62
430.514	1480.62
430.736	1392.62
430.958	1445.62
431.18	1344.62
431.402	1265.62
431.624	1217.62
431.846	1248.62
432.068	1145.62
432.29	1147.62
432.512	1210.62
432.734	1265.62
432.956	1334.62
433.178	1361.62
433.4	1361.62
433.622	1368.62
433.844	1267.62
434.066	1234.62
434.287	1220.62
434.509	1245.62
434.731	1288.62
434.953	1428.62
435.175	1380.62
435.397	1303.62
435.618	1293.62
435.84	1262.62
436.062	1270.62
436.284	1336.62
436.505	1295.62
436.727	1323.62
436.949	1299.62
437.17	1285.62
437.392	1295.62
437.614	1264.62
437.835	1228.62
438.057	1274.62
438.278	1288.62
438.5	1233.62
438.721	1304.62
438.943	1284.62
439.165	1284.62
439.386	1229.62
439.608	1300.62
439.829	1264.62
440.05	1304.62
440.272	1265.62
440.493	1282.62
440.715	1299.62
440.936	1394.62
441.158	1500.62
441.379	1439.62
441.6	1391.62
441.822	1370.62
442.043	1396.62
442.264	1357.62
442.486	1312.62
442.707	1298.62
442.928	1272.62
443.149	1330.62
443.371	1413.62
443.592	1432.62
443.813	1392.62
444.034	1369.62
444.255	1397.62
444.476	1406.62
444.698	1425.62
444.919	1416.62
445.14	1500.62
445.361	1482.62
445.582	1523.62
445.803	1410.62
446.024	1387.62
446.245	1448.62
446.466	1403.62
446.687	1358.62
446.908	1433.62
447.129	1321.62
447.35	1352.62
447.571	1330.62
447.792	1291.62
448.013	1248.62
448.234	1304.62
448.455	1364.62
448.675	1371.62
448.896	1237.62
449.117	1232.62
449.338	1269.62
449.559	1342.62
449.779	1382.62
450	1469.62
450.221	1564.62
450.442	1468.62
450.662	1341.62
450.883	1189.62
451.104	1208.62
451.324	1226.62
451.545	1265.62
451.766	1207.62
451.986	1164.62
452.207	1159.62
452.428	1144.62
452.648	1117.62
452.869	1140.62
453.089	1192.62
453.31	1198.62
453.53	1201.62
453.751	1131.62
453.971	1078.62
454.192	1116.62
454.412	1170.62
454.633	1146.62
454.853	1132.62
455.073	1103.62
455.294	1107.62
455.514	1072.62
455.734	1078.62
455.955	1130.62
456.175	1125.62
456.395	1095.62
456.616	1111.62
456.836	1129.62
457.056	1136.62
457.276	1128.62
457.497	1092.62
457.717	1047.62
457.937	1060.62
458.157	1081.62
458.377	1078.62
458.598	1058.62
458.818	1056.62
459.038	1146.62
459.258	1174.62
459.478	1206.62
459.698	1141.62
459.918	1193.62
460.138	1274.62
460.358	1257.62
460.578	1282.62
460.798	1324.62
461.018	1384.62
461.238	1344.62
461.458	1278.62
461.678	1304.62
461.898	1249.62
462.118	1220.62
462.338	1260.62
462.558	1283.62
462.777	1283.62
462.997	1354.62
463.217	1398.62
463.437	1373.62
463.657	1294.62
463.876	1260.62
464.096	1261.62
464.316	1306.62
464.536	1349.62
464.755	1294.62
464.975	1306.62
465.195	1301.62
465.414	1372.62
465.634	1337.62
465.854	1358.62
466.073	1427.62
466.293	1380.62
466.512	1265.62
466.732	1252.62
466.951	1299.62
467.171	1260.62
467.391	1222.62
467.61	1228.62
467.829	1258.62
468.049	1369.62
468.268	1504.62
468.488	1414.62
468.707	1303.62
468.927	1268.62
469.146	1209.62
469.365	1245.62
469.585	1302.62
469.804	1240.62
470.023	1251.62
470.243	1273.62
470.462	1287.62
470.681	1247.62
470.901	1242.62
471.12	1268.62
471.339	1255.62
471.558	1200.62
471.777	1237.62
471.997	1232.62
472.216	1210.62
472.435	1177.62
472.654	1148.62
472.873	1177.62
473.092	1281.62
473.311	1209.62
473.53	1152.62
473.749	1151.62
473.968	1173.62
474.187	1261.62
474.406	1304.62
474.625	1241.62
474.844	1241.62
475.063	1226.62
475.282	1275.62
475.501	1229.62
475.72	1228.62
475.939	1312.62
476.158	1282.62
476.377	1237.62
476.596	1241.62
476.814	1257.62
477.033	1253.62
477.252	1300.62
477.471	1350.62
477.69	1333.62
477.908	1300.62
478.127	1352.62
478.346	1472.62
478.564	1483.62
478.783	1472.62
479.002	1466.62
479.22	1472.62
479.439	1509.62
479.658	1630.62
479.876	1558.62
480.095	1429.62
480.313	1384.62
480.532	1345.62
480.751	1296.62
480.969	1332.62
481.188	1313.62
481.406	1285.62
481.624	1256.62
481.843	1294.62
482.061	1337.62
482.28	1336.62
482.498	1398.62
482.717	1354.62
482.935	1314.62
483.153	1380.62
483.372	1416.62
483.59	1387.62
483.808	1386.62
484.027	1432.62
484.245	1478.62
484.463	1792.62
484.681	1972.62
484.9	1504.62
485.118	1408.62
485.336	1359.62
485.554	1404.62
485.772	1420.62
485.99	1432.62
486.209	1436.62
486.427	1397.62
486.645	1440.62
486.863	1443.62
487.081	1475.62
487.299	1512.62
487.517	1468.62
487.735	1495.62
487.953	1554.62
488.171	1544.62
488.389	1523.62
488.607	1531.62
488.825	1642.62
489.043	1604.62
489.261	1469.62
489.479	1528.62
489.696	1502.62
489.914	1477.62
490.132	1481.62
490.35	1515.62
490.568	1600.62
490.786	1552.62
491.003	1511.62
491.221	1552.62
491.439	1624.62
491.657	1655.62
491.874	1676.62
492.092	1733.62
492.31	1728.62
492.527	1685.62
492.745	1650.62
