Data from WStandard_LampEnergy5.5LIBS07252019.E.O._I.C._HRD10591_16-07-51-921.txt Node
Date: Thu Jul 25 16:07:51 EDT 2019
User: cochatt
Spectrometer: HR+D1059
Trigger mode: 1
Integration Time (sec): 1.000000E-1
Scans to average: 1
Electric dark correction enabled: true
Nonlinearity correction enabled: false
Boxcar width: 0
XAxis mode: Wavelengths
Number of Pixels in Spectrum: 2048
>>>>>Begin Spectral Data<<<<<
223.165	-7.25
223.4	-7.25
223.635	-7.25
223.869	-15.25
224.104	-12.25
224.338	-15.25
224.573	-25.25
224.808	-7.25
225.042	-12.25
225.277	-26.25
225.511	-1.25
225.746	5.75
225.98	4.75
226.215	21.75
226.449	15.75
226.683	20.75
226.918	24.75
227.152	28.75
227.387	37.75
227.621	34.75
227.856	40.75
228.09	38.75
228.324	64.75
228.559	55.75
228.793	129.75
229.027	355.75
229.262	372.75
229.496	379.75
229.73	415.75
229.964	462.75
230.199	454.75
230.433	468.75
230.667	524.75
230.901	549.75
231.136	471.75
231.37	457.75
231.604	450.75
231.838	476.75
232.072	489.75
232.306	466.75
232.541	501.75
232.775	578.75
233.009	605.75
233.243	585.75
233.477	535.75
233.711	563.75
233.945	564.75
234.179	548.75
234.413	612.75
234.647	653.75
234.881	613.75
235.115	528.75
235.349	570.75
235.583	561.75
235.817	539.75
236.051	550.75
236.285	556.75
236.519	612.75
236.753	676.75
236.987	696.75
237.221	706.75
237.455	792.75
237.689	732.75
237.922	679.75
238.156	670.75
238.39	671.75
238.624	706.75
238.858	748.75
239.091	785.75
239.325	826.75
239.559	925.75
239.793	974.75
240.027	1049.75
240.26	1057.75
240.494	776.75
240.728	709.75
240.961	739.75
241.195	743.75
241.429	830.75
241.662	825.75
241.896	776.75
242.13	775.75
242.363	872.75
242.597	916.75
242.83	891.75
243.064	892.75
243.298	978.75
243.531	958.75
243.765	980.75
243.998	938.75
244.232	823.75
244.465	782.75
244.699	820.75
244.932	882.75
245.166	1058.75
245.399	1020.75
245.633	900.75
245.866	906.75
246.099	966.75
246.333	964.75
246.566	973.75
246.8	1065.75
247.033	1178.75
247.266	1117.75
247.5	1046.75
247.733	1072.75
247.966	1125.75
248.2	1281.75
248.433	1184.75
248.666	1238.75
248.899	1334.75
249.133	1523.75
249.366	1772.75
249.599	1442.75
249.832	1266.75
250.066	1290.75
250.299	1339.75
250.532	1214.75
250.765	1111.75
250.998	1164.75
251.231	1245.75
251.465	1231.75
251.698	1170.75
251.931	1200.75
252.164	1218.75
252.397	1267.75
252.63	1268.75
252.863	1109.75
253.096	1088.75
253.329	1179.75
253.562	1206.75
253.795	1319.75
254.028	1296.75
254.261	1181.75
254.494	1196.75
254.727	1146.75
254.96	1193.75
255.193	1253.75
255.426	1425.75
255.659	1636.75
255.892	1708.75
256.124	1402.75
256.357	1343.75
256.59	1428.75
256.823	1447.75
257.056	1451.75
257.289	1745.75
257.521	1917.75
257.754	1688.75
257.987	1603.75
258.22	1812.75
258.452	1756.75
258.685	1404.75
258.918	1399.75
259.151	1411.75
259.383	1341.75
259.616	1166.75
259.849	1244.75
260.081	1414.75
260.314	1558.75
260.547	1714.75
260.779	1717.75
261.012	1625.75
261.244	1458.75
261.477	1357.75
261.71	1450.75
261.942	1470.75
262.175	1416.75
262.407	1515.75
262.64	1410.75
262.872	1301.75
263.105	1242.75
263.337	1302.75
263.57	1313.75
263.802	1308.75
264.035	1232.75
264.267	1186.75
264.499	1130.75
264.732	1208.75
264.964	1308.75
265.197	1338.75
265.429	1397.75
265.661	1597.75
265.894	1779.75
266.126	1833.75
266.358	1600.75
266.591	1662.75
266.823	1830.75
267.055	1674.75
267.287	1610.75
267.52	1563.75
267.752	1585.75
267.984	1521.75
268.216	1643.75
268.448	1682.75
268.681	1636.75
268.913	1560.75
269.145	1432.75
269.377	1387.75
269.609	1539.75
269.841	1781.75
270.073	2037.75
270.306	2325.75
270.538	2435.75
270.77	2072.75
271.002	1718.75
271.234	1668.75
271.466	1690.75
271.698	1846.75
271.93	2244.75
272.162	2275.75
272.394	1992.75
272.626	1959.75
272.858	1738.75
273.09	1490.75
273.322	1442.75
273.553	1375.75
273.785	1411.75
274.017	1456.75
274.249	1560.75
274.481	1589.75
274.713	1442.75
274.945	1425.75
275.176	1430.75
275.408	1428.75
275.64	1369.75
275.872	1380.75
276.104	1460.75
276.335	1674.75
276.567	1916.75
276.799	1965.75
277.031	1770.75
277.262	1611.75
277.494	1678.75
277.726	1865.75
277.957	1894.75
278.189	1674.75
278.421	1556.75
278.652	1513.75
278.884	1484.75
279.115	1499.75
279.347	1529.75
279.579	1474.75
279.81	1451.75
280.042	1636.75
280.273	1803.75
280.505	1800.75
280.736	1842.75
280.968	1725.75
281.199	1538.75
281.431	1428.75
281.662	1426.75
281.894	1438.75
282.125	1510.75
282.356	1574.75
282.588	1589.75
282.819	1556.75
283.051	1672.75
283.282	1846.75
283.513	1764.75
283.745	1545.75
283.976	1435.75
284.207	1439.75
284.439	1486.75
284.67	1482.75
284.901	1568.75
285.132	1574.75
285.364	1534.75
285.595	1547.75
285.826	1527.75
286.057	1465.75
286.288	1522.75
286.52	1541.75
286.751	1679.75
286.982	1744.75
287.213	1609.75
287.444	1505.75
287.675	1505.75
287.906	1527.75
288.138	1640.75
288.369	1614.75
288.6	1528.75
288.831	1488.75
289.062	1499.75
289.293	1544.75
289.524	1512.75
289.755	1572.75
289.986	1578.75
290.217	1454.75
290.448	1516.75
290.679	1511.75
290.91	1549.75
291.141	1628.75
291.371	1638.75
291.602	1605.75
291.833	1593.75
292.064	1652.75
292.295	1636.75
292.526	1652.75
292.757	1769.75
292.987	1666.75
293.218	1580.75
293.449	1657.75
293.68	1883.75
293.91	2058.75
294.141	1889.75
294.372	1777.75
294.603	1822.75
294.833	1936.75
295.064	1842.75
295.295	1630.75
295.525	1590.75
295.756	1514.75
295.987	1422.75
296.217	1481.75
296.448	1528.75
296.679	1497.75
296.909	1509.75
297.14	1537.75
297.37	1487.75
297.601	1613.75
297.831	1741.75
298.062	1770.75
298.292	1619.75
298.523	1501.75
298.753	1511.75
298.984	1562.75
299.214	1538.75
299.445	1591.75
299.675	1631.75
299.905	1622.75
300.136	1565.75
300.366	1562.75
300.597	1496.75
300.827	1487.75
301.057	1571.75
301.288	1645.75
301.518	1617.75
301.748	1674.75
301.979	1744.75
302.209	1755.75
302.439	1886.75
302.669	1968.75
302.9	1870.75
303.13	1644.75
303.36	1644.75
303.59	1707.75
303.82	1626.75
304.051	1648.75
304.281	1649.75
304.511	1655.75
304.741	1756.75
304.971	1905.75
305.201	2071.75
305.431	1934.75
305.661	1594.75
305.891	1481.75
306.121	1471.75
306.352	1458.75
306.582	1598.75
306.812	1720.75
307.042	1831.75
307.272	1835.75
307.502	1834.75
307.731	2012.75
307.961	2169.75
308.191	2019.75
308.421	1720.75
308.651	1592.75
308.881	1568.75
309.111	1555.75
309.341	1565.75
309.571	1588.75
309.8	1605.75
310.03	1561.75
310.26	1558.75
310.49	1564.75
310.72	1619.75
310.949	1691.75
311.179	1692.75
311.409	1657.75
311.639	1616.75
311.868	1590.75
312.098	1612.75
312.328	1629.75
312.557	1588.75
312.787	1602.75
313.017	1635.75
313.246	1691.75
313.476	1642.75
313.706	1706.75
313.935	1669.75
314.165	1684.75
314.394	1721.75
314.624	1846.75
314.853	1916.75
315.083	1993.75
315.312	2112.75
315.542	1922.75
315.771	1704.75
316.001	1691.75
316.23	1819.75
316.46	1805.75
316.689	1770.75
316.919	1680.75
317.148	1630.75
317.377	1608.75
317.607	1706.75
317.836	1981.75
318.065	2054.75
318.295	1955.75
318.524	1901.75
318.753	1784.75
318.983	1779.75
319.212	1778.75
319.441	1685.75
319.67	1681.75
319.9	1757.75
320.129	1828.75
320.358	1909.75
320.587	1945.75
320.816	1962.75
321.046	1884.75
321.275	1777.75
321.504	1796.75
321.733	1937.75
321.962	1920.75
322.191	1763.75
322.42	1718.75
322.649	1701.75
322.878	1712.75
323.108	1709.75
323.337	1757.75
323.566	1790.75
323.795	1820.75
324.024	1798.75
324.253	1731.75
324.482	1831.75
324.71	1714.75
324.939	1602.75
325.168	1643.75
325.397	1705.75
325.626	1802.75
325.855	1792.75
326.084	1703.75
326.313	1699.75
326.542	1734.75
326.77	1776.75
326.999	1845.75
327.228	1764.75
327.457	1659.75
327.686	1658.75
327.914	1646.75
328.143	1736.75
328.372	1710.75
328.6	1748.75
328.829	1733.75
329.058	1679.75
329.287	1663.75
329.515	1745.75
329.744	1768.75
329.972	1856.75
330.201	1924.75
330.43	1898.75
330.658	1824.75
330.887	1836.75
331.115	1842.75
331.344	1847.75
331.572	1806.75
331.801	1785.75
332.03	1830.75
332.258	1806.75
332.486	1878.75
332.715	1841.75
332.943	1860.75
333.172	1814.75
333.4	1899.75
333.629	1857.75
333.857	2014.75
334.085	2206.75
334.314	2509.75
334.542	2740.75
334.771	2515.75
334.999	2192.75
335.227	2116.75
335.455	1924.75
335.684	1915.75
335.912	2015.75
336.14	2079.75
336.369	2005.75
336.597	1870.75
336.825	1816.75
337.053	1905.75
337.281	1978.75
337.51	2091.75
337.738	2185.75
337.966	2133.75
338.194	1895.75
338.422	1794.75
338.65	1801.75
338.878	1742.75
339.106	1769.75
339.334	1714.75
339.562	1696.75
339.79	1729.75
340.018	1856.75
340.246	1951.75
340.474	1942.75
340.702	1884.75
340.93	1882.75
341.158	1856.75
341.386	1831.75
341.614	1811.75
341.842	1823.75
342.07	1848.75
342.298	1845.75
342.526	1805.75
342.754	1798.75
342.981	1795.75
343.209	1777.75
343.437	1740.75
343.665	1782.75
343.893	1849.75
344.12	1972.75
344.348	1982.75
344.576	1869.75
344.804	1780.75
345.031	1788.75
345.259	1781.75
345.487	1763.75
345.714	1671.75
345.942	1645.75
346.17	1679.75
346.397	1672.75
346.625	1748.75
346.853	1633.75
347.08	1608.75
347.308	1616.75
347.535	1663.75
347.763	1750.75
347.99	1671.75
348.218	1595.75
348.445	1659.75
348.673	1670.75
348.9	1709.75
349.128	1761.75
349.355	1847.75
349.583	1764.75
349.81	1719.75
350.037	1600.75
350.265	1555.75
350.492	1582.75
350.72	1610.75
350.947	1665.75
351.174	1692.75
351.402	1641.75
351.629	1570.75
351.856	1551.75
352.083	1512.75
352.311	1564.75
352.538	1592.75
352.765	1684.75
352.992	1717.75
353.22	1668.75
353.447	1596.75
353.674	1660.75
353.901	1658.75
354.128	1608.75
354.355	1545.75
354.583	1667.75
354.81	1704.75
355.037	1714.75
355.264	1701.75
355.491	1678.75
355.718	1691.75
355.945	1701.75
356.172	1611.75
356.399	1612.75
356.626	1634.75
356.853	1623.75
357.08	1765.75
357.307	2010.75
357.534	2003.75
357.761	1712.75
357.988	1632.75
358.215	1548.75
358.441	1584.75
358.668	1555.75
358.895	1556.75
359.122	1665.75
359.349	1858.75
359.576	1869.75
359.802	1660.75
360.029	1557.75
360.256	1568.75
360.483	1593.75
360.709	1679.75
360.936	1705.75
361.163	1733.75
361.39	1895.75
361.616	2091.75
361.843	2009.75
362.07	1980.75
362.296	1658.75
362.523	1604.75
362.749	1648.75
362.976	1657.75
363.203	1700.75
363.429	1640.75
363.656	1540.75
363.882	1613.75
364.109	1824.75
364.335	1990.75
364.562	1814.75
364.788	1755.75
365.015	1652.75
365.241	1644.75
365.468	1660.75
365.694	1689.75
365.92	1765.75
366.147	1727.75
366.373	1618.75
366.599	1598.75
366.826	1586.75
367.052	1619.75
367.278	1594.75
367.505	1618.75
367.731	1670.75
367.957	1701.75
368.184	1721.75
368.41	1826.75
368.636	1844.75
368.862	1866.75
369.089	1890.75
369.315	1813.75
369.541	1760.75
369.767	1696.75
369.993	1652.75
370.219	1635.75
370.445	1658.75
370.672	1760.75
370.898	1826.75
371.124	1853.75
371.35	1750.75
371.576	1771.75
371.802	1873.75
372.028	1769.75
372.254	1706.75
372.48	1671.75
372.706	1656.75
372.932	1666.75
373.158	1670.75
373.384	1717.75
373.61	1743.75
373.835	1824.75
374.061	1754.75
374.287	1679.75
374.513	1742.75
374.739	1732.75
374.965	1728.75
375.191	1755.75
375.416	1783.75
375.642	1761.75
375.868	1870.75
376.094	1936.75
376.319	1868.75
376.545	1746.75
376.771	1742.75
376.997	1861.75
377.222	1829.75
377.448	1802.75
377.674	1848.75
377.899	1799.75
378.125	1952.75
378.35	1908.75
378.576	1725.75
378.802	1659.75
379.027	1666.75
379.253	1672.75
379.478	1691.75
379.704	1698.75
379.929	1683.75
380.155	1749.75
380.38	1732.75
380.606	1767.75
380.831	1753.75
381.057	1821.75
381.282	1860.75
381.507	1784.75
381.733	1910.75
381.958	2008.75
382.184	1861.75
382.409	1773.75
382.634	1835.75
382.86	1776.75
383.085	1834.75
383.31	1841.75
383.535	1971.75
383.761	2089.75
383.986	1980.75
384.211	1995.75
384.436	1969.75
384.662	1993.75
384.887	2123.75
385.112	1984.75
385.337	2002.75
385.562	1971.75
385.787	1968.75
386.013	2037.75
386.238	2029.75
386.463	2032.75
386.688	2138.75
386.913	2254.75
387.138	2218.75
387.363	2005.75
387.588	1985.75
387.813	2017.75
388.038	2046.75
388.263	2111.75
388.488	2075.75
388.713	1903.75
388.938	1889.75
389.163	1908.75
389.387	1926.75
389.612	1963.75
389.837	1952.75
390.062	1986.75
390.287	2001.75
390.512	1953.75
390.736	1933.75
390.961	1885.75
391.186	1870.75
391.411	1870.75
391.636	1919.75
391.86	1982.75
392.085	1986.75
392.31	1972.75
392.534	1976.75
392.759	2022.75
392.984	1966.75
393.208	2011.75
393.433	2032.75
393.658	2077.75
393.882	2196.75
394.107	2014.75
394.331	1955.75
394.556	1941.75
394.78	1969.75
395.005	2058.75
395.229	2090.75
395.454	2243.75
395.678	2275.75
395.903	2172.75
396.127	2027.75
396.352	2083.75
396.576	2155.75
396.801	2202.75
397.025	2134.75
397.249	2153.75
397.474	2082.75
397.698	2092.75
397.922	2181.75
398.147	2257.75
398.371	2354.75
398.595	2349.75
398.82	2251.75
399.044	2268.75
399.268	2425.75
399.492	2548.75
399.717	2605.75
399.941	2692.75
400.165	2582.75
400.389	2490.75
400.613	2464.75
400.837	2730.75
401.062	3180.75
401.286	2743.75
401.51	2440.75
401.734	2588.75
401.958	2500.75
402.182	2368.75
402.406	2218.75
402.63	2252.75
402.854	2240.75
403.078	2255.75
403.302	2304.75
403.526	2305.75
403.75	2302.75
403.974	2376.75
404.198	2341.75
404.422	2413.75
404.645	2533.75
404.869	2463.75
405.093	2305.75
405.317	2270.75
405.541	2365.75
405.765	2341.75
405.988	2334.75
406.212	2383.75
406.436	2444.75
406.66	2494.75
406.883	2501.75
407.107	2777.75
407.331	3060.75
407.555	3306.75
407.778	3119.75
408.002	2600.75
408.226	2456.75
408.449	2473.75
408.673	2402.75
408.896	2404.75
409.12	2479.75
409.344	2409.75
409.567	2362.75
409.791	2378.75
410.014	2449.75
410.238	2486.75
410.461	2670.75
410.685	2388.75
410.908	2264.75
411.132	2309.75
411.355	2325.75
411.578	2273.75
411.802	2313.75
412.025	2340.75
412.249	2271.75
412.472	2208.75
412.695	2191.75
412.919	2199.75
413.142	2172.75
413.365	2233.75
413.589	2337.75
413.812	2376.75
414.035	2503.75
414.258	2298.75
414.482	2250.75
414.705	2268.75
414.928	2205.75
415.151	2235.75
415.374	2208.75
415.597	2288.75
415.821	2286.75
416.044	2400.75
416.267	2383.75
416.49	2159.75
416.713	2115.75
416.936	2198.75
417.159	2334.75
417.382	2311.75
417.605	2180.75
417.828	2285.75
418.051	2300.75
418.274	2237.75
418.497	2153.75
418.72	2144.75
418.943	2131.75
419.166	2299.75
419.389	2379.75
419.611	2250.75
419.834	2191.75
420.057	2236.75
420.28	2148.75
420.503	2146.75
420.726	2206.75
420.948	2202.75
421.171	2109.75
421.394	2134.75
421.617	2255.75
421.839	2201.75
422.062	2167.75
422.285	2083.75
422.507	2139.75
422.73	2132.75
422.953	2078.75
423.175	2028.75
423.398	2089.75
423.621	2143.75
423.843	2163.75
424.066	2235.75
424.288	2295.75
424.511	2300.75
424.733	2267.75
424.956	2017.75
425.178	2043.75
425.401	2074.75
425.623	2113.75
425.846	2104.75
426.068	2194.75
426.291	2210.75
426.513	2164.75
426.735	2185.75
426.958	2348.75
427.18	2546.75
427.402	2265.75
427.625	2341.75
427.847	2352.75
428.069	2181.75
428.292	2158.75
428.514	2054.75
428.736	2043.75
428.958	2112.75
429.181	2070.75
429.403	2324.75
429.625	2967.75
429.847	2581.75
430.069	2141.75
430.292	2331.75
430.514	2435.75
430.736	2256.75
430.958	2380.75
431.18	2275.75
431.402	2093.75
431.624	2104.75
431.846	2101.75
432.068	2022.75
432.29	2078.75
432.512	2078.75
432.734	2117.75
432.956	2189.75
433.178	2267.75
433.4	2245.75
433.622	2219.75
433.844	2133.75
434.066	2048.75
434.287	2056.75
434.509	2153.75
434.731	2250.75
434.953	2404.75
435.175	2349.75
435.397	2179.75
435.618	2208.75
435.84	2213.75
436.062	2144.75
436.284	2218.75
436.505	2191.75
436.727	2234.75
436.949	2171.75
437.17	2107.75
437.392	2106.75
437.614	2107.75
437.835	2085.75
438.057	2168.75
438.278	2304.75
438.5	2102.75
438.721	2092.75
438.943	2076.75
439.165	2060.75
439.386	2012.75
439.608	2076.75
439.829	2053.75
440.05	2068.75
440.272	2010.75
440.493	2003.75
440.715	2097.75
440.936	2214.75
441.158	2467.75
441.379	2421.75
441.6	2345.75
441.822	2250.75
442.043	2248.75
442.264	2215.75
442.486	2118.75
442.707	2082.75
442.928	2101.75
443.149	2149.75
443.371	2288.75
443.592	2330.75
443.813	2270.75
444.034	2273.75
444.255	2246.75
444.476	2314.75
444.698	2382.75
444.919	2352.75
445.14	2418.75
445.361	2409.75
445.582	2506.75
445.803	2377.75
446.024	2274.75
446.245	2380.75
446.466	2288.75
446.687	2152.75
446.908	2192.75
447.129	2113.75
447.35	2133.75
447.571	2161.75
447.792	2108.75
448.013	2026.75
448.234	2065.75
448.455	2185.75
448.675	2197.75
448.896	1975.75
449.117	1998.75
449.338	2076.75
449.559	2129.75
449.779	2261.75
450	2492.75
450.221	2676.75
450.442	2613.75
450.662	2237.75
450.883	2008.75
451.104	1952.75
451.324	1968.75
451.545	2082.75
451.766	2069.75
451.986	1947.75
452.207	1966.75
452.428	1922.75
452.648	1851.75
452.869	1954.75
453.089	2018.75
453.31	2034.75
453.53	2091.75
453.751	1985.75
453.971	1896.75
454.192	1948.75
454.412	2097.75
454.633	2041.75
454.853	1934.75
455.073	1826.75
455.294	1822.75
455.514	1834.75
455.734	1804.75
455.955	1892.75
456.175	1848.75
456.395	1869.75
456.616	1944.75
456.836	1974.75
457.056	1898.75
457.276	1902.75
457.497	1885.75
457.717	1782.75
457.937	1810.75
458.157	1916.75
458.377	1889.75
458.598	1817.75
458.818	1861.75
459.038	2023.75
459.258	2098.75
459.478	2144.75
459.698	2065.75
459.918	2093.75
460.138	2154.75
460.358	2248.75
460.578	2218.75
460.798	2371.75
461.018	2458.75
461.238	2348.75
461.458	2224.75
461.678	2218.75
461.898	2206.75
462.118	2141.75
462.338	2234.75
462.558	2237.75
462.777	2218.75
462.997	2283.75
463.217	2458.75
463.437	2442.75
463.657	2276.75
463.876	2254.75
464.096	2211.75
464.316	2241.75
464.536	2291.75
464.755	2317.75
464.975	2369.75
465.195	2240.75
465.414	2394.75
465.634	2364.75
465.854	2240.75
466.073	2393.75
466.293	2343.75
466.512	2053.75
466.732	2026.75
466.951	2126.75
467.171	2109.75
467.391	1989.75
467.61	1958.75
467.829	2044.75
468.049	2132.75
468.268	2464.75
468.488	2289.75
468.707	2171.75
468.927	2078.75
469.146	2098.75
469.365	2019.75
469.585	2050.75
469.804	1996.75
470.023	2064.75
470.243	2067.75
470.462	2008.75
470.681	2003.75
470.901	2038.75
471.12	2071.75
471.339	2027.75
471.558	1962.75
471.777	1897.75
471.997	2016.75
472.216	1997.75
472.435	1910.75
472.654	1971.75
472.873	2048.75
473.092	2192.75
473.311	2049.75
473.53	1957.75
473.749	1916.75
473.968	2084.75
474.187	2127.75
474.406	2218.75
474.625	2108.75
474.844	2074.75
475.063	2032.75
475.282	2149.75
475.501	2074.75
475.72	2087.75
475.939	2161.75
476.158	2125.75
476.377	2013.75
476.596	2098.75
476.814	2161.75
477.033	2155.75
477.252	2238.75
477.471	2314.75
477.69	2161.75
477.908	2184.75
478.127	2261.75
478.346	2457.75
478.564	2500.75
478.783	2450.75
479.002	2508.75
479.22	2458.75
479.439	2560.75
479.658	2858.75
479.876	2872.75
480.095	2460.75
480.313	2372.75
480.532	2265.75
480.751	2325.75
480.969	2354.75
481.188	2284.75
481.406	2298.75
481.624	2262.75
481.843	2254.75
482.061	2314.75
482.28	2368.75
482.498	2412.75
482.717	2377.75
482.935	2251.75
483.153	2313.75
483.372	2258.75
483.59	2241.75
483.808	2263.75
484.027	2354.75
484.245	2470.75
484.463	2807.75
484.681	3277.75
484.9	2550.75
485.118	2322.75
485.336	2270.75
485.554	2391.75
485.772	2532.75
485.99	2448.75
486.209	2462.75
486.427	2409.75
486.645	2460.75
486.863	2399.75
487.081	2464.75
487.299	2564.75
