Data from WStandard_LampEnergy10_LIBS07252019.E.O._I.C._HRD10591_15-53-28-928.txt Node
Date: Thu Jul 25 15:53:28 EDT 2019
User: cochatt
Spectrometer: HR+D1059
Trigger mode: 1
Integration Time (sec): 1.000000E-1
Scans to average: 1
Electric dark correction enabled: true
Nonlinearity correction enabled: false
Boxcar width: 0
XAxis mode: Wavelengths
Number of Pixels in Spectrum: 2048
>>>>>Begin Spectral Data<<<<<
223.165	-15.31
223.4	-15.31
223.635	-15.31
223.869	-26.31
224.104	-17.31
224.338	-5.31
224.573	-24.31
224.808	-12.31
225.042	-24.31
225.277	-2.31
225.511	5.69
225.746	0.69
225.98	7.69
226.215	16.69
226.449	21.69
226.683	13.69
226.918	16.69
227.152	44.69
227.387	37.69
227.621	30.69
227.856	40.69
228.09	48.69
228.324	52.69
228.559	60.69
228.793	66.69
229.027	131.69
229.262	124.69
229.496	148.69
229.73	136.69
229.964	155.69
230.199	162.69
230.433	174.69
230.667	179.69
230.901	188.69
231.136	171.69
231.37	163.69
231.604	168.69
231.838	177.69
232.072	170.69
232.306	164.69
232.541	186.69
232.775	202.69
233.009	206.69
233.243	203.69
233.477	186.69
233.711	187.69
233.945	195.69
234.179	196.69
234.413	214.69
234.647	211.69
234.881	182.69
235.115	181.69
235.349	182.69
235.583	197.69
235.817	205.69
236.051	185.69
236.285	190.69
236.519	197.69
236.753	205.69
236.987	213.69
237.221	223.69
237.455	221.69
237.689	227.69
237.922	205.69
238.156	234.69
238.39	218.69
238.624	229.69
238.858	248.69
239.091	243.69
239.325	263.69
239.559	282.69
239.793	285.69
240.027	312.69
240.26	290.69
240.494	244.69
240.728	236.69
240.961	243.69
241.195	231.69
241.429	254.69
241.662	244.69
241.896	249.69
242.13	239.69
242.363	258.69
242.597	286.69
242.83	262.69
243.064	288.69
243.298	289.69
243.531	293.69
243.765	283.69
243.998	270.69
244.232	236.69
244.465	243.69
244.699	264.69
244.932	294.69
245.166	298.69
245.399	298.69
245.633	278.69
245.866	262.69
246.099	280.69
246.333	301.69
246.566	309.69
246.8	343.69
247.033	336.69
247.266	294.69
247.5	323.69
247.733	322.69
247.966	334.69
248.2	358.69
248.433	346.69
248.666	371.69
248.899	398.69
249.133	427.69
249.366	451.69
249.599	405.69
249.832	366.69
250.066	357.69
250.299	385.69
250.532	348.69
250.765	330.69
250.998	325.69
251.231	334.69
251.465	348.69
251.698	334.69
251.931	356.69
252.164	349.69
252.397	365.69
252.63	338.69
252.863	329.69
253.096	316.69
253.329	343.69
253.562	333.69
253.795	357.69
254.028	360.69
254.261	324.69
254.494	327.69
254.727	338.69
254.96	331.69
255.193	369.69
255.426	401.69
255.659	445.69
255.892	463.69
256.124	393.69
256.357	384.69
256.59	410.69
256.823	410.69
257.056	399.69
257.289	465.69
257.521	502.69
257.754	467.69
257.987	444.69
258.22	460.69
258.452	453.69
258.685	419.69
258.918	416.69
259.151	390.69
259.383	382.69
259.616	341.69
259.849	341.69
260.081	393.69
260.314	440.69
260.547	482.69
260.779	472.69
261.012	433.69
261.244	410.69
261.477	398.69
261.71	399.69
261.942	400.69
262.175	391.69
262.407	415.69
262.64	386.69
262.872	394.69
263.105	356.69
263.337	364.69
263.57	352.69
263.802	370.69
264.035	336.69
264.267	340.69
264.499	328.69
264.732	368.69
264.964	362.69
265.197	398.69
265.429	421.69
265.661	458.69
265.894	472.69
266.126	498.69
266.358	452.69
266.591	460.69
266.823	487.69
267.055	451.69
267.287	466.69
267.52	426.69
267.752	422.69
267.984	464.69
268.216	492.69
268.448	468.69
268.681	471.69
268.913	430.69
269.145	406.69
269.377	418.69
269.609	438.69
269.841	503.69
270.073	564.69
270.306	630.69
270.538	624.69
270.77	539.69
271.002	495.69
271.234	462.69
271.466	491.69
271.698	530.69
271.93	609.69
272.162	583.69
272.394	522.69
272.626	519.69
272.858	457.69
273.09	420.69
273.322	411.69
273.553	413.69
273.785	398.69
274.017	409.69
274.249	431.69
274.481	432.69
274.713	396.69
274.945	398.69
275.176	415.69
275.408	413.69
275.64	408.69
275.872	419.69
276.104	424.69
276.335	479.69
276.567	525.69
276.799	518.69
277.031	482.69
277.262	474.69
277.494	485.69
277.726	538.69
277.957	490.69
278.189	465.69
278.421	452.69
278.652	408.69
278.884	419.69
279.115	416.69
279.347	447.69
279.579	447.69
279.81	433.69
280.042	467.69
280.273	524.69
280.505	507.69
280.736	515.69
280.968	472.69
281.199	455.69
281.431	433.69
281.662	415.69
281.894	405.69
282.125	417.69
282.356	436.69
282.588	472.69
282.819	470.69
283.051	500.69
283.282	515.69
283.513	486.69
283.745	446.69
283.976	418.69
284.207	428.69
284.439	458.69
284.67	438.69
284.901	450.69
285.132	457.69
285.364	460.69
285.595	456.69
285.826	465.69
286.057	446.69
286.288	452.69
286.52	498.69
286.751	488.69
286.982	494.69
287.213	450.69
287.444	432.69
287.675	426.69
287.906	481.69
288.138	485.69
288.369	468.69
288.6	440.69
288.831	442.69
289.062	439.69
289.293	457.69
289.524	457.69
289.755	464.69
289.986	471.69
290.217	443.69
290.448	447.69
290.679	451.69
290.91	455.69
291.141	496.69
291.371	486.69
291.602	466.69
291.833	465.69
292.064	488.69
292.295	462.69
292.526	500.69
292.757	506.69
292.987	486.69
293.218	463.69
293.449	536.69
293.68	575.69
293.91	579.69
294.141	549.69
294.372	532.69
294.603	578.69
294.833	546.69
295.064	552.69
295.295	502.69
295.525	488.69
295.756	436.69
295.987	452.69
296.217	449.69
296.448	454.69
296.679	447.69
296.909	468.69
297.14	468.69
297.37	483.69
297.601	495.69
297.831	516.69
298.062	513.69
298.292	486.69
298.523	485.69
298.753	456.69
298.984	475.69
299.214	503.69
299.445	487.69
299.675	484.69
299.905	480.69
300.136	476.69
300.366	468.69
300.597	478.69
300.827	468.69
301.057	506.69
301.288	510.69
301.518	516.69
301.748	519.69
301.979	545.69
302.209	526.69
302.439	586.69
302.669	606.69
302.9	557.69
303.13	518.69
303.36	512.69
303.59	492.69
303.82	517.69
304.051	515.69
304.281	495.69
304.511	520.69
304.741	569.69
304.971	607.69
305.201	615.69
305.431	539.69
305.661	476.69
305.891	440.69
306.121	464.69
306.352	471.69
306.582	502.69
306.812	536.69
307.042	588.69
307.272	557.69
307.502	584.69
307.731	631.69
307.961	625.69
308.191	575.69
308.421	521.69
308.651	502.69
308.881	506.69
309.111	510.69
309.341	493.69
309.571	503.69
309.8	496.69
310.03	507.69
310.26	476.69
310.49	494.69
310.72	517.69
310.949	540.69
311.179	534.69
311.409	526.69
311.639	495.69
311.868	512.69
312.098	501.69
312.328	511.69
312.557	514.69
312.787	520.69
313.017	509.69
313.246	540.69
313.476	509.69
313.706	528.69
313.935	516.69
314.165	504.69
314.394	571.69
314.624	602.69
314.853	605.69
315.083	642.69
315.312	604.69
315.542	572.69
315.771	515.69
316.001	528.69
316.23	552.69
316.46	544.69
316.689	562.69
316.919	520.69
317.148	515.69
317.377	535.69
317.607	583.69
317.836	636.69
318.065	641.69
318.295	597.69
318.524	582.69
318.753	568.69
318.983	568.69
319.212	554.69
319.441	561.69
319.67	560.69
319.9	556.69
320.129	594.69
320.358	619.69
320.587	626.69
320.816	605.69
321.046	605.69
321.275	584.69
321.504	610.69
321.733	620.69
321.962	601.69
322.191	550.69
322.42	556.69
322.649	538.69
322.878	575.69
323.108	570.69
323.337	580.69
323.566	587.69
323.795	589.69
324.024	575.69
324.253	552.69
324.482	575.69
324.71	546.69
324.939	514.69
325.168	548.69
325.397	563.69
325.626	587.69
325.855	580.69
326.084	546.69
326.313	572.69
326.542	580.69
326.77	591.69
326.999	551.69
327.228	538.69
327.457	529.69
327.686	514.69
327.914	568.69
328.143	565.69
328.372	543.69
328.6	539.69
328.829	559.69
329.058	538.69
329.287	546.69
329.515	560.69
329.744	597.69
329.972	605.69
330.201	599.69
330.43	615.69
330.658	587.69
330.887	607.69
331.115	600.69
331.344	592.69
331.572	582.69
331.801	579.69
332.03	567.69
332.258	607.69
332.486	604.69
332.715	611.69
332.943	596.69
333.172	583.69
333.4	598.69
333.629	623.69
333.857	673.69
334.085	741.69
334.314	807.69
334.542	830.69
334.771	797.69
334.999	707.69
335.227	658.69
335.455	640.69
335.684	652.69
335.912	653.69
336.14	648.69
336.369	609.69
336.597	596.69
336.825	607.69
337.053	647.69
337.281	656.69
337.51	675.69
337.738	700.69
337.966	655.69
338.194	610.69
338.422	576.69
338.65	597.69
338.878	590.69
339.106	584.69
339.334	565.69
339.562	562.69
339.79	575.69
340.018	620.69
340.246	632.69
340.474	608.69
340.702	626.69
340.93	638.69
341.158	629.69
341.386	616.69
341.614	594.69
341.842	613.69
342.07	589.69
342.298	612.69
342.526	630.69
342.754	597.69
342.981	587.69
343.209	608.69
343.437	612.69
343.665	588.69
343.893	600.69
344.12	632.69
344.348	632.69
344.576	610.69
344.804	603.69
345.031	598.69
345.259	566.69
345.487	568.69
345.714	529.69
345.942	559.69
346.17	559.69
346.397	580.69
346.625	577.69
346.853	542.69
347.08	518.69
347.308	547.69
347.535	579.69
347.763	576.69
347.99	567.69
348.218	548.69
348.445	568.69
348.673	583.69
348.9	598.69
349.128	605.69
349.355	607.69
349.583	575.69
349.81	563.69
350.037	524.69
350.265	528.69
350.492	547.69
350.72	546.69
350.947	567.69
351.174	584.69
351.402	516.69
351.629	540.69
351.856	529.69
352.083	528.69
352.311	555.69
352.538	576.69
352.765	581.69
352.992	581.69
353.22	536.69
353.447	543.69
353.674	575.69
353.901	570.69
354.128	560.69
354.355	562.69
354.583	595.69
354.81	613.69
355.037	583.69
355.264	605.69
355.491	569.69
355.718	561.69
355.945	571.69
356.172	548.69
356.399	555.69
356.626	569.69
356.853	610.69
357.08	633.69
357.307	674.69
357.534	657.69
357.761	579.69
357.988	566.69
358.215	510.69
358.441	556.69
358.668	542.69
358.895	546.69
359.122	605.69
359.349	642.69
359.576	595.69
359.802	559.69
360.029	542.69
360.256	551.69
360.483	550.69
360.709	585.69
360.936	614.69
361.163	628.69
361.39	675.69
361.616	712.69
361.843	690.69
362.07	657.69
362.296	589.69
362.523	547.69
362.749	559.69
362.976	568.69
363.203	571.69
363.429	544.69
363.656	548.69
363.882	607.69
364.109	642.69
364.335	666.69
364.562	618.69
364.788	592.69
365.015	574.69
365.241	560.69
365.468	577.69
365.694	614.69
365.92	624.69
366.147	567.69
366.373	564.69
366.599	562.69
366.826	553.69
367.052	543.69
367.278	578.69
367.505	598.69
367.731	605.69
367.957	618.69
368.184	658.69
368.41	661.69
368.636	662.69
368.862	695.69
369.089	660.69
369.315	626.69
369.541	618.69
369.767	581.69
369.993	594.69
370.219	604.69
370.445	600.69
370.672	645.69
370.898	655.69
371.124	624.69
371.35	654.69
371.576	662.69
371.802	657.69
372.028	630.69
372.254	602.69
372.48	582.69
372.706	586.69
372.932	600.69
373.158	614.69
373.384	639.69
373.61	644.69
373.835	661.69
374.061	610.69
374.287	585.69
374.513	607.69
374.739	624.69
374.965	624.69
375.191	633.69
375.416	637.69
375.642	662.69
375.868	716.69
376.094	702.69
376.319	673.69
376.545	634.69
376.771	668.69
376.997	691.69
377.222	679.69
377.448	675.69
377.674	679.69
377.899	697.69
378.125	712.69
378.35	671.69
378.576	622.69
378.802	628.69
379.027	596.69
379.253	612.69
379.478	625.69
379.704	654.69
379.929	638.69
380.155	648.69
380.38	683.69
380.606	650.69
380.831	676.69
381.057	690.69
381.282	680.69
381.507	669.69
381.733	739.69
381.958	730.69
382.184	675.69
382.409	642.69
382.634	670.69
382.86	684.69
383.085	682.69
383.31	717.69
383.535	784.69
383.761	793.69
383.986	760.69
384.211	750.69
384.436	712.69
384.662	774.69
384.887	772.69
385.112	736.69
385.337	727.69
385.562	749.69
385.787	755.69
386.013	738.69
386.238	742.69
386.463	782.69
386.688	855.69
386.913	863.69
387.138	823.69
387.363	776.69
387.588	778.69
387.813	786.69
388.038	789.69
388.263	795.69
388.488	759.69
388.713	719.69
388.938	727.69
389.163	715.69
389.387	733.69
389.612	733.69
389.837	755.69
390.062	758.69
390.287	755.69
390.512	707.69
390.736	746.69
390.961	747.69
391.186	741.69
391.411	748.69
391.636	726.69
391.86	743.69
392.085	742.69
392.31	762.69
392.534	738.69
392.759	753.69
392.984	769.69
393.208	764.69
393.433	799.69
393.658	803.69
393.882	873.69
394.107	787.69
394.331	760.69
394.556	751.69
394.78	758.69
395.005	806.69
395.229	841.69
395.454	892.69
395.678	885.69
395.903	842.69
396.127	817.69
396.352	818.69
396.576	864.69
396.801	843.69
397.025	833.69
397.249	848.69
397.474	810.69
397.698	836.69
397.922	867.69
398.147	890.69
398.371	925.69
398.595	879.69
398.82	855.69
399.044	884.69
399.268	958.69
399.492	967.69
399.717	996.69
399.941	1001.69
400.165	959.69
400.389	956.69
400.613	977.69
400.837	1126.69
401.062	1177.69
401.286	1037.69
401.51	982.69
401.734	978.69
401.958	933.69
402.182	888.69
402.406	898.69
402.63	915.69
402.854	877.69
403.078	911.69
403.302	884.69
403.526	935.69
403.75	948.69
403.974	946.69
404.198	920.69
404.422	1003.69
404.645	1029.69
404.869	983.69
405.093	922.69
405.317	928.69
405.541	942.69
405.765	919.69
405.988	936.69
406.212	968.69
406.436	967.69
406.66	1000.69
406.883	1023.69
407.107	1119.69
407.331	1218.69
407.555	1262.69
407.778	1125.69
408.002	975.69
408.226	977.69
408.449	991.69
408.673	970.69
408.896	949.69
409.12	966.69
409.344	950.69
409.567	930.69
409.791	940.69
410.014	963.69
410.238	1025.69
410.461	1071.69
410.685	979.69
410.908	927.69
411.132	968.69
411.355	935.69
411.578	943.69
411.802	958.69
412.025	928.69
412.249	951.69
412.472	935.69
412.695	923.69
412.919	895.69
413.142	917.69
413.365	930.69
413.589	955.69
413.812	1008.69
414.035	1000.69
414.258	934.69
414.482	893.69
414.705	893.69
414.928	901.69
415.151	921.69
415.374	924.69
415.597	952.69
415.821	949.69
416.044	952.69
416.267	933.69
416.49	926.69
416.713	933.69
416.936	982.69
417.159	991.69
417.382	979.69
417.605	935.69
417.828	949.69
418.051	944.69
418.274	928.69
418.497	942.69
418.72	922.69
418.943	922.69
419.166	972.69
419.389	987.69
419.611	949.69
419.834	924.69
420.057	945.69
420.28	936.69
420.503	923.69
420.726	966.69
420.948	924.69
421.171	902.69
421.394	936.69
421.617	971.69
421.839	980.69
422.062	990.69
422.285	978.69
422.507	946.69
422.73	907.69
422.953	874.69
423.175	886.69
423.398	915.69
423.621	914.69
423.843	942.69
424.066	972.69
424.288	1015.69
424.511	1041.69
424.733	1002.69
424.956	941.69
425.178	926.69
425.401	936.69
425.623	942.69
425.846	934.69
426.068	974.69
426.291	979.69
426.513	955.69
426.735	952.69
426.958	1037.69
427.18	1034.69
427.402	995.69
427.625	1016.69
427.847	986.69
428.069	922.69
428.292	924.69
428.514	905.69
428.736	916.69
428.958	910.69
429.181	936.69
429.403	1068.69
429.625	1215.69
429.847	1068.69
430.069	976.69
430.292	1031.69
430.514	1053.69
430.736	974.69
430.958	958.69
431.18	934.69
431.402	883.69
431.624	844.69
431.846	799.69
432.068	729.69
432.29	740.69
432.512	799.69
432.734	864.69
432.956	923.69
433.178	933.69
433.4	944.69
433.622	980.69
433.844	908.69
434.066	850.69
434.287	805.69
434.509	798.69
434.731	822.69
434.953	940.69
435.175	927.69
435.397	913.69
435.618	903.69
435.84	837.69
436.062	869.69
436.284	911.69
436.505	910.69
436.727	945.69
436.949	930.69
437.17	920.69
437.392	869.69
437.614	894.69
437.835	810.69
438.057	799.69
438.278	857.69
438.5	886.69
438.721	898.69
438.943	929.69
439.165	918.69
439.386	932.69
439.608	949.69
439.829	948.69
440.05	975.69
440.272	976.69
440.493	948.69
440.715	988.69
440.936	1035.69
441.158	1072.69
441.379	1052.69
441.6	1020.69
441.822	1019.69
442.043	989.69
442.264	987.69
442.486	959.69
442.707	955.69
442.928	928.69
443.149	973.69
443.371	1022.69
443.592	1044.69
443.813	1007.69
444.034	1016.69
444.255	1035.69
444.476	1007.69
444.698	1041.69
444.919	1055.69
445.14	1149.69
445.361	1095.69
445.582	1100.69
445.803	1042.69
446.024	1036.69
446.245	1093.69
446.466	1054.69
446.687	1013.69
446.908	1059.69
447.129	1007.69
447.35	1018.69
447.571	981.69
447.792	987.69
448.013	980.69
448.234	983.69
448.455	994.69
448.675	977.69
448.896	943.69
449.117	910.69
449.338	933.69
449.559	987.69
449.779	957.69
450	1024.69
450.221	1040.69
450.442	995.69
450.662	940.69
450.883	888.69
451.104	886.69
451.324	885.69
451.545	921.69
451.766	870.69
451.986	855.69
452.207	818.69
452.428	810.69
452.648	776.69
452.869	784.69
453.089	781.69
453.31	788.69
453.53	764.69
453.751	752.69
453.971	720.69
454.192	711.69
454.412	760.69
454.633	779.69
454.853	762.69
455.073	768.69
455.294	760.69
455.514	772.69
455.734	773.69
455.955	786.69
456.175	741.69
456.395	739.69
456.616	749.69
456.836	755.69
457.056	750.69
457.276	715.69
457.497	701.69
457.717	667.69
457.937	696.69
458.157	694.69
458.377	678.69
458.598	679.69
458.818	683.69
459.038	727.69
459.258	728.69
459.478	718.69
459.698	707.69
459.918	745.69
460.138	805.69
460.358	831.69
460.578	839.69
460.798	868.69
461.018	895.69
461.238	883.69
461.458	855.69
461.678	835.69
461.898	842.69
462.118	826.69
462.338	826.69
462.558	842.69
462.777	831.69
462.997	859.69
463.217	872.69
463.437	868.69
463.657	837.69
463.876	840.69
464.096	818.69
464.316	848.69
464.536	868.69
464.755	875.69
464.975	867.69
465.195	854.69
465.414	871.69
465.634	870.69
465.854	890.69
466.073	957.69
466.293	958.69
466.512	881.69
466.732	893.69
466.951	906.69
467.171	891.69
467.391	852.69
467.61	897.69
467.829	929.69
468.049	1000.69
468.268	1042.69
468.488	985.69
468.707	927.69
468.927	917.69
469.146	899.69
469.365	930.69
469.585	904.69
469.804	919.69
470.023	934.69
470.243	936.69
470.462	941.69
470.681	902.69
470.901	935.69
471.12	941.69
471.339	935.69
471.558	898.69
471.777	919.69
471.997	898.69
472.216	851.69
472.435	786.69
472.654	762.69
472.873	806.69
473.092	862.69
473.311	830.69
473.53	824.69
473.749	819.69
473.968	835.69
474.187	854.69
474.406	851.69
474.625	858.69
474.844	871.69
475.063	854.69
475.282	877.69
475.501	822.69
475.72	859.69
475.939	918.69
476.158	916.69
476.377	858.69
476.596	875.69
476.814	844.69
477.033	830.69
477.252	853.69
477.471	903.69
477.69	896.69
477.908	940.69
478.127	967.69
478.346	1025.69
478.564	1015.69
478.783	1002.69
479.002	1023.69
479.22	1039.69
479.439	1032.69
479.658	1038.69
479.876	972.69
480.095	887.69
480.313	882.69
480.532	913.69
480.751	862.69
480.969	818.69
481.188	780.69
481.406	805.69
481.624	752.69
481.843	794.69
482.061	823.69
482.28	868.69
482.498	883.69
482.717	839.69
482.935	894.69
483.153	980.69
483.372	1042.69
483.59	1029.69
483.808	977.69
484.027	922.69
484.245	983.69
484.463	1222.69
484.681	1317.69
484.9	1026.69
485.118	971.69
485.336	922.69
485.554	900.69
485.772	900.69
485.99	886.69
486.209	882.69
486.427	880.69
486.645	921.69
486.863	1004.69
487.081	1040.69
487.299	1006.69
487.517	1026.69
487.735	1100.69
487.953	1197.69
488.171	1207.69
488.389	1163.69
488.607	1104.69
488.825	1156.69
489.043	1084.69
489.261	997.69
489.479	1060.69
489.696	1054.69
489.914	1018.69
490.132	1036.69
490.35	1107.69
490.568	1159.69
490.786	1181.69
491.003	1208.69
491.221	1252.69
491.439	1274.69
491.657	1307.69
491.874	1378.69
492.092	1442.69
492.31	1488.69
492.527	1481.69
492.745	1409.69
492.963	1343.69
493.18	1324.69
493.398	1344.69
493.615	1330.69
493.833	1288.69
494.05	1250.69
494.268	1216.69
494.485	1242.69
494.703	1223.69
494.92	1239.69
495.138	1201.69
495.355	1228.69
495.573	1274.69
495.79	1308.69
496.008	1298.69
496.225	1252.69
496.442	1243.69
496.66	1265.69
496.877	1253.69
497.094	1258.69
497.312	1239.69
497.529	1198.69
497.746	1223.69
497.963	1285.69
498.181	1311.69
498.398	1233.69
498.615	1208.69
498.832	1140.69
499.049	1160.69
499.267	1205.69
499.484	1296.69
499.701	1347.69
499.918	1372.69
500.135	1515.69
500.352	1582.69
