Data from WStandard_LampEnergy10_LIBS07252019.E.O._I.C._HRD10591_15-55-23-928.txt Node
Date: Thu Jul 25 15:55:23 EDT 2019
User: cochatt
Spectrometer: HR+D1059
Trigger mode: 1
Integration Time (sec): 1.000000E-1
Scans to average: 1
Electric dark correction enabled: true
Nonlinearity correction enabled: false
Boxcar width: 0
XAxis mode: Wavelengths
Number of Pixels in Spectrum: 2048
>>>>>Begin Spectral Data<<<<<
223.165	-9.38
223.4	-9.38
223.635	-9.38
223.869	-9.38
224.104	-14.38
224.338	-18.38
224.573	-14.38
224.808	-1.38
225.042	3.62
225.277	1.62
225.511	-15.38
225.746	6.62
225.98	-7.38
226.215	3.62
226.449	6.62
226.683	10.62
226.918	25.62
227.152	31.62
227.387	41.62
227.621	37.62
227.856	38.62
228.09	30.62
228.324	43.62
228.559	45.62
228.793	73.62
229.027	137.62
229.262	135.62
229.496	144.62
229.73	135.62
229.964	155.62
230.199	157.62
230.433	173.62
230.667	177.62
230.901	191.62
231.136	163.62
231.37	177.62
231.604	163.62
231.838	190.62
232.072	188.62
232.306	169.62
232.541	167.62
232.775	187.62
233.009	200.62
233.243	212.62
233.477	166.62
233.711	181.62
233.945	193.62
234.179	189.62
234.413	189.62
234.647	196.62
234.881	201.62
235.115	195.62
235.349	193.62
235.583	183.62
235.817	189.62
236.051	195.62
236.285	189.62
236.519	196.62
236.753	206.62
236.987	234.62
237.221	213.62
237.455	235.62
237.689	235.62
237.922	229.62
238.156	199.62
238.39	213.62
238.624	239.62
238.858	237.62
239.091	236.62
239.325	252.62
239.559	276.62
239.793	272.62
240.027	304.62
240.26	272.62
240.494	229.62
240.728	211.62
240.961	224.62
241.195	247.62
241.429	260.62
241.662	233.62
241.896	238.62
242.13	227.62
242.363	253.62
242.597	263.62
242.83	269.62
243.064	272.62
243.298	268.62
243.531	259.62
243.765	280.62
243.998	279.62
244.232	232.62
244.465	252.62
244.699	245.62
244.932	265.62
245.166	311.62
245.399	293.62
245.633	252.62
245.866	270.62
246.099	275.62
246.333	305.62
246.566	287.62
246.8	305.62
247.033	320.62
247.266	320.62
247.5	301.62
247.733	296.62
247.966	331.62
248.2	333.62
248.433	345.62
248.666	356.62
248.899	371.62
249.133	410.62
249.366	465.62
249.599	369.62
249.832	351.62
250.066	350.62
250.299	340.62
250.532	325.62
250.765	289.62
250.998	336.62
251.231	339.62
251.465	355.62
251.698	328.62
251.931	329.62
252.164	349.62
252.397	344.62
252.63	329.62
252.863	320.62
253.096	315.62
253.329	342.62
253.562	351.62
253.795	349.62
254.028	315.62
254.261	322.62
254.494	336.62
254.727	330.62
254.96	363.62
255.193	373.62
255.426	386.62
255.659	443.62
255.892	432.62
256.124	372.62
256.357	381.62
256.59	400.62
256.823	393.62
257.056	394.62
257.289	459.62
257.521	490.62
257.754	444.62
257.987	440.62
258.22	474.62
258.452	438.62
258.685	391.62
258.918	376.62
259.151	371.62
259.383	346.62
259.616	343.62
259.849	357.62
260.081	412.62
260.314	435.62
260.547	436.62
260.779	451.62
261.012	448.62
261.244	388.62
261.477	388.62
261.71	391.62
261.942	384.62
262.175	369.62
262.407	385.62
262.64	359.62
262.872	349.62
263.105	348.62
263.337	363.62
263.57	368.62
263.802	339.62
264.035	336.62
264.267	315.62
264.499	329.62
264.732	360.62
264.964	370.62
265.197	382.62
265.429	416.62
265.661	433.62
265.894	485.62
266.126	479.62
266.358	423.62
266.591	481.62
266.823	453.62
267.055	430.62
267.287	447.62
267.52	416.62
267.752	419.62
267.984	448.62
268.216	458.62
268.448	482.62
268.681	449.62
268.913	411.62
269.145	380.62
269.377	414.62
269.609	418.62
269.841	501.62
270.073	560.62
270.306	571.62
270.538	605.62
270.77	526.62
271.002	461.62
271.234	453.62
271.466	455.62
271.698	521.62
271.93	579.62
272.162	594.62
272.394	545.62
272.626	495.62
272.858	437.62
273.09	409.62
273.322	417.62
273.553	389.62
273.785	393.62
274.017	406.62
274.249	444.62
274.481	429.62
274.713	414.62
274.945	405.62
275.176	419.62
275.408	398.62
275.64	399.62
275.872	396.62
276.104	434.62
276.335	467.62
276.567	530.62
276.799	515.62
277.031	488.62
277.262	483.62
277.494	480.62
277.726	508.62
277.957	499.62
278.189	447.62
278.421	431.62
278.652	403.62
278.884	399.62
279.115	404.62
279.347	428.62
279.579	411.62
279.81	437.62
280.042	474.62
280.273	503.62
280.505	487.62
280.736	494.62
280.968	465.62
281.199	433.62
281.431	413.62
281.662	410.62
281.894	413.62
282.125	416.62
282.356	450.62
282.588	440.62
282.819	450.62
283.051	507.62
283.282	496.62
283.513	476.62
283.745	435.62
283.976	413.62
284.207	432.62
284.439	417.62
284.67	429.62
284.901	433.62
285.132	445.62
285.364	437.62
285.595	434.62
285.826	455.62
286.057	429.62
286.288	459.62
286.52	467.62
286.751	465.62
286.982	495.62
287.213	440.62
287.444	441.62
287.675	435.62
287.906	459.62
288.138	474.62
288.369	470.62
288.6	432.62
288.831	420.62
289.062	443.62
289.293	450.62
289.524	460.62
289.755	456.62
289.986	435.62
290.217	421.62
290.448	429.62
290.679	462.62
290.91	446.62
291.141	459.62
291.371	448.62
291.602	487.62
291.833	454.62
292.064	486.62
292.295	472.62
292.526	480.62
292.757	493.62
292.987	467.62
293.218	459.62
293.449	513.62
293.68	569.62
293.91	561.62
294.141	544.62
294.372	532.62
294.603	542.62
294.833	570.62
295.064	516.62
295.295	482.62
295.525	471.62
295.756	458.62
295.987	418.62
296.217	429.62
296.448	448.62
296.679	459.62
296.909	435.62
297.14	451.62
297.37	454.62
297.601	509.62
297.831	525.62
298.062	497.62
298.292	473.62
298.523	451.62
298.753	451.62
298.984	452.62
299.214	461.62
299.445	483.62
299.675	483.62
299.905	480.62
300.136	467.62
300.366	455.62
300.597	447.62
300.827	480.62
301.057	483.62
301.288	511.62
301.518	510.62
301.748	508.62
301.979	533.62
302.209	545.62
302.439	576.62
302.669	581.62
302.9	540.62
303.13	499.62
303.36	486.62
303.59	499.62
303.82	508.62
304.051	496.62
304.281	503.62
304.511	515.62
304.741	560.62
304.971	601.62
305.201	599.62
305.431	546.62
305.661	478.62
305.891	451.62
306.121	433.62
306.352	495.62
306.582	481.62
306.812	529.62
307.042	546.62
307.272	547.62
307.502	559.62
307.731	600.62
307.961	610.62
308.191	569.62
308.421	518.62
308.651	484.62
308.881	505.62
309.111	505.62
309.341	484.62
309.571	493.62
309.8	484.62
310.03	506.62
310.26	489.62
310.49	481.62
310.72	494.62
310.949	525.62
311.179	519.62
311.409	485.62
311.639	488.62
311.868	518.62
312.098	503.62
312.328	501.62
312.557	498.62
312.787	512.62
313.017	520.62
313.246	525.62
313.476	522.62
313.706	520.62
313.935	533.62
314.165	525.62
314.394	557.62
314.624	589.62
314.853	599.62
315.083	621.62
315.312	612.62
315.542	561.62
315.771	555.62
316.001	541.62
316.23	565.62
316.46	532.62
316.689	557.62
316.919	517.62
317.148	511.62
317.377	512.62
317.607	563.62
317.836	606.62
318.065	623.62
318.295	611.62
318.524	585.62
318.753	567.62
318.983	531.62
319.212	530.62
319.441	547.62
319.67	560.62
319.9	549.62
320.129	590.62
320.358	591.62
320.587	615.62
320.816	605.62
321.046	593.62
321.275	548.62
321.504	609.62
321.733	624.62
321.962	600.62
322.191	542.62
322.42	544.62
322.649	538.62
322.878	543.62
323.108	565.62
323.337	568.62
323.566	585.62
323.795	556.62
324.024	532.62
324.253	546.62
324.482	565.62
324.71	526.62
324.939	550.62
325.168	546.62
325.397	556.62
325.626	559.62
325.855	566.62
326.084	539.62
326.313	532.62
326.542	566.62
326.77	568.62
326.999	553.62
327.228	529.62
327.457	516.62
327.686	518.62
327.914	550.62
328.143	574.62
328.372	548.62
328.6	535.62
328.829	541.62
329.058	544.62
329.287	555.62
329.515	583.62
329.744	578.62
329.972	607.62
330.201	605.62
330.43	599.62
330.658	576.62
330.887	591.62
331.115	599.62
331.344	585.62
331.572	579.62
331.801	585.62
332.03	596.62
332.258	592.62
332.486	583.62
332.715	589.62
332.943	590.62
333.172	586.62
333.4	599.62
333.629	637.62
333.857	667.62
334.085	723.62
334.314	806.62
334.542	833.62
334.771	759.62
334.999	663.62
335.227	635.62
335.455	629.62
335.684	623.62
335.912	655.62
336.14	657.62
336.369	617.62
336.597	595.62
336.825	605.62
337.053	612.62
337.281	659.62
337.51	678.62
337.738	700.62
337.966	663.62
338.194	603.62
338.422	598.62
338.65	598.62
338.878	568.62
339.106	543.62
339.334	581.62
339.562	536.62
339.79	596.62
340.018	607.62
340.246	624.62
340.474	611.62
340.702	600.62
340.93	611.62
341.158	601.62
341.386	597.62
341.614	578.62
341.842	598.62
342.07	591.62
342.298	579.62
342.526	593.62
342.754	571.62
342.981	561.62
343.209	592.62
343.437	583.62
343.665	607.62
343.893	630.62
344.12	635.62
344.348	622.62
344.576	593.62
344.804	591.62
345.031	591.62
345.259	589.62
345.487	569.62
345.714	555.62
345.942	541.62
346.17	584.62
346.397	579.62
346.625	549.62
346.853	517.62
347.08	542.62
347.308	540.62
347.535	548.62
347.763	553.62
347.99	549.62
348.218	532.62
348.445	574.62
348.673	571.62
348.9	572.62
349.128	593.62
349.355	582.62
349.583	577.62
349.81	568.62
350.037	495.62
350.265	540.62
350.492	545.62
350.72	550.62
350.947	566.62
351.174	556.62
351.402	542.62
351.629	547.62
351.856	525.62
352.083	521.62
352.311	555.62
352.538	566.62
352.765	561.62
352.992	585.62
353.22	545.62
353.447	535.62
353.674	557.62
353.901	568.62
354.128	543.62
354.355	551.62
354.583	582.62
354.81	563.62
355.037	576.62
355.264	537.62
355.491	550.62
355.718	558.62
355.945	561.62
356.172	539.62
356.399	542.62
356.626	549.62
356.853	573.62
357.08	634.62
357.307	653.62
357.534	635.62
357.761	572.62
357.988	525.62
358.215	530.62
358.441	528.62
358.668	502.62
358.895	545.62
359.122	601.62
359.349	625.62
359.576	600.62
359.802	565.62
360.029	550.62
360.256	535.62
360.483	561.62
360.709	583.62
360.936	607.62
361.163	633.62
361.39	665.62
361.616	703.62
361.843	689.62
362.07	655.62
362.296	579.62
362.523	540.62
362.749	545.62
362.976	592.62
363.203	590.62
363.429	552.62
363.656	555.62
363.882	573.62
364.109	635.62
364.335	659.62
364.562	613.62
364.788	586.62
365.015	580.62
365.241	547.62
365.468	574.62
365.694	595.62
365.92	608.62
366.147	567.62
366.373	568.62
366.599	558.62
366.826	561.62
367.052	563.62
367.278	560.62
367.505	567.62
367.731	616.62
367.957	588.62
368.184	625.62
368.41	667.62
368.636	681.62
368.862	657.62
369.089	674.62
369.315	624.62
369.541	604.62
369.767	593.62
369.993	575.62
370.219	601.62
370.445	622.62
370.672	666.62
370.898	653.62
371.124	656.62
371.35	602.62
371.576	650.62
371.802	649.62
372.028	649.62
372.254	612.62
372.48	621.62
372.706	608.62
372.932	606.62
373.158	607.62
373.384	644.62
373.61	637.62
373.835	669.62
374.061	614.62
374.287	635.62
374.513	623.62
374.739	607.62
374.965	627.62
375.191	625.62
375.416	644.62
375.642	661.62
375.868	691.62
376.094	719.62
376.319	671.62
376.545	647.62
376.771	661.62
376.997	686.62
377.222	677.62
377.448	665.62
377.674	663.62
377.899	675.62
378.125	692.62
378.35	693.62
378.576	623.62
378.802	631.62
379.027	606.62
379.253	642.62
379.478	641.62
379.704	633.62
379.929	632.62
380.155	655.62
380.38	659.62
380.606	653.62
380.831	664.62
381.057	680.62
381.282	679.62
381.507	703.62
381.733	751.62
381.958	728.62
382.184	685.62
382.409	673.62
382.634	688.62
382.86	673.62
383.085	672.62
383.31	703.62
383.535	802.62
383.761	772.62
383.986	728.62
384.211	732.62
384.436	718.62
384.662	773.62
384.887	752.62
385.112	727.62
385.337	732.62
385.562	722.62
385.787	724.62
386.013	765.62
386.238	737.62
386.463	762.62
386.688	802.62
386.913	866.62
387.138	832.62
387.363	773.62
387.588	761.62
387.813	745.62
388.038	782.62
388.263	815.62
388.488	776.62
388.713	728.62
388.938	703.62
389.163	706.62
389.387	728.62
389.612	726.62
389.837	769.62
390.062	772.62
390.287	742.62
390.512	765.62
390.736	731.62
390.961	715.62
391.186	706.62
391.411	731.62
391.636	747.62
391.86	741.62
392.085	744.62
392.31	736.62
392.534	740.62
392.759	751.62
392.984	735.62
393.208	743.62
393.433	793.62
393.658	803.62
393.882	837.62
394.107	775.62
394.331	749.62
394.556	735.62
394.78	769.62
395.005	809.62
395.229	824.62
395.454	875.62
395.678	837.62
395.903	823.62
396.127	827.62
396.352	813.62
396.576	863.62
396.801	833.62
397.025	839.62
397.249	851.62
397.474	817.62
397.698	824.62
397.922	869.62
398.147	889.62
398.371	903.62
398.595	896.62
398.82	871.62
399.044	891.62
399.268	923.62
399.492	976.62
399.717	969.62
399.941	988.62
400.165	990.62
400.389	958.62
400.613	988.62
400.837	1116.62
401.062	1176.62
401.286	1011.62
401.51	985.62
401.734	963.62
401.958	920.62
402.182	887.62
402.406	872.62
402.63	877.62
402.854	861.62
403.078	885.62
403.302	879.62
403.526	889.62
403.75	922.62
403.974	927.62
404.198	942.62
404.422	962.62
404.645	1043.62
404.869	971.62
405.093	892.62
405.317	875.62
405.541	876.62
405.765	899.62
405.988	932.62
406.212	936.62
406.436	983.62
406.66	991.62
406.883	1045.62
407.107	1135.62
407.331	1227.62
407.555	1281.62
407.778	1109.62
408.002	991.62
408.226	982.62
408.449	960.62
408.673	931.62
408.896	948.62
409.12	951.62
409.344	952.62
409.567	934.62
409.791	929.62
410.014	977.62
410.238	1008.62
410.461	1069.62
410.685	957.62
410.908	911.62
411.132	948.62
411.355	904.62
411.578	893.62
411.802	911.62
412.025	945.62
412.249	902.62
412.472	898.62
412.695	906.62
412.919	915.62
413.142	934.62
413.365	925.62
413.589	941.62
413.812	989.62
414.035	976.62
414.258	925.62
414.482	913.62
414.705	917.62
414.928	911.62
415.151	892.62
415.374	931.62
415.597	948.62
415.821	928.62
416.044	928.62
416.267	956.62
416.49	908.62
416.713	870.62
416.936	947.62
417.159	987.62
417.382	959.62
417.605	924.62
417.828	936.62
418.051	957.62
418.274	944.62
418.497	911.62
418.72	913.62
418.943	908.62
419.166	930.62
419.389	992.62
419.611	949.62
419.834	918.62
420.057	952.62
420.28	935.62
420.503	943.62
420.726	939.62
420.948	915.62
421.171	917.62
421.394	913.62
421.617	977.62
421.839	972.62
422.062	958.62
422.285	936.62
422.507	908.62
422.73	899.62
422.953	871.62
423.175	875.62
423.398	907.62
423.621	906.62
423.843	914.62
424.066	979.62
424.288	1003.62
424.511	1044.62
424.733	1041.62
424.956	933.62
425.178	924.62
425.401	905.62
425.623	947.62
425.846	911.62
426.068	974.62
426.291	971.62
426.513	961.62
426.735	956.62
426.958	1040.62
427.18	1032.62
427.402	979.62
427.625	1017.62
427.847	973.62
428.069	950.62
428.292	915.62
428.514	894.62
428.736	910.62
428.958	908.62
429.181	900.62
429.403	1042.62
429.625	1239.62
429.847	1040.62
430.069	976.62
430.292	1031.62
430.514	1029.62
430.736	977.62
430.958	984.62
431.18	937.62
431.402	853.62
431.624	848.62
431.846	787.62
432.068	726.62
432.29	744.62
432.512	788.62
432.734	864.62
432.956	923.62
433.178	960.62
433.4	976.62
433.622	966.62
433.844	917.62
434.066	857.62
434.287	790.62
434.509	765.62
434.731	823.62
434.953	891.62
435.175	903.62
435.397	893.62
435.618	871.62
435.84	828.62
436.062	871.62
436.284	899.62
436.505	915.62
436.727	912.62
436.949	877.62
437.17	895.62
437.392	883.62
437.614	823.62
437.835	786.62
438.057	818.62
438.278	839.62
438.5	866.62
438.721	905.62
438.943	921.62
439.165	923.62
439.386	932.62
439.608	958.62
439.829	954.62
440.05	941.62
440.272	948.62
440.493	945.62
440.715	960.62
440.936	1011.62
441.158	1061.62
441.379	1025.62
441.6	1037.62
441.822	1005.62
442.043	977.62
442.264	972.62
442.486	928.62
442.707	948.62
442.928	945.62
443.149	963.62
443.371	990.62
443.592	1000.62
443.813	985.62
444.034	1001.62
444.255	998.62
444.476	1019.62
444.698	1011.62
444.919	1024.62
445.14	1108.62
445.361	1053.62
445.582	1074.62
445.803	1045.62
446.024	1032.62
446.245	1050.62
446.466	1035.62
446.687	1017.62
446.908	1051.62
447.129	1002.62
447.35	983.62
447.571	970.62
447.792	927.62
448.013	959.62
448.234	939.62
448.455	956.62
448.675	990.62
448.896	906.62
449.117	888.62
449.338	902.62
449.559	932.62
449.779	949.62
450	990.62
450.221	1037.62
450.442	979.62
450.662	947.62
450.883	872.62
451.104	864.62
451.324	875.62
451.545	873.62
451.766	831.62
451.986	837.62
452.207	822.62
452.428	821.62
452.648	787.62
452.869	780.62
453.089	774.62
453.31	767.62
453.53	771.62
453.751	744.62
453.971	679.62
454.192	731.62
454.412	765.62
454.633	787.62
454.853	784.62
455.073	761.62
455.294	778.62
455.514	771.62
455.734	756.62
455.955	759.62
456.175	741.62
456.395	739.62
456.616	742.62
456.836	732.62
457.056	726.62
457.276	713.62
457.497	705.62
457.717	677.62
457.937	726.62
458.157	733.62
458.377	684.62
458.598	684.62
458.818	661.62
459.038	700.62
459.258	680.62
459.478	719.62
459.698	693.62
459.918	750.62
460.138	786.62
460.358	811.62
460.578	817.62
460.798	857.62
461.018	889.62
461.238	889.62
461.458	826.62
461.678	849.62
461.898	808.62
462.118	797.62
462.338	834.62
462.558	830.62
462.777	868.62
462.997	895.62
463.217	917.62
463.437	875.62
463.657	850.62
463.876	817.62
464.096	816.62
464.316	818.62
464.536	863.62
464.755	890.62
464.975	879.62
465.195	845.62
465.414	872.62
465.634	867.62
465.854	891.62
466.073	967.62
466.293	944.62
466.512	833.62
466.732	873.62
466.951	893.62
467.171	891.62
467.391	878.62
467.61	870.62
467.829	860.62
468.049	961.62
468.268	1006.62
468.488	964.62
468.707	910.62
468.927	938.62
469.146	895.62
469.365	913.62
469.585	918.62
469.804	891.62
470.023	919.62
470.243	917.62
470.462	941.62
470.681	949.62
470.901	945.62
471.12	907.62
471.339	940.62
471.558	902.62
471.777	871.62
471.997	885.62
472.216	885.62
472.435	766.62
472.654	763.62
472.873	751.62
473.092	849.62
473.311	803.62
473.53	819.62
473.749	835.62
473.968	837.62
474.187	845.62
474.406	809.62
474.625	868.62
474.844	868.62
475.063	860.62
475.282	862.62
475.501	805.62
475.72	836.62
475.939	875.62
476.158	871.62
476.377	877.62
476.596	852.62
476.814	846.62
477.033	813.62
477.252	812.62
477.471	889.62
477.69	905.62
477.908	929.62
478.127	962.62
478.346	1012.62
478.564	983.62
478.783	987.62
479.002	981.62
479.22	1008.62
479.439	1023.62
479.658	1047.62
479.876	964.62
480.095	919.62
480.313	880.62
480.532	889.62
480.751	841.62
480.969	813.62
481.188	808.62
481.406	787.62
481.624	780.62
481.843	784.62
482.061	829.62
482.28	868.62
482.498	911.62
482.717	846.62
482.935	868.62
483.153	981.62
483.372	1055.62
483.59	1000.62
483.808	992.62
484.027	950.62
484.245	985.62
484.463	1206.62
484.681	1292.62
484.9	1019.62
485.118	947.62
485.336	892.62
485.554	923.62
485.772	869.62
485.99	878.62
486.209	889.62
486.427	901.62
486.645	924.62
486.863	991.62
487.081	1007.62
487.299	1001.62
487.517	989.62
487.735	1096.62
487.953	1187.62
488.171	1167.62
488.389	1127.62
488.607	1077.62
488.825	1142.62
489.043	1031.62
489.261	954.62
489.479	1000.62
489.696	1065.62
489.914	1060.62
490.132	1046.62
490.35	1097.62
490.568	1159.62
490.786	1154.62
491.003	1191.62
491.221	1243.62
491.439	1275.62
491.657	1253.62
491.874	1362.62
492.092	1433.62
492.31	1516.62
492.527	1424.62
492.745	1382.62
492.963	1303.62
493.18	1321.62
493.398	1336.62
493.615	1331.62
493.833	1262.62
494.05	1205.62
494.268	1223.62
494.485	1218.62
494.703	1253.62
494.92	1238.62
495.138	1231.62
495.355	1214.62
495.573	1261.62
495.79	1299.62
496.008	1250.62
496.225	1225.62
496.442	1230.62
496.66	1244.62
496.877	1213.62
497.094	1236.62
497.312	1223.62
497.529	1232.62
497.746	1157.62
497.963	1261.62
498.181	1297.62
498.398	1256.62
498.615	1195.62
498.832	1141.62
499.049	1143.62
499.267	1184.62
499.484	1277.62
499.701	1331.62
499.918	1351.62
500.135	1490.62
500.352	1541.62
500.569	1553.62
