Data from WStandard_LampEnergy10_LIBS07252019.E.O._I.C._HRD10591_15-54-30-928.txt Node
Date: Thu Jul 25 15:54:30 EDT 2019
User: cochatt
Spectrometer: HR+D1059
Trigger mode: 1
Integration Time (sec): 1.000000E-1
Scans to average: 1
Electric dark correction enabled: true
Nonlinearity correction enabled: false
Boxcar width: 0
XAxis mode: Wavelengths
Number of Pixels in Spectrum: 2048
>>>>>Begin Spectral Data<<<<<
223.165	3.75
223.4	3.75
223.635	3.75
223.869	-15.25
224.104	-19.25
224.338	-22.25
224.573	-23.25
224.808	-18.25
225.042	5.75
225.277	5.75
225.511	-2.25
225.746	1.75
225.98	2.75
226.215	15.75
226.449	14.75
226.683	12.75
226.918	3.75
227.152	33.75
227.387	36.75
227.621	45.75
227.856	58.75
228.09	55.75
228.324	51.75
228.559	50.75
228.793	86.75
229.027	118.75
229.262	129.75
229.496	145.75
229.73	175.75
229.964	169.75
230.199	154.75
230.433	175.75
230.667	178.75
230.901	183.75
231.136	171.75
231.37	172.75
231.604	165.75
231.838	170.75
232.072	157.75
232.306	179.75
232.541	167.75
232.775	187.75
233.009	207.75
233.243	221.75
233.477	193.75
233.711	189.75
233.945	193.75
234.179	200.75
234.413	210.75
234.647	212.75
234.881	205.75
235.115	199.75
235.349	192.75
235.583	198.75
235.817	199.75
236.051	179.75
236.285	200.75
236.519	225.75
236.753	219.75
236.987	235.75
237.221	209.75
237.455	221.75
237.689	239.75
237.922	208.75
238.156	199.75
238.39	227.75
238.624	234.75
238.858	255.75
239.091	245.75
239.325	261.75
239.559	283.75
239.793	303.75
240.027	309.75
240.26	302.75
240.494	237.75
240.728	231.75
240.961	246.75
241.195	231.75
241.429	244.75
241.662	259.75
241.896	262.75
242.13	251.75
242.363	260.75
242.597	278.75
242.83	260.75
243.064	276.75
243.298	300.75
243.531	274.75
243.765	279.75
243.998	299.75
244.232	247.75
244.465	252.75
244.699	255.75
244.932	287.75
245.166	299.75
245.399	307.75
245.633	275.75
245.866	270.75
246.099	282.75
246.333	285.75
246.566	300.75
246.8	290.75
247.033	329.75
247.266	315.75
247.5	320.75
247.733	327.75
247.966	345.75
248.2	355.75
248.433	349.75
248.666	364.75
248.899	380.75
249.133	441.75
249.366	456.75
249.599	391.75
249.832	356.75
250.066	377.75
250.299	367.75
250.532	336.75
250.765	329.75
250.998	332.75
251.231	328.75
251.465	353.75
251.698	332.75
251.931	352.75
252.164	357.75
252.397	370.75
252.63	353.75
252.863	315.75
253.096	330.75
253.329	338.75
253.562	348.75
253.795	354.75
254.028	358.75
254.261	348.75
254.494	332.75
254.727	344.75
254.96	341.75
255.193	373.75
255.426	412.75
255.659	459.75
255.892	445.75
256.124	375.75
256.357	388.75
256.59	418.75
256.823	403.75
257.056	417.75
257.289	484.75
257.521	498.75
257.754	464.75
257.987	426.75
258.22	457.75
258.452	452.75
258.685	387.75
258.918	383.75
259.151	380.75
259.383	353.75
259.616	333.75
259.849	362.75
260.081	388.75
260.314	463.75
260.547	453.75
260.779	458.75
261.012	421.75
261.244	415.75
261.477	395.75
261.71	401.75
261.942	397.75
262.175	381.75
262.407	392.75
262.64	377.75
262.872	355.75
263.105	349.75
263.337	364.75
263.57	383.75
263.802	363.75
264.035	367.75
264.267	341.75
264.499	323.75
264.732	355.75
264.964	379.75
265.197	391.75
265.429	428.75
265.661	448.75
265.894	460.75
266.126	471.75
266.358	441.75
266.591	486.75
266.823	493.75
267.055	445.75
267.287	447.75
267.52	451.75
267.752	447.75
267.984	428.75
268.216	461.75
268.448	466.75
268.681	442.75
268.913	403.75
269.145	403.75
269.377	391.75
269.609	447.75
269.841	503.75
270.073	573.75
270.306	625.75
270.538	579.75
270.77	567.75
271.002	455.75
271.234	482.75
271.466	481.75
271.698	527.75
271.93	588.75
272.162	576.75
272.394	529.75
272.626	498.75
272.858	457.75
273.09	419.75
273.322	401.75
273.553	397.75
273.785	406.75
274.017	419.75
274.249	427.75
274.481	444.75
274.713	419.75
274.945	401.75
275.176	417.75
275.408	428.75
275.64	391.75
275.872	410.75
276.104	450.75
276.335	484.75
276.567	528.75
276.799	519.75
277.031	484.75
277.262	471.75
277.494	472.75
277.726	490.75
277.957	493.75
278.189	458.75
278.421	451.75
278.652	411.75
278.884	429.75
279.115	438.75
279.347	443.75
279.579	424.75
279.81	440.75
280.042	484.75
280.273	503.75
280.505	509.75
280.736	521.75
280.968	467.75
281.199	441.75
281.431	413.75
281.662	407.75
281.894	413.75
282.125	426.75
282.356	437.75
282.588	455.75
282.819	455.75
283.051	469.75
283.282	503.75
283.513	483.75
283.745	434.75
283.976	428.75
284.207	435.75
284.439	438.75
284.67	440.75
284.901	450.75
285.132	459.75
285.364	451.75
285.595	456.75
285.826	443.75
286.057	434.75
286.288	452.75
286.52	456.75
286.751	488.75
286.982	499.75
287.213	449.75
287.444	438.75
287.675	442.75
287.906	482.75
288.138	493.75
288.369	479.75
288.6	456.75
288.831	435.75
289.062	446.75
289.293	451.75
289.524	439.75
289.755	446.75
289.986	471.75
290.217	433.75
290.448	442.75
290.679	457.75
290.91	462.75
291.141	467.75
291.371	490.75
291.602	483.75
291.833	461.75
292.064	474.75
292.295	495.75
292.526	483.75
292.757	493.75
292.987	482.75
293.218	470.75
293.449	511.75
293.68	561.75
293.91	579.75
294.141	545.75
294.372	555.75
294.603	548.75
294.833	564.75
295.064	522.75
295.295	483.75
295.525	466.75
295.756	459.75
295.987	428.75
296.217	444.75
296.448	470.75
296.679	455.75
296.909	463.75
297.14	468.75
297.37	465.75
297.601	516.75
297.831	516.75
298.062	525.75
298.292	489.75
298.523	457.75
298.753	464.75
298.984	471.75
299.214	485.75
299.445	490.75
299.675	507.75
299.905	490.75
300.136	466.75
300.366	450.75
300.597	448.75
300.827	469.75
301.057	490.75
301.288	507.75
301.518	493.75
301.748	531.75
301.979	547.75
302.209	530.75
302.439	594.75
302.669	597.75
302.9	550.75
303.13	500.75
303.36	517.75
303.59	510.75
303.82	499.75
304.051	524.75
304.281	513.75
304.511	538.75
304.741	575.75
304.971	610.75
305.201	608.75
305.431	559.75
305.661	493.75
305.891	458.75
306.121	471.75
306.352	464.75
306.582	503.75
306.812	547.75
307.042	547.75
307.272	534.75
307.502	597.75
307.731	640.75
307.961	625.75
308.191	576.75
308.421	519.75
308.651	510.75
308.881	467.75
309.111	501.75
309.341	482.75
309.571	481.75
309.8	487.75
310.03	474.75
310.26	480.75
310.49	472.75
310.72	514.75
310.949	531.75
311.179	526.75
311.409	525.75
311.639	491.75
311.868	504.75
312.098	519.75
312.328	496.75
312.557	499.75
312.787	492.75
313.017	517.75
313.246	522.75
313.476	541.75
313.706	535.75
313.935	523.75
314.165	540.75
314.394	563.75
314.624	595.75
314.853	610.75
315.083	634.75
315.312	616.75
315.542	594.75
315.771	584.75
316.001	567.75
316.23	563.75
316.46	532.75
316.689	556.75
316.919	514.75
317.148	528.75
317.377	531.75
317.607	577.75
317.836	630.75
318.065	625.75
318.295	619.75
318.524	617.75
318.753	573.75
318.983	557.75
319.212	576.75
319.441	555.75
319.67	548.75
319.9	552.75
320.129	609.75
320.358	603.75
320.587	617.75
320.816	597.75
321.046	581.75
321.275	576.75
321.504	611.75
321.733	603.75
321.962	586.75
322.191	555.75
322.42	576.75
322.649	559.75
322.878	556.75
323.108	547.75
323.337	598.75
323.566	580.75
323.795	601.75
324.024	565.75
324.253	554.75
324.482	555.75
324.71	537.75
324.939	519.75
325.168	547.75
325.397	557.75
325.626	588.75
325.855	586.75
326.084	573.75
326.313	544.75
326.542	580.75
326.77	554.75
326.999	572.75
327.228	556.75
327.457	527.75
327.686	550.75
327.914	556.75
328.143	563.75
328.372	581.75
328.6	548.75
328.829	541.75
329.058	543.75
329.287	532.75
329.515	559.75
329.744	573.75
329.972	599.75
330.201	618.75
330.43	599.75
330.658	588.75
330.887	571.75
331.115	601.75
331.344	574.75
331.572	581.75
331.801	579.75
332.03	587.75
332.258	597.75
332.486	586.75
332.715	595.75
332.943	582.75
333.172	588.75
333.4	621.75
333.629	592.75
333.857	666.75
334.085	735.75
334.314	813.75
334.542	825.75
334.771	741.75
334.999	674.75
335.227	633.75
335.455	624.75
335.684	639.75
335.912	673.75
336.14	663.75
336.369	604.75
336.597	583.75
336.825	580.75
337.053	623.75
337.281	643.75
337.51	691.75
337.738	702.75
337.966	689.75
338.194	595.75
338.422	584.75
338.65	563.75
338.878	579.75
339.106	573.75
339.334	572.75
339.562	573.75
339.79	588.75
340.018	608.75
340.246	625.75
340.474	589.75
340.702	614.75
340.93	609.75
341.158	579.75
341.386	594.75
341.614	587.75
341.842	594.75
342.07	578.75
342.298	610.75
342.526	612.75
342.754	601.75
342.981	575.75
343.209	585.75
343.437	582.75
343.665	583.75
343.893	631.75
344.12	647.75
344.348	595.75
344.576	600.75
344.804	615.75
345.031	599.75
345.259	577.75
345.487	587.75
345.714	550.75
345.942	551.75
346.17	545.75
346.397	570.75
346.625	561.75
346.853	521.75
347.08	522.75
347.308	561.75
347.535	564.75
347.763	575.75
347.99	563.75
348.218	534.75
348.445	533.75
348.673	565.75
348.9	586.75
349.128	601.75
349.355	616.75
349.583	596.75
349.81	554.75
350.037	521.75
350.265	521.75
350.492	529.75
350.72	574.75
350.947	590.75
351.174	587.75
351.402	547.75
351.629	523.75
351.856	518.75
352.083	516.75
352.311	531.75
352.538	552.75
352.765	563.75
352.992	565.75
353.22	532.75
353.447	535.75
353.674	558.75
353.901	568.75
354.128	539.75
354.355	542.75
354.583	562.75
354.81	575.75
355.037	577.75
355.264	600.75
355.491	561.75
355.718	562.75
355.945	581.75
356.172	567.75
356.399	533.75
356.626	531.75
356.853	588.75
357.08	639.75
357.307	675.75
357.534	648.75
357.761	555.75
357.988	547.75
358.215	537.75
358.441	533.75
358.668	531.75
358.895	566.75
359.122	579.75
359.349	603.75
359.576	589.75
359.802	551.75
360.029	544.75
360.256	544.75
360.483	556.75
360.709	576.75
360.936	588.75
361.163	643.75
361.39	680.75
361.616	709.75
361.843	691.75
362.07	618.75
362.296	570.75
362.523	566.75
362.749	579.75
362.976	578.75
363.203	588.75
363.429	579.75
363.656	537.75
363.882	591.75
364.109	647.75
364.335	683.75
364.562	619.75
364.788	594.75
365.015	573.75
365.241	561.75
365.468	580.75
365.694	570.75
365.92	626.75
366.147	587.75
366.373	544.75
366.599	557.75
366.826	553.75
367.052	571.75
367.278	575.75
367.505	567.75
367.731	584.75
367.957	625.75
368.184	631.75
368.41	665.75
368.636	653.75
368.862	648.75
369.089	663.75
369.315	639.75
369.541	604.75
369.767	584.75
369.993	583.75
370.219	631.75
370.445	626.75
370.672	637.75
370.898	649.75
371.124	657.75
371.35	624.75
371.576	645.75
371.802	634.75
372.028	642.75
372.254	594.75
372.48	608.75
372.706	619.75
372.932	573.75
373.158	610.75
373.384	614.75
373.61	643.75
373.835	630.75
374.061	609.75
374.287	625.75
374.513	613.75
374.739	613.75
374.965	630.75
375.191	629.75
375.416	652.75
375.642	651.75
375.868	715.75
376.094	723.75
376.319	661.75
376.545	635.75
376.771	687.75
376.997	684.75
377.222	675.75
377.448	628.75
377.674	661.75
377.899	662.75
378.125	683.75
378.35	677.75
378.576	608.75
378.802	616.75
379.027	610.75
379.253	629.75
379.478	635.75
379.704	629.75
379.929	608.75
380.155	651.75
380.38	635.75
380.606	654.75
380.831	665.75
381.057	695.75
381.282	705.75
381.507	698.75
381.733	725.75
381.958	720.75
382.184	682.75
382.409	653.75
382.634	697.75
382.86	657.75
383.085	676.75
383.31	717.75
383.535	787.75
383.761	779.75
383.986	760.75
384.211	748.75
384.436	723.75
384.662	770.75
384.887	769.75
385.112	721.75
385.337	694.75
385.562	728.75
385.787	717.75
386.013	751.75
386.238	751.75
386.463	761.75
386.688	829.75
386.913	846.75
387.138	817.75
387.363	779.75
387.588	773.75
387.813	733.75
388.038	795.75
388.263	783.75
388.488	762.75
388.713	721.75
388.938	728.75
389.163	732.75
389.387	711.75
389.612	715.75
389.837	746.75
390.062	751.75
390.287	751.75
390.512	725.75
390.736	732.75
390.961	725.75
391.186	695.75
391.411	715.75
391.636	730.75
391.86	743.75
392.085	728.75
392.31	759.75
392.534	772.75
392.759	740.75
392.984	751.75
393.208	741.75
393.433	799.75
393.658	796.75
393.882	817.75
394.107	756.75
394.331	769.75
394.556	751.75
394.78	780.75
395.005	808.75
395.229	827.75
395.454	853.75
395.678	853.75
395.903	821.75
396.127	811.75
396.352	823.75
396.576	847.75
396.801	815.75
397.025	840.75
397.249	834.75
397.474	830.75
397.698	810.75
397.922	845.75
398.147	867.75
398.371	900.75
398.595	901.75
398.82	858.75
399.044	896.75
399.268	924.75
399.492	961.75
399.717	957.75
399.941	961.75
400.165	965.75
400.389	923.75
400.613	959.75
400.837	1080.75
401.062	1155.75
401.286	981.75
401.51	979.75
401.734	965.75
401.958	924.75
402.182	900.75
402.406	876.75
402.63	873.75
402.854	885.75
403.078	897.75
403.302	889.75
403.526	891.75
403.75	898.75
403.974	923.75
404.198	925.75
404.422	968.75
404.645	1031.75
404.869	940.75
405.093	939.75
405.317	879.75
405.541	919.75
405.765	934.75
405.988	930.75
406.212	908.75
406.436	968.75
406.66	1004.75
406.883	980.75
407.107	1108.75
407.331	1225.75
407.555	1280.75
407.778	1084.75
408.002	977.75
408.226	972.75
408.449	963.75
408.673	934.75
408.896	949.75
409.12	955.75
409.344	941.75
409.567	906.75
409.791	944.75
410.014	973.75
410.238	1031.75
410.461	1026.75
410.685	934.75
410.908	924.75
411.132	941.75
411.355	936.75
411.578	925.75
411.802	929.75
412.025	936.75
412.249	891.75
412.472	916.75
412.695	891.75
412.919	909.75
413.142	900.75
413.365	944.75
413.589	914.75
413.812	977.75
414.035	980.75
414.258	909.75
414.482	896.75
414.705	907.75
414.928	895.75
415.151	899.75
415.374	930.75
415.597	937.75
415.821	916.75
416.044	949.75
416.267	961.75
416.49	871.75
416.713	909.75
416.936	956.75
417.159	972.75
417.382	971.75
417.605	925.75
417.828	911.75
418.051	953.75
418.274	960.75
418.497	919.75
418.72	913.75
418.943	896.75
419.166	938.75
419.389	969.75
419.611	957.75
419.834	944.75
420.057	954.75
420.28	932.75
420.503	943.75
420.726	962.75
420.948	956.75
421.171	927.75
421.394	891.75
421.617	961.75
421.839	1000.75
422.062	995.75
422.285	945.75
422.507	947.75
422.73	905.75
422.953	885.75
423.175	883.75
423.398	919.75
423.621	894.75
423.843	891.75
424.066	960.75
424.288	1008.75
424.511	1023.75
424.733	996.75
424.956	938.75
425.178	924.75
425.401	910.75
425.623	915.75
425.846	937.75
426.068	960.75
426.291	973.75
426.513	970.75
426.735	978.75
426.958	1044.75
427.18	1043.75
427.402	1021.75
427.625	1032.75
427.847	971.75
428.069	933.75
428.292	934.75
428.514	905.75
428.736	926.75
428.958	915.75
429.181	916.75
429.403	1096.75
429.625	1223.75
429.847	1035.75
430.069	962.75
430.292	1037.75
430.514	1033.75
430.736	971.75
430.958	989.75
431.18	934.75
431.402	853.75
431.624	863.75
431.846	811.75
432.068	733.75
432.29	724.75
432.512	800.75
432.734	851.75
432.956	898.75
433.178	933.75
433.4	957.75
433.622	927.75
433.844	915.75
434.066	812.75
434.287	792.75
434.509	775.75
434.731	821.75
434.953	897.75
435.175	924.75
435.397	907.75
435.618	873.75
435.84	850.75
436.062	838.75
436.284	876.75
436.505	906.75
436.727	917.75
436.949	882.75
437.17	901.75
437.392	900.75
437.614	841.75
437.835	804.75
438.057	795.75
438.278	825.75
438.5	850.75
438.721	879.75
438.943	922.75
439.165	913.75
439.386	921.75
439.608	919.75
439.829	941.75
440.05	934.75
440.272	947.75
440.493	963.75
440.715	970.75
440.936	1017.75
441.158	1035.75
441.379	1045.75
441.6	1066.75
441.822	1022.75
442.043	1002.75
442.264	957.75
442.486	950.75
442.707	951.75
442.928	952.75
443.149	959.75
443.371	989.75
443.592	1038.75
443.813	1044.75
444.034	1047.75
444.255	1002.75
444.476	1007.75
444.698	1023.75
444.919	1048.75
445.14	1137.75
445.361	1083.75
445.582	1083.75
445.803	1045.75
446.024	1053.75
446.245	1045.75
446.466	1062.75
446.687	1010.75
446.908	1054.75
447.129	1008.75
447.35	1003.75
447.571	983.75
447.792	971.75
448.013	938.75
448.234	957.75
448.455	985.75
448.675	966.75
448.896	943.75
449.117	909.75
449.338	917.75
449.559	924.75
449.779	1002.75
450	1022.75
450.221	1064.75
450.442	979.75
450.662	943.75
450.883	882.75
451.104	858.75
451.324	883.75
451.545	897.75
451.766	876.75
451.986	803.75
452.207	826.75
452.428	823.75
452.648	790.75
452.869	812.75
453.089	786.75
453.31	759.75
453.53	765.75
453.751	725.75
453.971	695.75
454.192	741.75
454.412	769.75
454.633	765.75
454.853	764.75
455.073	746.75
455.294	765.75
455.514	767.75
455.734	780.75
455.955	763.75
456.175	719.75
456.395	732.75
456.616	740.75
456.836	729.75
457.056	747.75
457.276	712.75
457.497	707.75
457.717	701.75
457.937	705.75
458.157	703.75
458.377	710.75
458.598	674.75
458.818	666.75
459.038	694.75
459.258	695.75
459.478	716.75
459.698	681.75
459.918	727.75
460.138	810.75
460.358	815.75
460.578	829.75
460.798	823.75
461.018	868.75
461.238	851.75
461.458	826.75
461.678	858.75
461.898	829.75
462.118	800.75
462.338	825.75
462.558	839.75
462.777	829.75
462.997	840.75
463.217	842.75
463.437	861.75
463.657	869.75
463.876	817.75
464.096	853.75
464.316	835.75
464.536	854.75
464.755	851.75
464.975	880.75
465.195	855.75
465.414	881.75
465.634	859.75
465.854	866.75
466.073	929.75
466.293	949.75
466.512	849.75
466.732	864.75
466.951	890.75
467.171	892.75
467.391	888.75
467.61	885.75
467.829	887.75
468.049	948.75
468.268	1013.75
468.488	983.75
468.707	880.75
468.927	909.75
469.146	871.75
469.365	935.75
469.585	912.75
469.804	914.75
470.023	910.75
470.243	907.75
470.462	941.75
470.681	938.75
470.901	919.75
471.12	922.75
471.339	934.75
471.558	907.75
471.777	888.75
471.997	877.75
472.216	843.75
472.435	815.75
472.654	753.75
472.873	773.75
473.092	804.75
473.311	828.75
473.53	823.75
473.749	795.75
473.968	840.75
474.187	813.75
474.406	847.75
474.625	847.75
474.844	882.75
475.063	858.75
475.282	860.75
475.501	811.75
475.72	858.75
475.939	891.75
476.158	882.75
476.377	864.75
476.596	849.75
476.814	821.75
477.033	835.75
477.252	824.75
477.471	894.75
477.69	909.75
477.908	928.75
478.127	970.75
478.346	988.75
478.564	973.75
478.783	1000.75
479.002	1017.75
479.22	1049.75
479.439	1012.75
479.658	1045.75
479.876	973.75
480.095	893.75
480.313	899.75
480.532	898.75
480.751	836.75
480.969	840.75
481.188	803.75
481.406	801.75
481.624	747.75
481.843	785.75
482.061	802.75
482.28	875.75
482.498	892.75
482.717	876.75
482.935	897.75
483.153	975.75
483.372	1027.75
483.59	1003.75
483.808	963.75
484.027	936.75
484.245	962.75
484.463	1207.75
484.681	1295.75
484.9	1017.75
485.118	941.75
485.336	927.75
485.554	932.75
485.772	880.75
485.99	879.75
486.209	888.75
486.427	902.75
486.645	915.75
486.863	994.75
487.081	1036.75
487.299	964.75
487.517	1008.75
487.735	1086.75
487.953	1187.75
488.171	1203.75
488.389	1109.75
488.607	1072.75
488.825	1146.75
489.043	1078.75
489.261	979.75
489.479	1018.75
489.696	1059.75
489.914	1052.75
490.132	1025.75
490.35	1051.75
490.568	1155.75
490.786	1180.75
491.003	1191.75
491.221	1230.75
491.439	1292.75
491.657	1293.75
491.874	1371.75
492.092	1429.75
492.31	1477.75
492.527	1457.75
492.745	1372.75
492.963	1303.75
493.18	1322.75
493.398	1371.75
493.615	1293.75
493.833	1229.75
494.05	1241.75
494.268	1242.75
494.485	1221.75
494.703	1239.75
494.92	1227.75
495.138	1211.75
495.355	1207.75
495.573	1256.75
495.79	1266.75
496.008	1273.75
496.225	1222.75
496.442	1242.75
496.66	1215.75
496.877	1192.75
497.094	1248.75
497.312	1205.75
497.529	1207.75
497.746	1206.75
497.963	1258.75
498.181	1283.75
498.398	1241.75
498.615	1205.75
498.832	1141.75
499.049	1144.75
499.267	1161.75
499.484	1224.75
499.701	1314.75
499.918	1361.75
500.135	1457.75
500.352	1567.75
500.569	1559.75
