Data from WStandard_LampEnergy10_LIBS07252019.E.O._I.C._HRD10591_15-55-37-929.txt Node
Date: Thu Jul 25 15:55:37 EDT 2019
User: cochatt
Spectrometer: HR+D1059
Trigger mode: 1
Integration Time (sec): 1.000000E-1
Scans to average: 1
Electric dark correction enabled: true
Nonlinearity correction enabled: false
Boxcar width: 0
XAxis mode: Wavelengths
Number of Pixels in Spectrum: 2048
>>>>>Begin Spectral Data<<<<<
223.165	-20.88
223.4	-20.88
223.635	-20.88
223.869	-0.88
224.104	-15.88
224.338	-13.88
224.573	-7.88
224.808	-24.88
225.042	-12.88
225.277	-6.88
225.511	-6.88
225.746	13.12
225.98	4.12
226.215	13.12
226.449	10.12
226.683	14.12
226.918	23.12
227.152	33.12
227.387	33.12
227.621	41.12
227.856	50.12
228.09	55.12
228.324	45.12
228.559	63.12
228.793	87.12
229.027	134.12
229.262	147.12
229.496	147.12
229.73	144.12
229.964	160.12
230.199	163.12
230.433	176.12
230.667	179.12
230.901	198.12
231.136	179.12
231.37	184.12
231.604	159.12
231.838	177.12
232.072	170.12
232.306	172.12
232.541	182.12
232.775	187.12
233.009	206.12
233.243	210.12
233.477	181.12
233.711	191.12
233.945	199.12
234.179	202.12
234.413	202.12
234.647	209.12
234.881	197.12
235.115	201.12
235.349	194.12
235.583	196.12
235.817	194.12
236.051	201.12
236.285	188.12
236.519	213.12
236.753	217.12
236.987	223.12
237.221	208.12
237.455	216.12
237.689	231.12
237.922	223.12
238.156	215.12
238.39	236.12
238.624	228.12
238.858	237.12
239.091	232.12
239.325	259.12
239.559	270.12
239.793	286.12
240.027	309.12
240.26	287.12
240.494	244.12
240.728	218.12
240.961	238.12
241.195	230.12
241.429	255.12
241.662	261.12
241.896	235.12
242.13	251.12
242.363	259.12
242.597	275.12
242.83	276.12
243.064	248.12
243.298	281.12
243.531	304.12
243.765	277.12
243.998	278.12
244.232	264.12
244.465	249.12
244.699	245.12
244.932	283.12
245.166	308.12
245.399	309.12
245.633	275.12
245.866	270.12
246.099	294.12
246.333	285.12
246.566	310.12
246.8	291.12
247.033	335.12
247.266	332.12
247.5	317.12
247.733	330.12
247.966	331.12
248.2	358.12
248.433	344.12
248.666	371.12
248.899	393.12
249.133	433.12
249.366	453.12
249.599	379.12
249.832	359.12
250.066	361.12
250.299	356.12
250.532	353.12
250.765	308.12
250.998	328.12
251.231	334.12
251.465	349.12
251.698	346.12
251.931	344.12
252.164	344.12
252.397	358.12
252.63	368.12
252.863	324.12
253.096	325.12
253.329	346.12
253.562	328.12
253.795	371.12
254.028	366.12
254.261	333.12
254.494	340.12
254.727	339.12
254.96	354.12
255.193	374.12
255.426	417.12
255.659	452.12
255.892	435.12
256.124	388.12
256.357	381.12
256.59	403.12
256.823	418.12
257.056	413.12
257.289	488.12
257.521	509.12
257.754	459.12
257.987	443.12
258.22	462.12
258.452	450.12
258.685	397.12
258.918	403.12
259.151	372.12
259.383	374.12
259.616	342.12
259.849	365.12
260.081	393.12
260.314	447.12
260.547	453.12
260.779	459.12
261.012	439.12
261.244	401.12
261.477	405.12
261.71	391.12
261.942	408.12
262.175	381.12
262.407	403.12
262.64	396.12
262.872	374.12
263.105	374.12
263.337	389.12
263.57	364.12
263.802	371.12
264.035	350.12
264.267	328.12
264.499	340.12
264.732	366.12
264.964	383.12
265.197	389.12
265.429	408.12
265.661	454.12
265.894	510.12
266.126	508.12
266.358	459.12
266.591	474.12
266.823	493.12
267.055	446.12
267.287	441.12
267.52	453.12
267.752	441.12
267.984	452.12
268.216	481.12
268.448	474.12
268.681	443.12
268.913	414.12
269.145	426.12
269.377	426.12
269.609	476.12
269.841	503.12
270.073	568.12
270.306	608.12
270.538	597.12
270.77	512.12
271.002	461.12
271.234	458.12
271.466	463.12
271.698	526.12
271.93	579.12
272.162	591.12
272.394	527.12
272.626	508.12
272.858	466.12
273.09	385.12
273.322	409.12
273.553	405.12
273.785	410.12
274.017	416.12
274.249	431.12
274.481	427.12
274.713	413.12
274.945	394.12
275.176	426.12
275.408	408.12
275.64	398.12
275.872	394.12
276.104	445.12
276.335	481.12
276.567	520.12
276.799	509.12
277.031	475.12
277.262	482.12
277.494	483.12
277.726	550.12
277.957	501.12
278.189	471.12
278.421	431.12
278.652	424.12
278.884	422.12
279.115	416.12
279.347	448.12
279.579	445.12
279.81	424.12
280.042	462.12
280.273	487.12
280.505	504.12
280.736	517.12
280.968	477.12
281.199	426.12
281.431	391.12
281.662	422.12
281.894	428.12
282.125	455.12
282.356	460.12
282.588	446.12
282.819	454.12
283.051	479.12
283.282	499.12
283.513	481.12
283.745	445.12
283.976	415.12
284.207	429.12
284.439	444.12
284.67	418.12
284.901	439.12
285.132	452.12
285.364	442.12
285.595	464.12
285.826	462.12
286.057	441.12
286.288	461.12
286.52	463.12
286.751	503.12
286.982	479.12
287.213	445.12
287.444	414.12
287.675	428.12
287.906	458.12
288.138	483.12
288.369	461.12
288.6	441.12
288.831	431.12
289.062	442.12
289.293	453.12
289.524	444.12
289.755	458.12
289.986	460.12
290.217	439.12
290.448	448.12
290.679	467.12
290.91	462.12
291.141	472.12
291.371	494.12
291.602	474.12
291.833	478.12
292.064	498.12
292.295	491.12
292.526	513.12
292.757	501.12
292.987	481.12
293.218	490.12
293.449	518.12
293.68	571.12
293.91	586.12
294.141	551.12
294.372	553.12
294.603	566.12
294.833	581.12
295.064	526.12
295.295	479.12
295.525	435.12
295.756	466.12
295.987	426.12
296.217	443.12
296.448	446.12
296.679	469.12
296.909	457.12
297.14	469.12
297.37	476.12
297.601	511.12
297.831	512.12
298.062	527.12
298.292	474.12
298.523	470.12
298.753	488.12
298.984	470.12
299.214	482.12
299.445	468.12
299.675	497.12
299.905	517.12
300.136	478.12
300.366	447.12
300.597	455.12
300.827	486.12
301.057	488.12
301.288	519.12
301.518	494.12
301.748	521.12
301.979	523.12
302.209	558.12
302.439	576.12
302.669	570.12
302.9	542.12
303.13	488.12
303.36	513.12
303.59	528.12
303.82	498.12
304.051	512.12
304.281	519.12
304.511	541.12
304.741	588.12
304.971	606.12
305.201	613.12
305.431	559.12
305.661	486.12
305.891	446.12
306.121	418.12
306.352	465.12
306.582	509.12
306.812	515.12
307.042	567.12
307.272	567.12
307.502	573.12
307.731	618.12
307.961	642.12
308.191	580.12
308.421	550.12
308.651	485.12
308.881	497.12
309.111	486.12
309.341	491.12
309.571	492.12
309.8	495.12
310.03	467.12
310.26	485.12
310.49	477.12
310.72	517.12
310.949	526.12
311.179	494.12
311.409	521.12
311.639	492.12
311.868	486.12
312.098	498.12
312.328	502.12
312.557	507.12
312.787	494.12
313.017	509.12
313.246	508.12
313.476	500.12
313.706	517.12
313.935	544.12
314.165	525.12
314.394	546.12
314.624	588.12
314.853	612.12
315.083	628.12
315.312	595.12
315.542	569.12
315.771	551.12
316.001	545.12
316.23	551.12
316.46	570.12
316.689	562.12
316.919	507.12
317.148	512.12
317.377	525.12
317.607	597.12
317.836	640.12
318.065	623.12
318.295	593.12
318.524	579.12
318.753	564.12
318.983	567.12
319.212	554.12
319.441	532.12
319.67	542.12
319.9	576.12
320.129	603.12
320.358	617.12
320.587	611.12
320.816	607.12
321.046	601.12
321.275	578.12
321.504	589.12
321.733	625.12
321.962	608.12
322.191	555.12
322.42	564.12
322.649	567.12
322.878	539.12
323.108	559.12
323.337	588.12
323.566	569.12
323.795	554.12
324.024	586.12
324.253	565.12
324.482	541.12
324.71	526.12
324.939	519.12
325.168	556.12
325.397	562.12
325.626	563.12
325.855	570.12
326.084	579.12
326.313	546.12
326.542	575.12
326.77	593.12
326.999	567.12
327.228	556.12
327.457	540.12
327.686	521.12
327.914	552.12
328.143	564.12
328.372	556.12
328.6	551.12
328.829	544.12
329.058	553.12
329.287	554.12
329.515	536.12
329.744	586.12
329.972	600.12
330.201	631.12
330.43	607.12
330.658	608.12
330.887	578.12
331.115	605.12
331.344	590.12
331.572	592.12
331.801	585.12
332.03	594.12
332.258	606.12
332.486	610.12
332.715	584.12
332.943	614.12
333.172	591.12
333.4	592.12
333.629	625.12
333.857	671.12
334.085	708.12
334.314	828.12
334.542	847.12
334.771	743.12
334.999	703.12
335.227	674.12
335.455	651.12
335.684	653.12
335.912	651.12
336.14	643.12
336.369	629.12
336.597	607.12
336.825	599.12
337.053	643.12
337.281	679.12
337.51	679.12
337.738	683.12
337.966	627.12
338.194	602.12
338.422	602.12
338.65	593.12
338.878	564.12
339.106	571.12
339.334	575.12
339.562	589.12
339.79	605.12
340.018	621.12
340.246	652.12
340.474	627.12
340.702	622.12
340.93	616.12
341.158	604.12
341.386	614.12
341.614	613.12
341.842	606.12
342.07	594.12
342.298	614.12
342.526	612.12
342.754	582.12
342.981	594.12
343.209	562.12
343.437	601.12
343.665	595.12
343.893	626.12
344.12	621.12
344.348	627.12
344.576	595.12
344.804	603.12
345.031	602.12
345.259	603.12
345.487	569.12
345.714	547.12
345.942	550.12
346.17	590.12
346.397	583.12
346.625	559.12
346.853	545.12
347.08	542.12
347.308	541.12
347.535	555.12
347.763	587.12
347.99	561.12
348.218	553.12
348.445	573.12
348.673	570.12
348.9	599.12
349.128	589.12
349.355	627.12
349.583	609.12
349.81	570.12
350.037	537.12
350.265	544.12
350.492	538.12
350.72	567.12
350.947	580.12
351.174	557.12
351.402	555.12
351.629	543.12
351.856	531.12
352.083	545.12
352.311	532.12
352.538	539.12
352.765	584.12
352.992	585.12
353.22	553.12
353.447	534.12
353.674	546.12
353.901	577.12
354.128	565.12
354.355	565.12
354.583	584.12
354.81	603.12
355.037	602.12
355.264	579.12
355.491	587.12
355.718	585.12
355.945	583.12
356.172	556.12
356.399	533.12
356.626	523.12
356.853	582.12
357.08	658.12
357.307	683.12
357.534	637.12
357.761	567.12
357.988	554.12
358.215	545.12
358.441	538.12
358.668	547.12
358.895	563.12
359.122	582.12
359.349	649.12
359.576	629.12
359.802	561.12
360.029	557.12
360.256	551.12
360.483	566.12
360.709	557.12
360.936	610.12
361.163	599.12
361.39	691.12
361.616	714.12
361.843	694.12
362.07	666.12
362.296	577.12
362.523	557.12
362.749	582.12
362.976	568.12
363.203	603.12
363.429	567.12
363.656	562.12
363.882	606.12
364.109	651.12
364.335	665.12
364.562	629.12
364.788	602.12
365.015	582.12
365.241	581.12
365.468	582.12
365.694	618.12
365.92	627.12
366.147	563.12
366.373	561.12
366.599	550.12
366.826	559.12
367.052	556.12
367.278	570.12
367.505	597.12
367.731	609.12
367.957	592.12
368.184	599.12
368.41	665.12
368.636	671.12
368.862	661.12
369.089	667.12
369.315	630.12
369.541	607.12
369.767	599.12
369.993	572.12
370.219	611.12
370.445	619.12
370.672	659.12
370.898	699.12
371.124	652.12
371.35	630.12
371.576	649.12
371.802	653.12
372.028	628.12
372.254	597.12
372.48	618.12
372.706	611.12
372.932	597.12
373.158	619.12
373.384	625.12
373.61	667.12
373.835	657.12
374.061	618.12
374.287	638.12
374.513	622.12
374.739	641.12
374.965	643.12
375.191	640.12
375.416	640.12
375.642	649.12
375.868	689.12
376.094	698.12
376.319	674.12
376.545	636.12
376.771	679.12
376.997	705.12
377.222	669.12
377.448	679.12
377.674	676.12
377.899	705.12
378.125	717.12
378.35	703.12
378.576	629.12
378.802	611.12
379.027	622.12
379.253	614.12
379.478	640.12
379.704	607.12
379.929	655.12
380.155	651.12
380.38	643.12
380.606	660.12
380.831	653.12
381.057	706.12
381.282	691.12
381.507	705.12
381.733	745.12
381.958	743.12
382.184	705.12
382.409	659.12
382.634	687.12
382.86	679.12
383.085	698.12
383.31	706.12
383.535	778.12
383.761	786.12
383.986	751.12
384.211	718.12
384.436	748.12
384.662	767.12
384.887	768.12
385.112	725.12
385.337	725.12
385.562	746.12
385.787	735.12
386.013	787.12
386.238	770.12
386.463	790.12
386.688	839.12
386.913	851.12
387.138	841.12
387.363	772.12
387.588	767.12
387.813	775.12
388.038	804.12
388.263	806.12
388.488	778.12
388.713	718.12
388.938	713.12
389.163	718.12
389.387	740.12
389.612	737.12
389.837	764.12
390.062	771.12
390.287	761.12
390.512	734.12
390.736	742.12
390.961	717.12
391.186	717.12
391.411	735.12
391.636	755.12
391.86	759.12
392.085	769.12
392.31	750.12
392.534	744.12
392.759	749.12
392.984	745.12
393.208	759.12
393.433	781.12
393.658	833.12
393.882	834.12
394.107	777.12
394.331	794.12
394.556	789.12
394.78	779.12
395.005	802.12
395.229	842.12
395.454	871.12
395.678	853.12
395.903	828.12
396.127	818.12
396.352	814.12
396.576	863.12
396.801	886.12
397.025	847.12
397.249	820.12
397.474	818.12
397.698	827.12
397.922	878.12
398.147	900.12
398.371	907.12
398.595	868.12
398.82	845.12
399.044	891.12
399.268	924.12
399.492	988.12
399.717	975.12
399.941	954.12
400.165	963.12
400.389	931.12
400.613	978.12
400.837	1122.12
401.062	1159.12
401.286	1013.12
401.51	1002.12
401.734	983.12
401.958	947.12
402.182	889.12
402.406	869.12
402.63	909.12
402.854	873.12
403.078	890.12
403.302	922.12
403.526	920.12
403.75	951.12
403.974	918.12
404.198	940.12
404.422	964.12
404.645	998.12
404.869	996.12
405.093	896.12
405.317	872.12
405.541	908.12
405.765	960.12
405.988	895.12
406.212	952.12
406.436	930.12
406.66	991.12
406.883	1005.12
407.107	1126.12
407.331	1220.12
407.555	1307.12
407.778	1101.12
408.002	976.12
408.226	974.12
408.449	950.12
408.673	930.12
408.896	962.12
409.12	956.12
409.344	935.12
409.567	892.12
409.791	927.12
410.014	956.12
410.238	1025.12
410.461	1015.12
410.685	952.12
410.908	952.12
411.132	916.12
411.355	923.12
411.578	917.12
411.802	922.12
412.025	954.12
412.249	936.12
412.472	923.12
412.695	904.12
412.919	925.12
413.142	887.12
413.365	913.12
413.589	934.12
413.812	987.12
414.035	963.12
414.258	922.12
414.482	876.12
414.705	921.12
414.928	907.12
415.151	921.12
415.374	942.12
415.597	916.12
415.821	930.12
416.044	964.12
416.267	937.12
416.49	903.12
416.713	898.12
416.936	977.12
417.159	970.12
417.382	939.12
417.605	899.12
417.828	946.12
418.051	927.12
418.274	931.12
418.497	909.12
418.72	947.12
418.943	918.12
419.166	950.12
419.389	970.12
419.611	951.12
419.834	936.12
420.057	947.12
420.28	936.12
420.503	931.12
420.726	978.12
420.948	951.12
421.171	917.12
421.394	957.12
421.617	971.12
421.839	979.12
422.062	965.12
422.285	922.12
422.507	905.12
422.73	879.12
422.953	888.12
423.175	905.12
423.398	948.12
423.621	929.12
423.843	923.12
424.066	973.12
424.288	996.12
424.511	1033.12
424.733	1000.12
424.956	960.12
425.178	933.12
425.401	946.12
425.623	940.12
425.846	960.12
426.068	993.12
426.291	993.12
426.513	949.12
426.735	960.12
426.958	1037.12
427.18	1026.12
427.402	1015.12
427.625	986.12
427.847	976.12
428.069	926.12
428.292	914.12
428.514	861.12
428.736	899.12
428.958	933.12
429.181	921.12
429.403	1077.12
429.625	1218.12
429.847	1022.12
430.069	968.12
430.292	1071.12
430.514	1064.12
430.736	972.12
430.958	996.12
431.18	926.12
431.402	876.12
431.624	852.12
431.846	812.12
432.068	741.12
432.29	744.12
432.512	819.12
432.734	885.12
432.956	935.12
433.178	963.12
433.4	968.12
433.622	954.12
433.844	905.12
434.066	821.12
434.287	785.12
434.509	767.12
434.731	814.12
434.953	908.12
435.175	933.12
435.397	919.12
435.618	886.12
435.84	853.12
436.062	847.12
436.284	875.12
436.505	901.12
436.727	933.12
436.949	910.12
437.17	926.12
437.392	875.12
437.614	852.12
437.835	785.12
438.057	809.12
438.278	861.12
438.5	851.12
438.721	907.12
438.943	897.12
439.165	917.12
439.386	897.12
439.608	962.12
439.829	964.12
440.05	947.12
440.272	959.12
440.493	924.12
440.715	958.12
440.936	1027.12
441.158	1016.12
441.379	1044.12
441.6	1038.12
441.822	1035.12
442.043	1009.12
442.264	987.12
442.486	961.12
442.707	958.12
442.928	958.12
443.149	987.12
443.371	984.12
443.592	1005.12
443.813	1040.12
444.034	1010.12
444.255	1025.12
444.476	1025.12
444.698	1034.12
444.919	1042.12
445.14	1112.12
445.361	1084.12
445.582	1083.12
445.803	1050.12
446.024	999.12
446.245	1059.12
446.466	1039.12
446.687	1020.12
446.908	1044.12
447.129	1018.12
447.35	1019.12
447.571	981.12
447.792	926.12
448.013	962.12
448.234	981.12
448.455	1017.12
448.675	970.12
448.896	892.12
449.117	886.12
449.338	919.12
449.559	950.12
449.779	975.12
450	1003.12
450.221	1040.12
450.442	1027.12
450.662	914.12
450.883	885.12
451.104	866.12
451.324	882.12
451.545	891.12
451.766	866.12
451.986	835.12
452.207	842.12
452.428	809.12
452.648	806.12
452.869	779.12
453.089	801.12
453.31	789.12
453.53	790.12
453.751	732.12
453.971	701.12
454.192	729.12
454.412	754.12
454.633	763.12
454.853	794.12
455.073	760.12
455.294	775.12
455.514	750.12
455.734	776.12
455.955	759.12
456.175	764.12
456.395	721.12
456.616	723.12
456.836	723.12
457.056	736.12
457.276	715.12
457.497	696.12
457.717	697.12
457.937	709.12
458.157	700.12
458.377	712.12
458.598	690.12
458.818	681.12
459.038	716.12
459.258	724.12
459.478	705.12
459.698	723.12
459.918	753.12
460.138	803.12
460.358	827.12
460.578	845.12
460.798	862.12
461.018	876.12
461.238	886.12
461.458	872.12
461.678	846.12
461.898	830.12
462.118	806.12
462.338	861.12
462.558	860.12
462.777	831.12
462.997	860.12
463.217	899.12
463.437	862.12
463.657	835.12
463.876	835.12
464.096	798.12
464.316	824.12
464.536	858.12
464.755	887.12
464.975	880.12
465.195	843.12
465.414	875.12
465.634	872.12
465.854	889.12
466.073	955.12
466.293	939.12
466.512	874.12
466.732	865.12
466.951	921.12
467.171	887.12
467.391	861.12
467.61	877.12
467.829	895.12
468.049	994.12
468.268	1039.12
468.488	990.12
468.707	893.12
468.927	903.12
469.146	875.12
469.365	917.12
469.585	947.12
469.804	893.12
470.023	962.12
470.243	953.12
470.462	940.12
470.681	931.12
470.901	949.12
471.12	923.12
471.339	915.12
471.558	902.12
471.777	923.12
471.997	891.12
472.216	859.12
472.435	766.12
472.654	795.12
472.873	777.12
473.092	799.12
473.311	837.12
473.53	805.12
473.749	833.12
473.968	849.12
474.187	866.12
474.406	839.12
474.625	851.12
474.844	891.12
475.063	882.12
475.282	868.12
475.501	801.12
475.72	828.12
475.939	892.12
476.158	891.12
476.377	879.12
476.596	848.12
476.814	808.12
477.033	794.12
477.252	834.12
477.471	905.12
477.69	921.12
477.908	943.12
478.127	975.12
478.346	1003.12
478.564	991.12
478.783	987.12
479.002	1035.12
479.22	1020.12
479.439	1023.12
479.658	1047.12
479.876	988.12
480.095	904.12
480.313	895.12
480.532	868.12
480.751	879.12
480.969	837.12
481.188	810.12
481.406	793.12
481.624	765.12
481.843	808.12
482.061	822.12
482.28	855.12
482.498	889.12
482.717	842.12
482.935	897.12
483.153	977.12
483.372	1037.12
483.59	1003.12
483.808	964.12
484.027	939.12
484.245	1022.12
484.463	1226.12
484.681	1303.12
484.9	1027.12
485.118	917.12
485.336	921.12
485.554	913.12
485.772	892.12
485.99	868.12
486.209	891.12
486.427	901.12
486.645	936.12
486.863	1003.12
487.081	1027.12
487.299	996.12
487.517	1013.12
487.735	1105.12
487.953	1189.12
488.171	1206.12
488.389	1138.12
488.607	1094.12
488.825	1150.12
489.043	1059.12
489.261	987.12
489.479	1018.12
489.696	1024.12
489.914	1025.12
490.132	1038.12
490.35	1071.12
490.568	1141.12
490.786	1157.12
491.003	1189.12
491.221	1245.12
491.439	1299.12
491.657	1320.12
491.874	1355.12
492.092	1399.12
492.31	1477.12
492.527	1444.12
492.745	1336.12
492.963	1318.12
493.18	1329.12
493.398	1356.12
493.615	1303.12
493.833	1250.12
494.05	1219.12
494.268	1205.12
494.485	1239.12
494.703	1242.12
494.92	1224.12
495.138	1210.12
495.355	1218.12
495.573	1237.12
495.79	1259.12
496.008	1300.12
496.225	1225.12
496.442	1225.12
496.66	1227.12
496.877	1194.12
497.094	1221.12
497.312	1203.12
497.529	1185.12
497.746	1213.12
497.963	1279.12
498.181	1318.12
498.398	1249.12
498.615	1237.12
498.832	1177.12
499.049	1135.12
499.267	1173.12
499.484	1275.12
499.701	1312.12
499.918	1357.12
500.135	1485.12
500.352	1512.12
