Data from WStandard_LampEnergy10_LIBS07252019.E.O._I.C._HRD10591_15-56-02-928.txt Node
Date: Thu Jul 25 15:56:02 EDT 2019
User: cochatt
Spectrometer: HR+D1059
Trigger mode: 1
Integration Time (sec): 1.000000E-1
Scans to average: 1
Electric dark correction enabled: true
Nonlinearity correction enabled: false
Boxcar width: 0
XAxis mode: Wavelengths
Number of Pixels in Spectrum: 2048
>>>>>Begin Spectral Data<<<<<
223.165	-18.56
223.4	-18.56
223.635	-18.56
223.869	-14.56
224.104	-9.56
224.338	-23.56
224.573	-20.56
224.808	-0.56
225.042	-5.56
225.277	-3.56
225.511	5.44
225.746	0.44
225.98	2.44
226.215	10.44
226.449	19.44
226.683	4.44
226.918	25.44
227.152	28.44
227.387	41.44
227.621	46.44
227.856	41.44
228.09	36.44
228.324	48.44
228.559	63.44
228.793	87.44
229.027	153.44
229.262	137.44
229.496	140.44
229.73	156.44
229.964	168.44
230.199	148.44
230.433	152.44
230.667	181.44
230.901	177.44
231.136	169.44
231.37	161.44
231.604	167.44
231.838	191.44
232.072	175.44
232.306	173.44
232.541	188.44
232.775	193.44
233.009	202.44
233.243	185.44
233.477	192.44
233.711	187.44
233.945	205.44
234.179	187.44
234.413	193.44
234.647	204.44
234.881	180.44
235.115	188.44
235.349	170.44
235.583	195.44
235.817	202.44
236.051	180.44
236.285	197.44
236.519	202.44
236.753	222.44
236.987	226.44
237.221	215.44
237.455	235.44
237.689	230.44
237.922	221.44
238.156	229.44
238.39	218.44
238.624	229.44
238.858	226.44
239.091	247.44
239.325	276.44
239.559	271.44
239.793	282.44
240.027	293.44
240.26	278.44
240.494	231.44
240.728	243.44
240.961	226.44
241.195	229.44
241.429	257.44
241.662	257.44
241.896	226.44
242.13	241.44
242.363	243.44
242.597	273.44
242.83	266.44
243.064	278.44
243.298	276.44
243.531	269.44
243.765	287.44
243.998	272.44
244.232	258.44
244.465	254.44
244.699	233.44
244.932	283.44
245.166	287.44
245.399	269.44
245.633	278.44
245.866	273.44
246.099	297.44
246.333	272.44
246.566	290.44
246.8	298.44
247.033	336.44
247.266	311.44
247.5	311.44
247.733	298.44
247.966	346.44
248.2	359.44
248.433	334.44
248.666	361.44
248.899	387.44
249.133	443.44
249.366	435.44
249.599	393.44
249.832	352.44
250.066	342.44
250.299	357.44
250.532	357.44
250.765	313.44
250.998	336.44
251.231	335.44
251.465	341.44
251.698	330.44
251.931	346.44
252.164	354.44
252.397	372.44
252.63	343.44
252.863	325.44
253.096	327.44
253.329	321.44
253.562	331.44
253.795	353.44
254.028	354.44
254.261	335.44
254.494	327.44
254.727	323.44
254.96	348.44
255.193	371.44
255.426	399.44
255.659	442.44
255.892	439.44
256.124	375.44
256.357	374.44
256.59	397.44
256.823	398.44
257.056	373.44
257.289	479.44
257.521	476.44
257.754	460.44
257.987	444.44
258.22	450.44
258.452	474.44
258.685	368.44
258.918	376.44
259.151	383.44
259.383	374.44
259.616	347.44
259.849	375.44
260.081	406.44
260.314	444.44
260.547	459.44
260.779	457.44
261.012	437.44
261.244	415.44
261.477	376.44
261.71	380.44
261.942	413.44
262.175	380.44
262.407	391.44
262.64	357.44
262.872	385.44
263.105	355.44
263.337	339.44
263.57	375.44
263.802	359.44
264.035	347.44
264.267	329.44
264.499	331.44
264.732	348.44
264.964	373.44
265.197	387.44
265.429	401.44
265.661	448.44
265.894	484.44
266.126	485.44
266.358	452.44
266.591	457.44
266.823	478.44
267.055	448.44
267.287	443.44
267.52	437.44
267.752	437.44
267.984	443.44
268.216	452.44
268.448	460.44
268.681	441.44
268.913	408.44
269.145	411.44
269.377	390.44
269.609	425.44
269.841	497.44
270.073	553.44
270.306	599.44
270.538	599.44
270.77	524.44
271.002	481.44
271.234	474.44
271.466	477.44
271.698	538.44
271.93	592.44
272.162	556.44
272.394	526.44
272.626	506.44
272.858	470.44
273.09	419.44
273.322	393.44
273.553	411.44
273.785	398.44
274.017	403.44
274.249	437.44
274.481	431.44
274.713	404.44
274.945	418.44
275.176	403.44
275.408	402.44
275.64	385.44
275.872	403.44
276.104	430.44
276.335	486.44
276.567	508.44
276.799	525.44
277.031	455.44
277.262	472.44
277.494	488.44
277.726	496.44
277.957	515.44
278.189	464.44
278.421	426.44
278.652	415.44
278.884	424.44
279.115	425.44
279.347	423.44
279.579	422.44
279.81	438.44
280.042	468.44
280.273	500.44
280.505	487.44
280.736	496.44
280.968	480.44
281.199	428.44
281.431	397.44
281.662	393.44
281.894	415.44
282.125	421.44
282.356	450.44
282.588	471.44
282.819	460.44
283.051	499.44
283.282	507.44
283.513	482.44
283.745	444.44
283.976	429.44
284.207	431.44
284.439	423.44
284.67	432.44
284.901	441.44
285.132	439.44
285.364	457.44
285.595	437.44
285.826	428.44
286.057	439.44
286.288	437.44
286.52	454.44
286.751	466.44
286.982	491.44
287.213	457.44
287.444	425.44
287.675	442.44
287.906	463.44
288.138	487.44
288.369	452.44
288.6	437.44
288.831	448.44
289.062	434.44
289.293	459.44
289.524	433.44
289.755	454.44
289.986	467.44
290.217	405.44
290.448	433.44
290.679	450.44
290.91	440.44
291.141	479.44
291.371	487.44
291.602	472.44
291.833	467.44
292.064	486.44
292.295	487.44
292.526	503.44
292.757	502.44
292.987	463.44
293.218	490.44
293.449	518.44
293.68	564.44
293.91	573.44
294.141	533.44
294.372	540.44
294.603	531.44
294.833	575.44
295.064	533.44
295.295	474.44
295.525	458.44
295.756	440.44
295.987	436.44
296.217	440.44
296.448	451.44
296.679	452.44
296.909	441.44
297.14	467.44
297.37	474.44
297.601	491.44
297.831	524.44
298.062	514.44
298.292	489.44
298.523	469.44
298.753	456.44
298.984	493.44
299.214	467.44
299.445	495.44
299.675	505.44
299.905	478.44
300.136	457.44
300.366	449.44
300.597	470.44
300.827	490.44
301.057	485.44
301.288	507.44
301.518	497.44
301.748	509.44
301.979	541.44
302.209	551.44
302.439	549.44
302.669	576.44
302.9	553.44
303.13	494.44
303.36	489.44
303.59	515.44
303.82	491.44
304.051	483.44
304.281	534.44
304.511	535.44
304.741	561.44
304.971	619.44
305.201	626.44
305.431	540.44
305.661	490.44
305.891	441.44
306.121	456.44
306.352	456.44
306.582	523.44
306.812	543.44
307.042	562.44
307.272	568.44
307.502	593.44
307.731	589.44
307.961	616.44
308.191	567.44
308.421	521.44
308.651	496.44
308.881	480.44
309.111	471.44
309.341	479.44
309.571	490.44
309.8	507.44
310.03	485.44
310.26	480.44
310.49	479.44
310.72	503.44
310.949	536.44
311.179	540.44
311.409	502.44
311.639	518.44
311.868	506.44
312.098	517.44
312.328	499.44
312.557	492.44
312.787	507.44
313.017	517.44
313.246	509.44
313.476	501.44
313.706	526.44
313.935	535.44
314.165	537.44
314.394	544.44
314.624	561.44
314.853	627.44
315.083	642.44
315.312	631.44
315.542	603.44
315.771	520.44
316.001	535.44
316.23	565.44
316.46	540.44
316.689	533.44
316.919	518.44
317.148	513.44
317.377	520.44
317.607	585.44
317.836	627.44
318.065	631.44
318.295	605.44
318.524	572.44
318.753	570.44
318.983	531.44
319.212	541.44
319.441	539.44
319.67	565.44
319.9	559.44
320.129	593.44
320.358	606.44
320.587	594.44
320.816	592.44
321.046	599.44
321.275	585.44
321.504	575.44
321.733	611.44
321.962	607.44
322.191	562.44
322.42	554.44
322.649	538.44
322.878	553.44
323.108	560.44
323.337	561.44
323.566	552.44
323.795	555.44
324.024	562.44
324.253	575.44
324.482	563.44
324.71	540.44
324.939	520.44
325.168	546.44
325.397	549.44
325.626	587.44
325.855	551.44
326.084	535.44
326.313	553.44
326.542	573.44
326.77	578.44
326.999	584.44
327.228	547.44
327.457	523.44
327.686	544.44
327.914	546.44
328.143	558.44
328.372	541.44
328.6	550.44
328.829	540.44
329.058	542.44
329.287	555.44
329.515	570.44
329.744	561.44
329.972	603.44
330.201	631.44
330.43	607.44
330.658	604.44
330.887	587.44
331.115	607.44
331.344	599.44
331.572	568.44
331.801	594.44
332.03	587.44
332.258	603.44
332.486	613.44
332.715	601.44
332.943	580.44
333.172	588.44
333.4	598.44
333.629	615.44
333.857	667.44
334.085	729.44
334.314	825.44
334.542	821.44
334.771	756.44
334.999	685.44
335.227	667.44
335.455	632.44
335.684	633.44
335.912	633.44
336.14	611.44
336.369	611.44
336.597	595.44
336.825	581.44
337.053	624.44
337.281	655.44
337.51	709.44
337.738	707.44
337.966	644.44
338.194	595.44
338.422	587.44
338.65	609.44
338.878	584.44
339.106	561.44
339.334	547.44
339.562	562.44
339.79	585.44
340.018	613.44
340.246	631.44
340.474	620.44
340.702	607.44
340.93	616.44
341.158	618.44
341.386	594.44
341.614	593.44
341.842	571.44
342.07	607.44
342.298	588.44
342.526	578.44
342.754	561.44
342.981	591.44
343.209	581.44
343.437	574.44
343.665	589.44
343.893	612.44
344.12	620.44
344.348	619.44
344.576	581.44
344.804	602.44
345.031	576.44
345.259	603.44
345.487	566.44
345.714	531.44
345.942	544.44
346.17	561.44
346.397	581.44
346.625	564.44
346.853	528.44
347.08	532.44
347.308	528.44
347.535	554.44
347.763	587.44
347.99	567.44
348.218	551.44
348.445	553.44
348.673	562.44
348.9	577.44
349.128	597.44
349.355	598.44
349.583	579.44
349.81	559.44
350.037	524.44
350.265	535.44
350.492	534.44
350.72	543.44
350.947	573.44
351.174	567.44
351.402	525.44
351.629	536.44
351.856	525.44
352.083	498.44
352.311	528.44
352.538	529.44
352.765	579.44
352.992	575.44
353.22	549.44
353.447	565.44
353.674	533.44
353.901	564.44
354.128	545.44
354.355	548.44
354.583	596.44
354.81	556.44
355.037	583.44
355.264	570.44
355.491	551.44
355.718	559.44
355.945	552.44
356.172	560.44
356.399	566.44
356.626	552.44
356.853	571.44
357.08	639.44
357.307	662.44
357.534	623.44
357.761	570.44
357.988	554.44
358.215	536.44
358.441	523.44
358.668	528.44
358.895	585.44
359.122	603.44
359.349	644.44
359.576	613.44
359.802	563.44
360.029	556.44
360.256	540.44
360.483	545.44
360.709	581.44
360.936	624.44
361.163	636.44
361.39	677.44
361.616	709.44
361.843	679.44
362.07	606.44
362.296	569.44
362.523	561.44
362.749	553.44
362.976	559.44
363.203	551.44
363.429	564.44
363.656	526.44
363.882	599.44
364.109	636.44
364.335	646.44
364.562	636.44
364.788	600.44
365.015	559.44
365.241	536.44
365.468	570.44
365.694	602.44
365.92	609.44
366.147	571.44
366.373	560.44
366.599	570.44
366.826	569.44
367.052	548.44
367.278	582.44
367.505	563.44
367.731	588.44
367.957	595.44
368.184	637.44
368.41	645.44
368.636	657.44
368.862	663.44
369.089	642.44
369.315	603.44
369.541	621.44
369.767	599.44
369.993	577.44
370.219	575.44
370.445	592.44
370.672	626.44
370.898	661.44
371.124	637.44
371.35	623.44
371.576	633.44
371.802	679.44
372.028	631.44
372.254	604.44
372.48	601.44
372.706	588.44
372.932	616.44
373.158	616.44
373.384	629.44
373.61	636.44
373.835	679.44
374.061	639.44
374.287	656.44
374.513	645.44
374.739	624.44
374.965	631.44
375.191	634.44
375.416	654.44
375.642	668.44
375.868	701.44
376.094	709.44
376.319	656.44
376.545	643.44
376.771	678.44
376.997	687.44
377.222	691.44
377.448	652.44
377.674	661.44
377.899	691.44
378.125	691.44
378.35	679.44
378.576	613.44
378.802	620.44
379.027	639.44
379.253	607.44
379.478	660.44
379.704	635.44
379.929	652.44
380.155	639.44
380.38	646.44
380.606	647.44
380.831	653.44
381.057	713.44
381.282	701.44
381.507	696.44
381.733	730.44
381.958	711.44
382.184	671.44
382.409	659.44
382.634	669.44
382.86	661.44
383.085	677.44
383.31	706.44
383.535	781.44
383.761	791.44
383.986	745.44
384.211	710.44
384.436	722.44
384.662	765.44
384.887	755.44
385.112	712.44
385.337	725.44
385.562	715.44
385.787	744.44
386.013	733.44
386.238	729.44
386.463	731.44
386.688	806.44
386.913	831.44
387.138	773.44
387.363	757.44
387.588	759.44
387.813	737.44
388.038	789.44
388.263	800.44
388.488	747.44
388.713	735.44
388.938	695.44
389.163	723.44
389.387	747.44
389.612	719.44
389.837	758.44
390.062	759.44
390.287	747.44
390.512	730.44
390.736	715.44
390.961	726.44
391.186	732.44
391.411	718.44
391.636	722.44
391.86	757.44
392.085	760.44
392.31	712.44
392.534	761.44
392.759	752.44
392.984	771.44
393.208	775.44
393.433	787.44
393.658	817.44
393.882	799.44
394.107	771.44
394.331	760.44
394.556	760.44
394.78	782.44
395.005	806.44
395.229	835.44
395.454	855.44
395.678	849.44
395.903	811.44
396.127	806.44
396.352	804.44
396.576	853.44
396.801	829.44
397.025	827.44
397.249	843.44
397.474	823.44
397.698	819.44
397.922	840.44
398.147	881.44
398.371	907.44
398.595	905.44
398.82	856.44
399.044	877.44
399.268	903.44
399.492	950.44
399.717	982.44
399.941	976.44
400.165	987.44
400.389	956.44
400.613	973.44
400.837	1110.44
401.062	1164.44
401.286	1015.44
401.51	981.44
401.734	973.44
401.958	959.44
402.182	875.44
402.406	872.44
402.63	872.44
402.854	871.44
403.078	867.44
403.302	904.44
403.526	924.44
403.75	909.44
403.974	932.44
404.198	937.44
404.422	970.44
404.645	1025.44
404.869	960.44
405.093	885.44
405.317	885.44
405.541	916.44
405.765	915.44
405.988	924.44
406.212	903.44
406.436	941.44
406.66	993.44
406.883	1035.44
407.107	1119.44
407.331	1202.44
407.555	1243.44
407.778	1127.44
408.002	985.44
408.226	957.44
408.449	970.44
408.673	922.44
408.896	955.44
409.12	970.44
409.344	900.44
409.567	945.44
409.791	924.44
410.014	941.44
410.238	1030.44
410.461	1073.44
410.685	955.44
410.908	919.44
411.132	943.44
411.355	931.44
411.578	929.44
411.802	927.44
412.025	925.44
412.249	929.44
412.472	909.44
412.695	896.44
412.919	893.44
413.142	910.44
413.365	909.44
413.589	923.44
413.812	954.44
414.035	997.44
414.258	951.44
414.482	910.44
414.705	916.44
414.928	910.44
415.151	911.44
415.374	900.44
415.597	925.44
415.821	934.44
416.044	945.44
416.267	932.44
416.49	891.44
416.713	924.44
416.936	920.44
417.159	986.44
417.382	945.44
417.605	916.44
417.828	926.44
418.051	896.44
418.274	919.44
418.497	913.44
418.72	920.44
418.943	927.44
419.166	952.44
419.389	952.44
419.611	952.44
419.834	912.44
420.057	923.44
420.28	906.44
420.503	927.44
420.726	929.44
420.948	923.44
421.171	910.44
421.394	927.44
421.617	978.44
421.839	961.44
422.062	983.44
422.285	915.44
422.507	927.44
422.73	896.44
422.953	897.44
423.175	867.44
423.398	899.44
423.621	908.44
423.843	906.44
424.066	984.44
424.288	1010.44
424.511	1025.44
424.733	983.44
424.956	925.44
425.178	903.44
425.401	899.44
425.623	940.44
425.846	934.44
426.068	966.44
426.291	956.44
426.513	979.44
426.735	972.44
426.958	1050.44
427.18	1019.44
427.402	981.44
427.625	1025.44
427.847	974.44
428.069	931.44
428.292	897.44
428.514	863.44
428.736	872.44
428.958	915.44
429.181	943.44
429.403	1051.44
429.625	1187.44
429.847	1031.44
430.069	949.44
430.292	1036.44
430.514	1026.44
430.736	979.44
430.958	983.44
431.18	912.44
431.402	892.44
431.624	840.44
431.846	777.44
432.068	709.44
432.29	748.44
432.512	801.44
432.734	853.44
432.956	892.44
433.178	963.44
433.4	935.44
433.622	964.44
433.844	901.44
434.066	844.44
434.287	785.44
434.509	790.44
434.731	838.44
434.953	900.44
435.175	917.44
435.397	896.44
435.618	883.44
435.84	817.44
436.062	837.44
436.284	921.44
436.505	917.44
436.727	955.44
436.949	904.44
437.17	915.44
437.392	893.44
437.614	845.44
437.835	783.44
438.057	797.44
438.278	824.44
438.5	860.44
438.721	887.44
438.943	911.44
439.165	920.44
439.386	924.44
439.608	962.44
439.829	923.44
440.05	938.44
440.272	945.44
440.493	938.44
440.715	963.44
440.936	977.44
441.158	1033.44
441.379	1027.44
441.6	1024.44
441.822	1048.44
442.043	989.44
442.264	982.44
442.486	972.44
442.707	947.44
442.928	962.44
443.149	951.44
443.371	981.44
443.592	978.44
443.813	1020.44
444.034	1003.44
444.255	979.44
444.476	993.44
444.698	1037.44
444.919	1017.44
445.14	1092.44
445.361	1063.44
445.582	1063.44
445.803	1032.44
446.024	1042.44
446.245	1100.44
446.466	1021.44
446.687	1020.44
446.908	1038.44
447.129	987.44
447.35	996.44
447.571	993.44
447.792	968.44
448.013	952.44
448.234	943.44
448.455	967.44
448.675	967.44
448.896	897.44
449.117	895.44
449.338	920.44
449.559	937.44
449.779	956.44
450	1014.44
450.221	1004.44
450.442	969.44
450.662	942.44
450.883	875.44
451.104	865.44
451.324	877.44
451.545	869.44
451.766	871.44
451.986	845.44
452.207	788.44
452.428	774.44
452.648	773.44
452.869	763.44
453.089	765.44
453.31	758.44
453.53	748.44
453.751	714.44
453.971	684.44
454.192	735.44
454.412	778.44
454.633	776.44
454.853	773.44
455.073	730.44
455.294	782.44
455.514	762.44
455.734	753.44
455.955	745.44
456.175	728.44
456.395	716.44
456.616	743.44
456.836	705.44
457.056	760.44
457.276	722.44
457.497	693.44
457.717	676.44
457.937	687.44
458.157	707.44
458.377	675.44
458.598	680.44
458.818	676.44
459.038	684.44
459.258	712.44
459.478	729.44
459.698	696.44
459.918	727.44
460.138	772.44
460.358	819.44
460.578	801.44
460.798	852.44
461.018	864.44
461.238	847.44
461.458	832.44
461.678	835.44
461.898	819.44
462.118	819.44
462.338	836.44
462.558	841.44
462.777	833.44
462.997	880.44
463.217	855.44
463.437	879.44
463.657	845.44
463.876	829.44
464.096	821.44
464.316	851.44
464.536	845.44
464.755	862.44
464.975	839.44
465.195	845.44
465.414	856.44
465.634	853.44
465.854	888.44
466.073	931.44
466.293	905.44
466.512	844.44
466.732	842.44
466.951	900.44
467.171	910.44
467.391	851.44
467.61	858.44
467.829	891.44
468.049	952.44
468.268	1020.44
468.488	939.44
468.707	899.44
468.927	892.44
469.146	881.44
469.365	883.44
469.585	905.44
469.804	919.44
470.023	936.44
470.243	933.44
470.462	936.44
470.681	919.44
470.901	898.44
471.12	905.44
471.339	932.44
471.558	904.44
471.777	891.44
471.997	862.44
472.216	827.44
472.435	770.44
472.654	755.44
472.873	787.44
473.092	835.44
473.311	845.44
473.53	803.44
473.749	810.44
473.968	816.44
474.187	843.44
474.406	830.44
474.625	826.44
474.844	882.44
475.063	870.44
475.282	888.44
475.501	825.44
475.72	830.44
475.939	887.44
476.158	860.44
476.377	857.44
476.596	806.44
476.814	811.44
477.033	793.44
477.252	850.44
477.471	867.44
477.69	905.44
477.908	940.44
478.127	992.44
478.346	994.44
478.564	1012.44
478.783	995.44
479.002	1008.44
479.22	1019.44
479.439	1004.44
479.658	1021.44
479.876	1011.44
480.095	893.44
480.313	891.44
480.532	864.44
480.751	879.44
480.969	862.44
481.188	794.44
481.406	769.44
481.624	747.44
481.843	793.44
482.061	820.44
482.28	869.44
482.498	868.44
482.717	845.44
482.935	881.44
483.153	959.44
483.372	1005.44
483.59	1013.44
483.808	976.44
484.027	935.44
484.245	1000.44
484.463	1182.44
484.681	1249.44
484.9	1012.44
485.118	959.44
485.336	917.44
485.554	895.44
485.772	889.44
485.99	867.44
486.209	881.44
486.427	879.44
486.645	909.44
486.863	984.44
487.081	1037.44
487.299	996.44
487.517	1012.44
487.735	1091.44
487.953	1186.44
488.171	1180.44
488.389	1098.44
488.607	1077.44
488.825	1089.44
489.043	1004.44
489.261	974.44
489.479	1025.44
489.696	1047.44
489.914	1027.44
490.132	1017.44
490.35	1055.44
490.568	1157.44
490.786	1163.44
491.003	1187.44
491.221	1235.44
491.439	1280.44
491.657	1309.44
491.874	1371.44
492.092	1440.44
492.31	1507.44
492.527	1436.44
492.745	1330.44
492.963	1306.44
493.18	1285.44
493.398	1321.44
493.615	1291.44
493.833	1256.44
494.05	1227.44
494.268	1260.44
494.485	1199.44
494.703	1226.44
494.92	1200.44
495.138	1198.44
495.355	1228.44
495.573	1246.44
495.79	1263.44
496.008	1276.44
496.225	1219.44
496.442	1218.44
496.66	1216.44
496.877	1230.44
497.094	1231.44
497.312	1203.44
497.529	1185.44
497.746	1196.44
497.963	1271.44
498.181	1306.44
498.398	1248.44
498.615	1190.44
498.832	1148.44
499.049	1145.44
499.267	1166.44
499.484	1260.44
499.701	1337.44
499.918	1365.44
500.135	1437.44
500.352	1570.44
500.569	1557.44
