Data from WStandard_LampEnergy5.5LIBS07252019.E.O._I.C._HRD10591_16-08-21-920.txt Node
Date: Thu Jul 25 16:08:21 EDT 2019
User: cochatt
Spectrometer: HR+D1059
Trigger mode: 1
Integration Time (sec): 1.000000E-1
Scans to average: 1
Electric dark correction enabled: true
Nonlinearity correction enabled: false
Boxcar width: 0
XAxis mode: Wavelengths
Number of Pixels in Spectrum: 2048
>>>>>Begin Spectral Data<<<<<
223.165	-11.69
223.4	-11.69
223.635	-11.69
223.869	-14.69
224.104	-13.69
224.338	-19.69
224.573	-3.69
224.808	-8.69
225.042	-17.69
225.277	-15.69
225.511	-3.69
225.746	-4.69
225.98	12.31
226.215	13.31
226.449	9.31
226.683	21.31
226.918	35.31
227.152	22.31
227.387	25.31
227.621	43.31
227.856	44.31
228.09	36.31
228.324	61.31
228.559	49.31
228.793	152.31
229.027	385.31
229.262	387.31
229.496	379.31
229.73	407.31
229.964	447.31
230.199	440.31
230.433	465.31
230.667	487.31
230.901	549.31
231.136	491.31
231.37	461.31
231.604	448.31
231.838	482.31
232.072	470.31
232.306	440.31
232.541	484.31
232.775	576.31
233.009	616.31
233.243	563.31
233.477	526.31
233.711	559.31
233.945	561.31
234.179	551.31
234.413	602.31
234.647	649.31
234.881	615.31
235.115	562.31
235.349	555.31
235.583	559.31
235.817	540.31
236.051	548.31
236.285	568.31
236.519	608.31
236.753	661.31
236.987	683.31
237.221	672.31
237.455	732.31
237.689	736.31
237.922	684.31
238.156	664.31
238.39	665.31
238.624	708.31
238.858	721.31
239.091	778.31
239.325	820.31
239.559	952.31
239.793	967.31
240.027	1070.31
240.26	1043.31
240.494	764.31
240.728	719.31
240.961	723.31
241.195	716.31
241.429	810.31
241.662	816.31
241.896	753.31
242.13	757.31
242.363	829.31
242.597	920.31
242.83	886.31
243.064	905.31
243.298	953.31
243.531	943.31
243.765	964.31
243.998	916.31
244.232	823.31
244.465	769.31
244.699	779.31
244.932	910.31
245.166	1019.31
245.399	997.31
245.633	903.31
245.866	901.31
246.099	907.31
246.333	944.31
246.566	960.31
246.8	1064.31
247.033	1173.31
247.266	1069.31
247.5	1029.31
247.733	1068.31
247.966	1127.31
248.2	1257.31
248.433	1183.31
248.666	1226.31
248.899	1305.31
249.133	1523.31
249.366	1745.31
249.599	1455.31
249.832	1239.31
250.066	1276.31
250.299	1288.31
250.532	1207.31
250.765	1084.31
250.998	1164.31
251.231	1180.31
251.465	1234.31
251.698	1167.31
251.931	1147.31
252.164	1208.31
252.397	1256.31
252.63	1301.31
252.863	1128.31
253.096	1093.31
253.329	1159.31
253.562	1169.31
253.795	1291.31
254.028	1229.31
254.261	1176.31
254.494	1171.31
254.727	1107.31
254.96	1154.31
255.193	1246.31
255.426	1407.31
255.659	1616.31
255.892	1713.31
256.124	1394.31
256.357	1346.31
256.59	1431.31
256.823	1420.31
257.056	1407.31
257.289	1709.31
257.521	1943.31
257.754	1709.31
257.987	1566.31
258.22	1746.31
258.452	1754.31
258.685	1360.31
258.918	1359.31
259.151	1416.31
259.383	1320.31
259.616	1169.31
259.849	1220.31
260.081	1378.31
260.314	1556.31
260.547	1711.31
260.779	1722.31
261.012	1607.31
261.244	1445.31
261.477	1357.31
261.71	1418.31
261.942	1425.31
262.175	1376.31
262.407	1466.31
262.64	1373.31
262.872	1295.31
263.105	1205.31
263.337	1250.31
263.57	1311.31
263.802	1280.31
264.035	1196.31
264.267	1161.31
264.499	1121.31
264.732	1213.31
264.964	1274.31
265.197	1335.31
265.429	1395.31
265.661	1549.31
265.894	1713.31
266.126	1776.31
266.358	1591.31
266.591	1636.31
266.823	1820.31
267.055	1615.31
267.287	1589.31
267.52	1575.31
267.752	1508.31
267.984	1569.31
268.216	1607.31
268.448	1644.31
268.681	1641.31
268.913	1547.31
269.145	1433.31
269.377	1384.31
269.609	1491.31
269.841	1752.31
270.073	2015.31
270.306	2279.31
270.538	2439.31
270.77	2063.31
271.002	1727.31
271.234	1674.31
271.466	1614.31
271.698	1821.31
271.93	2229.31
272.162	2169.31
272.394	1953.31
272.626	1870.31
272.858	1667.31
273.09	1473.31
273.322	1444.31
273.553	1381.31
273.785	1414.31
274.017	1431.31
274.249	1572.31
274.481	1581.31
274.713	1463.31
274.945	1409.31
275.176	1394.31
275.408	1376.31
275.64	1372.31
275.872	1348.31
276.104	1444.31
276.335	1642.31
276.567	1898.31
276.799	1919.31
277.031	1691.31
277.262	1636.31
277.494	1673.31
277.726	1895.31
277.957	1848.31
278.189	1677.31
278.421	1549.31
278.652	1452.31
278.884	1484.31
279.115	1487.31
279.347	1497.31
279.579	1463.31
279.81	1440.31
280.042	1610.31
280.273	1745.31
280.505	1792.31
280.736	1786.31
280.968	1736.31
281.199	1512.31
281.431	1410.31
281.662	1460.31
281.894	1460.31
282.125	1497.31
282.356	1535.31
282.588	1545.31
282.819	1515.31
283.051	1673.31
283.282	1780.31
283.513	1762.31
283.745	1482.31
283.976	1403.31
284.207	1430.31
284.439	1455.31
284.67	1511.31
284.901	1473.31
285.132	1561.31
285.364	1510.31
285.595	1511.31
285.826	1501.31
286.057	1479.31
286.288	1467.31
286.52	1552.31
286.751	1699.31
286.982	1734.31
287.213	1626.31
287.444	1456.31
287.675	1455.31
287.906	1523.31
288.138	1648.31
288.369	1622.31
288.6	1492.31
288.831	1454.31
289.062	1469.31
289.293	1500.31
289.524	1529.31
289.755	1619.31
289.986	1560.31
290.217	1487.31
290.448	1487.31
290.679	1504.31
290.91	1492.31
291.141	1568.31
291.371	1623.31
291.602	1613.31
291.833	1580.31
292.064	1619.31
292.295	1603.31
292.526	1648.31
292.757	1747.31
292.987	1595.31
293.218	1547.31
293.449	1678.31
293.68	1870.31
293.91	2005.31
294.141	1868.31
294.372	1762.31
294.603	1811.31
294.833	1913.31
295.064	1824.31
295.295	1640.31
295.525	1567.31
295.756	1490.31
295.987	1399.31
296.217	1430.31
296.448	1472.31
296.679	1503.31
296.909	1471.31
297.14	1495.31
297.37	1510.31
297.601	1599.31
297.831	1718.31
298.062	1734.31
298.292	1602.31
298.523	1516.31
298.753	1519.31
298.984	1562.31
299.214	1569.31
299.445	1599.31
299.675	1613.31
299.905	1585.31
300.136	1567.31
300.366	1527.31
300.597	1483.31
300.827	1495.31
301.057	1572.31
301.288	1641.31
301.518	1637.31
301.748	1642.31
301.979	1700.31
302.209	1768.31
302.439	1892.31
302.669	1949.31
302.9	1840.31
303.13	1630.31
303.36	1632.31
303.59	1657.31
303.82	1637.31
304.051	1619.31
304.281	1667.31
304.511	1602.31
304.741	1738.31
304.971	1885.31
305.201	2062.31
305.431	1959.31
305.661	1603.31
305.891	1435.31
306.121	1407.31
306.352	1483.31
306.582	1590.31
306.812	1676.31
307.042	1815.31
307.272	1768.31
307.502	1841.31
307.731	1944.31
307.961	2161.31
308.191	1986.31
308.421	1749.31
308.651	1610.31
308.881	1567.31
309.111	1547.31
309.341	1526.31
309.571	1593.31
309.8	1585.31
310.03	1561.31
310.26	1588.31
310.49	1554.31
310.72	1613.31
310.949	1622.31
311.179	1687.31
311.409	1667.31
311.639	1617.31
311.868	1567.31
312.098	1593.31
312.328	1616.31
312.557	1555.31
312.787	1603.31
313.017	1648.31
313.246	1665.31
313.476	1635.31
313.706	1667.31
313.935	1649.31
314.165	1673.31
314.394	1762.31
314.624	1825.31
314.853	1899.31
315.083	1956.31
315.312	2078.31
315.542	1952.31
315.771	1707.31
316.001	1675.31
316.23	1772.31
316.46	1788.31
316.689	1780.31
316.919	1651.31
317.148	1571.31
317.377	1629.31
317.607	1741.31
317.836	1937.31
318.065	2027.31
318.295	1955.31
318.524	1892.31
318.753	1782.31
318.983	1785.31
319.212	1735.31
319.441	1729.31
319.67	1680.31
319.9	1725.31
320.129	1804.31
320.358	1902.31
320.587	1914.31
320.816	1930.31
321.046	1884.31
321.275	1765.31
321.504	1781.31
321.733	1927.31
321.962	1893.31
322.191	1721.31
322.42	1730.31
322.649	1693.31
322.878	1697.31
323.108	1717.31
323.337	1795.31
323.566	1776.31
323.795	1807.31
324.024	1769.31
324.253	1748.31
324.482	1744.31
324.71	1727.31
324.939	1640.31
325.168	1676.31
325.397	1711.31
325.626	1754.31
325.855	1836.31
326.084	1699.31
326.313	1739.31
326.542	1697.31
326.77	1781.31
326.999	1787.31
327.228	1745.31
327.457	1626.31
327.686	1613.31
327.914	1668.31
328.143	1703.31
328.372	1724.31
328.6	1724.31
328.829	1736.31
329.058	1647.31
329.287	1687.31
329.515	1706.31
329.744	1746.31
329.972	1834.31
330.201	1871.31
330.43	1844.31
330.658	1768.31
330.887	1785.31
331.115	1815.31
331.344	1835.31
331.572	1786.31
331.801	1798.31
332.03	1768.31
332.258	1810.31
332.486	1809.31
332.715	1856.31
332.943	1853.31
333.172	1834.31
333.4	1813.31
333.629	1943.31
333.857	1992.31
334.085	2193.31
334.314	2390.31
334.542	2725.31
334.771	2508.31
334.999	2187.31
335.227	2075.31
335.455	1972.31
335.684	1939.31
335.912	1983.31
336.14	2104.31
336.369	1999.31
336.597	1833.31
336.825	1821.31
337.053	1924.31
337.281	1969.31
337.51	2055.31
337.738	2181.31
337.966	2101.31
338.194	1928.31
338.422	1811.31
338.65	1829.31
338.878	1753.31
339.106	1753.31
339.334	1716.31
339.562	1687.31
339.79	1738.31
340.018	1815.31
340.246	1893.31
340.474	1932.31
340.702	1873.31
340.93	1868.31
341.158	1862.31
341.386	1780.31
341.614	1815.31
341.842	1780.31
342.07	1812.31
342.298	1792.31
342.526	1784.31
342.754	1758.31
342.981	1799.31
343.209	1779.31
343.437	1768.31
343.665	1793.31
343.893	1847.31
344.12	1901.31
344.348	1946.31
344.576	1869.31
344.804	1827.31
345.031	1834.31
345.259	1743.31
345.487	1748.31
345.714	1679.31
345.942	1665.31
346.17	1638.31
346.397	1695.31
346.625	1743.31
346.853	1631.31
347.08	1642.31
347.308	1614.31
347.535	1646.31
347.763	1752.31
347.99	1655.31
348.218	1577.31
348.445	1623.31
348.673	1626.31
348.9	1714.31
349.128	1767.31
349.355	1776.31
349.583	1778.31
349.81	1692.31
350.037	1573.31
350.265	1557.31
350.492	1563.31
350.72	1658.31
350.947	1676.31
351.174	1730.31
351.402	1630.31
351.629	1555.31
351.856	1523.31
352.083	1536.31
352.311	1524.31
352.538	1615.31
352.765	1659.31
352.992	1724.31
353.22	1657.31
353.447	1627.31
353.674	1613.31
353.901	1696.31
354.128	1595.31
354.355	1599.31
354.583	1693.31
354.81	1711.31
355.037	1677.31
355.264	1693.31
355.491	1662.31
355.718	1681.31
355.945	1696.31
356.172	1643.31
356.399	1588.31
356.626	1599.31
356.853	1640.31
357.08	1747.31
357.307	1934.31
357.534	1976.31
357.761	1714.31
357.988	1577.31
358.215	1541.31
358.441	1586.31
358.668	1552.31
358.895	1576.31
359.122	1660.31
359.349	1813.31
359.576	1839.31
359.802	1689.31
360.029	1607.31
360.256	1578.31
360.483	1587.31
360.709	1637.31
360.936	1714.31
361.163	1737.31
361.39	1942.31
361.616	2136.31
361.843	2033.31
362.07	1923.31
362.296	1658.31
362.523	1595.31
362.749	1612.31
362.976	1651.31
363.203	1673.31
363.429	1638.31
363.656	1574.31
363.882	1631.31
364.109	1803.31
364.335	1972.31
364.562	1851.31
364.788	1787.31
365.015	1686.31
365.241	1581.31
365.468	1617.31
365.694	1719.31
365.92	1775.31
366.147	1683.31
366.373	1576.31
366.599	1555.31
366.826	1575.31
367.052	1593.31
367.278	1618.31
367.505	1651.31
367.731	1687.31
367.957	1652.31
368.184	1705.31
368.41	1812.31
368.636	1841.31
368.862	1820.31
369.089	1853.31
369.315	1800.31
369.541	1745.31
369.767	1662.31
369.993	1649.31
370.219	1619.31
370.445	1669.31
370.672	1749.31
370.898	1870.31
371.124	1854.31
371.35	1718.31
371.576	1748.31
371.802	1842.31
372.028	1770.31
372.254	1706.31
372.48	1645.31
372.706	1648.31
372.932	1674.31
373.158	1660.31
373.384	1686.31
373.61	1708.31
373.835	1840.31
374.061	1743.31
374.287	1740.31
374.513	1715.31
374.739	1733.31
374.965	1755.31
375.191	1745.31
375.416	1751.31
375.642	1797.31
375.868	1843.31
376.094	1923.31
376.319	1843.31
376.545	1741.31
376.771	1737.31
376.997	1845.31
377.222	1829.31
377.448	1750.31
377.674	1831.31
377.899	1781.31
378.125	1876.31
378.35	1893.31
378.576	1713.31
378.802	1684.31
379.027	1696.31
379.253	1704.31
379.478	1687.31
379.704	1716.31
379.929	1722.31
380.155	1693.31
380.38	1747.31
380.606	1750.31
380.831	1743.31
381.057	1789.31
381.282	1826.31
381.507	1768.31
381.733	1857.31
381.958	1971.31
382.184	1815.31
382.409	1783.31
382.634	1824.31
382.86	1788.31
383.085	1763.31
383.31	1847.31
383.535	2008.31
383.761	2073.31
383.986	1964.31
384.211	1926.31
384.436	1898.31
384.662	1976.31
384.887	2047.31
385.112	1947.31
385.337	2003.31
385.562	1994.31
385.787	1964.31
386.013	2028.31
386.238	2074.31
386.463	2024.31
386.688	2148.31
386.913	2261.31
387.138	2247.31
387.363	2037.31
387.588	2039.31
387.813	1986.31
388.038	2003.31
388.263	2076.31
388.488	2079.31
388.713	1929.31
388.938	1848.31
389.163	1901.31
389.387	1941.31
389.612	1978.31
389.837	1996.31
390.062	1996.31
390.287	1969.31
390.512	1963.31
390.736	1979.31
390.961	1932.31
391.186	1859.31
391.411	1885.31
391.636	1914.31
391.86	1943.31
392.085	1991.31
392.31	1940.31
392.534	1975.31
392.759	1972.31
392.984	1922.31
393.208	1974.31
393.433	2022.31
393.658	2120.31
393.882	2141.31
394.107	1997.31
394.331	1968.31
394.556	1943.31
394.78	2004.31
395.005	2023.31
395.229	2101.31
395.454	2267.31
395.678	2278.31
395.903	2196.31
396.127	2091.31
396.352	2079.31
396.576	2130.31
396.801	2163.31
397.025	2129.31
397.249	2153.31
397.474	2111.31
397.698	2145.31
397.922	2154.31
398.147	2276.31
398.371	2335.31
398.595	2354.31
398.82	2254.31
399.044	2244.31
399.268	2418.31
399.492	2551.31
399.717	2620.31
399.941	2631.31
400.165	2579.31
400.389	2464.31
400.613	2475.31
400.837	2736.31
401.062	3174.31
401.286	2709.31
401.51	2431.31
401.734	2555.31
401.958	2456.31
402.182	2347.31
402.406	2229.31
402.63	2225.31
402.854	2203.31
403.078	2261.31
403.302	2291.31
403.526	2341.31
403.75	2358.31
403.974	2388.31
404.198	2326.31
404.422	2381.31
404.645	2491.31
404.869	2520.31
405.093	2294.31
405.317	2249.31
405.541	2297.31
405.765	2377.31
405.988	2318.31
406.212	2395.31
406.436	2457.31
406.66	2474.31
406.883	2476.31
407.107	2791.31
407.331	3113.31
407.555	3297.31
407.778	3038.31
408.002	2498.31
408.226	2464.31
408.449	2487.31
408.673	2381.31
408.896	2379.31
409.12	2473.31
409.344	2403.31
409.567	2323.31
409.791	2373.31
410.014	2381.31
410.238	2460.31
410.461	2643.31
410.685	2408.31
410.908	2244.31
411.132	2368.31
411.355	2318.31
411.578	2239.31
411.802	2295.31
412.025	2328.31
412.249	2256.31
412.472	2232.31
412.695	2190.31
412.919	2233.31
413.142	2214.31
413.365	2260.31
413.589	2287.31
413.812	2370.31
414.035	2491.31
414.258	2248.31
414.482	2249.31
414.705	2280.31
414.928	2226.31
415.151	2204.31
415.374	2257.31
415.597	2282.31
415.821	2305.31
416.044	2406.31
416.267	2355.31
416.49	2188.31
416.713	2127.31
416.936	2231.31
417.159	2318.31
417.382	2323.31
417.605	2161.31
417.828	2279.31
418.051	2325.31
418.274	2250.31
418.497	2175.31
418.72	2153.31
418.943	2161.31
419.166	2329.31
419.389	2437.31
419.611	2271.31
419.834	2212.31
420.057	2241.31
420.28	2183.31
420.503	2149.31
420.726	2225.31
420.948	2231.31
421.171	2164.31
421.394	2196.31
421.617	2281.31
421.839	2202.31
422.062	2156.31
422.285	2115.31
422.507	2135.31
422.73	2073.31
422.953	2052.31
423.175	2069.31
423.398	2148.31
423.621	2183.31
423.843	2133.31
424.066	2200.31
424.288	2277.31
424.511	2294.31
424.733	2226.31
424.956	2086.31
425.178	2101.31
425.401	2073.31
425.623	2120.31
425.846	2071.31
426.068	2207.31
426.291	2244.31
426.513	2233.31
426.735	2204.31
426.958	2287.31
427.18	2446.31
427.402	2291.31
427.625	2331.31
427.847	2332.31
428.069	2214.31
428.292	2090.31
428.514	2061.31
428.736	2028.31
428.958	2059.31
429.181	2095.31
429.403	2357.31
429.625	2889.31
429.847	2568.31
430.069	2126.31
430.292	2280.31
430.514	2427.31
430.736	2233.31
430.958	2337.31
431.18	2261.31
431.402	2114.31
431.624	2072.31
431.846	2050.31
432.068	2024.31
432.29	2076.31
432.512	2084.31
432.734	2139.31
432.956	2147.31
433.178	2268.31
433.4	2256.31
433.622	2253.31
433.844	2121.31
434.066	2080.31
434.287	2035.31
434.509	2147.31
434.731	2224.31
434.953	2363.31
435.175	2371.31
435.397	2199.31
435.618	2189.31
435.84	2183.31
436.062	2207.31
436.284	2200.31
436.505	2178.31
436.727	2228.31
436.949	2175.31
437.17	2119.31
437.392	2102.31
437.614	2154.31
437.835	2043.31
438.057	2206.31
438.278	2278.31
438.5	2118.31
438.721	2089.31
438.943	2079.31
439.165	2078.31
439.386	2004.31
439.608	2028.31
439.829	2093.31
440.05	2062.31
440.272	1992.31
440.493	2011.31
440.715	2096.31
440.936	2192.31
441.158	2451.31
441.379	2381.31
441.6	2292.31
441.822	2234.31
442.043	2290.31
442.264	2166.31
442.486	2047.31
442.707	2027.31
442.928	2058.31
443.149	2126.31
443.371	2288.31
443.592	2347.31
443.813	2296.31
444.034	2280.31
444.255	2305.31
444.476	2303.31
444.698	2386.31
444.919	2371.31
445.14	2418.31
445.361	2458.31
445.582	2495.31
445.803	2380.31
446.024	2250.31
446.245	2356.31
446.466	2315.31
446.687	2203.31
446.908	2173.31
447.129	2130.31
447.35	2120.31
447.571	2117.31
447.792	2025.31
448.013	2026.31
448.234	2051.31
448.455	2154.31
448.675	2170.31
448.896	2032.31
449.117	2009.31
449.338	2069.31
449.559	2132.31
449.779	2272.31
450	2510.31
450.221	2668.31
450.442	2590.31
450.662	2230.31
450.883	1989.31
451.104	1916.31
451.324	1953.31
451.545	2078.31
451.766	2040.31
451.986	1959.31
452.207	1956.31
452.428	1885.31
452.648	1862.31
452.869	1918.31
453.089	2022.31
453.31	2041.31
453.53	2129.31
453.751	2036.31
453.971	1905.31
454.192	1913.31
454.412	2082.31
454.633	2026.31
454.853	1929.31
455.073	1815.31
455.294	1811.31
455.514	1804.31
455.734	1813.31
455.955	1877.31
456.175	1846.31
456.395	1905.31
456.616	1928.31
456.836	1988.31
457.056	1909.31
457.276	1922.31
457.497	1878.31
457.717	1744.31
457.937	1826.31
458.157	1874.31
458.377	1875.31
458.598	1829.31
458.818	1872.31
459.038	2018.31
459.258	2108.31
459.478	2090.31
459.698	2031.31
459.918	2131.31
460.138	2211.31
460.358	2201.31
460.578	2193.31
460.798	2327.31
461.018	2484.31
461.238	2358.31
461.458	2263.31
461.678	2210.31
461.898	2183.31
462.118	2108.31
462.338	2228.31
462.558	2224.31
462.777	2242.31
462.997	2331.31
463.217	2508.31
463.437	2454.31
463.657	2290.31
463.876	2237.31
464.096	2225.31
464.316	2211.31
464.536	2303.31
464.755	2322.31
464.975	2360.31
465.195	2275.31
465.414	2385.31
465.634	2392.31
465.854	2252.31
466.073	2364.31
466.293	2275.31
466.512	2089.31
466.732	1986.31
466.951	2117.31
467.171	2133.31
467.391	2051.31
467.61	1970.31
467.829	2018.31
468.049	2161.31
468.268	2394.31
468.488	2261.31
468.707	2140.31
468.927	2099.31
469.146	2044.31
469.365	1988.31
469.585	2019.31
469.804	2011.31
470.023	2003.31
470.243	2079.31
470.462	2060.31
470.681	1956.31
470.901	2019.31
471.12	2062.31
471.339	2020.31
471.558	1990.31
471.777	1924.31
471.997	1932.31
472.216	2033.31
472.435	1971.31
472.654	1962.31
472.873	2067.31
473.092	2185.31
473.311	2059.31
473.53	1963.31
473.749	1934.31
473.968	2057.31
474.187	2119.31
474.406	2172.31
474.625	2107.31
474.844	2035.31
475.063	2062.31
475.282	2107.31
475.501	2049.31
475.72	2045.31
475.939	2200.31
476.158	2128.31
476.377	2062.31
476.596	2097.31
476.814	2140.31
477.033	2113.31
477.252	2193.31
477.471	2319.31
477.69	2174.31
477.908	2138.31
478.127	2295.31
478.346	2509.31
478.564	2443.31
478.783	2415.31
479.002	2483.31
479.22	2440.31
479.439	2549.31
479.658	2927.31
479.876	2829.31
480.095	2520.31
480.313	2375.31
480.532	2304.31
480.751	2298.31
480.969	2388.31
481.188	2340.31
481.406	2317.31
481.624	2240.31
481.843	2217.31
482.061	2340.31
482.28	2364.31
482.498	2377.31
482.717	2390.31
482.935	2302.31
483.153	2278.31
483.372	2266.31
483.59	2260.31
483.808	2255.31
484.027	2328.31
484.245	2475.31
484.463	2811.31
484.681	3273.31
484.9	2539.31
485.118	2391.31
485.336	2315.31
485.554	2400.31
485.772	2548.31
485.99	2513.31
486.209	2489.31
486.427	2434.31
486.645	2445.31
486.863	2387.31
487.081	2499.31
487.299	2577.31
