Data from WStandard_LampEnergy5.5LIBS07252019.E.O._I.C._HRD10591_16-09-34-921.txt Node
Date: Thu Jul 25 16:09:34 EDT 2019
User: cochatt
Spectrometer: HR+D1059
Trigger mode: 1
Integration Time (sec): 1.000000E-1
Scans to average: 1
Electric dark correction enabled: true
Nonlinearity correction enabled: false
Boxcar width: 0
XAxis mode: Wavelengths
Number of Pixels in Spectrum: 2048
>>>>>Begin Spectral Data<<<<<
223.165	-12.62
223.4	-12.62
223.635	-12.62
223.869	-3.62
224.104	-22.62
224.338	-14.62
224.573	-16.62
224.808	-20.62
225.042	-3.62
225.277	1.38
225.511	-1.62
225.746	0.38
225.98	-2.62
226.215	2.38
226.449	23.38
226.683	22.38
226.918	27.38
227.152	21.38
227.387	31.38
227.621	34.38
227.856	40.38
228.09	51.38
228.324	41.38
228.559	36.38
228.793	126.38
229.027	359.38
229.262	344.38
229.496	355.38
229.73	379.38
229.964	411.38
230.199	435.38
230.433	447.38
230.667	509.38
230.901	502.38
231.136	448.38
231.37	420.38
231.604	430.38
231.838	452.38
232.072	456.38
232.306	434.38
232.541	470.38
232.775	525.38
233.009	601.38
233.243	571.38
233.477	494.38
233.711	514.38
233.945	512.38
234.179	508.38
234.413	553.38
234.647	602.38
234.881	551.38
235.115	525.38
235.349	530.38
235.583	546.38
235.817	555.38
236.051	502.38
236.285	512.38
236.519	566.38
236.753	626.38
236.987	641.38
237.221	633.38
237.455	702.38
237.689	698.38
237.922	639.38
238.156	611.38
238.39	619.38
238.624	700.38
238.858	721.38
239.091	725.38
239.325	765.38
239.559	889.38
239.793	907.38
240.027	1006.38
240.26	986.38
240.494	734.38
240.728	670.38
240.961	710.38
241.195	706.38
241.429	753.38
241.662	779.38
241.896	711.38
242.13	724.38
242.363	815.38
242.597	862.38
242.83	841.38
243.064	826.38
243.298	902.38
243.531	890.38
243.765	881.38
243.998	903.38
244.232	763.38
244.465	757.38
244.699	742.38
244.932	845.38
245.166	978.38
245.399	913.38
245.633	886.38
245.866	871.38
246.099	877.38
246.333	915.38
246.566	939.38
246.8	978.38
247.033	1111.38
247.266	1022.38
247.5	991.38
247.733	994.38
247.966	1038.38
248.2	1144.38
248.433	1120.38
248.666	1166.38
248.899	1265.38
249.133	1420.38
249.366	1641.38
249.599	1351.38
249.832	1164.38
250.066	1231.38
250.299	1216.38
250.532	1149.38
250.765	989.38
250.998	1070.38
251.231	1137.38
251.465	1175.38
251.698	1130.38
251.931	1113.38
252.164	1138.38
252.397	1188.38
252.63	1196.38
252.863	1053.38
253.096	1029.38
253.329	1081.38
253.562	1124.38
253.795	1218.38
254.028	1209.38
254.261	1128.38
254.494	1124.38
254.727	1037.38
254.96	1075.38
255.193	1183.38
255.426	1367.38
255.659	1544.38
255.892	1588.38
256.124	1310.38
256.357	1259.38
256.59	1336.38
256.823	1365.38
257.056	1314.38
257.289	1556.38
257.521	1810.38
257.754	1623.38
257.987	1491.38
258.22	1643.38
258.452	1639.38
258.685	1309.38
258.918	1294.38
259.151	1292.38
259.383	1254.38
259.616	1118.38
259.849	1159.38
260.081	1320.38
260.314	1474.38
260.547	1622.38
260.779	1617.38
261.012	1500.38
261.244	1344.38
261.477	1270.38
261.71	1344.38
261.942	1367.38
262.175	1278.38
262.407	1398.38
262.64	1314.38
262.872	1216.38
263.105	1153.38
263.337	1190.38
263.57	1243.38
263.802	1229.38
264.035	1170.38
264.267	1103.38
264.499	1072.38
264.732	1162.38
264.964	1212.38
265.197	1262.38
265.429	1326.38
265.661	1488.38
265.894	1612.38
266.126	1679.38
266.358	1490.38
266.591	1575.38
266.823	1735.38
267.055	1543.38
267.287	1504.38
267.52	1493.38
267.752	1428.38
267.984	1451.38
268.216	1542.38
268.448	1575.38
268.681	1560.38
268.913	1453.38
269.145	1356.38
269.377	1294.38
269.609	1404.38
269.841	1632.38
270.073	1915.38
270.306	2140.38
270.538	2308.38
270.77	1987.38
271.002	1624.38
271.234	1512.38
271.466	1544.38
271.698	1685.38
271.93	2058.38
272.162	2111.38
272.394	1888.38
272.626	1818.38
272.858	1601.38
273.09	1397.38
273.322	1371.38
273.553	1294.38
273.785	1326.38
274.017	1359.38
274.249	1488.38
274.481	1496.38
274.713	1336.38
274.945	1334.38
275.176	1375.38
275.408	1350.38
275.64	1302.38
275.872	1255.38
276.104	1379.38
276.335	1606.38
276.567	1800.38
276.799	1812.38
277.031	1605.38
277.262	1510.38
277.494	1559.38
277.726	1738.38
277.957	1722.38
278.189	1603.38
278.421	1449.38
278.652	1396.38
278.884	1417.38
279.115	1428.38
279.347	1421.38
279.579	1389.38
279.81	1387.38
280.042	1526.38
280.273	1660.38
280.505	1672.38
280.736	1717.38
280.968	1631.38
281.199	1431.38
281.431	1371.38
281.662	1356.38
281.894	1384.38
282.125	1403.38
282.356	1464.38
282.588	1486.38
282.819	1474.38
283.051	1583.38
283.282	1744.38
283.513	1658.38
283.745	1447.38
283.976	1356.38
284.207	1342.38
284.439	1405.38
284.67	1387.38
284.901	1458.38
285.132	1499.38
285.364	1431.38
285.595	1468.38
285.826	1460.38
286.057	1439.38
286.288	1411.38
286.52	1493.38
286.751	1591.38
286.982	1641.38
287.213	1519.38
287.444	1381.38
287.675	1365.38
287.906	1448.38
288.138	1544.38
288.369	1493.38
288.6	1447.38
288.831	1388.38
289.062	1370.38
289.293	1439.38
289.524	1438.38
289.755	1479.38
289.986	1506.38
290.217	1354.38
290.448	1370.38
290.679	1415.38
290.91	1454.38
291.141	1488.38
291.371	1584.38
291.602	1546.38
291.833	1543.38
292.064	1578.38
292.295	1504.38
292.526	1550.38
292.757	1678.38
292.987	1609.38
293.218	1473.38
293.449	1602.38
293.68	1755.38
293.91	1867.38
294.141	1769.38
294.372	1653.38
294.603	1739.38
294.833	1856.38
295.064	1743.38
295.295	1560.38
295.525	1566.38
295.756	1408.38
295.987	1369.38
296.217	1374.38
296.448	1394.38
296.679	1421.38
296.909	1418.38
297.14	1379.38
297.37	1450.38
297.601	1508.38
297.831	1607.38
298.062	1646.38
298.292	1503.38
298.523	1426.38
298.753	1462.38
298.984	1462.38
299.214	1459.38
299.445	1515.38
299.675	1531.38
299.905	1509.38
300.136	1472.38
300.366	1424.38
300.597	1396.38
300.827	1433.38
301.057	1471.38
301.288	1575.38
301.518	1532.38
301.748	1568.38
301.979	1675.38
302.209	1688.38
302.439	1772.38
302.669	1893.38
302.9	1746.38
303.13	1572.38
303.36	1538.38
303.59	1579.38
303.82	1569.38
304.051	1543.38
304.281	1528.38
304.511	1559.38
304.741	1666.38
304.971	1803.38
305.201	1986.38
305.431	1853.38
305.661	1507.38
305.891	1390.38
306.121	1363.38
306.352	1416.38
306.582	1494.38
306.812	1599.38
307.042	1716.38
307.272	1691.38
307.502	1736.38
307.731	1850.38
307.961	2086.38
308.191	1938.38
308.421	1656.38
308.651	1515.38
308.881	1514.38
309.111	1497.38
309.341	1466.38
309.571	1509.38
309.8	1505.38
310.03	1495.38
310.26	1477.38
310.49	1463.38
310.72	1511.38
310.949	1590.38
311.179	1603.38
311.409	1571.38
311.639	1550.38
311.868	1477.38
312.098	1555.38
312.328	1518.38
312.557	1530.38
312.787	1551.38
313.017	1558.38
313.246	1580.38
313.476	1561.38
313.706	1612.38
313.935	1584.38
314.165	1610.38
314.394	1656.38
314.624	1699.38
314.853	1823.38
315.083	1891.38
315.312	1986.38
315.542	1868.38
315.771	1614.38
316.001	1593.38
316.23	1722.38
316.46	1698.38
316.689	1671.38
316.919	1587.38
317.148	1576.38
317.377	1568.38
317.607	1665.38
317.836	1859.38
318.065	1914.38
318.295	1854.38
318.524	1752.38
318.753	1658.38
318.983	1694.38
319.212	1651.38
319.441	1601.38
319.67	1570.38
319.9	1660.38
320.129	1712.38
320.358	1796.38
320.587	1835.38
320.816	1829.38
321.046	1808.38
321.275	1711.38
321.504	1684.38
321.733	1859.38
321.962	1798.38
322.191	1661.38
322.42	1639.38
322.649	1620.38
322.878	1626.38
323.108	1634.38
323.337	1729.38
323.566	1694.38
323.795	1698.38
324.024	1673.38
324.253	1611.38
324.482	1686.38
324.71	1633.38
324.939	1515.38
325.168	1558.38
325.397	1643.38
325.626	1679.38
325.855	1692.38
326.084	1635.38
326.313	1652.38
326.542	1698.38
326.77	1706.38
326.999	1713.38
327.228	1690.38
327.457	1566.38
327.686	1562.38
327.914	1603.38
328.143	1651.38
328.372	1638.38
328.6	1662.38
328.829	1648.38
329.058	1611.38
329.287	1602.38
329.515	1636.38
329.744	1706.38
329.972	1745.38
330.201	1834.38
330.43	1767.38
330.658	1727.38
330.887	1738.38
331.115	1760.38
331.344	1741.38
331.572	1714.38
331.801	1706.38
332.03	1722.38
332.258	1726.38
332.486	1772.38
332.715	1792.38
332.943	1815.38
333.172	1714.38
333.4	1764.38
333.629	1790.38
333.857	1915.38
334.085	2012.38
334.314	2302.38
334.542	2569.38
334.771	2387.38
334.999	2071.38
335.227	1955.38
335.455	1871.38
335.684	1850.38
335.912	1886.38
336.14	2003.38
336.369	1897.38
336.597	1735.38
336.825	1790.38
337.053	1767.38
337.281	1868.38
337.51	1994.38
337.738	2060.38
337.966	2059.38
338.194	1774.38
338.422	1766.38
338.65	1696.38
338.878	1710.38
339.106	1702.38
339.334	1658.38
339.562	1639.38
339.79	1658.38
340.018	1783.38
340.246	1817.38
340.474	1833.38
340.702	1780.38
340.93	1818.38
341.158	1758.38
341.386	1712.38
341.614	1746.38
341.842	1721.38
342.07	1739.38
342.298	1737.38
342.526	1762.38
342.754	1687.38
342.981	1702.38
343.209	1676.38
343.437	1666.38
343.665	1681.38
343.893	1734.38
344.12	1822.38
344.348	1825.38
344.576	1768.38
344.804	1733.38
345.031	1712.38
345.259	1753.38
345.487	1694.38
345.714	1635.38
345.942	1578.38
346.17	1571.38
346.397	1642.38
346.625	1638.38
346.853	1535.38
347.08	1566.38
347.308	1564.38
347.535	1595.38
347.763	1654.38
347.99	1634.38
348.218	1562.38
348.445	1523.38
348.673	1573.38
348.9	1645.38
349.128	1674.38
349.355	1740.38
349.583	1737.38
349.81	1591.38
350.037	1505.38
350.265	1478.38
350.492	1500.38
350.72	1548.38
350.947	1585.38
351.174	1633.38
351.402	1619.38
351.629	1500.38
351.856	1499.38
352.083	1491.38
352.311	1511.38
352.538	1551.38
352.765	1623.38
352.992	1638.38
353.22	1572.38
353.447	1504.38
353.674	1600.38
353.901	1560.38
354.128	1583.38
354.355	1499.38
354.583	1598.38
354.81	1652.38
355.037	1640.38
355.264	1632.38
355.491	1590.38
355.718	1606.38
355.945	1578.38
356.172	1607.38
356.399	1540.38
356.626	1526.38
356.853	1565.38
357.08	1718.38
357.307	1926.38
357.534	1845.38
357.761	1684.38
357.988	1528.38
358.215	1484.38
358.441	1548.38
358.668	1499.38
358.895	1523.38
359.122	1620.38
359.349	1803.38
359.576	1748.38
359.802	1618.38
360.029	1577.38
360.256	1524.38
360.483	1560.38
360.709	1590.38
360.936	1618.38
361.163	1676.38
361.39	1844.38
361.616	1941.38
361.843	1890.38
362.07	1843.38
362.296	1596.38
362.523	1561.38
362.749	1563.38
362.976	1641.38
363.203	1631.38
363.429	1578.38
363.656	1529.38
363.882	1568.38
364.109	1751.38
364.335	1883.38
364.562	1767.38
364.788	1710.38
365.015	1643.38
365.241	1546.38
365.468	1564.38
365.694	1635.38
365.92	1705.38
366.147	1656.38
366.373	1562.38
366.599	1564.38
366.826	1530.38
367.052	1553.38
367.278	1556.38
367.505	1589.38
367.731	1584.38
367.957	1597.38
368.184	1661.38
368.41	1758.38
368.636	1735.38
368.862	1752.38
369.089	1796.38
369.315	1699.38
369.541	1601.38
369.767	1602.38
369.993	1547.38
370.219	1553.38
370.445	1609.38
370.672	1673.38
370.898	1762.38
371.124	1777.38
371.35	1672.38
371.576	1719.38
371.802	1800.38
372.028	1674.38
372.254	1629.38
372.48	1605.38
372.706	1562.38
372.932	1605.38
373.158	1633.38
373.384	1631.38
373.61	1658.38
373.835	1733.38
374.061	1700.38
374.287	1652.38
374.513	1610.38
374.739	1677.38
374.965	1683.38
375.191	1751.38
375.416	1706.38
375.642	1736.38
375.868	1775.38
376.094	1850.38
376.319	1762.38
376.545	1676.38
376.771	1648.38
376.997	1783.38
377.222	1713.38
377.448	1681.38
377.674	1697.38
377.899	1728.38
378.125	1849.38
378.35	1819.38
378.576	1674.38
378.802	1636.38
379.027	1611.38
379.253	1622.38
379.478	1617.38
379.704	1628.38
379.929	1623.38
380.155	1642.38
380.38	1700.38
380.606	1671.38
380.831	1676.38
381.057	1766.38
381.282	1746.38
381.507	1665.38
381.733	1799.38
381.958	1900.38
382.184	1765.38
382.409	1707.38
382.634	1706.38
382.86	1722.38
383.085	1726.38
383.31	1762.38
383.535	1915.38
383.761	1985.38
383.986	1926.38
384.211	1848.38
384.436	1833.38
384.662	1904.38
384.887	2018.38
385.112	1894.38
385.337	1931.38
385.562	1864.38
385.787	1910.38
386.013	1946.38
386.238	1923.38
386.463	1912.38
386.688	2041.38
386.913	2131.38
387.138	2109.38
387.363	1930.38
387.588	1944.38
387.813	1948.38
388.038	1945.38
388.263	2021.38
388.488	1973.38
388.713	1848.38
388.938	1839.38
389.163	1847.38
389.387	1844.38
389.612	1844.38
389.837	1879.38
390.062	1922.38
390.287	1886.38
390.512	1918.38
390.736	1816.38
390.961	1829.38
391.186	1804.38
391.411	1843.38
391.636	1871.38
391.86	1917.38
392.085	1914.38
392.31	1886.38
392.534	1906.38
392.759	1920.38
392.984	1882.38
393.208	1902.38
393.433	1942.38
393.658	1988.38
393.882	2067.38
394.107	1937.38
394.331	1882.38
394.556	1900.38
394.78	1945.38
395.005	1972.38
395.229	1975.38
395.454	2123.38
395.678	2195.38
395.903	2092.38
396.127	1974.38
396.352	1991.38
396.576	2033.38
396.801	2060.38
397.025	2062.38
397.249	2039.38
397.474	2083.38
397.698	2002.38
397.922	2102.38
398.147	2148.38
398.371	2275.38
398.595	2187.38
398.82	2192.38
399.044	2230.38
399.268	2269.38
399.492	2426.38
399.717	2536.38
399.941	2601.38
400.165	2504.38
400.389	2419.38
400.613	2400.38
400.837	2623.38
401.062	3051.38
401.286	2601.38
401.51	2320.38
401.734	2468.38
401.958	2392.38
402.182	2274.38
402.406	2188.38
402.63	2130.38
402.854	2139.38
403.078	2207.38
403.302	2234.38
403.526	2230.38
403.75	2215.38
403.974	2317.38
404.198	2231.38
404.422	2363.38
404.645	2460.38
404.869	2375.38
405.093	2208.38
405.317	2172.38
405.541	2217.38
405.765	2276.38
405.988	2246.38
406.212	2286.38
406.436	2391.38
406.66	2404.38
406.883	2402.38
407.107	2725.38
407.331	2916.38
407.555	3136.38
407.778	2920.38
408.002	2488.38
408.226	2355.38
408.449	2408.38
408.673	2270.38
408.896	2301.38
409.12	2324.38
409.344	2288.38
409.567	2227.38
409.791	2290.38
410.014	2296.38
410.238	2427.38
410.461	2594.38
410.685	2299.38
410.908	2186.38
411.132	2267.38
411.355	2246.38
411.578	2172.38
411.802	2167.38
412.025	2235.38
412.249	2194.38
412.472	2181.38
412.695	2108.38
412.919	2154.38
413.142	2148.38
413.365	2161.38
413.589	2192.38
413.812	2260.38
414.035	2351.38
414.258	2167.38
414.482	2135.38
414.705	2143.38
414.928	2086.38
415.151	2056.38
415.374	2136.38
415.597	2234.38
415.821	2260.38
416.044	2310.38
416.267	2320.38
416.49	2089.38
416.713	2036.38
416.936	2140.38
417.159	2202.38
417.382	2205.38
417.605	2085.38
417.828	2167.38
418.051	2218.38
418.274	2115.38
418.497	2054.38
418.72	2094.38
418.943	2045.38
419.166	2183.38
419.389	2352.38
419.611	2191.38
419.834	2128.38
420.057	2161.38
420.28	2115.38
420.503	2056.38
420.726	2090.38
420.948	2147.38
421.171	2015.38
421.394	2097.38
421.617	2126.38
421.839	2096.38
422.062	2126.38
422.285	2027.38
422.507	2034.38
422.73	1986.38
422.953	1959.38
423.175	1972.38
423.398	2042.38
423.621	2082.38
423.843	2080.38
424.066	2170.38
424.288	2160.38
424.511	2161.38
424.733	2148.38
424.956	1950.38
425.178	1952.38
425.401	2026.38
425.623	2024.38
425.846	1985.38
426.068	2088.38
426.291	2151.38
426.513	2124.38
426.735	2114.38
426.958	2170.38
427.18	2378.38
427.402	2123.38
427.625	2199.38
427.847	2252.38
428.069	2081.38
428.292	2023.38
428.514	1958.38
428.736	1958.38
428.958	1969.38
429.181	2000.38
429.403	2296.38
429.625	2846.38
429.847	2389.38
430.069	2008.38
430.292	2242.38
430.514	2316.38
430.736	2156.38
430.958	2234.38
431.18	2144.38
431.402	2002.38
431.624	1977.38
431.846	1999.38
432.068	1958.38
432.29	1992.38
432.512	2002.38
432.734	2040.38
432.956	2106.38
433.178	2168.38
433.4	2170.38
433.622	2158.38
433.844	2052.38
434.066	1946.38
434.287	2015.38
434.509	2070.38
434.731	2170.38
434.953	2312.38
435.175	2243.38
435.397	2122.38
435.618	2131.38
435.84	2103.38
436.062	2094.38
436.284	2127.38
436.505	2138.38
436.727	2137.38
436.949	2116.38
437.17	1982.38
437.392	2032.38
437.614	1989.38
437.835	1988.38
438.057	2116.38
438.278	2153.38
438.5	2046.38
438.721	2010.38
438.943	1988.38
439.165	2008.38
439.386	1934.38
439.608	1978.38
439.829	2001.38
440.05	2009.38
440.272	1957.38
440.493	1921.38
440.715	1940.38
440.936	2123.38
441.158	2355.38
441.379	2246.38
441.6	2182.38
441.822	2139.38
442.043	2098.38
442.264	2099.38
442.486	1980.38
442.707	1985.38
442.928	1995.38
443.149	2073.38
443.371	2187.38
443.592	2254.38
443.813	2211.38
444.034	2185.38
444.255	2163.38
444.476	2236.38
444.698	2299.38
444.919	2202.38
445.14	2372.38
445.361	2360.38
445.582	2388.38
445.803	2278.38
446.024	2201.38
446.245	2266.38
446.466	2211.38
446.687	2080.38
446.908	2082.38
447.129	2039.38
447.35	2052.38
447.571	2050.38
447.792	1965.38
448.013	1954.38
448.234	1969.38
448.455	2045.38
448.675	2051.38
448.896	1918.38
449.117	1884.38
449.338	1952.38
449.559	2022.38
449.779	2127.38
450	2349.38
450.221	2566.38
450.442	2475.38
450.662	2118.38
450.883	1905.38
451.104	1904.38
451.324	1872.38
451.545	1956.38
451.766	1925.38
451.986	1849.38
452.207	1854.38
452.428	1800.38
452.648	1745.38
452.869	1824.38
453.089	1961.38
453.31	1986.38
453.53	2025.38
453.751	1922.38
453.971	1824.38
454.192	1844.38
454.412	2021.38
454.633	1902.38
454.853	1881.38
455.073	1760.38
455.294	1752.38
455.514	1754.38
455.734	1751.38
455.955	1811.38
456.175	1788.38
456.395	1767.38
456.616	1825.38
456.836	1890.38
457.056	1848.38
457.276	1793.38
457.497	1767.38
457.717	1743.38
457.937	1767.38
458.157	1823.38
458.377	1801.38
458.598	1782.38
458.818	1777.38
459.038	1926.38
459.258	2000.38
459.478	2024.38
459.698	1919.38
459.918	1980.38
460.138	2084.38
460.358	2166.38
460.578	2124.38
460.798	2242.38
461.018	2351.38
461.238	2227.38
461.458	2121.38
461.678	2169.38
461.898	2086.38
462.118	2039.38
462.338	2160.38
462.558	2145.38
462.777	2116.38
462.997	2239.38
463.217	2350.38
463.437	2339.38
463.657	2161.38
463.876	2123.38
464.096	2151.38
464.316	2119.38
464.536	2203.38
464.755	2247.38
464.975	2270.38
465.195	2198.38
465.414	2273.38
465.634	2282.38
465.854	2114.38
466.073	2260.38
466.293	2195.38
466.512	1932.38
466.732	1938.38
466.951	2004.38
467.171	2003.38
467.391	1911.38
467.61	1887.38
467.829	1913.38
468.049	2055.38
468.268	2315.38
468.488	2187.38
468.707	2066.38
468.927	1998.38
469.146	1956.38
469.365	1907.38
469.585	1915.38
469.804	1929.38
470.023	1932.38
470.243	1991.38
470.462	1975.38
470.681	1897.38
470.901	1964.38
471.12	1925.38
471.339	1927.38
471.558	1861.38
471.777	1832.38
471.997	1931.38
472.216	1887.38
472.435	1848.38
472.654	1914.38
472.873	1980.38
473.092	2104.38
473.311	1982.38
473.53	1896.38
473.749	1860.38
473.968	1946.38
474.187	2004.38
474.406	2138.38
474.625	2006.38
474.844	1982.38
475.063	1934.38
475.282	2031.38
475.501	1963.38
475.72	1976.38
475.939	2075.38
476.158	2059.38
476.377	2007.38
476.596	2010.38
476.814	2044.38
477.033	2051.38
477.252	2161.38
477.471	2172.38
477.69	2085.38
477.908	2047.38
478.127	2169.38
478.346	2375.38
478.564	2344.38
478.783	2338.38
479.002	2368.38
479.22	2387.38
479.439	2387.38
479.658	2759.38
479.876	2694.38
480.095	2400.38
480.313	2275.38
480.532	2192.38
480.751	2232.38
480.969	2261.38
481.188	2236.38
481.406	2208.38
481.624	2161.38
481.843	2139.38
482.061	2203.38
482.28	2250.38
482.498	2322.38
482.717	2282.38
482.935	2185.38
483.153	2196.38
483.372	2151.38
483.59	2176.38
483.808	2208.38
484.027	2222.38
484.245	2380.38
484.463	2627.38
484.681	3072.38
484.9	2433.38
485.118	2272.38
485.336	2214.38
485.554	2321.38
485.772	2375.38
485.99	2307.38
486.209	2377.38
486.427	2335.38
486.645	2364.38
486.863	2283.38
487.081	2388.38
487.299	2446.38
487.517	2412.38
