Data from WStandard_LampEnergy8_LIBS07252019.E.O._I.C._HRD10591_15-59-48-930.txt Node
Date: Thu Jul 25 15:59:48 EDT 2019
User: cochatt
Spectrometer: HR+D1059
Trigger mode: 1
Integration Time (sec): 1.000000E-1
Scans to average: 1
Electric dark correction enabled: true
Nonlinearity correction enabled: false
Boxcar width: 0
XAxis mode: Wavelengths
Number of Pixels in Spectrum: 2048
>>>>>Begin Spectral Data<<<<<
223.165	-27.75
223.4	-27.75
223.635	-27.75
223.869	-8.75
224.104	-23.75
224.338	-16.75
224.573	-14.75
224.808	-5.75
225.042	-2.75
225.277	2.25
225.511	-13.75
225.746	0.25
225.98	29.25
226.215	24.25
226.449	7.25
226.683	9.25
226.918	5.25
227.152	36.25
227.387	43.25
227.621	36.25
227.856	44.25
228.09	41.25
228.324	36.25
228.559	69.25
228.793	89.25
229.027	193.25
229.262	210.25
229.496	211.25
229.73	199.25
229.964	227.25
230.199	262.25
230.433	257.25
230.667	267.25
230.901	280.25
231.136	259.25
231.37	246.25
231.604	252.25
231.838	262.25
232.072	255.25
232.306	239.25
232.541	286.25
232.775	308.25
233.009	344.25
233.243	300.25
233.477	293.25
233.711	303.25
233.945	313.25
234.179	290.25
234.413	320.25
234.647	346.25
234.881	306.25
235.115	294.25
235.349	287.25
235.583	304.25
235.817	302.25
236.051	281.25
236.285	298.25
236.519	327.25
236.753	322.25
236.987	344.25
237.221	354.25
237.455	368.25
237.689	363.25
237.922	358.25
238.156	367.25
238.39	362.25
238.624	350.25
238.858	370.25
239.091	392.25
239.325	422.25
239.559	449.25
239.793	474.25
240.027	494.25
240.26	497.25
240.494	396.25
240.728	370.25
240.961	355.25
241.195	372.25
241.429	396.25
241.662	425.25
241.896	396.25
242.13	377.25
242.363	440.25
242.597	453.25
242.83	446.25
243.064	470.25
243.298	471.25
243.531	470.25
243.765	446.25
243.998	437.25
244.232	411.25
244.465	389.25
244.699	397.25
244.932	452.25
245.166	511.25
245.399	480.25
245.633	442.25
245.866	458.25
246.099	485.25
246.333	483.25
246.566	499.25
246.8	527.25
247.033	570.25
247.266	530.25
247.5	530.25
247.733	542.25
247.966	566.25
248.2	611.25
248.433	585.25
248.666	587.25
248.899	660.25
249.133	742.25
249.366	790.25
249.599	676.25
249.832	586.25
250.066	602.25
250.299	604.25
250.532	576.25
250.765	560.25
250.998	560.25
251.231	559.25
251.465	594.25
251.698	569.25
251.931	607.25
252.164	600.25
252.397	641.25
252.63	588.25
252.863	552.25
253.096	540.25
253.329	576.25
253.562	591.25
253.795	626.25
254.028	594.25
254.261	579.25
254.494	563.25
254.727	561.25
254.96	599.25
255.193	636.25
255.426	712.25
255.659	794.25
255.892	747.25
256.124	642.25
256.357	634.25
256.59	671.25
256.823	674.25
257.056	680.25
257.289	827.25
257.521	882.25
257.754	803.25
257.987	778.25
258.22	828.25
258.452	784.25
258.685	693.25
258.918	679.25
259.151	677.25
259.383	631.25
259.616	575.25
259.849	597.25
260.081	703.25
260.314	771.25
260.547	811.25
260.779	790.25
261.012	767.25
261.244	706.25
261.477	688.25
261.71	665.25
261.942	673.25
262.175	668.25
262.407	688.25
262.64	652.25
262.872	616.25
263.105	602.25
263.337	634.25
263.57	649.25
263.802	607.25
264.035	601.25
264.267	578.25
264.499	563.25
264.732	624.25
264.964	639.25
265.197	650.25
265.429	702.25
265.661	776.25
265.894	827.25
266.126	838.25
266.358	788.25
266.591	805.25
266.823	826.25
267.055	772.25
267.287	785.25
267.52	747.25
267.752	744.25
267.984	740.25
268.216	803.25
268.448	810.25
268.681	778.25
268.913	714.25
269.145	708.25
269.377	704.25
269.609	737.25
269.841	868.25
270.073	997.25
270.306	1084.25
270.538	1098.25
270.77	961.25
271.002	840.25
271.234	798.25
271.466	790.25
271.698	912.25
271.93	1042.25
272.162	1028.25
272.394	936.25
272.626	878.25
272.858	788.25
273.09	688.25
273.322	715.25
273.553	669.25
273.785	658.25
274.017	720.25
274.249	774.25
274.481	711.25
274.713	681.25
274.945	702.25
275.176	704.25
275.408	686.25
275.64	686.25
275.872	672.25
276.104	742.25
276.335	828.25
276.567	884.25
276.799	894.25
277.031	828.25
277.262	800.25
277.494	850.25
277.726	886.25
277.957	865.25
278.189	784.25
278.421	736.25
278.652	725.25
278.884	735.25
279.115	733.25
279.347	731.25
279.579	709.25
279.81	738.25
280.042	806.25
280.273	860.25
280.505	864.25
280.736	863.25
280.968	794.25
281.199	720.25
281.431	699.25
281.662	672.25
281.894	730.25
282.125	747.25
282.356	765.25
282.588	756.25
282.819	750.25
283.051	826.25
283.282	880.25
283.513	856.25
283.745	736.25
283.976	716.25
284.207	740.25
284.439	729.25
284.67	770.25
284.901	784.25
285.132	766.25
285.364	772.25
285.595	774.25
285.826	746.25
286.057	762.25
286.288	759.25
286.52	791.25
286.751	856.25
286.982	859.25
287.213	785.25
287.444	754.25
287.675	754.25
287.906	786.25
288.138	841.25
288.369	777.25
288.6	764.25
288.831	711.25
289.062	742.25
289.293	782.25
289.524	762.25
289.755	794.25
289.986	783.25
290.217	729.25
290.448	747.25
290.679	773.25
290.91	768.25
291.141	808.25
291.371	844.25
291.602	822.25
291.833	819.25
292.064	811.25
292.295	809.25
292.526	819.25
292.757	867.25
292.987	831.25
293.218	799.25
293.449	880.25
293.68	966.25
293.91	999.25
294.141	923.25
294.372	942.25
294.603	949.25
294.833	965.25
295.064	915.25
295.295	811.25
295.525	802.25
295.756	751.25
295.987	769.25
296.217	742.25
296.448	776.25
296.679	787.25
296.909	768.25
297.14	758.25
297.37	798.25
297.601	866.25
297.831	892.25
298.062	853.25
298.292	818.25
298.523	758.25
298.753	783.25
298.984	772.25
299.214	803.25
299.445	796.25
299.675	846.25
299.905	854.25
300.136	805.25
300.366	784.25
300.597	766.25
300.827	776.25
301.057	783.25
301.288	826.25
301.518	828.25
301.748	887.25
301.979	922.25
302.209	922.25
302.439	944.25
302.669	982.25
302.9	916.25
303.13	835.25
303.36	858.25
303.59	844.25
303.82	856.25
304.051	850.25
304.281	883.25
304.511	887.25
304.741	951.25
304.971	1022.25
305.201	1069.25
305.431	949.25
305.661	811.25
305.891	760.25
306.121	757.25
306.352	803.25
306.582	843.25
306.812	911.25
307.042	962.25
307.272	990.25
307.502	984.25
307.731	1057.25
307.961	1052.25
308.191	966.25
308.421	870.25
308.651	822.25
308.881	839.25
309.111	832.25
309.341	814.25
309.571	855.25
309.8	859.25
310.03	825.25
310.26	817.25
310.49	798.25
310.72	868.25
310.949	878.25
311.179	882.25
311.409	885.25
311.639	853.25
311.868	816.25
312.098	844.25
312.328	837.25
312.557	850.25
312.787	865.25
313.017	872.25
313.246	888.25
313.476	870.25
313.706	908.25
313.935	900.25
314.165	892.25
314.394	932.25
314.624	955.25
314.853	1007.25
315.083	1055.25
315.312	1061.25
315.542	1004.25
315.771	926.25
316.001	892.25
316.23	943.25
316.46	948.25
316.689	939.25
316.919	868.25
317.148	834.25
317.377	866.25
317.607	964.25
317.836	1077.25
318.065	1067.25
318.295	1004.25
318.524	966.25
318.753	964.25
318.983	930.25
319.212	907.25
319.441	897.25
319.67	914.25
319.9	909.25
320.129	1007.25
320.358	1027.25
320.587	1046.25
320.816	1017.25
321.046	1013.25
321.275	948.25
321.504	989.25
321.733	1048.25
321.962	1000.25
322.191	919.25
322.42	926.25
322.649	897.25
322.878	935.25
323.108	938.25
323.337	970.25
323.566	979.25
323.795	952.25
324.024	952.25
324.253	929.25
324.482	890.25
324.71	914.25
324.939	893.25
325.168	902.25
325.397	952.25
325.626	969.25
325.855	963.25
326.084	923.25
326.313	930.25
326.542	948.25
326.77	979.25
326.999	962.25
327.228	908.25
327.457	883.25
327.686	890.25
327.914	902.25
328.143	910.25
328.372	943.25
328.6	936.25
328.829	889.25
329.058	920.25
329.287	916.25
329.515	923.25
329.744	965.25
329.972	1021.25
330.201	1028.25
330.43	1022.25
330.658	998.25
330.887	1014.25
331.115	1008.25
331.344	1009.25
331.572	990.25
331.801	976.25
332.03	977.25
332.258	977.25
332.486	1008.25
332.715	1008.25
332.943	993.25
333.172	973.25
333.4	1004.25
333.629	1044.25
333.857	1108.25
334.085	1214.25
334.314	1346.25
334.542	1430.25
334.771	1290.25
334.999	1184.25
335.227	1102.25
335.455	1078.25
335.684	1064.25
335.912	1074.25
336.14	1098.25
336.369	1057.25
336.597	1023.25
336.825	985.25
337.053	1041.25
337.281	1089.25
337.51	1127.25
337.738	1185.25
337.966	1107.25
338.194	996.25
338.422	976.25
338.65	969.25
338.878	964.25
339.106	937.25
339.334	940.25
339.562	938.25
339.79	924.25
340.018	1026.25
340.246	1047.25
340.474	1020.25
340.702	1027.25
340.93	1026.25
341.158	1035.25
341.386	976.25
341.614	987.25
341.842	993.25
342.07	1010.25
342.298	1014.25
342.526	977.25
342.754	970.25
342.981	983.25
343.209	977.25
343.437	974.25
343.665	950.25
343.893	1013.25
344.12	1056.25
344.348	1064.25
344.576	1039.25
344.804	1002.25
345.031	968.25
345.259	972.25
345.487	956.25
345.714	900.25
345.942	897.25
346.17	931.25
346.397	942.25
346.625	933.25
346.853	915.25
347.08	867.25
347.308	911.25
347.535	938.25
347.763	930.25
347.99	916.25
348.218	876.25
348.445	926.25
348.673	925.25
348.9	964.25
349.128	995.25
349.355	1018.25
349.583	1016.25
349.81	948.25
350.037	874.25
350.265	861.25
350.492	887.25
350.72	923.25
350.947	946.25
351.174	956.25
351.402	898.25
351.629	866.25
351.856	850.25
352.083	876.25
352.311	892.25
352.538	894.25
352.765	944.25
352.992	931.25
353.22	931.25
353.447	898.25
353.674	923.25
353.901	917.25
354.128	903.25
354.355	889.25
354.583	952.25
354.81	976.25
355.037	945.25
355.264	950.25
355.491	939.25
355.718	937.25
355.945	900.25
356.172	882.25
356.399	879.25
356.626	899.25
356.853	949.25
357.08	1026.25
357.307	1118.25
357.534	1072.25
357.761	953.25
357.988	895.25
358.215	859.25
358.441	878.25
358.668	887.25
358.895	889.25
359.122	1000.25
359.349	1064.25
359.576	1001.25
359.802	910.25
360.029	892.25
360.256	895.25
360.483	901.25
360.709	932.25
360.936	987.25
361.163	995.25
361.39	1117.25
361.616	1191.25
361.843	1172.25
362.07	1051.25
362.296	923.25
362.523	911.25
362.749	911.25
362.976	940.25
363.203	952.25
363.429	925.25
363.656	904.25
363.882	981.25
364.109	1027.25
364.335	1100.25
364.562	1049.25
364.788	1003.25
365.015	918.25
365.241	895.25
365.468	945.25
365.694	967.25
365.92	987.25
366.147	961.25
366.373	887.25
366.599	904.25
366.826	886.25
367.052	909.25
367.278	923.25
367.505	943.25
367.731	942.25
367.957	939.25
368.184	1009.25
368.41	1068.25
368.636	1072.25
368.862	1047.25
369.089	1065.25
369.315	1015.25
369.541	958.25
369.767	940.25
369.993	922.25
370.219	915.25
370.445	986.25
370.672	1011.25
370.898	1050.25
371.124	1016.25
371.35	994.25
371.576	1026.25
371.802	1024.25
372.028	1001.25
372.254	980.25
372.48	932.25
372.706	967.25
372.932	963.25
373.158	972.25
373.384	976.25
373.61	1009.25
373.835	1035.25
374.061	998.25
374.287	965.25
374.513	999.25
374.739	1010.25
374.965	1032.25
375.191	1054.25
375.416	1024.25
375.642	1025.25
375.868	1082.25
376.094	1098.25
376.319	1047.25
376.545	985.25
376.771	1045.25
376.997	1089.25
377.222	1055.25
377.448	1042.25
377.674	1029.25
377.899	1043.25
378.125	1081.25
378.35	1111.25
378.576	992.25
378.802	961.25
379.027	978.25
379.253	958.25
379.478	997.25
379.704	991.25
379.929	985.25
380.155	1015.25
380.38	1010.25
380.606	995.25
380.831	1002.25
381.057	1060.25
381.282	1071.25
381.507	1062.25
381.733	1140.25
381.958	1127.25
382.184	1072.25
382.409	1044.25
382.634	1053.25
382.86	1026.25
383.085	1044.25
383.31	1102.25
383.535	1167.25
383.761	1219.25
383.986	1176.25
384.211	1138.25
384.436	1121.25
384.662	1140.25
384.887	1191.25
385.112	1162.25
385.337	1122.25
385.562	1120.25
385.787	1138.25
386.013	1131.25
386.238	1153.25
386.463	1174.25
386.688	1256.25
386.913	1316.25
387.138	1287.25
387.363	1160.25
387.588	1161.25
387.813	1159.25
388.038	1199.25
388.263	1223.25
388.488	1159.25
388.713	1088.25
388.938	1072.25
389.163	1090.25
389.387	1126.25
389.612	1127.25
389.837	1167.25
390.062	1162.25
390.287	1125.25
390.512	1122.25
390.736	1133.25
390.961	1087.25
391.186	1089.25
391.411	1106.25
391.636	1094.25
391.86	1160.25
392.085	1127.25
392.31	1095.25
392.534	1155.25
392.759	1160.25
392.984	1157.25
393.208	1151.25
393.433	1188.25
393.658	1247.25
393.882	1226.25
394.107	1160.25
394.331	1125.25
394.556	1142.25
394.78	1140.25
395.005	1227.25
395.229	1231.25
395.454	1308.25
395.678	1295.25
395.903	1234.25
396.127	1195.25
396.352	1215.25
396.576	1267.25
396.801	1271.25
397.025	1251.25
397.249	1247.25
397.474	1203.25
397.698	1212.25
397.922	1266.25
398.147	1318.25
398.371	1368.25
398.595	1361.25
398.82	1306.25
399.044	1335.25
399.268	1377.25
399.492	1457.25
399.717	1467.25
399.941	1493.25
400.165	1473.25
400.389	1455.25
400.613	1466.25
400.837	1631.25
401.062	1814.25
401.286	1526.25
401.51	1441.25
401.734	1426.25
401.958	1403.25
402.182	1340.25
402.406	1302.25
402.63	1311.25
402.854	1285.25
403.078	1321.25
403.302	1305.25
403.526	1394.25
403.75	1332.25
403.974	1398.25
404.198	1360.25
404.422	1413.25
404.645	1472.25
404.869	1439.25
405.093	1322.25
405.317	1296.25
405.541	1344.25
405.765	1368.25
405.988	1374.25
406.212	1371.25
406.436	1386.25
406.66	1456.25
406.883	1470.25
407.107	1662.25
407.331	1818.25
407.555	1916.25
407.778	1663.25
408.002	1444.25
408.226	1420.25
408.449	1390.25
408.673	1351.25
408.896	1387.25
409.12	1417.25
409.344	1408.25
409.567	1339.25
409.791	1332.25
410.014	1386.25
410.238	1488.25
410.461	1555.25
410.685	1364.25
410.908	1319.25
411.132	1399.25
411.355	1342.25
411.578	1316.25
411.802	1360.25
412.025	1385.25
412.249	1352.25
412.472	1316.25
412.695	1317.25
412.919	1294.25
413.142	1288.25
413.365	1321.25
413.589	1371.25
413.812	1401.25
414.035	1442.25
414.258	1343.25
414.482	1313.25
414.705	1352.25
414.928	1315.25
415.151	1298.25
415.374	1338.25
415.597	1334.25
415.821	1347.25
416.044	1357.25
416.267	1363.25
416.49	1268.25
416.713	1265.25
416.936	1319.25
417.159	1394.25
417.382	1367.25
417.605	1334.25
417.828	1318.25
418.051	1308.25
418.274	1301.25
418.497	1296.25
418.72	1276.25
418.943	1271.25
419.166	1322.25
419.389	1376.25
419.611	1305.25
419.834	1288.25
420.057	1277.25
420.28	1266.25
420.503	1301.25
420.726	1351.25
420.948	1305.25
421.171	1313.25
421.394	1276.25
421.617	1321.25
421.839	1359.25
422.062	1353.25
422.285	1268.25
422.507	1291.25
422.73	1266.25
422.953	1226.25
423.175	1231.25
423.398	1279.25
423.621	1275.25
423.843	1287.25
424.066	1317.25
424.288	1366.25
424.511	1416.25
424.733	1406.25
424.956	1264.25
425.178	1275.25
425.401	1248.25
425.623	1265.25
425.846	1270.25
426.068	1350.25
426.291	1357.25
426.513	1362.25
426.735	1339.25
426.958	1449.25
427.18	1464.25
427.402	1352.25
427.625	1415.25
427.847	1363.25
428.069	1272.25
428.292	1240.25
428.514	1229.25
428.736	1227.25
428.958	1276.25
429.181	1258.25
429.403	1448.25
429.625	1770.25
429.847	1476.25
430.069	1303.25
430.292	1427.25
430.514	1446.25
430.736	1354.25
430.958	1398.25
431.18	1318.25
431.402	1216.25
431.624	1206.25
431.846	1198.25
432.068	1141.25
432.29	1126.25
432.512	1188.25
432.734	1230.25
432.956	1288.25
433.178	1358.25
433.4	1352.25
433.622	1311.25
433.844	1248.25
434.066	1202.25
434.287	1185.25
434.509	1234.25
434.731	1269.25
434.953	1342.25
435.175	1311.25
435.397	1263.25
435.618	1267.25
435.84	1273.25
436.062	1232.25
436.284	1261.25
436.505	1296.25
436.727	1308.25
436.949	1275.25
437.17	1193.25
437.392	1218.25
437.614	1228.25
437.835	1143.25
438.057	1232.25
438.278	1271.25
438.5	1215.25
438.721	1254.25
438.943	1275.25
439.165	1221.25
439.386	1218.25
439.608	1235.25
439.829	1268.25
440.05	1243.25
440.272	1218.25
440.493	1225.25
440.715	1262.25
440.936	1367.25
441.158	1430.25
441.379	1382.25
441.6	1404.25
441.822	1371.25
442.043	1328.25
442.264	1312.25
442.486	1247.25
442.707	1266.25
442.928	1276.25
443.149	1280.25
443.371	1353.25
443.592	1372.25
443.813	1375.25
444.034	1350.25
444.255	1370.25
444.476	1354.25
444.698	1414.25
444.919	1403.25
445.14	1532.25
445.361	1468.25
445.582	1458.25
445.803	1427.25
446.024	1382.25
446.245	1414.25
446.466	1375.25
446.687	1342.25
446.908	1344.25
447.129	1312.25
447.35	1307.25
447.571	1316.25
447.792	1248.25
448.013	1245.25
448.234	1259.25
448.455	1307.25
448.675	1330.25
448.896	1233.25
449.117	1195.25
449.338	1225.25
449.559	1287.25
449.779	1321.25
450	1393.25
450.221	1503.25
450.442	1452.25
450.662	1287.25
450.883	1169.25
451.104	1175.25
451.324	1194.25
451.545	1225.25
451.766	1198.25
451.986	1152.25
452.207	1138.25
452.428	1116.25
452.648	1093.25
452.869	1133.25
453.089	1192.25
453.31	1153.25
453.53	1128.25
453.751	1090.25
453.971	1078.25
454.192	1060.25
454.412	1156.25
454.633	1149.25
454.853	1128.25
455.073	1079.25
455.294	1073.25
455.514	1079.25
455.734	1066.25
455.955	1112.25
456.175	1058.25
456.395	1066.25
456.616	1061.25
456.836	1109.25
457.056	1068.25
457.276	1061.25
457.497	1019.25
457.717	1049.25
457.937	1052.25
458.157	1070.25
458.377	1012.25
458.598	1031.25
458.818	1074.25
459.038	1114.25
459.258	1142.25
459.478	1145.25
459.698	1099.25
459.918	1126.25
460.138	1234.25
460.358	1237.25
460.578	1219.25
460.798	1298.25
461.018	1331.25
461.238	1306.25
461.458	1271.25
461.678	1273.25
461.898	1227.25
462.118	1220.25
462.338	1287.25
462.558	1274.25
462.777	1294.25
462.997	1309.25
463.217	1375.25
463.437	1350.25
463.657	1316.25
463.876	1266.25
464.096	1255.25
464.316	1243.25
464.536	1306.25
464.755	1315.25
464.975	1299.25
465.195	1321.25
465.414	1342.25
465.634	1273.25
465.854	1291.25
466.073	1361.25
466.293	1348.25
466.512	1223.25
466.732	1193.25
466.951	1227.25
467.171	1215.25
467.391	1205.25
467.61	1192.25
467.829	1234.25
468.049	1355.25
468.268	1444.25
468.488	1335.25
468.707	1230.25
468.927	1235.25
469.146	1185.25
469.365	1218.25
469.585	1242.25
469.804	1224.25
470.023	1211.25
470.243	1239.25
470.462	1237.25
470.681	1185.25
470.901	1243.25
471.12	1271.25
471.339	1232.25
471.558	1202.25
471.777	1201.25
471.997	1198.25
472.216	1185.25
472.435	1140.25
472.654	1099.25
472.873	1138.25
473.092	1239.25
473.311	1190.25
473.53	1148.25
473.749	1151.25
473.968	1204.25
474.187	1232.25
474.406	1253.25
474.625	1237.25
474.844	1203.25
475.063	1231.25
475.282	1196.25
475.501	1192.25
475.72	1194.25
475.939	1280.25
476.158	1235.25
476.377	1193.25
476.596	1212.25
476.814	1258.25
477.033	1238.25
477.252	1251.25
477.471	1326.25
477.69	1287.25
477.908	1320.25
478.127	1368.25
478.346	1442.25
478.564	1446.25
478.783	1407.25
479.002	1472.25
479.22	1437.25
479.439	1480.25
479.658	1554.25
479.876	1499.25
480.095	1390.25
480.313	1319.25
480.532	1311.25
480.751	1298.25
480.969	1310.25
481.188	1244.25
481.406	1237.25
481.624	1217.25
481.843	1238.25
482.061	1291.25
482.28	1340.25
482.498	1361.25
482.717	1311.25
482.935	1304.25
483.153	1333.25
483.372	1394.25
483.59	1321.25
483.808	1365.25
484.027	1375.25
484.245	1438.25
484.463	1729.25
484.681	1862.25
484.9	1485.25
485.118	1392.25
485.336	1360.25
485.554	1360.25
485.772	1408.25
485.99	1392.25
486.209	1394.25
486.427	1392.25
486.645	1416.25
486.863	1392.25
487.081	1439.25
487.299	1472.25
487.517	1485.25
487.735	1460.25
487.953	1538.25
488.171	1524.25
488.389	1473.25
488.607	1498.25
488.825	1626.25
489.043	1534.25
489.261	1434.25
489.479	1490.25
489.696	1484.25
489.914	1439.25
490.132	1414.25
490.35	1464.25
490.568	1547.25
490.786	1522.25
491.003	1447.25
491.221	1504.25
491.439	1562.25
491.657	1587.25
491.874	1628.25
492.092	1670.25
492.31	1696.25
492.527	1688.25
492.745	1614.25
492.963	1601.25
493.18	1604.25
493.398	1714.25
493.615	1700.25
