Data from WStandard_LampEnergy10_LIBS07252019.E.O._I.C._HRD10591_15-55-27-928.txt Node
Date: Thu Jul 25 15:55:27 EDT 2019
User: cochatt
Spectrometer: HR+D1059
Trigger mode: 1
Integration Time (sec): 1.000000E-1
Scans to average: 1
Electric dark correction enabled: true
Nonlinearity correction enabled: false
Boxcar width: 0
XAxis mode: Wavelengths
Number of Pixels in Spectrum: 2048
>>>>>Begin Spectral Data<<<<<
223.165	-9.88
223.4	-9.88
223.635	-9.88
223.869	-8.88
224.104	-9.88
224.338	-8.88
224.573	-14.88
224.808	-18.88
225.042	-20.88
225.277	-12.88
225.511	-7.88
225.746	12.12
225.98	5.12
226.215	5.12
226.449	19.12
226.683	19.12
226.918	30.12
227.152	22.12
227.387	38.12
227.621	33.12
227.856	34.12
228.09	33.12
228.324	47.12
228.559	55.12
228.793	82.12
229.027	124.12
229.262	139.12
229.496	158.12
229.73	153.12
229.964	147.12
230.199	164.12
230.433	159.12
230.667	172.12
230.901	185.12
231.136	190.12
231.37	174.12
231.604	170.12
231.838	178.12
232.072	198.12
232.306	169.12
232.541	187.12
232.775	207.12
233.009	210.12
233.243	188.12
233.477	191.12
233.711	220.12
233.945	193.12
234.179	191.12
234.413	213.12
234.647	213.12
234.881	200.12
235.115	195.12
235.349	190.12
235.583	198.12
235.817	205.12
236.051	203.12
236.285	198.12
236.519	215.12
236.753	241.12
236.987	229.12
237.221	202.12
237.455	217.12
237.689	217.12
237.922	235.12
238.156	216.12
238.39	221.12
238.624	222.12
238.858	244.12
239.091	242.12
239.325	263.12
239.559	294.12
239.793	299.12
240.027	327.12
240.26	287.12
240.494	237.12
240.728	221.12
240.961	241.12
241.195	236.12
241.429	247.12
241.662	269.12
241.896	236.12
242.13	253.12
242.363	272.12
242.597	291.12
242.83	280.12
243.064	295.12
243.298	305.12
243.531	269.12
243.765	286.12
243.998	285.12
244.232	249.12
244.465	257.12
244.699	268.12
244.932	289.12
245.166	297.12
245.399	308.12
245.633	284.12
245.866	275.12
246.099	285.12
246.333	301.12
246.566	301.12
246.8	299.12
247.033	335.12
247.266	315.12
247.5	321.12
247.733	321.12
247.966	330.12
248.2	367.12
248.433	379.12
248.666	369.12
248.899	390.12
249.133	415.12
249.366	456.12
249.599	389.12
249.832	361.12
250.066	358.12
250.299	381.12
250.532	346.12
250.765	326.12
250.998	348.12
251.231	347.12
251.465	347.12
251.698	327.12
251.931	347.12
252.164	351.12
252.397	355.12
252.63	363.12
252.863	333.12
253.096	315.12
253.329	338.12
253.562	359.12
253.795	358.12
254.028	375.12
254.261	319.12
254.494	346.12
254.727	327.12
254.96	339.12
255.193	369.12
255.426	413.12
255.659	432.12
255.892	435.12
256.124	411.12
256.357	389.12
256.59	407.12
256.823	404.12
257.056	415.12
257.289	480.12
257.521	515.12
257.754	465.12
257.987	447.12
258.22	467.12
258.452	453.12
258.685	396.12
258.918	384.12
259.151	398.12
259.383	371.12
259.616	340.12
259.849	368.12
260.081	402.12
260.314	430.12
260.547	471.12
260.779	458.12
261.012	413.12
261.244	413.12
261.477	382.12
261.71	395.12
261.942	399.12
262.175	402.12
262.407	417.12
262.64	389.12
262.872	378.12
263.105	364.12
263.337	377.12
263.57	383.12
263.802	359.12
264.035	345.12
264.267	331.12
264.499	345.12
264.732	365.12
264.964	391.12
265.197	390.12
265.429	411.12
265.661	466.12
265.894	487.12
266.126	470.12
266.358	468.12
266.591	469.12
266.823	475.12
267.055	449.12
267.287	444.12
267.52	433.12
267.752	444.12
267.984	441.12
268.216	461.12
268.448	448.12
268.681	474.12
268.913	414.12
269.145	403.12
269.377	414.12
269.609	454.12
269.841	505.12
270.073	577.12
270.306	611.12
270.538	619.12
270.77	534.12
271.002	474.12
271.234	474.12
271.466	465.12
271.698	546.12
271.93	594.12
272.162	589.12
272.394	525.12
272.626	517.12
272.858	467.12
273.09	414.12
273.322	405.12
273.553	409.12
273.785	400.12
274.017	404.12
274.249	443.12
274.481	435.12
274.713	427.12
274.945	410.12
275.176	395.12
275.408	389.12
275.64	398.12
275.872	402.12
276.104	439.12
276.335	483.12
276.567	506.12
276.799	516.12
277.031	491.12
277.262	493.12
277.494	505.12
277.726	539.12
277.957	519.12
278.189	497.12
278.421	453.12
278.652	421.12
278.884	418.12
279.115	434.12
279.347	427.12
279.579	433.12
279.81	454.12
280.042	465.12
280.273	522.12
280.505	515.12
280.736	513.12
280.968	472.12
281.199	442.12
281.431	428.12
281.662	399.12
281.894	426.12
282.125	430.12
282.356	446.12
282.588	445.12
282.819	454.12
283.051	486.12
283.282	516.12
283.513	491.12
283.745	442.12
283.976	430.12
284.207	423.12
284.439	449.12
284.67	437.12
284.901	443.12
285.132	465.12
285.364	436.12
285.595	466.12
285.826	443.12
286.057	437.12
286.288	442.12
286.52	454.12
286.751	494.12
286.982	482.12
287.213	445.12
287.444	427.12
287.675	439.12
287.906	488.12
288.138	486.12
288.369	482.12
288.6	446.12
288.831	456.12
289.062	446.12
289.293	440.12
289.524	430.12
289.755	469.12
289.986	479.12
290.217	426.12
290.448	437.12
290.679	467.12
290.91	480.12
291.141	478.12
291.371	507.12
291.602	487.12
291.833	469.12
292.064	501.12
292.295	476.12
292.526	508.12
292.757	490.12
292.987	495.12
293.218	477.12
293.449	501.12
293.68	571.12
293.91	590.12
294.141	557.12
294.372	519.12
294.603	548.12
294.833	578.12
295.064	550.12
295.295	489.12
295.525	477.12
295.756	433.12
295.987	424.12
296.217	445.12
296.448	456.12
296.679	463.12
296.909	477.12
297.14	459.12
297.37	481.12
297.601	505.12
297.831	548.12
298.062	518.12
298.292	485.12
298.523	465.12
298.753	470.12
298.984	486.12
299.214	478.12
299.445	509.12
299.675	478.12
299.905	512.12
300.136	489.12
300.366	476.12
300.597	439.12
300.827	457.12
301.057	486.12
301.288	517.12
301.518	517.12
301.748	527.12
301.979	549.12
302.209	561.12
302.439	595.12
302.669	590.12
302.9	561.12
303.13	503.12
303.36	513.12
303.59	484.12
303.82	522.12
304.051	499.12
304.281	526.12
304.511	517.12
304.741	586.12
304.971	625.12
305.201	635.12
305.431	544.12
305.661	507.12
305.891	446.12
306.121	460.12
306.352	488.12
306.582	494.12
306.812	519.12
307.042	559.12
307.272	568.12
307.502	577.12
307.731	591.12
307.961	623.12
308.191	569.12
308.421	496.12
308.651	509.12
308.881	495.12
309.111	513.12
309.341	502.12
309.571	481.12
309.8	512.12
310.03	492.12
310.26	486.12
310.49	498.12
310.72	510.12
310.949	524.12
311.179	531.12
311.409	512.12
311.639	505.12
311.868	502.12
312.098	513.12
312.328	514.12
312.557	515.12
312.787	520.12
313.017	528.12
313.246	528.12
313.476	522.12
313.706	545.12
313.935	537.12
314.165	547.12
314.394	556.12
314.624	588.12
314.853	656.12
315.083	613.12
315.312	634.12
315.542	599.12
315.771	537.12
316.001	558.12
316.23	576.12
316.46	575.12
316.689	560.12
316.919	515.12
317.148	517.12
317.377	550.12
317.607	588.12
317.836	643.12
318.065	628.12
318.295	625.12
318.524	614.12
318.753	581.12
318.983	563.12
319.212	582.12
319.441	549.12
319.67	570.12
319.9	575.12
320.129	594.12
320.358	594.12
320.587	606.12
320.816	627.12
321.046	594.12
321.275	581.12
321.504	602.12
321.733	622.12
321.962	602.12
322.191	563.12
322.42	521.12
322.649	574.12
322.878	558.12
323.108	554.12
323.337	586.12
323.566	593.12
323.795	594.12
324.024	576.12
324.253	562.12
324.482	569.12
324.71	538.12
324.939	515.12
325.168	560.12
325.397	579.12
325.626	566.12
325.855	554.12
326.084	555.12
326.313	578.12
326.542	555.12
326.77	598.12
326.999	551.12
327.228	554.12
327.457	545.12
327.686	516.12
327.914	535.12
328.143	575.12
328.372	549.12
328.6	567.12
328.829	544.12
329.058	531.12
329.287	557.12
329.515	569.12
329.744	592.12
329.972	627.12
330.201	615.12
330.43	614.12
330.658	603.12
330.887	607.12
331.115	613.12
331.344	610.12
331.572	582.12
331.801	565.12
332.03	598.12
332.258	600.12
332.486	597.12
332.715	622.12
332.943	609.12
333.172	575.12
333.4	619.12
333.629	634.12
333.857	673.12
334.085	736.12
334.314	798.12
334.542	844.12
334.771	744.12
334.999	685.12
335.227	671.12
335.455	616.12
335.684	651.12
335.912	653.12
336.14	641.12
336.369	639.12
336.597	612.12
336.825	600.12
337.053	645.12
337.281	661.12
337.51	685.12
337.738	661.12
337.966	639.12
338.194	589.12
338.422	600.12
338.65	598.12
338.878	567.12
339.106	574.12
339.334	579.12
339.562	557.12
339.79	598.12
340.018	635.12
340.246	642.12
340.474	612.12
340.702	620.12
340.93	610.12
341.158	608.12
341.386	599.12
341.614	603.12
341.842	586.12
342.07	603.12
342.298	619.12
342.526	582.12
342.754	573.12
342.981	608.12
343.209	574.12
343.437	584.12
343.665	609.12
343.893	633.12
344.12	637.12
344.348	619.12
344.576	593.12
344.804	589.12
345.031	590.12
345.259	600.12
345.487	567.12
345.714	575.12
345.942	541.12
346.17	581.12
346.397	569.12
346.625	561.12
346.853	537.12
347.08	540.12
347.308	561.12
347.535	574.12
347.763	584.12
347.99	569.12
348.218	542.12
348.445	597.12
348.673	589.12
348.9	614.12
349.128	612.12
349.355	616.12
349.583	606.12
349.81	572.12
350.037	531.12
350.265	541.12
350.492	548.12
350.72	579.12
350.947	569.12
351.174	591.12
351.402	554.12
351.629	522.12
351.856	534.12
352.083	519.12
352.311	551.12
352.538	549.12
352.765	581.12
352.992	581.12
353.22	554.12
353.447	527.12
353.674	569.12
353.901	599.12
354.128	566.12
354.355	542.12
354.583	573.12
354.81	595.12
355.037	601.12
355.264	589.12
355.491	582.12
355.718	574.12
355.945	570.12
356.172	542.12
356.399	556.12
356.626	577.12
356.853	577.12
357.08	626.12
357.307	687.12
357.534	652.12
357.761	573.12
357.988	529.12
358.215	554.12
358.441	547.12
358.668	554.12
358.895	555.12
359.122	572.12
359.349	659.12
359.576	616.12
359.802	558.12
360.029	540.12
360.256	548.12
360.483	571.12
360.709	582.12
360.936	597.12
361.163	627.12
361.39	693.12
361.616	722.12
361.843	702.12
362.07	621.12
362.296	564.12
362.523	561.12
362.749	560.12
362.976	590.12
363.203	606.12
363.429	548.12
363.656	555.12
363.882	598.12
364.109	676.12
364.335	648.12
364.562	610.12
364.788	573.12
365.015	567.12
365.241	569.12
365.468	579.12
365.694	604.12
365.92	655.12
366.147	598.12
366.373	576.12
366.599	568.12
366.826	578.12
367.052	585.12
367.278	598.12
367.505	596.12
367.731	599.12
367.957	599.12
368.184	627.12
368.41	667.12
368.636	665.12
368.862	686.12
369.089	663.12
369.315	617.12
369.541	610.12
369.767	610.12
369.993	602.12
370.219	616.12
370.445	605.12
370.672	669.12
370.898	647.12
371.124	669.12
371.35	633.12
371.576	663.12
371.802	645.12
372.028	635.12
372.254	601.12
372.48	596.12
372.706	609.12
372.932	610.12
373.158	591.12
373.384	636.12
373.61	643.12
373.835	669.12
374.061	614.12
374.287	637.12
374.513	615.12
374.739	655.12
374.965	636.12
375.191	643.12
375.416	671.12
375.642	652.12
375.868	705.12
376.094	709.12
376.319	662.12
376.545	654.12
376.771	681.12
376.997	697.12
377.222	668.12
377.448	673.12
377.674	664.12
377.899	691.12
378.125	728.12
378.35	699.12
378.576	617.12
378.802	619.12
379.027	638.12
379.253	641.12
379.478	639.12
379.704	641.12
379.929	667.12
380.155	660.12
380.38	653.12
380.606	673.12
380.831	666.12
381.057	691.12
381.282	681.12
381.507	678.12
381.733	755.12
381.958	768.12
382.184	697.12
382.409	672.12
382.634	691.12
382.86	673.12
383.085	681.12
383.31	725.12
383.535	747.12
383.761	795.12
383.986	750.12
384.211	715.12
384.436	731.12
384.662	755.12
384.887	790.12
385.112	742.12
385.337	738.12
385.562	751.12
385.787	737.12
386.013	763.12
386.238	789.12
386.463	771.12
386.688	837.12
386.913	853.12
387.138	794.12
387.363	776.12
387.588	774.12
387.813	757.12
388.038	787.12
388.263	812.12
388.488	752.12
388.713	725.12
388.938	713.12
389.163	726.12
389.387	733.12
389.612	744.12
389.837	757.12
390.062	755.12
390.287	763.12
390.512	733.12
390.736	735.12
390.961	723.12
391.186	716.12
391.411	746.12
391.636	766.12
391.86	734.12
392.085	720.12
392.31	745.12
392.534	750.12
392.759	778.12
392.984	746.12
393.208	782.12
393.433	792.12
393.658	846.12
393.882	810.12
394.107	794.12
394.331	815.12
394.556	786.12
394.78	787.12
395.005	833.12
395.229	822.12
395.454	906.12
395.678	858.12
395.903	851.12
396.127	810.12
396.352	830.12
396.576	828.12
396.801	853.12
397.025	821.12
397.249	843.12
397.474	827.12
397.698	821.12
397.922	838.12
398.147	901.12
398.371	905.12
398.595	897.12
398.82	871.12
399.044	915.12
399.268	921.12
399.492	999.12
399.717	998.12
399.941	986.12
400.165	967.12
400.389	958.12
400.613	960.12
400.837	1151.12
401.062	1215.12
401.286	1034.12
401.51	1002.12
401.734	966.12
401.958	947.12
402.182	902.12
402.406	891.12
402.63	886.12
402.854	878.12
403.078	897.12
403.302	901.12
403.526	941.12
403.75	938.12
403.974	933.12
404.198	965.12
404.422	955.12
404.645	1011.12
404.869	975.12
405.093	914.12
405.317	912.12
405.541	941.12
405.765	929.12
405.988	909.12
406.212	927.12
406.436	953.12
406.66	1004.12
406.883	993.12
407.107	1159.12
407.331	1228.12
407.555	1309.12
407.778	1148.12
408.002	979.12
408.226	997.12
408.449	976.12
408.673	949.12
408.896	946.12
409.12	974.12
409.344	956.12
409.567	917.12
409.791	962.12
410.014	961.12
410.238	1029.12
410.461	1077.12
410.685	965.12
410.908	927.12
411.132	947.12
411.355	940.12
411.578	912.12
411.802	951.12
412.025	926.12
412.249	895.12
412.472	899.12
412.695	894.12
412.919	911.12
413.142	929.12
413.365	906.12
413.589	971.12
413.812	1004.12
414.035	1002.12
414.258	935.12
414.482	905.12
414.705	921.12
414.928	889.12
415.151	900.12
415.374	914.12
415.597	939.12
415.821	941.12
416.044	941.12
416.267	946.12
416.49	889.12
416.713	926.12
416.936	964.12
417.159	977.12
417.382	1000.12
417.605	938.12
417.828	912.12
418.051	965.12
418.274	947.12
418.497	937.12
418.72	935.12
418.943	929.12
419.166	948.12
419.389	980.12
419.611	949.12
419.834	950.12
420.057	952.12
420.28	933.12
420.503	968.12
420.726	957.12
420.948	941.12
421.171	907.12
421.394	942.12
421.617	963.12
421.839	978.12
422.062	976.12
422.285	914.12
422.507	953.12
422.73	901.12
422.953	895.12
423.175	875.12
423.398	947.12
423.621	915.12
423.843	941.12
424.066	973.12
424.288	1005.12
424.511	1028.12
424.733	998.12
424.956	928.12
425.178	924.12
425.401	931.12
425.623	932.12
425.846	957.12
426.068	979.12
426.291	990.12
426.513	958.12
426.735	981.12
426.958	1049.12
427.18	1070.12
427.402	1001.12
427.625	1029.12
427.847	986.12
428.069	942.12
428.292	923.12
428.514	914.12
428.736	911.12
428.958	918.12
429.181	929.12
429.403	1068.12
429.625	1252.12
429.847	1042.12
430.069	947.12
430.292	1049.12
430.514	1034.12
430.736	972.12
430.958	992.12
431.18	905.12
431.402	881.12
431.624	865.12
431.846	788.12
432.068	695.12
432.29	762.12
432.512	789.12
432.734	919.12
432.956	909.12
433.178	970.12
433.4	974.12
433.622	948.12
433.844	916.12
434.066	856.12
434.287	802.12
434.509	797.12
434.731	850.12
434.953	938.12
435.175	912.12
435.397	889.12
435.618	861.12
435.84	846.12
436.062	821.12
436.284	899.12
436.505	928.12
436.727	954.12
436.949	912.12
437.17	892.12
437.392	875.12
437.614	849.12
437.835	806.12
438.057	804.12
438.278	851.12
438.5	843.12
438.721	886.12
438.943	929.12
439.165	915.12
439.386	918.12
439.608	934.12
439.829	982.12
440.05	941.12
440.272	961.12
440.493	935.12
440.715	959.12
440.936	1035.12
441.158	1069.12
441.379	1014.12
441.6	1027.12
441.822	1036.12
442.043	1027.12
442.264	967.12
442.486	915.12
442.707	962.12
442.928	933.12
443.149	959.12
443.371	982.12
443.592	1043.12
443.813	1013.12
444.034	1025.12
444.255	1053.12
444.476	1013.12
444.698	1045.12
444.919	1058.12
445.14	1141.12
445.361	1080.12
445.582	1077.12
445.803	1086.12
446.024	1025.12
446.245	1055.12
446.466	1056.12
446.687	1037.12
446.908	1037.12
447.129	1022.12
447.35	1031.12
447.571	977.12
447.792	974.12
448.013	971.12
448.234	949.12
448.455	1009.12
448.675	975.12
448.896	925.12
449.117	873.12
449.338	909.12
449.559	941.12
449.779	949.12
450	1016.12
450.221	1027.12
450.442	967.12
450.662	934.12
450.883	878.12
451.104	864.12
451.324	866.12
451.545	896.12
451.766	865.12
451.986	815.12
452.207	819.12
452.428	801.12
452.648	792.12
452.869	773.12
453.089	795.12
453.31	789.12
453.53	764.12
453.751	712.12
453.971	713.12
454.192	729.12
454.412	773.12
454.633	807.12
454.853	793.12
455.073	753.12
455.294	773.12
455.514	769.12
455.734	744.12
455.955	741.12
456.175	740.12
456.395	719.12
456.616	715.12
456.836	698.12
457.056	719.12
457.276	745.12
457.497	706.12
457.717	709.12
457.937	683.12
458.157	717.12
458.377	708.12
458.598	668.12
458.818	675.12
459.038	682.12
459.258	730.12
459.478	720.12
459.698	711.12
459.918	740.12
460.138	784.12
460.358	830.12
460.578	841.12
460.798	868.12
461.018	903.12
461.238	881.12
461.458	864.12
461.678	846.12
461.898	833.12
462.118	825.12
462.338	846.12
462.558	836.12
462.777	875.12
462.997	860.12
463.217	913.12
463.437	862.12
463.657	833.12
463.876	839.12
464.096	829.12
464.316	848.12
464.536	907.12
464.755	880.12
464.975	883.12
465.195	876.12
465.414	891.12
465.634	872.12
465.854	905.12
466.073	987.12
466.293	931.12
466.512	849.12
466.732	876.12
466.951	897.12
467.171	909.12
467.391	901.12
467.61	889.12
467.829	881.12
468.049	1020.12
468.268	1018.12
468.488	984.12
468.707	891.12
468.927	922.12
469.146	889.12
469.365	922.12
469.585	945.12
469.804	908.12
470.023	933.12
470.243	930.12
470.462	956.12
470.681	933.12
470.901	905.12
471.12	935.12
471.339	911.12
471.558	911.12
471.777	883.12
471.997	869.12
472.216	837.12
472.435	775.12
472.654	765.12
472.873	790.12
473.092	845.12
473.311	833.12
473.53	852.12
473.749	846.12
473.968	840.12
474.187	861.12
474.406	845.12
474.625	833.12
474.844	877.12
475.063	888.12
475.282	883.12
475.501	853.12
475.72	856.12
475.939	929.12
476.158	903.12
476.377	860.12
476.596	852.12
476.814	835.12
477.033	809.12
477.252	855.12
477.471	890.12
477.69	907.12
477.908	946.12
478.127	947.12
478.346	1011.12
478.564	996.12
478.783	995.12
479.002	1040.12
479.22	1006.12
479.439	1040.12
479.658	1081.12
479.876	1002.12
480.095	901.12
480.313	927.12
480.532	875.12
480.751	828.12
480.969	829.12
481.188	821.12
481.406	788.12
481.624	758.12
481.843	810.12
482.061	844.12
482.28	878.12
482.498	884.12
482.717	859.12
482.935	890.12
483.153	985.12
483.372	1025.12
483.59	1009.12
483.808	955.12
484.027	969.12
484.245	1000.12
484.463	1232.12
484.681	1305.12
484.9	1038.12
485.118	962.12
485.336	929.12
485.554	889.12
485.772	889.12
485.99	889.12
486.209	894.12
486.427	896.12
486.645	931.12
486.863	1018.12
487.081	1050.12
487.299	1034.12
487.517	1011.12
487.735	1092.12
487.953	1191.12
488.171	1181.12
488.389	1142.12
488.607	1097.12
488.825	1141.12
489.043	1047.12
489.261	983.12
489.479	1067.12
489.696	1053.12
489.914	1057.12
490.132	1004.12
490.35	1086.12
490.568	1187.12
490.786	1167.12
491.003	1166.12
491.221	1260.12
491.439	1273.12
491.657	1299.12
491.874	1344.12
492.092	1462.12
492.31	1505.12
492.527	1433.12
492.745	1368.12
492.963	1324.12
493.18	1331.12
493.398	1377.12
493.615	1334.12
493.833	1243.12
494.05	1254.12
494.268	1240.12
494.485	1235.12
494.703	1237.12
494.92	1220.12
495.138	1218.12
495.355	1259.12
495.573	1258.12
495.79	1287.12
496.008	1283.12
496.225	1231.12
496.442	1220.12
496.66	1253.12
496.877	1228.12
497.094	1215.12
497.312	1213.12
497.529	1226.12
497.746	1197.12
497.963	1252.12
498.181	1344.12
498.398	1267.12
498.615	1183.12
498.832	1168.12
499.049	1130.12
499.267	1194.12
499.484	1252.12
499.701	1354.12
499.918	1396.12
500.135	1459.12
500.352	1531.12
