Data from WStandard_LampEnergy10_LIBS07252019.E.O._I.C._HRD10591_15-53-24-928.txt Node
Date: Thu Jul 25 15:53:24 EDT 2019
User: cochatt
Spectrometer: HR+D1059
Trigger mode: 1
Integration Time (sec): 1.000000E-1
Scans to average: 1
Electric dark correction enabled: true
Nonlinearity correction enabled: false
Boxcar width: 0
XAxis mode: Wavelengths
Number of Pixels in Spectrum: 2048
>>>>>Begin Spectral Data<<<<<
223.165	-17.5
223.4	-17.5
223.635	-17.5
223.869	-25.5
224.104	-10.5
224.338	-23.5
224.573	-10.5
224.808	-2.5
225.042	-14.5
225.277	-2.5
225.511	-7.5
225.746	-3.5
225.98	5.5
226.215	-5.5
226.449	24.5
226.683	23.5
226.918	32.5
227.152	37.5
227.387	18.5
227.621	40.5
227.856	47.5
228.09	45.5
228.324	47.5
228.559	51.5
228.793	81.5
229.027	130.5
229.262	121.5
229.496	156.5
229.73	148.5
229.964	162.5
230.199	171.5
230.433	180.5
230.667	177.5
230.901	173.5
231.136	177.5
231.37	166.5
231.604	159.5
231.838	171.5
232.072	179.5
232.306	165.5
232.541	202.5
232.775	201.5
233.009	203.5
233.243	198.5
233.477	187.5
233.711	196.5
233.945	204.5
234.179	200.5
234.413	195.5
234.647	220.5
234.881	190.5
235.115	190.5
235.349	185.5
235.583	203.5
235.817	196.5
236.051	176.5
236.285	200.5
236.519	218.5
236.753	215.5
236.987	224.5
237.221	220.5
237.455	235.5
237.689	230.5
237.922	218.5
238.156	220.5
238.39	233.5
238.624	244.5
238.858	233.5
239.091	249.5
239.325	260.5
239.559	277.5
239.793	309.5
240.027	324.5
240.26	297.5
240.494	248.5
240.728	204.5
240.961	233.5
241.195	225.5
241.429	276.5
241.662	250.5
241.896	255.5
242.13	241.5
242.363	263.5
242.597	287.5
242.83	274.5
243.064	272.5
243.298	271.5
243.531	296.5
243.765	275.5
243.998	273.5
244.232	260.5
244.465	265.5
244.699	250.5
244.932	267.5
245.166	291.5
245.399	286.5
245.633	273.5
245.866	286.5
246.099	302.5
246.333	291.5
246.566	298.5
246.8	319.5
247.033	360.5
247.266	344.5
247.5	312.5
247.733	315.5
247.966	349.5
248.2	355.5
248.433	365.5
248.666	376.5
248.899	407.5
249.133	418.5
249.366	461.5
249.599	391.5
249.832	371.5
250.066	362.5
250.299	346.5
250.532	339.5
250.765	319.5
250.998	335.5
251.231	344.5
251.465	352.5
251.698	344.5
251.931	342.5
252.164	336.5
252.397	369.5
252.63	361.5
252.863	333.5
253.096	320.5
253.329	335.5
253.562	344.5
253.795	363.5
254.028	352.5
254.261	332.5
254.494	343.5
254.727	324.5
254.96	337.5
255.193	372.5
255.426	413.5
255.659	456.5
255.892	449.5
256.124	380.5
256.357	385.5
256.59	412.5
256.823	400.5
257.056	388.5
257.289	466.5
257.521	499.5
257.754	452.5
257.987	435.5
258.22	454.5
258.452	464.5
258.685	389.5
258.918	383.5
259.151	381.5
259.383	367.5
259.616	342.5
259.849	354.5
260.081	432.5
260.314	447.5
260.547	473.5
260.779	472.5
261.012	436.5
261.244	398.5
261.477	411.5
261.71	399.5
261.942	395.5
262.175	403.5
262.407	414.5
262.64	392.5
262.872	380.5
263.105	363.5
263.337	377.5
263.57	382.5
263.802	384.5
264.035	355.5
264.267	345.5
264.499	341.5
264.732	347.5
264.964	386.5
265.197	394.5
265.429	401.5
265.661	457.5
265.894	482.5
266.126	491.5
266.358	442.5
266.591	485.5
266.823	473.5
267.055	444.5
267.287	452.5
267.52	437.5
267.752	445.5
267.984	465.5
268.216	467.5
268.448	481.5
268.681	464.5
268.913	438.5
269.145	392.5
269.377	410.5
269.609	454.5
269.841	516.5
270.073	562.5
270.306	634.5
270.538	634.5
270.77	531.5
271.002	485.5
271.234	490.5
271.466	477.5
271.698	532.5
271.93	604.5
272.162	598.5
272.394	553.5
272.626	523.5
272.858	474.5
273.09	433.5
273.322	420.5
273.553	415.5
273.785	397.5
274.017	417.5
274.249	433.5
274.481	443.5
274.713	407.5
274.945	416.5
275.176	425.5
275.408	405.5
275.64	403.5
275.872	406.5
276.104	433.5
276.335	483.5
276.567	533.5
276.799	523.5
277.031	470.5
277.262	475.5
277.494	491.5
277.726	520.5
277.957	496.5
278.189	454.5
278.421	429.5
278.652	443.5
278.884	443.5
279.115	421.5
279.347	435.5
279.579	436.5
279.81	450.5
280.042	469.5
280.273	510.5
280.505	505.5
280.736	515.5
280.968	467.5
281.199	446.5
281.431	409.5
281.662	401.5
281.894	433.5
282.125	444.5
282.356	436.5
282.588	449.5
282.819	459.5
283.051	485.5
283.282	484.5
283.513	491.5
283.745	415.5
283.976	431.5
284.207	426.5
284.439	453.5
284.67	444.5
284.901	452.5
285.132	455.5
285.364	457.5
285.595	448.5
285.826	455.5
286.057	459.5
286.288	466.5
286.52	492.5
286.751	514.5
286.982	487.5
287.213	467.5
287.444	429.5
287.675	433.5
287.906	472.5
288.138	487.5
288.369	465.5
288.6	458.5
288.831	439.5
289.062	433.5
289.293	454.5
289.524	473.5
289.755	468.5
289.986	464.5
290.217	444.5
290.448	428.5
290.679	449.5
290.91	491.5
291.141	472.5
291.371	464.5
291.602	480.5
291.833	468.5
292.064	472.5
292.295	471.5
292.526	486.5
292.757	501.5
292.987	497.5
293.218	479.5
293.449	532.5
293.68	577.5
293.91	590.5
294.141	539.5
294.372	532.5
294.603	557.5
294.833	572.5
295.064	523.5
295.295	483.5
295.525	464.5
295.756	459.5
295.987	432.5
296.217	441.5
296.448	485.5
296.679	465.5
296.909	469.5
297.14	486.5
297.37	484.5
297.601	488.5
297.831	517.5
298.062	506.5
298.292	483.5
298.523	484.5
298.753	478.5
298.984	457.5
299.214	475.5
299.445	492.5
299.675	488.5
299.905	483.5
300.136	468.5
300.366	472.5
300.597	467.5
300.827	473.5
301.057	498.5
301.288	521.5
301.518	503.5
301.748	509.5
301.979	537.5
302.209	559.5
302.439	573.5
302.669	583.5
302.9	566.5
303.13	523.5
303.36	509.5
303.59	514.5
303.82	515.5
304.051	513.5
304.281	545.5
304.511	532.5
304.741	551.5
304.971	593.5
305.201	630.5
305.431	561.5
305.661	476.5
305.891	439.5
306.121	431.5
306.352	500.5
306.582	504.5
306.812	522.5
307.042	562.5
307.272	589.5
307.502	616.5
307.731	624.5
307.961	638.5
308.191	589.5
308.421	514.5
308.651	497.5
308.881	483.5
309.111	517.5
309.341	483.5
309.571	495.5
309.8	488.5
310.03	487.5
310.26	500.5
310.49	489.5
310.72	511.5
310.949	541.5
311.179	523.5
311.409	502.5
311.639	499.5
311.868	490.5
312.098	516.5
312.328	491.5
312.557	482.5
312.787	508.5
313.017	517.5
313.246	530.5
313.476	538.5
313.706	560.5
313.935	538.5
314.165	539.5
314.394	569.5
314.624	574.5
314.853	608.5
315.083	637.5
315.312	635.5
315.542	599.5
315.771	547.5
316.001	562.5
316.23	576.5
316.46	554.5
316.689	571.5
316.919	545.5
317.148	517.5
317.377	536.5
317.607	564.5
317.836	621.5
318.065	635.5
318.295	597.5
318.524	580.5
318.753	580.5
318.983	586.5
319.212	565.5
319.441	560.5
319.67	561.5
319.9	565.5
320.129	588.5
320.358	629.5
320.587	608.5
320.816	608.5
321.046	588.5
321.275	604.5
321.504	606.5
321.733	621.5
321.962	594.5
322.191	538.5
322.42	556.5
322.649	545.5
322.878	552.5
323.108	562.5
323.337	590.5
323.566	584.5
323.795	585.5
324.024	580.5
324.253	572.5
324.482	566.5
324.71	548.5
324.939	537.5
325.168	583.5
325.397	562.5
325.626	576.5
325.855	571.5
326.084	569.5
326.313	564.5
326.542	583.5
326.77	594.5
326.999	565.5
327.228	549.5
327.457	518.5
327.686	543.5
327.914	541.5
328.143	562.5
328.372	556.5
328.6	539.5
328.829	551.5
329.058	565.5
329.287	542.5
329.515	569.5
329.744	584.5
329.972	587.5
330.201	604.5
330.43	623.5
330.658	591.5
330.887	567.5
331.115	620.5
331.344	597.5
331.572	588.5
331.801	590.5
332.03	584.5
332.258	597.5
332.486	613.5
332.715	601.5
332.943	595.5
333.172	599.5
333.4	616.5
333.629	628.5
333.857	668.5
334.085	732.5
334.314	834.5
334.542	855.5
334.771	771.5
334.999	693.5
335.227	657.5
335.455	621.5
335.684	635.5
335.912	673.5
336.14	677.5
336.369	631.5
336.597	603.5
336.825	619.5
337.053	628.5
337.281	665.5
337.51	680.5
337.738	716.5
337.966	660.5
338.194	612.5
338.422	603.5
338.65	586.5
338.878	600.5
339.106	568.5
339.334	581.5
339.562	567.5
339.79	585.5
340.018	615.5
340.246	639.5
340.474	626.5
340.702	628.5
340.93	627.5
341.158	607.5
341.386	582.5
341.614	583.5
341.842	598.5
342.07	587.5
342.298	591.5
342.526	600.5
342.754	592.5
342.981	594.5
343.209	611.5
343.437	578.5
343.665	608.5
343.893	599.5
344.12	645.5
344.348	628.5
344.576	592.5
344.804	628.5
345.031	573.5
345.259	582.5
345.487	570.5
345.714	544.5
345.942	563.5
346.17	556.5
346.397	573.5
346.625	575.5
346.853	535.5
347.08	522.5
347.308	551.5
347.535	562.5
347.763	590.5
347.99	557.5
348.218	550.5
348.445	563.5
348.673	596.5
348.9	585.5
349.128	629.5
349.355	612.5
349.583	578.5
349.81	555.5
350.037	546.5
350.265	528.5
350.492	557.5
350.72	561.5
350.947	574.5
351.174	579.5
351.402	549.5
351.629	530.5
351.856	537.5
352.083	537.5
352.311	542.5
352.538	547.5
352.765	554.5
352.992	577.5
353.22	567.5
353.447	548.5
353.674	534.5
353.901	544.5
354.128	531.5
354.355	550.5
354.583	577.5
354.81	575.5
355.037	599.5
355.264	563.5
355.491	568.5
355.718	578.5
355.945	551.5
356.172	555.5
356.399	539.5
356.626	540.5
356.853	588.5
357.08	636.5
357.307	661.5
357.534	651.5
357.761	589.5
357.988	559.5
358.215	540.5
358.441	546.5
358.668	537.5
358.895	564.5
359.122	619.5
359.349	635.5
359.576	621.5
359.802	566.5
360.029	545.5
360.256	547.5
360.483	586.5
360.709	576.5
360.936	611.5
361.163	618.5
361.39	704.5
361.616	717.5
361.843	709.5
362.07	640.5
362.296	587.5
362.523	571.5
362.749	594.5
362.976	603.5
363.203	601.5
363.429	587.5
363.656	539.5
363.882	587.5
364.109	651.5
364.335	659.5
364.562	618.5
364.788	584.5
365.015	607.5
365.241	559.5
365.468	579.5
365.694	624.5
365.92	625.5
366.147	584.5
366.373	571.5
366.599	572.5
366.826	567.5
367.052	561.5
367.278	582.5
367.505	599.5
367.731	609.5
367.957	626.5
368.184	639.5
368.41	661.5
368.636	669.5
368.862	660.5
369.089	657.5
369.315	638.5
369.541	625.5
369.767	587.5
369.993	574.5
370.219	604.5
370.445	610.5
370.672	652.5
370.898	646.5
371.124	655.5
371.35	643.5
371.576	675.5
371.802	655.5
372.028	643.5
372.254	645.5
372.48	621.5
372.706	623.5
372.932	599.5
373.158	604.5
373.384	634.5
373.61	649.5
373.835	649.5
374.061	631.5
374.287	625.5
374.513	620.5
374.739	609.5
374.965	645.5
375.191	628.5
375.416	643.5
375.642	674.5
375.868	713.5
376.094	713.5
376.319	678.5
376.545	655.5
376.771	665.5
376.997	688.5
377.222	682.5
377.448	657.5
377.674	699.5
377.899	689.5
378.125	711.5
378.35	668.5
378.576	621.5
378.802	627.5
379.027	650.5
379.253	649.5
379.478	642.5
379.704	638.5
379.929	653.5
380.155	663.5
380.38	643.5
380.606	668.5
380.831	669.5
381.057	720.5
381.282	712.5
381.507	700.5
381.733	728.5
381.958	743.5
382.184	680.5
382.409	655.5
382.634	675.5
382.86	671.5
383.085	667.5
383.31	704.5
383.535	778.5
383.761	782.5
383.986	769.5
384.211	741.5
384.436	734.5
384.662	756.5
384.887	777.5
385.112	699.5
385.337	730.5
385.562	739.5
385.787	744.5
386.013	768.5
386.238	770.5
386.463	767.5
386.688	825.5
386.913	822.5
387.138	842.5
387.363	791.5
387.588	779.5
387.813	749.5
388.038	792.5
388.263	807.5
388.488	769.5
388.713	710.5
388.938	740.5
389.163	746.5
389.387	752.5
389.612	732.5
389.837	772.5
390.062	757.5
390.287	749.5
390.512	756.5
390.736	752.5
390.961	724.5
391.186	732.5
391.411	736.5
391.636	743.5
391.86	744.5
392.085	752.5
392.31	737.5
392.534	752.5
392.759	758.5
392.984	774.5
393.208	789.5
393.433	800.5
393.658	819.5
393.882	828.5
394.107	787.5
394.331	779.5
394.556	777.5
394.78	748.5
395.005	800.5
395.229	846.5
395.454	877.5
395.678	862.5
395.903	828.5
396.127	809.5
396.352	811.5
396.576	872.5
396.801	848.5
397.025	856.5
397.249	858.5
397.474	818.5
397.698	842.5
397.922	862.5
398.147	888.5
398.371	897.5
398.595	892.5
398.82	881.5
399.044	868.5
399.268	919.5
399.492	975.5
399.717	976.5
399.941	988.5
400.165	993.5
400.389	937.5
400.613	1021.5
400.837	1132.5
401.062	1196.5
401.286	1046.5
401.51	983.5
401.734	977.5
401.958	935.5
402.182	908.5
402.406	902.5
402.63	900.5
402.854	880.5
403.078	912.5
403.302	904.5
403.526	932.5
403.75	934.5
403.974	957.5
404.198	947.5
404.422	980.5
404.645	986.5
404.869	957.5
405.093	900.5
405.317	888.5
405.541	921.5
405.765	928.5
405.988	929.5
406.212	964.5
406.436	947.5
406.66	996.5
406.883	1029.5
407.107	1122.5
407.331	1173.5
407.555	1267.5
407.778	1137.5
408.002	996.5
408.226	939.5
408.449	984.5
408.673	971.5
408.896	959.5
409.12	991.5
409.344	958.5
409.567	927.5
409.791	959.5
410.014	994.5
410.238	1031.5
410.461	1043.5
410.685	988.5
410.908	918.5
411.132	988.5
411.355	947.5
411.578	914.5
411.802	941.5
412.025	933.5
412.249	932.5
412.472	897.5
412.695	950.5
412.919	915.5
413.142	932.5
413.365	933.5
413.589	957.5
413.812	1007.5
414.035	996.5
414.258	945.5
414.482	908.5
414.705	909.5
414.928	897.5
415.151	951.5
415.374	933.5
415.597	920.5
415.821	973.5
416.044	915.5
416.267	947.5
416.49	923.5
416.713	881.5
416.936	933.5
417.159	1010.5
417.382	963.5
417.605	915.5
417.828	950.5
418.051	955.5
418.274	953.5
418.497	912.5
418.72	968.5
418.943	930.5
419.166	951.5
419.389	994.5
419.611	972.5
419.834	962.5
420.057	953.5
420.28	960.5
420.503	949.5
420.726	940.5
420.948	957.5
421.171	948.5
421.394	931.5
421.617	986.5
421.839	996.5
422.062	962.5
422.285	930.5
422.507	938.5
422.73	916.5
422.953	888.5
423.175	888.5
423.398	927.5
423.621	919.5
423.843	945.5
424.066	982.5
424.288	1056.5
424.511	1077.5
424.733	986.5
424.956	938.5
425.178	955.5
425.401	952.5
425.623	943.5
425.846	941.5
426.068	972.5
426.291	979.5
426.513	985.5
426.735	997.5
426.958	1044.5
427.18	1088.5
427.402	1023.5
427.625	1038.5
427.847	983.5
428.069	915.5
428.292	896.5
428.514	923.5
428.736	900.5
428.958	910.5
429.181	945.5
429.403	1052.5
429.625	1228.5
429.847	1043.5
430.069	972.5
430.292	1060.5
430.514	1015.5
430.736	988.5
430.958	964.5
431.18	927.5
431.402	891.5
431.624	852.5
431.846	816.5
432.068	748.5
432.29	743.5
432.512	813.5
432.734	879.5
432.956	915.5
433.178	985.5
433.4	972.5
433.622	952.5
433.844	920.5
434.066	867.5
434.287	794.5
434.509	786.5
434.731	842.5
434.953	904.5
435.175	925.5
435.397	927.5
435.618	877.5
435.84	868.5
436.062	856.5
436.284	919.5
436.505	920.5
436.727	965.5
436.949	931.5
437.17	916.5
437.392	889.5
437.614	855.5
437.835	808.5
438.057	806.5
438.278	848.5
438.5	872.5
438.721	899.5
438.943	901.5
439.165	976.5
439.386	914.5
439.608	979.5
439.829	956.5
440.05	986.5
440.272	969.5
440.493	956.5
440.715	996.5
440.936	1017.5
441.158	1076.5
441.379	1040.5
441.6	1060.5
441.822	1036.5
442.043	1020.5
442.264	974.5
442.486	983.5
442.707	944.5
442.928	957.5
443.149	984.5
443.371	985.5
443.592	1030.5
443.813	1011.5
444.034	1008.5
444.255	1000.5
444.476	1031.5
444.698	1065.5
444.919	1030.5
445.14	1148.5
445.361	1115.5
445.582	1089.5
445.803	1078.5
446.024	1038.5
446.245	1040.5
446.466	1095.5
446.687	1082.5
446.908	1083.5
447.129	1011.5
447.35	1033.5
447.571	1033.5
447.792	944.5
448.013	978.5
448.234	981.5
448.455	990.5
448.675	1002.5
448.896	931.5
449.117	931.5
449.338	931.5
449.559	973.5
449.779	1010.5
450	1051.5
450.221	1059.5
450.442	1004.5
450.662	944.5
450.883	889.5
451.104	868.5
451.324	882.5
451.545	895.5
451.766	877.5
451.986	829.5
452.207	826.5
452.428	812.5
452.648	804.5
452.869	796.5
453.089	787.5
453.31	776.5
453.53	800.5
453.751	748.5
453.971	717.5
454.192	726.5
454.412	788.5
454.633	807.5
454.853	806.5
455.073	759.5
455.294	785.5
455.514	765.5
455.734	758.5
455.955	781.5
456.175	749.5
456.395	771.5
456.616	753.5
456.836	752.5
457.056	730.5
457.276	717.5
457.497	727.5
457.717	707.5
457.937	705.5
458.157	739.5
458.377	686.5
458.598	697.5
458.818	678.5
459.038	707.5
459.258	711.5
459.478	724.5
459.698	707.5
459.918	730.5
460.138	795.5
460.358	832.5
460.578	849.5
460.798	870.5
461.018	874.5
461.238	883.5
461.458	861.5
461.678	859.5
461.898	824.5
462.118	811.5
462.338	833.5
462.558	845.5
462.777	851.5
462.997	864.5
463.217	916.5
463.437	892.5
463.657	831.5
463.876	828.5
464.096	823.5
464.316	840.5
464.536	887.5
464.755	888.5
464.975	898.5
465.195	853.5
465.414	885.5
465.634	871.5
465.854	899.5
466.073	994.5
466.293	965.5
466.512	881.5
466.732	890.5
466.951	915.5
467.171	893.5
467.391	920.5
467.61	888.5
467.829	909.5
468.049	980.5
468.268	1043.5
468.488	981.5
468.707	936.5
468.927	943.5
469.146	897.5
469.365	910.5
469.585	941.5
469.804	932.5
470.023	940.5
470.243	977.5
470.462	945.5
470.681	946.5
470.901	953.5
471.12	928.5
471.339	944.5
471.558	910.5
471.777	909.5
471.997	881.5
472.216	838.5
472.435	811.5
472.654	743.5
472.873	787.5
473.092	859.5
473.311	836.5
473.53	834.5
473.749	830.5
473.968	854.5
474.187	882.5
474.406	859.5
474.625	835.5
474.844	876.5
475.063	881.5
475.282	895.5
475.501	833.5
475.72	874.5
475.939	908.5
476.158	914.5
476.377	866.5
476.596	866.5
476.814	821.5
477.033	816.5
477.252	834.5
477.471	887.5
477.69	909.5
477.908	939.5
478.127	952.5
478.346	1017.5
478.564	1008.5
478.783	1005.5
479.002	1057.5
479.22	1029.5
479.439	1011.5
479.658	1048.5
479.876	988.5
480.095	917.5
480.313	917.5
480.532	876.5
480.751	892.5
480.969	820.5
481.188	789.5
481.406	787.5
481.624	765.5
481.843	785.5
482.061	811.5
482.28	884.5
482.498	888.5
482.717	852.5
482.935	903.5
483.153	969.5
483.372	1034.5
483.59	1058.5
483.808	984.5
484.027	920.5
484.245	982.5
484.463	1220.5
484.681	1308.5
484.9	1047.5
485.118	958.5
485.336	928.5
485.554	905.5
485.772	907.5
485.99	886.5
486.209	914.5
486.427	912.5
486.645	940.5
486.863	1023.5
487.081	1067.5
487.299	1022.5
487.517	1016.5
487.735	1146.5
487.953	1192.5
488.171	1206.5
488.389	1164.5
488.607	1089.5
488.825	1175.5
489.043	1034.5
489.261	978.5
489.479	1081.5
489.696	1058.5
489.914	1049.5
490.132	1019.5
490.35	1095.5
490.568	1186.5
490.786	1208.5
491.003	1216.5
491.221	1271.5
491.439	1307.5
491.657	1319.5
491.874	1411.5
492.092	1478.5
492.31	1538.5
492.527	1444.5
492.745	1382.5
492.963	1339.5
493.18	1309.5
493.398	1377.5
493.615	1356.5
493.833	1284.5
494.05	1220.5
494.268	1276.5
494.485	1250.5
494.703	1246.5
494.92	1230.5
495.138	1264.5
495.355	1236.5
495.573	1289.5
495.79	1292.5
496.008	1301.5
496.225	1271.5
496.442	1254.5
496.66	1241.5
496.877	1251.5
497.094	1237.5
497.312	1215.5
497.529	1196.5
497.746	1218.5
497.963	1298.5
498.181	1336.5
498.398	1252.5
498.615	1216.5
498.832	1158.5
499.049	1150.5
499.267	1144.5
499.484	1259.5
499.701	1385.5
499.918	1360.5
500.135	1476.5
500.352	1599.5
500.569	1591.5
500.786	1707.5
501.003	1582.5
501.22	1435.5
501.437	1386.5
501.654	1434.5
501.871	1351.5
502.088	1194.5
502.305	1194.5
502.522	1141.5
502.739	1097.5
502.956	1092.5
503.172	1033.5
503.389	1031.5
503.606	990.5
503.823	973.5
504.04	992.5
504.256	1011.5
504.473	985.5
504.69	1000.5
504.907	987.5
505.123	998.5
505.34	1073.5
505.557	1371.5
505.773	1128.5
505.99	945.5
506.207	915.5
506.423	897.5
506.64	899.5
506.856	938.5
507.073	1036.5
507.289	1103.5
507.506	1035.5
507.722	877.5
507.939	873.5
508.155	865.5
508.372	854.5
508.588	810.5
508.805	823.5
509.021	790.5
509.238	788.5
509.454	777.5
509.67	755.5
509.887	727.5
510.103	701.5
510.319	745.5
510.536	756.5
510.752	805.5
510.968	761.5
511.184	787.5
511.401	769.5
511.617	738.5
511.833	727.5
512.049	705.5
512.265	704.5
512.481	730.5
512.698	721.5
512.914	794.5
513.13	767.5
513.346	724.5
513.562	684.5
513.778	716.5
513.994	752.5
514.21	764.5
514.426	781.5
514.642	813.5
514.858	796.5
515.074	727.5
515.29	731.5
515.506	754.5
515.721	744.5
515.937	736.5
516.153	805.5
516.369	777.5
516.585	736.5
516.801	716.5
517.016	737.5
517.232	762.5
517.448	773.5
517.664	798.5
517.879	817.5
