Data from WStandard_LampEnergy8_LIBS07252019.E.O._I.C._HRD10591_16-00-27-929.txt Node
Date: Thu Jul 25 16:00:27 EDT 2019
User: cochatt
Spectrometer: HR+D1059
Trigger mode: 1
Integration Time (sec): 1.000000E-1
Scans to average: 1
Electric dark correction enabled: true
Nonlinearity correction enabled: false
Boxcar width: 0
XAxis mode: Wavelengths
Number of Pixels in Spectrum: 2048
>>>>>Begin Spectral Data<<<<<
223.165	-13.69
223.4	-13.69
223.635	-13.69
223.869	-9.69
224.104	-21.69
224.338	-19.69
224.573	-11.69
224.808	-11.69
225.042	-15.69
225.277	-4.69
225.511	-9.69
225.746	-0.69
225.98	6.31
226.215	26.31
226.449	10.31
226.683	20.31
226.918	26.31
227.152	29.31
227.387	38.31
227.621	44.31
227.856	26.31
228.09	59.31
228.324	71.31
228.559	54.31
228.793	110.31
229.027	214.31
229.262	199.31
229.496	188.31
229.73	222.31
229.964	252.31
230.199	268.31
230.433	262.31
230.667	280.31
230.901	268.31
231.136	264.31
231.37	256.31
231.604	257.31
231.838	267.31
232.072	262.31
232.306	259.31
232.541	259.31
232.775	298.31
233.009	314.31
233.243	316.31
233.477	276.31
233.711	290.31
233.945	308.31
234.179	282.31
234.413	324.31
234.647	327.31
234.881	314.31
235.115	304.31
235.349	298.31
235.583	306.31
235.817	308.31
236.051	303.31
236.285	310.31
236.519	325.31
236.753	332.31
236.987	370.31
237.221	373.31
237.455	372.31
237.689	362.31
237.922	336.31
238.156	354.31
238.39	346.31
238.624	359.31
238.858	392.31
239.091	409.31
239.325	406.31
239.559	478.31
239.793	501.31
240.027	507.31
240.26	505.31
240.494	392.31
240.728	378.31
240.961	379.31
241.195	392.31
241.429	423.31
241.662	418.31
241.896	401.31
242.13	377.31
242.363	434.31
242.597	444.31
242.83	439.31
243.064	438.31
243.298	460.31
243.531	469.31
243.765	438.31
243.998	442.31
244.232	421.31
244.465	397.31
244.699	411.31
244.932	470.31
245.166	497.31
245.399	462.31
245.633	463.31
245.866	455.31
246.099	468.31
246.333	466.31
246.566	503.31
246.8	522.31
247.033	579.31
247.266	527.31
247.5	543.31
247.733	526.31
247.966	565.31
248.2	603.31
248.433	574.31
248.666	592.31
248.899	651.31
249.133	732.31
249.366	796.31
249.599	697.31
249.832	614.31
250.066	625.31
250.299	632.31
250.532	551.31
250.765	532.31
250.998	565.31
251.231	585.31
251.465	604.31
251.698	553.31
251.931	562.31
252.164	570.31
252.397	615.31
252.63	605.31
252.863	550.31
253.096	546.31
253.329	562.31
253.562	572.31
253.795	608.31
254.028	599.31
254.261	552.31
254.494	559.31
254.727	544.31
254.96	585.31
255.193	607.31
255.426	708.31
255.659	790.31
255.892	776.31
256.124	652.31
256.357	642.31
256.59	680.31
256.823	679.31
257.056	697.31
257.289	790.31
257.521	884.31
257.754	837.31
257.987	790.31
258.22	802.31
258.452	808.31
258.685	671.31
258.918	681.31
259.151	665.31
259.383	646.31
259.616	592.31
259.849	622.31
260.081	700.31
260.314	774.31
260.547	824.31
260.779	833.31
261.012	723.31
261.244	685.31
261.477	660.31
261.71	696.31
261.942	681.31
262.175	675.31
262.407	684.31
262.64	668.31
262.872	633.31
263.105	617.31
263.337	607.31
263.57	626.31
263.802	640.31
264.035	606.31
264.267	568.31
264.499	574.31
264.732	606.31
264.964	649.31
265.197	686.31
265.429	693.31
265.661	757.31
265.894	821.31
266.126	842.31
266.358	766.31
266.591	825.31
266.823	844.31
267.055	795.31
267.287	749.31
267.52	741.31
267.752	743.31
267.984	746.31
268.216	797.31
268.448	805.31
268.681	777.31
268.913	739.31
269.145	698.31
269.377	681.31
269.609	769.31
269.841	855.31
270.073	990.31
270.306	1080.31
270.538	1115.31
270.77	960.31
271.002	808.31
271.234	781.31
271.466	801.31
271.698	891.31
271.93	1041.31
272.162	1046.31
272.394	942.31
272.626	884.31
272.858	776.31
273.09	700.31
273.322	715.31
273.553	676.31
273.785	688.31
274.017	708.31
274.249	747.31
274.481	736.31
274.713	694.31
274.945	681.31
275.176	696.31
275.408	718.31
275.64	694.31
275.872	690.31
276.104	716.31
276.335	847.31
276.567	910.31
276.799	904.31
277.031	825.31
277.262	813.31
277.494	834.31
277.726	912.31
277.957	902.31
278.189	790.31
278.421	744.31
278.652	728.31
278.884	713.31
279.115	722.31
279.347	723.31
279.579	755.31
279.81	736.31
280.042	783.31
280.273	870.31
280.505	874.31
280.736	876.31
280.968	824.31
281.199	738.31
281.431	707.31
281.662	693.31
281.894	706.31
282.125	746.31
282.356	776.31
282.588	760.31
282.819	780.31
283.051	840.31
283.282	874.31
283.513	855.31
283.745	720.31
283.976	718.31
284.207	712.31
284.439	750.31
284.67	744.31
284.901	735.31
285.132	788.31
285.364	728.31
285.595	753.31
285.826	743.31
286.057	747.31
286.288	760.31
286.52	781.31
286.751	856.31
286.982	826.31
287.213	796.31
287.444	730.31
287.675	730.31
287.906	791.31
288.138	830.31
288.369	800.31
288.6	747.31
288.831	740.31
289.062	749.31
289.293	740.31
289.524	761.31
289.755	770.31
289.986	790.31
290.217	739.31
290.448	750.31
290.679	799.31
290.91	789.31
291.141	803.31
291.371	808.31
291.602	848.31
291.833	814.31
292.064	826.31
292.295	812.31
292.526	854.31
292.757	851.31
292.987	836.31
293.218	799.31
293.449	871.31
293.68	984.31
293.91	986.31
294.141	932.31
294.372	902.31
294.603	919.31
294.833	969.31
295.064	921.31
295.295	837.31
295.525	815.31
295.756	750.31
295.987	738.31
296.217	755.31
296.448	775.31
296.679	776.31
296.909	777.31
297.14	739.31
297.37	797.31
297.601	839.31
297.831	867.31
298.062	874.31
298.292	813.31
298.523	789.31
298.753	789.31
298.984	810.31
299.214	786.31
299.445	833.31
299.675	837.31
299.905	826.31
300.136	790.31
300.366	749.31
300.597	753.31
300.827	780.31
301.057	815.31
301.288	855.31
301.518	870.31
301.748	870.31
301.979	915.31
302.209	924.31
302.439	981.31
302.669	1004.31
302.9	930.31
303.13	861.31
303.36	858.31
303.59	868.31
303.82	844.31
304.051	863.31
304.281	866.31
304.511	873.31
304.741	946.31
304.971	999.31
305.201	1044.31
305.431	954.31
305.661	819.31
305.891	732.31
306.121	759.31
306.352	802.31
306.582	839.31
306.812	870.31
307.042	956.31
307.272	956.31
307.502	959.31
307.731	1068.31
307.961	1096.31
308.191	992.31
308.421	906.31
308.651	841.31
308.881	847.31
309.111	820.31
309.341	807.31
309.571	827.31
309.8	835.31
310.03	817.31
310.26	845.31
310.49	817.31
310.72	834.31
310.949	889.31
311.179	871.31
311.409	873.31
311.639	828.31
311.868	811.31
312.098	851.31
312.328	848.31
312.557	849.31
312.787	854.31
313.017	869.31
313.246	865.31
313.476	894.31
313.706	870.31
313.935	875.31
314.165	892.31
314.394	908.31
314.624	966.31
314.853	1006.31
315.083	1060.31
315.312	1034.31
315.542	982.31
315.771	904.31
316.001	907.31
316.23	941.31
316.46	937.31
316.689	897.31
316.919	886.31
317.148	848.31
317.377	865.31
317.607	978.31
317.836	1038.31
318.065	1045.31
318.295	1025.31
318.524	979.31
318.753	947.31
318.983	931.31
319.212	946.31
319.441	902.31
319.67	898.31
319.9	976.31
320.129	967.31
320.358	1011.31
320.587	1010.31
320.816	1006.31
321.046	978.31
321.275	957.31
321.504	986.31
321.733	1049.31
321.962	1004.31
322.191	916.31
322.42	927.31
322.649	905.31
322.878	900.31
323.108	944.31
323.337	956.31
323.566	948.31
323.795	930.31
324.024	963.31
324.253	918.31
324.482	927.31
324.71	891.31
324.939	849.31
325.168	891.31
325.397	914.31
325.626	956.31
325.855	963.31
326.084	948.31
326.313	976.31
326.542	946.31
326.77	967.31
326.999	941.31
327.228	907.31
327.457	886.31
327.686	862.31
327.914	920.31
328.143	964.31
328.372	944.31
328.6	918.31
328.829	898.31
329.058	874.31
329.287	901.31
329.515	935.31
329.744	964.31
329.972	997.31
330.201	1036.31
330.43	999.31
330.658	977.31
330.887	973.31
331.115	992.31
331.344	990.31
331.572	969.31
331.801	963.31
332.03	1012.31
332.258	966.31
332.486	1030.31
332.715	1010.31
332.943	976.31
333.172	980.31
333.4	982.31
333.629	1058.31
333.857	1101.31
334.085	1172.31
334.314	1352.31
334.542	1403.31
334.771	1268.31
334.999	1143.31
335.227	1076.31
335.455	1040.31
335.684	1037.31
335.912	1089.31
336.14	1083.31
336.369	1041.31
336.597	991.31
336.825	990.31
337.053	1030.31
337.281	1102.31
337.51	1122.31
337.738	1167.31
337.966	1092.31
338.194	1012.31
338.422	1003.31
338.65	982.31
338.878	970.31
339.106	944.31
339.334	946.31
339.562	935.31
339.79	961.31
340.018	992.31
340.246	1061.31
340.474	1051.31
340.702	1012.31
340.93	1019.31
341.158	1011.31
341.386	982.31
341.614	962.31
341.842	968.31
342.07	989.31
342.298	994.31
342.526	997.31
342.754	967.31
342.981	963.31
343.209	936.31
343.437	984.31
343.665	960.31
343.893	1005.31
344.12	1051.31
344.348	1045.31
344.576	1004.31
344.804	990.31
345.031	985.31
345.259	966.31
345.487	948.31
345.714	931.31
345.942	906.31
346.17	914.31
346.397	928.31
346.625	942.31
346.853	885.31
347.08	875.31
347.308	877.31
347.535	910.31
347.763	928.31
347.99	930.31
348.218	888.31
348.445	908.31
348.673	895.31
348.9	941.31
349.128	990.31
349.355	974.31
349.583	956.31
349.81	933.31
350.037	889.31
350.265	862.31
350.492	877.31
350.72	910.31
350.947	941.31
351.174	957.31
351.402	888.31
351.629	842.31
351.856	855.31
352.083	874.31
352.311	857.31
352.538	890.31
352.765	954.31
352.992	942.31
353.22	936.31
353.447	898.31
353.674	902.31
353.901	914.31
354.128	906.31
354.355	906.31
354.583	955.31
354.81	940.31
355.037	939.31
355.264	951.31
355.491	931.31
355.718	952.31
355.945	904.31
356.172	910.31
356.399	906.31
356.626	884.31
356.853	956.31
357.08	1051.31
357.307	1116.31
357.534	1072.31
357.761	932.31
357.988	868.31
358.215	894.31
358.441	907.31
358.668	878.31
358.895	906.31
359.122	969.31
359.349	1046.31
359.576	1000.31
359.802	927.31
360.029	866.31
360.256	901.31
360.483	926.31
360.709	939.31
360.936	974.31
361.163	1031.31
361.39	1102.31
361.616	1138.31
361.843	1133.31
362.07	1050.31
362.296	916.31
362.523	919.31
362.749	924.31
362.976	924.31
363.203	928.31
363.429	908.31
363.656	899.31
363.882	974.31
364.109	1035.31
364.335	1079.31
364.562	1002.31
364.788	964.31
365.015	954.31
365.241	910.31
365.468	930.31
365.694	969.31
365.92	997.31
366.147	958.31
366.373	934.31
366.599	872.31
366.826	898.31
367.052	908.31
367.278	891.31
367.505	957.31
367.731	944.31
367.957	974.31
368.184	1015.31
368.41	1030.31
368.636	1050.31
368.862	1044.31
369.089	1038.31
369.315	1055.31
369.541	957.31
369.767	931.31
369.993	918.31
370.219	932.31
370.445	970.31
370.672	1018.31
370.898	1054.31
371.124	1037.31
371.35	983.31
371.576	1044.31
371.802	1059.31
372.028	1014.31
372.254	952.31
372.48	954.31
372.706	946.31
372.932	938.31
373.158	979.31
373.384	962.31
373.61	964.31
373.835	1065.31
374.061	983.31
374.287	990.31
374.513	987.31
374.739	977.31
374.965	975.31
375.191	1015.31
375.416	1019.31
375.642	1030.31
375.868	1083.31
376.094	1094.31
376.319	1076.31
376.545	992.31
376.771	1062.31
376.997	1082.31
377.222	1079.31
377.448	1028.31
377.674	1045.31
377.899	1051.31
378.125	1074.31
378.35	1101.31
378.576	975.31
378.802	944.31
379.027	925.31
379.253	980.31
379.478	961.31
379.704	980.31
379.929	976.31
380.155	987.31
380.38	1006.31
380.606	983.31
380.831	1024.31
381.057	1080.31
381.282	1057.31
381.507	1078.31
381.733	1096.31
381.958	1138.31
382.184	1039.31
382.409	1026.31
382.634	1030.31
382.86	1013.31
383.085	1011.31
383.31	1085.31
383.535	1158.31
383.761	1207.31
383.986	1147.31
384.211	1099.31
384.436	1118.31
384.662	1158.31
384.887	1231.31
385.112	1120.31
385.337	1148.31
385.562	1139.31
385.787	1108.31
386.013	1164.31
386.238	1151.31
386.463	1152.31
386.688	1259.31
386.913	1309.31
387.138	1210.31
387.363	1168.31
387.588	1168.31
387.813	1163.31
388.038	1203.31
388.263	1202.31
388.488	1130.31
388.713	1087.31
388.938	1084.31
389.163	1110.31
389.387	1135.31
389.612	1095.31
389.837	1100.31
390.062	1126.31
390.287	1118.31
390.512	1113.31
390.736	1118.31
390.961	1085.31
391.186	1088.31
391.411	1107.31
391.636	1105.31
391.86	1118.31
392.085	1139.31
392.31	1148.31
392.534	1149.31
392.759	1123.31
392.984	1128.31
393.208	1139.31
393.433	1190.31
393.658	1232.31
393.882	1190.31
394.107	1141.31
394.331	1144.31
394.556	1108.31
394.78	1151.31
395.005	1195.31
395.229	1246.31
395.454	1306.31
395.678	1297.31
395.903	1239.31
396.127	1174.31
396.352	1225.31
396.576	1238.31
396.801	1266.31
397.025	1232.31
397.249	1229.31
397.474	1229.31
397.698	1204.31
397.922	1251.31
398.147	1307.31
398.371	1362.31
398.595	1336.31
398.82	1274.31
399.044	1288.31
399.268	1376.31
399.492	1462.31
399.717	1485.31
399.941	1503.31
400.165	1478.31
400.389	1455.31
400.613	1449.31
400.837	1660.31
401.062	1778.31
401.286	1520.31
401.51	1433.31
401.734	1463.31
401.958	1397.31
402.182	1323.31
402.406	1277.31
402.63	1275.31
402.854	1287.31
403.078	1287.31
403.302	1322.31
403.526	1350.31
403.75	1322.31
403.974	1344.31
404.198	1349.31
404.422	1404.31
404.645	1486.31
404.869	1405.31
405.093	1319.31
405.317	1290.31
405.541	1328.31
405.765	1339.31
405.988	1327.31
406.212	1380.31
406.436	1418.31
406.66	1462.31
406.883	1501.31
407.107	1627.31
407.331	1763.31
407.555	1920.31
407.778	1657.31
408.002	1456.31
408.226	1415.31
408.449	1428.31
408.673	1393.31
408.896	1377.31
409.12	1389.31
409.344	1374.31
409.567	1314.31
409.791	1326.31
410.014	1411.31
410.238	1416.31
410.461	1527.31
410.685	1389.31
410.908	1320.31
411.132	1322.31
411.355	1351.31
411.578	1327.31
411.802	1342.31
412.025	1368.31
412.249	1325.31
412.472	1312.31
412.695	1330.31
412.919	1298.31
413.142	1286.31
413.365	1323.31
413.589	1376.31
413.812	1453.31
414.035	1431.31
414.258	1348.31
414.482	1317.31
414.705	1320.31
414.928	1301.31
415.151	1284.31
415.374	1308.31
415.597	1324.31
415.821	1303.31
416.044	1342.31
416.267	1325.31
416.49	1238.31
416.713	1283.31
416.936	1302.31
417.159	1366.31
417.382	1375.31
417.605	1298.31
417.828	1345.31
418.051	1301.31
418.274	1301.31
418.497	1271.31
418.72	1262.31
418.943	1226.31
419.166	1308.31
419.389	1374.31
419.611	1273.31
419.834	1271.31
420.057	1310.31
420.28	1298.31
420.503	1302.31
420.726	1295.31
420.948	1286.31
421.171	1246.31
421.394	1261.31
421.617	1338.31
421.839	1337.31
422.062	1319.31
422.285	1291.31
422.507	1291.31
422.73	1232.31
422.953	1205.31
423.175	1218.31
423.398	1279.31
423.621	1275.31
423.843	1289.31
424.066	1323.31
424.288	1351.31
424.511	1416.31
424.733	1335.31
424.956	1250.31
425.178	1226.31
425.401	1239.31
425.623	1270.31
425.846	1256.31
426.068	1328.31
426.291	1324.31
426.513	1309.31
426.735	1287.31
426.958	1408.31
427.18	1501.31
427.402	1366.31
427.625	1383.31
427.847	1387.31
428.069	1296.31
428.292	1284.31
428.514	1219.31
428.736	1220.31
428.958	1219.31
429.181	1250.31
429.403	1455.31
429.625	1762.31
429.847	1476.31
430.069	1312.31
430.292	1430.31
430.514	1434.31
430.736	1374.31
430.958	1371.31
431.18	1278.31
431.402	1232.31
431.624	1183.31
431.846	1158.31
432.068	1132.31
432.29	1147.31
432.512	1173.31
432.734	1206.31
432.956	1263.31
433.178	1315.31
433.4	1307.31
433.622	1335.31
433.844	1234.31
434.066	1178.31
434.287	1164.31
434.509	1196.31
434.731	1275.31
434.953	1342.31
435.175	1306.31
435.397	1281.31
435.618	1253.31
435.84	1240.31
436.062	1204.31
436.284	1238.31
436.505	1319.31
436.727	1292.31
436.949	1269.31
437.17	1192.31
437.392	1206.31
437.614	1193.31
437.835	1176.31
438.057	1247.31
438.278	1244.31
438.5	1205.31
438.721	1235.31
438.943	1266.31
439.165	1227.31
439.386	1194.31
439.608	1228.31
439.829	1211.31
440.05	1246.31
440.272	1253.31
440.493	1232.31
440.715	1263.31
440.936	1343.31
441.158	1421.31
441.379	1370.31
441.6	1373.31
441.822	1381.31
442.043	1334.31
442.264	1287.31
442.486	1278.31
442.707	1259.31
442.928	1264.31
443.149	1293.31
443.371	1342.31
443.592	1400.31
443.813	1343.31
444.034	1315.31
444.255	1341.31
444.476	1380.31
444.698	1396.31
444.919	1400.31
445.14	1476.31
445.361	1446.31
445.582	1414.31
445.803	1398.31
446.024	1386.31
446.245	1433.31
446.466	1369.31
446.687	1330.31
446.908	1345.31
447.129	1309.31
447.35	1295.31
447.571	1273.31
447.792	1230.31
448.013	1252.31
448.234	1243.31
448.455	1317.31
448.675	1318.31
448.896	1214.31
449.117	1152.31
449.338	1247.31
449.559	1294.31
449.779	1337.31
450	1418.31
450.221	1463.31
450.442	1395.31
450.662	1307.31
450.883	1154.31
451.104	1160.31
451.324	1192.31
451.545	1188.31
451.766	1176.31
451.986	1135.31
452.207	1124.31
452.428	1120.31
452.648	1078.31
452.869	1100.31
453.089	1147.31
453.31	1149.31
453.53	1191.31
453.751	1115.31
453.971	1037.31
454.192	1096.31
454.412	1127.31
454.633	1109.31
454.853	1067.31
455.073	1086.31
455.294	1062.31
455.514	1086.31
455.734	1060.31
455.955	1054.31
456.175	1062.31
456.395	1050.31
456.616	1066.31
456.836	1109.31
457.056	1088.31
457.276	1078.31
457.497	1032.31
457.717	1036.31
457.937	1034.31
458.157	1069.31
458.377	1024.31
458.598	1026.31
458.818	1039.31
459.038	1114.31
459.258	1125.31
459.478	1148.31
459.698	1116.31
459.918	1149.31
460.138	1180.31
460.358	1243.31
460.578	1240.31
460.798	1290.31
461.018	1308.31
461.238	1298.31
461.458	1278.31
461.678	1259.31
461.898	1236.31
462.118	1215.31
462.338	1258.31
462.558	1241.31
462.777	1244.31
462.997	1332.31
463.217	1326.31
463.437	1325.31
463.657	1295.31
463.876	1289.31
464.096	1279.31
464.316	1255.31
464.536	1306.31
464.755	1316.31
464.975	1319.31
465.195	1252.31
465.414	1276.31
465.634	1291.31
465.854	1287.31
466.073	1404.31
466.293	1356.31
466.512	1194.31
466.732	1202.31
466.951	1269.31
467.171	1244.31
467.391	1178.31
467.61	1173.31
467.829	1235.31
468.049	1342.31
468.268	1430.31
468.488	1366.31
468.707	1258.31
468.927	1256.31
469.146	1222.31
469.365	1207.31
469.585	1235.31
469.804	1229.31
470.023	1221.31
470.243	1252.31
470.462	1214.31
470.681	1186.31
470.901	1227.31
471.12	1238.31
471.339	1208.31
471.558	1202.31
471.777	1195.31
471.997	1208.31
472.216	1174.31
472.435	1125.31
472.654	1118.31
472.873	1158.31
473.092	1196.31
473.311	1177.31
473.53	1110.31
473.749	1149.31
473.968	1172.31
474.187	1218.31
474.406	1220.31
474.625	1178.31
474.844	1199.31
475.063	1200.31
475.282	1243.31
475.501	1192.31
475.72	1224.31
475.939	1295.31
476.158	1225.31
476.377	1195.31
476.596	1216.31
476.814	1234.31
477.033	1200.31
477.252	1294.31
477.471	1322.31
477.69	1295.31
477.908	1259.31
478.127	1338.31
478.346	1414.31
478.564	1430.31
478.783	1381.31
479.002	1424.31
479.22	1438.31
479.439	1443.31
479.658	1556.31
479.876	1492.31
480.095	1392.31
480.313	1308.31
480.532	1254.31
480.751	1313.31
480.969	1308.31
481.188	1237.31
481.406	1250.31
481.624	1202.31
481.843	1253.31
482.061	1257.31
482.28	1338.31
482.498	1348.31
482.717	1262.31
482.935	1318.31
483.153	1330.31
483.372	1338.31
483.59	1368.31
483.808	1344.31
484.027	1343.31
484.245	1446.31
484.463	1732.31
484.681	1895.31
484.9	1422.31
485.118	1368.31
485.336	1334.31
485.554	1378.31
485.772	1386.31
485.99	1401.31
486.209	1398.31
486.427	1376.31
486.645	1367.31
486.863	1420.31
487.081	1445.31
487.299	1445.31
487.517	1442.31
487.735	1449.31
487.953	1515.31
488.171	1486.31
488.389	1420.31
488.607	1452.31
488.825	1614.31
489.043	1530.31
489.261	1423.31
489.479	1468.31
489.696	1498.31
489.914	1466.31
490.132	1388.31
490.35	1442.31
490.568	1530.31
490.786	1495.31
491.003	1484.31
491.221	1550.31
491.439	1574.31
491.657	1610.31
491.874	1613.31
492.092	1666.31
492.31	1708.31
492.527	1667.31
492.745	1628.31
492.963	1592.31
493.18	1581.31
493.398	1674.31
493.615	1711.31
493.833	1609.31
