Data from WStandard_LampEnergy8_LIBS07252019.E.O._I.C._HRD10591_16-00-48-930.txt Node
Date: Thu Jul 25 16:00:48 EDT 2019
User: cochatt
Spectrometer: HR+D1059
Trigger mode: 1
Integration Time (sec): 1.000000E-1
Scans to average: 1
Electric dark correction enabled: true
Nonlinearity correction enabled: false
Boxcar width: 0
XAxis mode: Wavelengths
Number of Pixels in Spectrum: 2048
>>>>>Begin Spectral Data<<<<<
223.165	-15.81
223.4	-15.81
223.635	-15.81
223.869	-8.81
224.104	-12.81
224.338	-11.81
224.573	-14.81
224.808	-19.81
225.042	-14.81
225.277	-11.81
225.511	-9.81
225.746	3.19
225.98	23.19
226.215	18.19
226.449	12.19
226.683	24.19
226.918	20.19
227.152	19.19
227.387	21.19
227.621	39.19
227.856	48.19
228.09	34.19
228.324	51.19
228.559	45.19
228.793	87.19
229.027	193.19
229.262	211.19
229.496	207.19
229.73	204.19
229.964	245.19
230.199	243.19
230.433	255.19
230.667	262.19
230.901	284.19
231.136	242.19
231.37	256.19
231.604	251.19
231.838	251.19
232.072	241.19
232.306	251.19
232.541	260.19
232.775	292.19
233.009	323.19
233.243	308.19
233.477	278.19
233.711	281.19
233.945	321.19
234.179	284.19
234.413	282.19
234.647	316.19
234.881	308.19
235.115	284.19
235.349	290.19
235.583	267.19
235.817	274.19
236.051	273.19
236.285	300.19
236.519	318.19
236.753	339.19
236.987	329.19
237.221	340.19
237.455	375.19
237.689	365.19
237.922	343.19
238.156	331.19
238.39	335.19
238.624	355.19
238.858	380.19
239.091	384.19
239.325	415.19
239.559	472.19
239.793	462.19
240.027	485.19
240.26	469.19
240.494	369.19
240.728	360.19
240.961	367.19
241.195	373.19
241.429	402.19
241.662	396.19
241.896	373.19
242.13	391.19
242.363	428.19
242.597	454.19
242.83	417.19
243.064	448.19
243.298	458.19
243.531	472.19
243.765	463.19
243.998	431.19
244.232	391.19
244.465	391.19
244.699	398.19
244.932	451.19
245.166	486.19
245.399	457.19
245.633	435.19
245.866	439.19
246.099	468.19
246.333	456.19
246.566	458.19
246.8	517.19
247.033	546.19
247.266	518.19
247.5	506.19
247.733	517.19
247.966	556.19
248.2	575.19
248.433	552.19
248.666	578.19
248.899	661.19
249.133	711.19
249.366	782.19
249.599	651.19
249.832	595.19
250.066	592.19
250.299	575.19
250.532	568.19
250.765	522.19
250.998	555.19
251.231	565.19
251.465	578.19
251.698	552.19
251.931	569.19
252.164	578.19
252.397	617.19
252.63	584.19
252.863	548.19
253.096	542.19
253.329	549.19
253.562	591.19
253.795	604.19
254.028	575.19
254.261	546.19
254.494	564.19
254.727	533.19
254.96	544.19
255.193	614.19
255.426	685.19
255.659	735.19
255.892	737.19
256.124	637.19
256.357	636.19
256.59	676.19
256.823	671.19
257.056	653.19
257.289	778.19
257.521	861.19
257.754	774.19
257.987	758.19
258.22	839.19
258.452	762.19
258.685	667.19
258.918	631.19
259.151	655.19
259.383	605.19
259.616	569.19
259.849	613.19
260.081	649.19
260.314	730.19
260.547	772.19
260.779	795.19
261.012	740.19
261.244	665.19
261.477	654.19
261.71	676.19
261.942	668.19
262.175	653.19
262.407	716.19
262.64	637.19
262.872	593.19
263.105	597.19
263.337	614.19
263.57	627.19
263.802	608.19
264.035	569.19
264.267	536.19
264.499	535.19
264.732	592.19
264.964	625.19
265.197	654.19
265.429	668.19
265.661	731.19
265.894	850.19
266.126	822.19
266.358	759.19
266.591	789.19
266.823	798.19
267.055	748.19
267.287	757.19
267.52	717.19
267.752	669.19
267.984	744.19
268.216	774.19
268.448	778.19
268.681	753.19
268.913	687.19
269.145	653.19
269.377	669.19
269.609	714.19
269.841	825.19
270.073	972.19
270.306	1059.19
270.538	1029.19
270.77	923.19
271.002	822.19
271.234	781.19
271.466	794.19
271.698	863.19
271.93	977.19
272.162	970.19
272.394	892.19
272.626	871.19
272.858	761.19
273.09	694.19
273.322	696.19
273.553	671.19
273.785	662.19
274.017	673.19
274.249	727.19
274.481	740.19
274.713	679.19
274.945	659.19
275.176	660.19
275.408	678.19
275.64	665.19
275.872	651.19
276.104	711.19
276.335	788.19
276.567	867.19
276.799	891.19
277.031	800.19
277.262	795.19
277.494	823.19
277.726	885.19
277.957	838.19
278.189	774.19
278.421	733.19
278.652	683.19
278.884	699.19
279.115	728.19
279.347	712.19
279.579	712.19
279.81	737.19
280.042	806.19
280.273	851.19
280.505	823.19
280.736	837.19
280.968	831.19
281.199	728.19
281.431	677.19
281.662	663.19
281.894	704.19
282.125	711.19
282.356	739.19
282.588	735.19
282.819	747.19
283.051	793.19
283.282	871.19
283.513	812.19
283.745	741.19
283.976	713.19
284.207	711.19
284.439	699.19
284.67	724.19
284.901	765.19
285.132	755.19
285.364	730.19
285.595	744.19
285.826	740.19
286.057	741.19
286.288	738.19
286.52	779.19
286.751	820.19
286.982	847.19
287.213	755.19
287.444	706.19
287.675	712.19
287.906	777.19
288.138	793.19
288.369	803.19
288.6	748.19
288.831	706.19
289.062	730.19
289.293	735.19
289.524	759.19
289.755	766.19
289.986	750.19
290.217	694.19
290.448	744.19
290.679	758.19
290.91	768.19
291.141	796.19
291.371	779.19
291.602	764.19
291.833	786.19
292.064	804.19
292.295	792.19
292.526	842.19
292.757	857.19
292.987	792.19
293.218	794.19
293.449	848.19
293.68	940.19
293.91	991.19
294.141	931.19
294.372	868.19
294.603	905.19
294.833	957.19
295.064	883.19
295.295	797.19
295.525	764.19
295.756	743.19
295.987	718.19
296.217	754.19
296.448	766.19
296.679	749.19
296.909	744.19
297.14	752.19
297.37	772.19
297.601	851.19
297.831	865.19
298.062	842.19
298.292	771.19
298.523	738.19
298.753	777.19
298.984	803.19
299.214	779.19
299.445	797.19
299.675	825.19
299.905	789.19
300.136	780.19
300.366	748.19
300.597	758.19
300.827	758.19
301.057	773.19
301.288	833.19
301.518	850.19
301.748	859.19
301.979	899.19
302.209	887.19
302.439	947.19
302.669	963.19
302.9	916.19
303.13	824.19
303.36	820.19
303.59	860.19
303.82	839.19
304.051	844.19
304.281	829.19
304.511	874.19
304.741	915.19
304.971	982.19
305.201	1055.19
305.431	929.19
305.661	797.19
305.891	736.19
306.121	739.19
306.352	771.19
306.582	812.19
306.812	864.19
307.042	915.19
307.272	920.19
307.502	963.19
307.731	1026.19
307.961	1034.19
308.191	964.19
308.421	851.19
308.651	797.19
308.881	811.19
309.111	789.19
309.341	785.19
309.571	789.19
309.8	820.19
310.03	801.19
310.26	776.19
310.49	791.19
310.72	828.19
310.949	872.19
311.179	855.19
311.409	840.19
311.639	823.19
311.868	820.19
312.098	844.19
312.328	842.19
312.557	812.19
312.787	834.19
313.017	859.19
313.246	844.19
313.476	836.19
313.706	882.19
313.935	863.19
314.165	868.19
314.394	922.19
314.624	923.19
314.853	987.19
315.083	1005.19
315.312	1003.19
315.542	968.19
315.771	855.19
316.001	872.19
316.23	941.19
316.46	915.19
316.689	889.19
316.919	843.19
317.148	847.19
317.377	858.19
317.607	928.19
317.836	1035.19
318.065	1025.19
318.295	998.19
318.524	981.19
318.753	931.19
318.983	931.19
319.212	895.19
319.441	905.19
319.67	859.19
319.9	905.19
320.129	949.19
320.358	1000.19
320.587	983.19
320.816	985.19
321.046	981.19
321.275	936.19
321.504	988.19
321.733	1044.19
321.962	966.19
322.191	911.19
322.42	899.19
322.649	899.19
322.878	884.19
323.108	881.19
323.337	908.19
323.566	947.19
323.795	919.19
324.024	951.19
324.253	905.19
324.482	915.19
324.71	883.19
324.939	868.19
325.168	885.19
325.397	909.19
325.626	923.19
325.855	909.19
326.084	931.19
326.313	888.19
326.542	930.19
326.77	953.19
326.999	945.19
327.228	907.19
327.457	866.19
327.686	880.19
327.914	888.19
328.143	887.19
328.372	904.19
328.6	884.19
328.829	891.19
329.058	839.19
329.287	889.19
329.515	945.19
329.744	954.19
329.972	965.19
330.201	999.19
330.43	1015.19
330.658	940.19
330.887	959.19
331.115	956.19
331.344	949.19
331.572	940.19
331.801	957.19
332.03	966.19
332.258	961.19
332.486	988.19
332.715	1001.19
332.943	982.19
333.172	941.19
333.4	981.19
333.629	1005.19
333.857	1075.19
334.085	1169.19
334.314	1345.19
334.542	1369.19
334.771	1247.19
334.999	1146.19
335.227	1071.19
335.455	1028.19
335.684	996.19
335.912	1052.19
336.14	1072.19
336.369	1018.19
336.597	1002.19
336.825	968.19
337.053	1025.19
337.281	1074.19
337.51	1108.19
337.738	1149.19
337.966	1063.19
338.194	1003.19
338.422	952.19
338.65	959.19
338.878	958.19
339.106	927.19
339.334	908.19
339.562	881.19
339.79	945.19
340.018	978.19
340.246	1016.19
340.474	1003.19
340.702	998.19
340.93	1004.19
341.158	985.19
341.386	949.19
341.614	973.19
341.842	949.19
342.07	968.19
342.298	981.19
342.526	971.19
342.754	935.19
342.981	928.19
343.209	952.19
343.437	930.19
343.665	961.19
343.893	969.19
344.12	1008.19
344.348	1023.19
344.576	962.19
344.804	945.19
345.031	928.19
345.259	950.19
345.487	927.19
345.714	903.19
345.942	889.19
346.17	883.19
346.397	913.19
346.625	959.19
346.853	881.19
347.08	877.19
347.308	883.19
347.535	875.19
347.763	928.19
347.99	932.19
348.218	890.19
348.445	888.19
348.673	908.19
348.9	949.19
349.128	957.19
349.355	975.19
349.583	945.19
349.81	909.19
350.037	860.19
350.265	868.19
350.492	867.19
350.72	878.19
350.947	907.19
351.174	921.19
351.402	887.19
351.629	863.19
351.856	834.19
352.083	832.19
352.311	855.19
352.538	871.19
352.765	903.19
352.992	912.19
353.22	891.19
353.447	850.19
353.674	899.19
353.901	861.19
354.128	897.19
354.355	873.19
354.583	917.19
354.81	931.19
355.037	942.19
355.264	936.19
355.491	909.19
355.718	930.19
355.945	881.19
356.172	866.19
356.399	880.19
356.626	869.19
356.853	934.19
357.08	1013.19
357.307	1093.19
357.534	1018.19
357.761	952.19
357.988	879.19
358.215	826.19
358.441	855.19
358.668	854.19
358.895	877.19
359.122	955.19
359.349	1013.19
359.576	977.19
359.802	921.19
360.029	874.19
360.256	882.19
360.483	887.19
360.709	929.19
360.936	965.19
361.163	976.19
361.39	1090.19
361.616	1098.19
361.843	1099.19
362.07	998.19
362.296	915.19
362.523	897.19
362.749	869.19
362.976	908.19
363.203	963.19
363.429	891.19
363.656	887.19
363.882	930.19
364.109	1043.19
364.335	1092.19
364.562	1021.19
364.788	969.19
365.015	908.19
365.241	895.19
365.468	902.19
365.694	963.19
365.92	973.19
366.147	912.19
366.373	886.19
366.599	879.19
366.826	864.19
367.052	862.19
367.278	909.19
367.505	925.19
367.731	923.19
367.957	937.19
368.184	964.19
368.41	1025.19
368.636	1039.19
368.862	1037.19
369.089	1020.19
369.315	1009.19
369.541	955.19
369.767	904.19
369.993	895.19
370.219	931.19
370.445	933.19
370.672	1011.19
370.898	1051.19
371.124	1015.19
371.35	967.19
371.576	1011.19
371.802	1001.19
372.028	969.19
372.254	953.19
372.48	931.19
372.706	899.19
372.932	929.19
373.158	914.19
373.384	933.19
373.61	967.19
373.835	1020.19
374.061	967.19
374.287	976.19
374.513	961.19
374.739	975.19
374.965	972.19
375.191	994.19
375.416	996.19
375.642	1011.19
375.868	1079.19
376.094	1053.19
376.319	1057.19
376.545	1001.19
376.771	1023.19
376.997	1066.19
377.222	1030.19
377.448	1017.19
377.674	1029.19
377.899	1009.19
378.125	1076.19
378.35	1051.19
378.576	977.19
378.802	929.19
379.027	941.19
379.253	964.19
379.478	982.19
379.704	965.19
379.929	956.19
380.155	969.19
380.38	978.19
380.606	993.19
380.831	1007.19
381.057	1029.19
381.282	1005.19
381.507	1011.19
381.733	1055.19
381.958	1138.19
382.184	1007.19
382.409	1029.19
382.634	1017.19
382.86	1012.19
383.085	984.19
383.31	1069.19
383.535	1151.19
383.761	1183.19
383.986	1147.19
384.211	1071.19
384.436	1099.19
384.662	1155.19
384.887	1166.19
385.112	1112.19
385.337	1132.19
385.562	1099.19
385.787	1107.19
386.013	1134.19
386.238	1135.19
386.463	1115.19
386.688	1228.19
386.913	1271.19
387.138	1215.19
387.363	1161.19
387.588	1128.19
387.813	1131.19
388.038	1156.19
388.263	1180.19
388.488	1125.19
388.713	1066.19
388.938	1068.19
389.163	1060.19
389.387	1109.19
389.612	1107.19
389.837	1123.19
390.062	1121.19
390.287	1096.19
390.512	1128.19
390.736	1099.19
390.961	1080.19
391.186	1043.19
391.411	1087.19
391.636	1077.19
391.86	1092.19
392.085	1077.19
392.31	1101.19
392.534	1094.19
392.759	1138.19
392.984	1130.19
393.208	1169.19
393.433	1128.19
393.658	1201.19
393.882	1190.19
394.107	1128.19
394.331	1084.19
394.556	1135.19
394.78	1104.19
395.005	1169.19
395.229	1228.19
395.454	1280.19
395.678	1242.19
395.903	1199.19
396.127	1163.19
396.352	1194.19
396.576	1212.19
396.801	1236.19
397.025	1216.19
397.249	1218.19
397.474	1187.19
397.698	1188.19
397.922	1237.19
398.147	1302.19
398.371	1357.19
398.595	1283.19
398.82	1261.19
399.044	1290.19
399.268	1332.19
399.492	1420.19
399.717	1480.19
399.941	1465.19
400.165	1439.19
400.389	1408.19
400.613	1425.19
400.837	1627.19
401.062	1815.19
401.286	1464.19
401.51	1421.19
401.734	1433.19
401.958	1369.19
402.182	1314.19
402.406	1262.19
402.63	1259.19
402.854	1285.19
403.078	1277.19
403.302	1263.19
403.526	1332.19
403.75	1335.19
403.974	1370.19
404.198	1351.19
404.422	1394.19
404.645	1453.19
404.869	1422.19
405.093	1283.19
405.317	1252.19
405.541	1315.19
405.765	1332.19
405.988	1357.19
406.212	1355.19
406.436	1368.19
406.66	1449.19
406.883	1444.19
407.107	1667.19
407.331	1741.19
407.555	1856.19
407.778	1657.19
408.002	1409.19
408.226	1381.19
408.449	1383.19
408.673	1355.19
408.896	1357.19
409.12	1354.19
409.344	1380.19
409.567	1303.19
409.791	1379.19
410.014	1385.19
410.238	1484.19
410.461	1482.19
410.685	1336.19
410.908	1306.19
411.132	1358.19
411.355	1329.19
411.578	1291.19
411.802	1335.19
412.025	1342.19
412.249	1328.19
412.472	1244.19
412.695	1282.19
412.919	1271.19
413.142	1260.19
413.365	1308.19
413.589	1356.19
413.812	1413.19
414.035	1396.19
414.258	1319.19
414.482	1255.19
414.705	1241.19
414.928	1276.19
415.151	1273.19
415.374	1305.19
415.597	1320.19
415.821	1306.19
416.044	1348.19
416.267	1323.19
416.49	1255.19
416.713	1250.19
416.936	1302.19
417.159	1346.19
417.382	1328.19
417.605	1287.19
417.828	1305.19
418.051	1319.19
418.274	1289.19
418.497	1270.19
418.72	1214.19
418.943	1239.19
419.166	1312.19
419.389	1353.19
419.611	1303.19
419.834	1277.19
420.057	1304.19
420.28	1259.19
420.503	1258.19
420.726	1297.19
420.948	1268.19
421.171	1243.19
421.394	1277.19
421.617	1318.19
421.839	1320.19
422.062	1282.19
422.285	1267.19
422.507	1290.19
422.73	1241.19
422.953	1203.19
423.175	1220.19
423.398	1219.19
423.621	1233.19
423.843	1281.19
424.066	1309.19
424.288	1370.19
424.511	1358.19
424.733	1342.19
424.956	1193.19
425.178	1205.19
425.401	1212.19
425.623	1237.19
425.846	1227.19
426.068	1323.19
426.291	1281.19
426.513	1287.19
426.735	1304.19
426.958	1387.19
427.18	1474.19
427.402	1321.19
427.625	1369.19
427.847	1354.19
428.069	1248.19
428.292	1222.19
428.514	1194.19
428.736	1201.19
428.958	1201.19
429.181	1225.19
429.403	1435.19
429.625	1763.19
429.847	1445.19
430.069	1311.19
430.292	1458.19
430.514	1439.19
430.736	1340.19
430.958	1329.19
431.18	1298.19
431.402	1191.19
431.624	1197.19
431.846	1150.19
432.068	1089.19
432.29	1097.19
432.512	1129.19
432.734	1211.19
432.956	1233.19
433.178	1333.19
433.4	1287.19
433.622	1266.19
433.844	1216.19
434.066	1191.19
434.287	1147.19
434.509	1204.19
434.731	1249.19
434.953	1356.19
435.175	1325.19
435.397	1247.19
435.618	1189.19
435.84	1221.19
436.062	1219.19
436.284	1199.19
436.505	1244.19
436.727	1293.19
436.949	1220.19
437.17	1203.19
437.392	1192.19
437.614	1187.19
437.835	1141.19
438.057	1200.19
438.278	1228.19
438.5	1254.19
438.721	1212.19
438.943	1211.19
439.165	1185.19
439.386	1234.19
439.608	1224.19
439.829	1199.19
440.05	1244.19
440.272	1192.19
440.493	1220.19
440.715	1260.19
440.936	1321.19
441.158	1385.19
441.379	1357.19
441.6	1301.19
441.822	1299.19
442.043	1306.19
442.264	1298.19
442.486	1264.19
442.707	1209.19
442.928	1250.19
443.149	1255.19
443.371	1303.19
443.592	1341.19
443.813	1338.19
444.034	1321.19
444.255	1311.19
444.476	1329.19
444.698	1359.19
444.919	1359.19
445.14	1429.19
445.361	1415.19
445.582	1388.19
445.803	1353.19
446.024	1299.19
446.245	1391.19
446.466	1350.19
446.687	1289.19
446.908	1319.19
447.129	1288.19
447.35	1264.19
447.571	1243.19
447.792	1227.19
448.013	1203.19
448.234	1223.19
448.455	1287.19
448.675	1281.19
448.896	1181.19
449.117	1194.19
449.338	1183.19
449.559	1215.19
449.779	1278.19
450	1383.19
450.221	1451.19
450.442	1398.19
450.662	1260.19
450.883	1119.19
451.104	1135.19
451.324	1168.19
451.545	1177.19
451.766	1203.19
451.986	1121.19
452.207	1135.19
452.428	1048.19
452.648	1063.19
452.869	1108.19
453.089	1093.19
453.31	1113.19
453.53	1149.19
453.751	1085.19
453.971	1012.19
454.192	1075.19
454.412	1110.19
454.633	1119.19
454.853	1071.19
455.073	1023.19
455.294	1048.19
455.514	1036.19
455.734	1058.19
455.955	1085.19
456.175	1044.19
456.395	1022.19
456.616	1059.19
456.836	1017.19
457.056	1015.19
457.276	1049.19
457.497	1027.19
457.717	1029.19
457.937	1025.19
458.157	1042.19
458.377	1025.19
458.598	1027.19
458.818	1028.19
459.038	1089.19
459.258	1130.19
459.478	1131.19
459.698	1089.19
459.918	1108.19
460.138	1188.19
460.358	1226.19
460.578	1231.19
460.798	1264.19
461.018	1274.19
461.238	1240.19
461.458	1238.19
461.678	1226.19
461.898	1202.19
462.118	1155.19
462.338	1198.19
462.558	1246.19
462.777	1215.19
462.997	1292.19
463.217	1333.19
463.437	1313.19
463.657	1281.19
463.876	1206.19
464.096	1215.19
464.316	1211.19
464.536	1264.19
464.755	1255.19
464.975	1269.19
465.195	1265.19
465.414	1305.19
465.634	1285.19
465.854	1264.19
466.073	1344.19
466.293	1292.19
466.512	1189.19
466.732	1171.19
466.951	1227.19
467.171	1175.19
467.391	1182.19
467.61	1186.19
467.829	1165.19
468.049	1335.19
468.268	1399.19
468.488	1271.19
468.707	1214.19
468.927	1220.19
469.146	1176.19
469.365	1187.19
469.585	1215.19
469.804	1190.19
470.023	1206.19
470.243	1225.19
470.462	1195.19
470.681	1151.19
470.901	1192.19
471.12	1237.19
471.339	1205.19
471.558	1189.19
471.777	1149.19
471.997	1192.19
472.216	1176.19
472.435	1117.19
472.654	1084.19
472.873	1131.19
473.092	1199.19
473.311	1163.19
473.53	1152.19
473.749	1095.19
473.968	1127.19
474.187	1210.19
474.406	1193.19
474.625	1203.19
474.844	1176.19
475.063	1169.19
475.282	1180.19
475.501	1165.19
475.72	1167.19
475.939	1226.19
476.158	1213.19
476.377	1192.19
476.596	1183.19
476.814	1180.19
477.033	1243.19
477.252	1264.19
477.471	1267.19
477.69	1245.19
477.908	1249.19
478.127	1324.19
478.346	1353.19
478.564	1380.19
478.783	1371.19
479.002	1403.19
479.22	1379.19
479.439	1467.19
479.658	1543.19
479.876	1480.19
480.095	1325.19
480.313	1313.19
480.532	1274.19
480.751	1303.19
480.969	1299.19
481.188	1203.19
481.406	1230.19
481.624	1191.19
481.843	1231.19
482.061	1272.19
482.28	1290.19
482.498	1342.19
482.717	1286.19
482.935	1275.19
483.153	1329.19
483.372	1334.19
483.59	1372.19
483.808	1329.19
484.027	1353.19
484.245	1391.19
484.463	1692.19
484.681	1833.19
484.9	1432.19
485.118	1358.19
485.336	1294.19
485.554	1336.19
485.772	1367.19
485.99	1327.19
486.209	1363.19
486.427	1358.19
486.645	1372.19
486.863	1399.19
487.081	1429.19
487.299	1463.19
487.517	1439.19
487.735	1374.19
487.953	1501.19
488.171	1471.19
488.389	1439.19
488.607	1403.19
488.825	1548.19
489.043	1521.19
489.261	1337.19
489.479	1473.19
489.696	1418.19
489.914	1417.19
490.132	1389.19
490.35	1426.19
490.568	1529.19
490.786	1478.19
491.003	1463.19
491.221	1501.19
491.439	1569.19
491.657	1540.19
491.874	1595.19
492.092	1644.19
492.31	1701.19
492.527	1622.19
492.745	1570.19
492.963	1532.19
493.18	1587.19
493.398	1681.19
493.615	1667.19
493.833	1570.19
494.05	1542.19
