Data from WStandard_LampEnergy10_LIBS07252019.E.O._I.C._HRD10591_15-53-20-928.txt Node
Date: Thu Jul 25 15:53:20 EDT 2019
User: cochatt
Spectrometer: HR+D1059
Trigger mode: 1
Integration Time (sec): 1.000000E-1
Scans to average: 1
Electric dark correction enabled: true
Nonlinearity correction enabled: false
Boxcar width: 0
XAxis mode: Wavelengths
Number of Pixels in Spectrum: 2048
>>>>>Begin Spectral Data<<<<<
223.165	-22.81
223.4	-22.81
223.635	-22.81
223.869	-5.81
224.104	-18.81
224.338	-2.81
224.573	-26.81
224.808	-3.81
225.042	-9.81
225.277	-11.81
225.511	-1.81
225.746	3.19
225.98	0.19
226.215	15.19
226.449	3.19
226.683	22.19
226.918	25.19
227.152	35.19
227.387	42.19
227.621	28.19
227.856	50.19
228.09	43.19
228.324	49.19
228.559	67.19
228.793	88.19
229.027	137.19
229.262	150.19
229.496	156.19
229.73	149.19
229.964	192.19
230.199	163.19
230.433	185.19
230.667	194.19
230.901	197.19
231.136	190.19
231.37	173.19
231.604	184.19
231.838	172.19
232.072	170.19
232.306	196.19
232.541	186.19
232.775	213.19
233.009	227.19
233.243	202.19
233.477	201.19
233.711	211.19
233.945	207.19
234.179	190.19
234.413	205.19
234.647	222.19
234.881	213.19
235.115	210.19
235.349	186.19
235.583	201.19
235.817	192.19
236.051	194.19
236.285	182.19
236.519	221.19
236.753	232.19
236.987	250.19
237.221	226.19
237.455	232.19
237.689	240.19
237.922	218.19
238.156	211.19
238.39	228.19
238.624	220.19
238.858	260.19
239.091	252.19
239.325	281.19
239.559	280.19
239.793	280.19
240.027	312.19
240.26	293.19
240.494	260.19
240.728	230.19
240.961	256.19
241.195	262.19
241.429	255.19
241.662	264.19
241.896	263.19
242.13	254.19
242.363	255.19
242.597	271.19
242.83	277.19
243.064	283.19
243.298	304.19
243.531	273.19
243.765	280.19
243.998	299.19
244.232	266.19
244.465	256.19
244.699	273.19
244.932	283.19
245.166	314.19
245.399	308.19
245.633	290.19
245.866	283.19
246.099	291.19
246.333	301.19
246.566	299.19
246.8	328.19
247.033	358.19
247.266	344.19
247.5	311.19
247.733	322.19
247.966	344.19
248.2	373.19
248.433	358.19
248.666	380.19
248.899	404.19
249.133	452.19
249.366	465.19
249.599	408.19
249.832	354.19
250.066	373.19
250.299	365.19
250.532	338.19
250.765	321.19
250.998	338.19
251.231	336.19
251.465	375.19
251.698	344.19
251.931	362.19
252.164	366.19
252.397	364.19
252.63	359.19
252.863	342.19
253.096	340.19
253.329	335.19
253.562	358.19
253.795	380.19
254.028	365.19
254.261	357.19
254.494	341.19
254.727	353.19
254.96	339.19
255.193	382.19
255.426	431.19
255.659	450.19
255.892	446.19
256.124	390.19
256.357	399.19
256.59	414.19
256.823	419.19
257.056	415.19
257.289	483.19
257.521	500.19
257.754	468.19
257.987	453.19
258.22	485.19
258.452	474.19
258.685	398.19
258.918	414.19
259.151	402.19
259.383	385.19
259.616	366.19
259.849	367.19
260.081	409.19
260.314	428.19
260.547	459.19
260.779	485.19
261.012	448.19
261.244	414.19
261.477	423.19
261.71	398.19
261.942	397.19
262.175	400.19
262.407	419.19
262.64	398.19
262.872	368.19
263.105	359.19
263.337	375.19
263.57	366.19
263.802	372.19
264.035	356.19
264.267	352.19
264.499	354.19
264.732	364.19
264.964	396.19
265.197	395.19
265.429	419.19
265.661	458.19
265.894	504.19
266.126	510.19
266.358	474.19
266.591	476.19
266.823	521.19
267.055	454.19
267.287	468.19
267.52	453.19
267.752	474.19
267.984	475.19
268.216	478.19
268.448	478.19
268.681	479.19
268.913	415.19
269.145	438.19
269.377	422.19
269.609	468.19
269.841	532.19
270.073	576.19
270.306	613.19
270.538	639.19
270.77	518.19
271.002	502.19
271.234	487.19
271.466	484.19
271.698	539.19
271.93	604.19
272.162	616.19
272.394	554.19
272.626	521.19
272.858	478.19
273.09	428.19
273.322	415.19
273.553	417.19
273.785	419.19
274.017	422.19
274.249	467.19
274.481	461.19
274.713	393.19
274.945	410.19
275.176	414.19
275.408	414.19
275.64	430.19
275.872	409.19
276.104	450.19
276.335	514.19
276.567	537.19
276.799	521.19
277.031	502.19
277.262	480.19
277.494	477.19
277.726	523.19
277.957	515.19
278.189	481.19
278.421	429.19
278.652	470.19
278.884	440.19
279.115	463.19
279.347	458.19
279.579	456.19
279.81	461.19
280.042	474.19
280.273	512.19
280.505	514.19
280.736	527.19
280.968	483.19
281.199	447.19
281.431	433.19
281.662	435.19
281.894	451.19
282.125	442.19
282.356	426.19
282.588	453.19
282.819	461.19
283.051	492.19
283.282	522.19
283.513	511.19
283.745	439.19
283.976	425.19
284.207	436.19
284.439	438.19
284.67	454.19
284.901	475.19
285.132	480.19
285.364	453.19
285.595	464.19
285.826	452.19
286.057	445.19
286.288	450.19
286.52	482.19
286.751	499.19
286.982	526.19
287.213	482.19
287.444	448.19
287.675	438.19
287.906	472.19
288.138	484.19
288.369	492.19
288.6	469.19
288.831	452.19
289.062	458.19
289.293	444.19
289.524	470.19
289.755	477.19
289.986	461.19
290.217	446.19
290.448	453.19
290.679	468.19
290.91	466.19
291.141	475.19
291.371	504.19
291.602	488.19
291.833	486.19
292.064	506.19
292.295	491.19
292.526	514.19
292.757	539.19
292.987	510.19
293.218	486.19
293.449	534.19
293.68	574.19
293.91	608.19
294.141	555.19
294.372	535.19
294.603	567.19
294.833	580.19
295.064	550.19
295.295	498.19
295.525	499.19
295.756	453.19
295.987	446.19
296.217	458.19
296.448	474.19
296.679	459.19
296.909	475.19
297.14	468.19
297.37	483.19
297.601	526.19
297.831	528.19
298.062	532.19
298.292	479.19
298.523	464.19
298.753	472.19
298.984	478.19
299.214	495.19
299.445	487.19
299.675	514.19
299.905	501.19
300.136	472.19
300.366	466.19
300.597	460.19
300.827	484.19
301.057	515.19
301.288	502.19
301.518	510.19
301.748	543.19
301.979	565.19
302.209	558.19
302.439	607.19
302.669	619.19
302.9	552.19
303.13	519.19
303.36	516.19
303.59	527.19
303.82	524.19
304.051	535.19
304.281	518.19
304.511	557.19
304.741	570.19
304.971	607.19
305.201	633.19
305.431	589.19
305.661	487.19
305.891	455.19
306.121	459.19
306.352	501.19
306.582	506.19
306.812	552.19
307.042	578.19
307.272	596.19
307.502	614.19
307.731	640.19
307.961	628.19
308.191	612.19
308.421	520.19
308.651	507.19
308.881	502.19
309.111	498.19
309.341	513.19
309.571	518.19
309.8	498.19
310.03	506.19
310.26	482.19
310.49	482.19
310.72	520.19
310.949	543.19
311.179	540.19
311.409	506.19
311.639	514.19
311.868	526.19
312.098	512.19
312.328	493.19
312.557	511.19
312.787	530.19
313.017	546.19
313.246	548.19
313.476	566.19
313.706	524.19
313.935	562.19
314.165	548.19
314.394	591.19
314.624	573.19
314.853	616.19
315.083	635.19
315.312	646.19
315.542	586.19
315.771	539.19
316.001	548.19
316.23	589.19
316.46	543.19
316.689	564.19
316.919	525.19
317.148	522.19
317.377	544.19
317.607	604.19
317.836	637.19
318.065	650.19
318.295	619.19
318.524	598.19
318.753	573.19
318.983	571.19
319.212	566.19
319.441	560.19
319.67	580.19
319.9	589.19
320.129	603.19
320.358	615.19
320.587	633.19
320.816	616.19
321.046	615.19
321.275	592.19
321.504	613.19
321.733	644.19
321.962	603.19
322.191	602.19
322.42	572.19
322.649	543.19
322.878	584.19
323.108	554.19
323.337	612.19
323.566	599.19
323.795	598.19
324.024	578.19
324.253	590.19
324.482	580.19
324.71	541.19
324.939	543.19
325.168	559.19
325.397	561.19
325.626	588.19
325.855	593.19
326.084	551.19
326.313	576.19
326.542	590.19
326.77	582.19
326.999	549.19
327.228	557.19
327.457	521.19
327.686	530.19
327.914	555.19
328.143	563.19
328.372	583.19
328.6	572.19
328.829	546.19
329.058	591.19
329.287	566.19
329.515	580.19
329.744	590.19
329.972	621.19
330.201	628.19
330.43	616.19
330.658	604.19
330.887	595.19
331.115	604.19
331.344	603.19
331.572	587.19
331.801	598.19
332.03	623.19
332.258	619.19
332.486	628.19
332.715	647.19
332.943	623.19
333.172	605.19
333.4	629.19
333.629	630.19
333.857	681.19
334.085	764.19
334.314	825.19
334.542	850.19
334.771	757.19
334.999	687.19
335.227	655.19
335.455	652.19
335.684	653.19
335.912	651.19
336.14	656.19
336.369	640.19
336.597	623.19
336.825	618.19
337.053	654.19
337.281	695.19
337.51	730.19
337.738	727.19
337.966	665.19
338.194	612.19
338.422	594.19
338.65	602.19
338.878	599.19
339.106	564.19
339.334	562.19
339.562	550.19
339.79	606.19
340.018	596.19
340.246	651.19
340.474	644.19
340.702	642.19
340.93	638.19
341.158	635.19
341.386	591.19
341.614	618.19
341.842	607.19
342.07	612.19
342.298	598.19
342.526	594.19
342.754	588.19
342.981	619.19
343.209	587.19
343.437	598.19
343.665	598.19
343.893	600.19
344.12	654.19
344.348	622.19
344.576	617.19
344.804	622.19
345.031	598.19
345.259	605.19
345.487	570.19
345.714	566.19
345.942	569.19
346.17	544.19
346.397	590.19
346.625	587.19
346.853	548.19
347.08	538.19
347.308	537.19
347.535	575.19
347.763	592.19
347.99	543.19
348.218	551.19
348.445	577.19
348.673	580.19
348.9	602.19
349.128	608.19
349.355	616.19
349.583	610.19
349.81	570.19
350.037	544.19
350.265	532.19
350.492	553.19
350.72	543.19
350.947	586.19
351.174	591.19
351.402	566.19
351.629	542.19
351.856	540.19
352.083	544.19
352.311	552.19
352.538	562.19
352.765	594.19
352.992	597.19
353.22	584.19
353.447	550.19
353.674	578.19
353.901	574.19
354.128	583.19
354.355	566.19
354.583	601.19
354.81	603.19
355.037	614.19
355.264	584.19
355.491	590.19
355.718	580.19
355.945	583.19
356.172	569.19
356.399	548.19
356.626	553.19
356.853	601.19
357.08	682.19
357.307	700.19
357.534	666.19
357.761	568.19
357.988	576.19
358.215	546.19
358.441	556.19
358.668	564.19
358.895	580.19
359.122	594.19
359.349	657.19
359.576	616.19
359.802	548.19
360.029	568.19
360.256	581.19
360.483	575.19
360.709	587.19
360.936	598.19
361.163	640.19
361.39	700.19
361.616	728.19
361.843	725.19
362.07	665.19
362.296	578.19
362.523	561.19
362.749	587.19
362.976	595.19
363.203	599.19
363.429	563.19
363.656	569.19
363.882	589.19
364.109	667.19
364.335	666.19
364.562	652.19
364.788	608.19
365.015	576.19
365.241	573.19
365.468	551.19
365.694	606.19
365.92	638.19
366.147	600.19
366.373	586.19
366.599	574.19
366.826	586.19
367.052	604.19
367.278	595.19
367.505	560.19
367.731	618.19
367.957	622.19
368.184	637.19
368.41	661.19
368.636	652.19
368.862	696.19
369.089	702.19
369.315	641.19
369.541	599.19
369.767	613.19
369.993	591.19
370.219	590.19
370.445	631.19
370.672	666.19
370.898	677.19
371.124	674.19
371.35	646.19
371.576	635.19
371.802	662.19
372.028	649.19
372.254	612.19
372.48	624.19
372.706	620.19
372.932	600.19
373.158	637.19
373.384	632.19
373.61	663.19
373.835	683.19
374.061	634.19
374.287	615.19
374.513	642.19
374.739	634.19
374.965	643.19
375.191	637.19
375.416	662.19
375.642	682.19
375.868	738.19
376.094	710.19
376.319	670.19
376.545	667.19
376.771	671.19
376.997	710.19
377.222	676.19
377.448	677.19
377.674	696.19
377.899	703.19
378.125	744.19
378.35	702.19
378.576	632.19
378.802	645.19
379.027	630.19
379.253	660.19
379.478	643.19
379.704	654.19
379.929	654.19
380.155	667.19
380.38	669.19
380.606	687.19
380.831	676.19
381.057	711.19
381.282	711.19
381.507	714.19
381.733	751.19
381.958	767.19
382.184	701.19
382.409	666.19
382.634	679.19
382.86	690.19
383.085	672.19
383.31	722.19
383.535	790.19
383.761	815.19
383.986	760.19
384.211	735.19
384.436	746.19
384.662	788.19
384.887	774.19
385.112	745.19
385.337	722.19
385.562	758.19
385.787	746.19
386.013	790.19
386.238	782.19
386.463	779.19
386.688	838.19
386.913	872.19
387.138	840.19
387.363	798.19
387.588	773.19
387.813	780.19
388.038	812.19
388.263	824.19
388.488	747.19
388.713	728.19
388.938	770.19
389.163	738.19
389.387	751.19
389.612	753.19
389.837	762.19
390.062	798.19
390.287	804.19
390.512	760.19
390.736	725.19
390.961	763.19
391.186	717.19
391.411	743.19
391.636	744.19
391.86	758.19
392.085	756.19
392.31	760.19
392.534	775.19
392.759	786.19
392.984	778.19
393.208	776.19
393.433	819.19
393.658	844.19
393.882	839.19
394.107	778.19
394.331	772.19
394.556	780.19
394.78	793.19
395.005	837.19
395.229	859.19
395.454	910.19
395.678	879.19
395.903	831.19
396.127	818.19
396.352	841.19
396.576	837.19
396.801	855.19
397.025	841.19
397.249	841.19
397.474	828.19
397.698	845.19
397.922	869.19
398.147	908.19
398.371	921.19
398.595	896.19
398.82	880.19
399.044	906.19
399.268	956.19
399.492	985.19
399.717	1028.19
399.941	1014.19
400.165	1012.19
400.389	984.19
400.613	1020.19
400.837	1164.19
401.062	1183.19
401.286	1041.19
401.51	1030.19
401.734	984.19
401.958	959.19
402.182	914.19
402.406	888.19
402.63	897.19
402.854	889.19
403.078	921.19
403.302	910.19
403.526	936.19
403.75	924.19
403.974	961.19
404.198	973.19
404.422	988.19
404.645	1009.19
404.869	972.19
405.093	904.19
405.317	906.19
405.541	929.19
405.765	944.19
405.988	911.19
406.212	960.19
406.436	975.19
406.66	992.19
406.883	1038.19
407.107	1149.19
407.331	1227.19
407.555	1291.19
407.778	1156.19
408.002	983.19
408.226	978.19
408.449	980.19
408.673	967.19
408.896	980.19
409.12	965.19
409.344	966.19
409.567	958.19
409.791	954.19
410.014	1011.19
410.238	1040.19
410.461	1076.19
410.685	964.19
410.908	950.19
411.132	968.19
411.355	947.19
411.578	954.19
411.802	973.19
412.025	970.19
412.249	926.19
412.472	944.19
412.695	956.19
412.919	956.19
413.142	936.19
413.365	933.19
413.589	962.19
413.812	1053.19
414.035	1007.19
414.258	949.19
414.482	931.19
414.705	935.19
414.928	913.19
415.151	928.19
415.374	948.19
415.597	940.19
415.821	955.19
416.044	963.19
416.267	971.19
416.49	910.19
416.713	937.19
416.936	951.19
417.159	992.19
417.382	957.19
417.605	936.19
417.828	926.19
418.051	970.19
418.274	948.19
418.497	938.19
418.72	952.19
418.943	942.19
419.166	968.19
419.389	1014.19
419.611	972.19
419.834	930.19
420.057	966.19
420.28	964.19
420.503	925.19
420.726	946.19
420.948	966.19
421.171	903.19
421.394	946.19
421.617	982.19
421.839	1001.19
422.062	996.19
422.285	949.19
422.507	935.19
422.73	915.19
422.953	879.19
423.175	896.19
423.398	946.19
423.621	910.19
423.843	952.19
424.066	990.19
424.288	1038.19
424.511	1068.19
424.733	1030.19
424.956	958.19
425.178	926.19
425.401	948.19
425.623	947.19
425.846	974.19
426.068	1002.19
426.291	987.19
426.513	987.19
426.735	964.19
426.958	1048.19
427.18	1096.19
427.402	1015.19
427.625	1037.19
427.847	1008.19
428.069	930.19
428.292	938.19
428.514	915.19
428.736	912.19
428.958	902.19
429.181	950.19
429.403	1093.19
429.625	1239.19
429.847	1082.19
430.069	958.19
430.292	1035.19
430.514	1048.19
430.736	966.19
430.958	973.19
431.18	934.19
431.402	911.19
431.624	876.19
431.846	775.19
432.068	742.19
432.29	751.19
432.512	815.19
432.734	920.19
432.956	962.19
433.178	1002.19
433.4	969.19
433.622	962.19
433.844	937.19
434.066	863.19
434.287	831.19
434.509	814.19
434.731	831.19
434.953	932.19
435.175	939.19
435.397	954.19
435.618	896.19
435.84	859.19
436.062	846.19
436.284	913.19
436.505	961.19
436.727	966.19
436.949	938.19
437.17	921.19
437.392	909.19
437.614	859.19
437.835	786.19
438.057	816.19
438.278	848.19
438.5	871.19
438.721	898.19
438.943	954.19
439.165	935.19
439.386	979.19
439.608	957.19
439.829	960.19
440.05	968.19
440.272	994.19
440.493	943.19
440.715	955.19
440.936	1061.19
441.158	1100.19
441.379	1071.19
441.6	1070.19
441.822	1044.19
442.043	999.19
442.264	997.19
442.486	981.19
442.707	977.19
442.928	970.19
443.149	991.19
443.371	994.19
443.592	1018.19
443.813	1069.19
444.034	1026.19
444.255	1007.19
444.476	1048.19
444.698	1036.19
444.919	1069.19
445.14	1147.19
445.361	1111.19
445.582	1110.19
445.803	1065.19
446.024	1078.19
446.245	1067.19
446.466	1060.19
446.687	1069.19
446.908	1078.19
447.129	1026.19
447.35	1026.19
447.571	1015.19
447.792	986.19
448.013	964.19
448.234	973.19
448.455	1018.19
448.675	1003.19
448.896	938.19
449.117	968.19
449.338	927.19
449.559	962.19
449.779	987.19
450	1040.19
450.221	1060.19
450.442	1021.19
450.662	947.19
450.883	877.19
451.104	893.19
451.324	902.19
451.545	919.19
451.766	896.19
451.986	858.19
452.207	862.19
452.428	832.19
452.648	796.19
452.869	822.19
453.089	800.19
453.31	809.19
453.53	790.19
453.751	751.19
453.971	696.19
454.192	745.19
454.412	791.19
454.633	799.19
454.853	809.19
455.073	758.19
455.294	756.19
455.514	775.19
455.734	780.19
455.955	777.19
456.175	739.19
456.395	733.19
456.616	757.19
456.836	756.19
457.056	732.19
457.276	730.19
457.497	743.19
457.717	719.19
457.937	723.19
458.157	726.19
458.377	705.19
458.598	722.19
458.818	700.19
459.038	720.19
459.258	722.19
459.478	717.19
459.698	696.19
459.918	759.19
460.138	798.19
460.358	841.19
460.578	826.19
460.798	877.19
461.018	926.19
461.238	870.19
461.458	875.19
461.678	872.19
461.898	834.19
462.118	826.19
462.338	843.19
462.558	860.19
462.777	848.19
462.997	898.19
463.217	930.19
463.437	878.19
463.657	824.19
463.876	829.19
464.096	829.19
464.316	835.19
464.536	890.19
464.755	886.19
464.975	888.19
465.195	866.19
465.414	902.19
465.634	876.19
465.854	904.19
466.073	999.19
466.293	939.19
466.512	861.19
466.732	865.19
466.951	915.19
467.171	902.19
467.391	905.19
467.61	889.19
467.829	911.19
468.049	977.19
468.268	1046.19
468.488	999.19
468.707	975.19
468.927	950.19
469.146	905.19
469.365	930.19
469.585	941.19
469.804	926.19
470.023	929.19
470.243	949.19
470.462	932.19
470.681	936.19
470.901	940.19
471.12	977.19
471.339	918.19
471.558	935.19
471.777	905.19
471.997	918.19
472.216	862.19
472.435	818.19
472.654	757.19
472.873	789.19
473.092	844.19
473.311	840.19
473.53	831.19
473.749	818.19
473.968	848.19
474.187	843.19
474.406	842.19
474.625	875.19
474.844	912.19
475.063	907.19
475.282	889.19
475.501	835.19
475.72	861.19
475.939	932.19
476.158	903.19
476.377	890.19
476.596	843.19
476.814	839.19
477.033	827.19
477.252	890.19
477.471	902.19
477.69	912.19
477.908	954.19
478.127	1002.19
478.346	1007.19
478.564	1008.19
478.783	994.19
479.002	1026.19
479.22	1039.19
479.439	1055.19
479.658	1066.19
479.876	1011.19
480.095	910.19
480.313	877.19
480.532	898.19
480.751	882.19
480.969	837.19
481.188	763.19
481.406	794.19
481.624	790.19
481.843	806.19
482.061	850.19
482.28	884.19
482.498	897.19
482.717	882.19
482.935	912.19
483.153	975.19
483.372	1000.19
483.59	1036.19
483.808	1008.19
484.027	965.19
484.245	1022.19
484.463	1232.19
484.681	1322.19
484.9	1019.19
485.118	976.19
485.336	953.19
485.554	931.19
485.772	967.19
485.99	892.19
486.209	940.19
486.427	917.19
486.645	930.19
486.863	1003.19
487.081	1049.19
487.299	991.19
487.517	1034.19
487.735	1154.19
487.953	1211.19
488.171	1195.19
488.389	1158.19
488.607	1129.19
488.825	1176.19
489.043	1083.19
489.261	989.19
489.479	1068.19
489.696	1094.19
489.914	1089.19
490.132	1072.19
490.35	1101.19
490.568	1178.19
490.786	1175.19
491.003	1207.19
491.221	1301.19
491.439	1319.19
491.657	1336.19
491.874	1354.19
492.092	1446.19
492.31	1510.19
492.527	1492.19
492.745	1407.19
492.963	1317.19
493.18	1340.19
493.398	1389.19
493.615	1375.19
493.833	1290.19
494.05	1227.19
494.268	1233.19
494.485	1248.19
494.703	1257.19
494.92	1251.19
495.138	1270.19
495.355	1228.19
495.573	1268.19
495.79	1319.19
496.008	1302.19
496.225	1268.19
496.442	1272.19
496.66	1270.19
496.877	1247.19
497.094	1285.19
497.312	1242.19
497.529	1245.19
497.746	1212.19
497.963	1308.19
498.181	1317.19
498.398	1277.19
498.615	1213.19
498.832	1160.19
499.049	1174.19
499.267	1176.19
499.484	1272.19
499.701	1336.19
499.918	1378.19
500.135	1499.19
