Data from WStandard_LampEnergy10_LIBS07252019.E.O._I.C._HRD10591_15-53-19-928.txt Node
Date: Thu Jul 25 15:53:19 EDT 2019
User: cochatt
Spectrometer: HR+D1059
Trigger mode: 1
Integration Time (sec): 1.000000E-1
Scans to average: 1
Electric dark correction enabled: true
Nonlinearity correction enabled: false
Boxcar width: 0
XAxis mode: Wavelengths
Number of Pixels in Spectrum: 2048
>>>>>Begin Spectral Data<<<<<
223.165	-23.06
223.4	-23.06
223.635	-23.06
223.869	-22.06
224.104	-24.06
224.338	-19.06
224.573	-23.06
224.808	-13.06
225.042	-1.06
225.277	-9.06
225.511	2.94
225.746	14.94
225.98	8.94
226.215	-1.06
226.449	28.94
226.683	22.94
226.918	27.94
227.152	28.94
227.387	24.94
227.621	23.94
227.856	35.94
228.09	46.94
228.324	44.94
228.559	58.94
228.793	77.94
229.027	136.94
229.262	155.94
229.496	160.94
229.73	145.94
229.964	161.94
230.199	181.94
230.433	181.94
230.667	191.94
230.901	204.94
231.136	160.94
231.37	184.94
231.604	174.94
231.838	176.94
232.072	178.94
232.306	176.94
232.541	182.94
232.775	193.94
233.009	197.94
233.243	202.94
233.477	193.94
233.711	197.94
233.945	211.94
234.179	202.94
234.413	206.94
234.647	228.94
234.881	214.94
235.115	191.94
235.349	193.94
235.583	190.94
235.817	186.94
236.051	216.94
236.285	206.94
236.519	207.94
236.753	210.94
236.987	230.94
237.221	231.94
237.455	240.94
237.689	210.94
237.922	220.94
238.156	213.94
238.39	228.94
238.624	231.94
238.858	235.94
239.091	252.94
239.325	270.94
239.559	303.94
239.793	292.94
240.027	303.94
240.26	298.94
240.494	243.94
240.728	244.94
240.961	250.94
241.195	255.94
241.429	263.94
241.662	271.94
241.896	242.94
242.13	252.94
242.363	276.94
242.597	282.94
242.83	262.94
243.064	283.94
243.298	308.94
243.531	293.94
243.765	286.94
243.998	288.94
244.232	278.94
244.465	262.94
244.699	282.94
244.932	291.94
245.166	295.94
245.399	294.94
245.633	285.94
245.866	287.94
246.099	287.94
246.333	277.94
246.566	302.94
246.8	337.94
247.033	342.94
247.266	342.94
247.5	328.94
247.733	322.94
247.966	348.94
248.2	374.94
248.433	364.94
248.666	376.94
248.899	393.94
249.133	457.94
249.366	443.94
249.599	405.94
249.832	360.94
250.066	382.94
250.299	387.94
250.532	362.94
250.765	337.94
250.998	359.94
251.231	369.94
251.465	374.94
251.698	349.94
251.931	346.94
252.164	369.94
252.397	376.94
252.63	356.94
252.863	358.94
253.096	327.94
253.329	345.94
253.562	346.94
253.795	365.94
254.028	378.94
254.261	362.94
254.494	364.94
254.727	357.94
254.96	359.94
255.193	380.94
255.426	421.94
255.659	465.94
255.892	494.94
256.124	410.94
256.357	399.94
256.59	428.94
256.823	411.94
257.056	434.94
257.289	513.94
257.521	542.94
257.754	478.94
257.987	455.94
258.22	477.94
258.452	484.94
258.685	391.94
258.918	403.94
259.151	382.94
259.383	396.94
259.616	347.94
259.849	381.94
260.081	424.94
260.314	452.94
260.547	486.94
260.779	497.94
261.012	462.94
261.244	411.94
261.477	392.94
261.71	422.94
261.942	421.94
262.175	394.94
262.407	425.94
262.64	389.94
262.872	372.94
263.105	376.94
263.337	353.94
263.57	392.94
263.802	379.94
264.035	380.94
264.267	334.94
264.499	357.94
264.732	386.94
264.964	394.94
265.197	404.94
265.429	421.94
265.661	472.94
265.894	504.94
266.126	499.94
266.358	468.94
266.591	478.94
266.823	511.94
267.055	476.94
267.287	456.94
267.52	455.94
267.752	446.94
267.984	454.94
268.216	462.94
268.448	495.94
268.681	494.94
268.913	439.94
269.145	430.94
269.377	411.94
269.609	460.94
269.841	521.94
270.073	615.94
270.306	650.94
270.538	654.94
270.77	553.94
271.002	501.94
271.234	493.94
271.466	491.94
271.698	549.94
271.93	610.94
272.162	625.94
272.394	573.94
272.626	532.94
272.858	464.94
273.09	436.94
273.322	439.94
273.553	398.94
273.785	423.94
274.017	465.94
274.249	457.94
274.481	470.94
274.713	438.94
274.945	426.94
275.176	417.94
275.408	411.94
275.64	415.94
275.872	413.94
276.104	457.94
276.335	485.94
276.567	540.94
276.799	558.94
277.031	516.94
277.262	492.94
277.494	517.94
277.726	536.94
277.957	504.94
278.189	485.94
278.421	452.94
278.652	435.94
278.884	449.94
279.115	461.94
279.347	441.94
279.579	435.94
279.81	466.94
280.042	494.94
280.273	543.94
280.505	539.94
280.736	524.94
280.968	493.94
281.199	434.94
281.431	407.94
281.662	422.94
281.894	428.94
282.125	454.94
282.356	471.94
282.588	485.94
282.819	461.94
283.051	510.94
283.282	534.94
283.513	506.94
283.745	456.94
283.976	448.94
284.207	432.94
284.439	446.94
284.67	470.94
284.901	465.94
285.132	475.94
285.364	454.94
285.595	453.94
285.826	444.94
286.057	454.94
286.288	451.94
286.52	486.94
286.751	509.94
286.982	495.94
287.213	481.94
287.444	437.94
287.675	435.94
287.906	486.94
288.138	506.94
288.369	471.94
288.6	450.94
288.831	451.94
289.062	445.94
289.293	463.94
289.524	458.94
289.755	463.94
289.986	468.94
290.217	447.94
290.448	459.94
290.679	477.94
290.91	482.94
291.141	497.94
291.371	484.94
291.602	486.94
291.833	482.94
292.064	531.94
292.295	527.94
292.526	520.94
292.757	536.94
292.987	503.94
293.218	523.94
293.449	577.94
293.68	556.94
293.91	608.94
294.141	584.94
294.372	559.94
294.603	570.94
294.833	569.94
295.064	540.94
295.295	484.94
295.525	470.94
295.756	470.94
295.987	461.94
296.217	462.94
296.448	485.94
296.679	478.94
296.909	477.94
297.14	451.94
297.37	508.94
297.601	541.94
297.831	552.94
298.062	542.94
298.292	476.94
298.523	480.94
298.753	493.94
298.984	483.94
299.214	496.94
299.445	500.94
299.675	526.94
299.905	500.94
300.136	482.94
300.366	485.94
300.597	451.94
300.827	451.94
301.057	480.94
301.288	513.94
301.518	500.94
301.748	537.94
301.979	552.94
302.209	580.94
302.439	596.94
302.669	585.94
302.9	564.94
303.13	532.94
303.36	540.94
303.59	533.94
303.82	498.94
304.051	535.94
304.281	513.94
304.511	551.94
304.741	574.94
304.971	628.94
305.201	652.94
305.431	594.94
305.661	508.94
305.891	459.94
306.121	486.94
306.352	503.94
306.582	534.94
306.812	522.94
307.042	586.94
307.272	599.94
307.502	618.94
307.731	634.94
307.961	670.94
308.191	608.94
308.421	530.94
308.651	524.94
308.881	519.94
309.111	495.94
309.341	495.94
309.571	500.94
309.8	504.94
310.03	506.94
310.26	492.94
310.49	486.94
310.72	522.94
310.949	553.94
311.179	535.94
311.409	547.94
311.639	509.94
311.868	513.94
312.098	528.94
312.328	518.94
312.557	494.94
312.787	516.94
313.017	520.94
313.246	542.94
313.476	543.94
313.706	552.94
313.935	546.94
314.165	537.94
314.394	600.94
314.624	600.94
314.853	649.94
315.083	640.94
315.312	645.94
315.542	601.94
315.771	545.94
316.001	566.94
316.23	560.94
316.46	596.94
316.689	561.94
316.919	538.94
317.148	542.94
317.377	530.94
317.607	604.94
317.836	653.94
318.065	656.94
318.295	608.94
318.524	592.94
318.753	595.94
318.983	576.94
319.212	567.94
319.441	560.94
319.67	560.94
319.9	567.94
320.129	592.94
320.358	626.94
320.587	636.94
320.816	633.94
321.046	631.94
321.275	586.94
321.504	606.94
321.733	626.94
321.962	619.94
322.191	563.94
322.42	576.94
322.649	599.94
322.878	573.94
323.108	580.94
323.337	598.94
323.566	577.94
323.795	602.94
324.024	605.94
324.253	578.94
324.482	560.94
324.71	540.94
324.939	528.94
325.168	583.94
325.397	585.94
325.626	592.94
325.855	585.94
326.084	555.94
326.313	557.94
326.542	570.94
326.77	594.94
326.999	609.94
327.228	556.94
327.457	540.94
327.686	534.94
327.914	544.94
328.143	554.94
328.372	558.94
328.6	565.94
328.829	570.94
329.058	566.94
329.287	539.94
329.515	572.94
329.744	591.94
329.972	627.94
330.201	639.94
330.43	612.94
330.658	587.94
330.887	593.94
331.115	616.94
331.344	600.94
331.572	598.94
331.801	611.94
332.03	594.94
332.258	625.94
332.486	612.94
332.715	632.94
332.943	630.94
333.172	608.94
333.4	615.94
333.629	633.94
333.857	692.94
334.085	762.94
334.314	841.94
334.542	857.94
334.771	793.94
334.999	720.94
335.227	658.94
335.455	630.94
335.684	663.94
335.912	671.94
336.14	674.94
336.369	661.94
336.597	638.94
336.825	591.94
337.053	622.94
337.281	670.94
337.51	700.94
337.738	693.94
337.966	677.94
338.194	605.94
338.422	614.94
338.65	608.94
338.878	613.94
339.106	559.94
339.334	572.94
339.562	558.94
339.79	578.94
340.018	663.94
340.246	638.94
340.474	640.94
340.702	640.94
340.93	637.94
341.158	641.94
341.386	604.94
341.614	606.94
341.842	615.94
342.07	627.94
342.298	620.94
342.526	617.94
342.754	588.94
342.981	638.94
343.209	602.94
343.437	622.94
343.665	622.94
343.893	621.94
344.12	673.94
344.348	644.94
344.576	605.94
344.804	606.94
345.031	613.94
345.259	602.94
345.487	586.94
345.714	565.94
345.942	573.94
346.17	576.94
346.397	567.94
346.625	585.94
346.853	563.94
347.08	555.94
347.308	569.94
347.535	568.94
347.763	565.94
347.99	564.94
348.218	558.94
348.445	590.94
348.673	565.94
348.9	586.94
349.128	608.94
349.355	635.94
349.583	597.94
349.81	598.94
350.037	517.94
350.265	540.94
350.492	563.94
350.72	560.94
350.947	584.94
351.174	593.94
351.402	551.94
351.629	541.94
351.856	532.94
352.083	530.94
352.311	549.94
352.538	566.94
352.765	569.94
352.992	579.94
353.22	585.94
353.447	558.94
353.674	573.94
353.901	562.94
354.128	553.94
354.355	562.94
354.583	597.94
354.81	597.94
355.037	586.94
355.264	580.94
355.491	605.94
355.718	585.94
355.945	565.94
356.172	546.94
356.399	545.94
356.626	584.94
356.853	590.94
357.08	655.94
357.307	710.94
357.534	673.94
357.761	616.94
357.988	548.94
358.215	567.94
358.441	548.94
358.668	551.94
358.895	563.94
359.122	613.94
359.349	630.94
359.576	603.94
359.802	584.94
360.029	563.94
360.256	568.94
360.483	552.94
360.709	593.94
360.936	617.94
361.163	646.94
361.39	710.94
361.616	744.94
361.843	714.94
362.07	675.94
362.296	591.94
362.523	596.94
362.749	578.94
362.976	593.94
363.203	605.94
363.429	562.94
363.656	556.94
363.882	601.94
364.109	676.94
364.335	694.94
364.562	664.94
364.788	621.94
365.015	585.94
365.241	567.94
365.468	590.94
365.694	592.94
365.92	637.94
366.147	584.94
366.373	578.94
366.599	553.94
366.826	586.94
367.052	602.94
367.278	581.94
367.505	592.94
367.731	624.94
367.957	614.94
368.184	642.94
368.41	666.94
368.636	697.94
368.862	692.94
369.089	691.94
369.315	656.94
369.541	628.94
369.767	594.94
369.993	588.94
370.219	606.94
370.445	594.94
370.672	656.94
370.898	688.94
371.124	680.94
371.35	648.94
371.576	679.94
371.802	655.94
372.028	631.94
372.254	629.94
372.48	623.94
372.706	607.94
372.932	607.94
373.158	610.94
373.384	643.94
373.61	665.94
373.835	678.94
374.061	633.94
374.287	613.94
374.513	654.94
374.739	646.94
374.965	668.94
375.191	644.94
375.416	654.94
375.642	665.94
375.868	710.94
376.094	748.94
376.319	680.94
376.545	660.94
376.771	696.94
376.997	714.94
377.222	710.94
377.448	678.94
377.674	697.94
377.899	701.94
378.125	735.94
378.35	717.94
378.576	625.94
378.802	604.94
379.027	644.94
379.253	634.94
379.478	646.94
379.704	634.94
379.929	627.94
380.155	643.94
380.38	641.94
380.606	657.94
380.831	684.94
381.057	723.94
381.282	701.94
381.507	690.94
381.733	757.94
381.958	763.94
382.184	687.94
382.409	688.94
382.634	693.94
382.86	690.94
383.085	698.94
383.31	741.94
383.535	793.94
383.761	800.94
383.986	760.94
384.211	739.94
384.436	752.94
384.662	785.94
384.887	776.94
385.112	731.94
385.337	753.94
385.562	764.94
385.787	756.94
386.013	786.94
386.238	775.94
386.463	774.94
386.688	846.94
386.913	884.94
387.138	846.94
387.363	794.94
387.588	765.94
387.813	782.94
388.038	811.94
388.263	788.94
388.488	753.94
388.713	712.94
388.938	719.94
389.163	733.94
389.387	770.94
389.612	748.94
389.837	769.94
390.062	775.94
390.287	772.94
390.512	767.94
390.736	722.94
390.961	743.94
391.186	716.94
391.411	764.94
391.636	753.94
391.86	756.94
392.085	776.94
392.31	755.94
392.534	749.94
392.759	773.94
392.984	752.94
393.208	775.94
393.433	806.94
393.658	833.94
393.882	830.94
394.107	793.94
394.331	794.94
394.556	749.94
394.78	786.94
395.005	823.94
395.229	852.94
395.454	884.94
395.678	877.94
395.903	861.94
396.127	808.94
396.352	832.94
396.576	853.94
396.801	854.94
397.025	857.94
397.249	857.94
397.474	846.94
397.698	830.94
397.922	856.94
398.147	890.94
398.371	928.94
398.595	918.94
398.82	855.94
399.044	897.94
399.268	922.94
399.492	960.94
399.717	977.94
399.941	1020.94
400.165	974.94
400.389	967.94
400.613	998.94
400.837	1135.94
401.062	1240.94
401.286	1056.94
401.51	984.94
401.734	1010.94
401.958	975.94
402.182	920.94
402.406	909.94
402.63	871.94
402.854	896.94
403.078	896.94
403.302	904.94
403.526	926.94
403.75	915.94
403.974	946.94
404.198	948.94
404.422	1026.94
404.645	1057.94
404.869	1001.94
405.093	943.94
405.317	942.94
405.541	946.94
405.765	946.94
405.988	936.94
406.212	956.94
406.436	986.94
406.66	1035.94
406.883	1040.94
407.107	1140.94
407.331	1246.94
407.555	1303.94
407.778	1139.94
408.002	1004.94
408.226	980.94
408.449	976.94
408.673	975.94
408.896	963.94
409.12	984.94
409.344	953.94
409.567	952.94
409.791	935.94
410.014	1022.94
410.238	1063.94
410.461	1090.94
410.685	993.94
410.908	940.94
411.132	968.94
411.355	956.94
411.578	928.94
411.802	954.94
412.025	965.94
412.249	948.94
412.472	930.94
412.695	926.94
412.919	954.94
413.142	916.94
413.365	924.94
413.589	950.94
413.812	1050.94
414.035	997.94
414.258	962.94
414.482	936.94
414.705	937.94
414.928	924.94
415.151	953.94
415.374	934.94
415.597	947.94
415.821	934.94
416.044	973.94
416.267	955.94
416.49	912.94
416.713	910.94
416.936	973.94
417.159	1008.94
417.382	967.94
417.605	962.94
417.828	938.94
418.051	975.94
418.274	959.94
418.497	933.94
418.72	948.94
418.943	947.94
419.166	975.94
419.389	1014.94
419.611	944.94
419.834	952.94
420.057	951.94
420.28	937.94
420.503	962.94
420.726	942.94
420.948	957.94
421.171	959.94
421.394	948.94
421.617	1020.94
421.839	1002.94
422.062	1000.94
422.285	944.94
422.507	974.94
422.73	890.94
422.953	874.94
423.175	900.94
423.398	943.94
423.621	942.94
423.843	964.94
424.066	964.94
424.288	1027.94
424.511	1079.94
424.733	1008.94
424.956	935.94
425.178	936.94
425.401	927.94
425.623	942.94
425.846	956.94
426.068	1012.94
426.291	980.94
426.513	953.94
426.735	967.94
426.958	1053.94
427.18	1085.94
427.402	1013.94
427.625	1035.94
427.847	1004.94
428.069	913.94
428.292	961.94
428.514	910.94
428.736	931.94
428.958	905.94
429.181	934.94
429.403	1103.94
429.625	1224.94
429.847	1062.94
430.069	951.94
430.292	1050.94
430.514	1077.94
430.736	990.94
430.958	1025.94
431.18	942.94
431.402	896.94
431.624	834.94
431.846	826.94
432.068	758.94
432.29	755.94
432.512	824.94
432.734	918.94
432.956	950.94
433.178	968.94
433.4	972.94
433.622	984.94
433.844	915.94
434.066	876.94
434.287	821.94
434.509	767.94
434.731	846.94
434.953	929.94
435.175	935.94
435.397	952.94
435.618	888.94
435.84	853.94
436.062	854.94
436.284	892.94
436.505	956.94
436.727	956.94
436.949	921.94
437.17	921.94
437.392	927.94
437.614	849.94
437.835	815.94
438.057	847.94
438.278	863.94
438.5	885.94
438.721	916.94
438.943	949.94
439.165	930.94
439.386	939.94
439.608	960.94
439.829	970.94
440.05	952.94
440.272	964.94
440.493	967.94
440.715	976.94
440.936	1046.94
441.158	1074.94
441.379	1062.94
441.6	1025.94
441.822	1027.94
442.043	1004.94
442.264	1016.94
442.486	971.94
442.707	963.94
442.928	982.94
443.149	1022.94
443.371	1054.94
443.592	1055.94
443.813	1040.94
444.034	1058.94
444.255	1029.94
444.476	1027.94
444.698	1054.94
444.919	1062.94
445.14	1143.94
445.361	1113.94
445.582	1124.94
445.803	1084.94
446.024	1065.94
446.245	1088.94
446.466	1111.94
446.687	1058.94
446.908	1074.94
447.129	1029.94
447.35	1044.94
447.571	998.94
447.792	976.94
448.013	981.94
448.234	991.94
448.455	1015.94
448.675	1003.94
448.896	910.94
449.117	942.94
449.338	928.94
449.559	970.94
449.779	980.94
450	1033.94
450.221	1088.94
450.442	1058.94
450.662	986.94
450.883	875.94
451.104	868.94
451.324	868.94
451.545	893.94
451.766	878.94
451.986	835.94
452.207	833.94
452.428	805.94
452.648	798.94
452.869	793.94
453.089	818.94
453.31	794.94
453.53	767.94
453.751	735.94
453.971	720.94
454.192	722.94
454.412	795.94
454.633	775.94
454.853	782.94
455.073	791.94
455.294	758.94
455.514	817.94
455.734	784.94
455.955	793.94
456.175	735.94
456.395	751.94
456.616	757.94
456.836	752.94
457.056	772.94
457.276	770.94
457.497	726.94
457.717	705.94
457.937	720.94
458.157	751.94
458.377	718.94
458.598	704.94
458.818	698.94
459.038	717.94
459.258	728.94
459.478	723.94
459.698	701.94
459.918	753.94
460.138	784.94
460.358	844.94
460.578	854.94
460.798	846.94
461.018	901.94
461.238	882.94
461.458	900.94
461.678	851.94
461.898	837.94
462.118	832.94
462.338	834.94
462.558	866.94
462.777	871.94
462.997	886.94
463.217	900.94
463.437	863.94
463.657	846.94
463.876	836.94
464.096	840.94
464.316	852.94
464.536	861.94
464.755	894.94
464.975	864.94
465.195	883.94
465.414	915.94
465.634	863.94
465.854	880.94
466.073	980.94
466.293	975.94
466.512	868.94
466.732	890.94
466.951	908.94
467.171	928.94
467.391	903.94
467.61	907.94
467.829	932.94
468.049	981.94
468.268	1077.94
468.488	957.94
468.707	964.94
468.927	932.94
469.146	917.94
469.365	928.94
469.585	954.94
469.804	932.94
470.023	948.94
470.243	935.94
470.462	951.94
470.681	913.94
470.901	940.94
471.12	942.94
471.339	938.94
471.558	918.94
471.777	929.94
471.997	924.94
472.216	869.94
472.435	814.94
472.654	769.94
472.873	818.94
473.092	825.94
473.311	822.94
473.53	800.94
473.749	840.94
473.968	878.94
474.187	873.94
474.406	847.94
474.625	876.94
474.844	898.94
475.063	869.94
475.282	892.94
475.501	844.94
475.72	870.94
475.939	924.94
476.158	921.94
476.377	871.94
476.596	869.94
476.814	851.94
477.033	833.94
477.252	857.94
477.471	909.94
477.69	943.94
477.908	926.94
478.127	999.94
478.346	1068.94
478.564	1033.94
478.783	1024.94
479.002	1054.94
479.22	1056.94
479.439	1026.94
479.658	1099.94
479.876	982.94
480.095	939.94
480.313	897.94
480.532	903.94
480.751	893.94
480.969	872.94
481.188	806.94
481.406	778.94
481.624	797.94
481.843	813.94
482.061	848.94
482.28	894.94
482.498	898.94
482.717	856.94
482.935	911.94
483.153	988.94
483.372	1034.94
483.59	993.94
483.808	1009.94
484.027	960.94
484.245	999.94
484.463	1247.94
484.681	1341.94
484.9	1043.94
485.118	986.94
485.336	921.94
485.554	924.94
485.772	916.94
485.99	881.94
486.209	914.94
486.427	895.94
486.645	955.94
486.863	1027.94
487.081	1082.94
487.299	1032.94
487.517	1021.94
487.735	1109.94
487.953	1219.94
488.171	1236.94
488.389	1199.94
488.607	1118.94
488.825	1194.94
489.043	1070.94
489.261	988.94
489.479	1048.94
489.696	1088.94
489.914	1077.94
490.132	1084.94
490.35	1107.94
490.568	1168.94
490.786	1191.94
491.003	1191.94
491.221	1278.94
491.439	1332.94
491.657	1335.94
491.874	1380.94
492.092	1481.94
492.31	1517.94
492.527	1463.94
492.745	1415.94
492.963	1335.94
493.18	1358.94
493.398	1358.94
493.615	1358.94
493.833	1297.94
494.05	1243.94
494.268	1240.94
494.485	1276.94
494.703	1262.94
494.92	1240.94
495.138	1244.94
495.355	1245.94
495.573	1286.94
495.79	1320.94
496.008	1290.94
496.225	1246.94
496.442	1310.94
496.66	1280.94
496.877	1265.94
497.094	1296.94
497.312	1275.94
497.529	1230.94
497.746	1200.94
497.963	1295.94
498.181	1334.94
498.398	1297.94
498.615	1223.94
498.832	1198.94
499.049	1150.94
499.267	1177.94
499.484	1276.94
499.701	1371.94
499.918	1375.94
500.135	1472.94
