Data from WStandard_LampEnergy10_LIBS07252019.E.O._I.C._HRD10591_15-53-40-928.txt Node
Date: Thu Jul 25 15:53:40 EDT 2019
User: cochatt
Spectrometer: HR+D1059
Trigger mode: 1
Integration Time (sec): 1.000000E-1
Scans to average: 1
Electric dark correction enabled: true
Nonlinearity correction enabled: false
Boxcar width: 0
XAxis mode: Wavelengths
Number of Pixels in Spectrum: 2048
>>>>>Begin Spectral Data<<<<<
223.165	-15.62
223.4	-15.62
223.635	-15.62
223.869	-27.62
224.104	-14.62
224.338	-6.62
224.573	-7.62
224.808	-13.62
225.042	-18.62
225.277	-3.62
225.511	-0.62
225.746	-8.62
225.98	10.38
226.215	17.38
226.449	5.38
226.683	14.38
226.918	39.38
227.152	30.38
227.387	31.38
227.621	34.38
227.856	49.38
228.09	53.38
228.324	58.38
228.559	64.38
228.793	77.38
229.027	140.38
229.262	123.38
229.496	136.38
229.73	155.38
229.964	155.38
230.199	170.38
230.433	181.38
230.667	189.38
230.901	191.38
231.136	167.38
231.37	182.38
231.604	172.38
231.838	175.38
232.072	151.38
232.306	169.38
232.541	190.38
232.775	219.38
233.009	214.38
233.243	208.38
233.477	205.38
233.711	201.38
233.945	193.38
234.179	206.38
234.413	188.38
234.647	228.38
234.881	209.38
235.115	190.38
235.349	198.38
235.583	216.38
235.817	195.38
236.051	193.38
236.285	192.38
236.519	205.38
236.753	217.38
236.987	229.38
237.221	223.38
237.455	249.38
237.689	238.38
237.922	212.38
238.156	231.38
238.39	216.38
238.624	219.38
238.858	253.38
239.091	241.38
239.325	269.38
239.559	294.38
239.793	306.38
240.027	317.38
240.26	305.38
240.494	242.38
240.728	238.38
240.961	237.38
241.195	250.38
241.429	263.38
241.662	258.38
241.896	250.38
242.13	245.38
242.363	276.38
242.597	285.38
242.83	270.38
243.064	286.38
243.298	300.38
243.531	278.38
243.765	279.38
243.998	280.38
244.232	243.38
244.465	252.38
244.699	257.38
244.932	297.38
245.166	331.38
245.399	301.38
245.633	284.38
245.866	286.38
246.099	286.38
246.333	283.38
246.566	312.38
246.8	309.38
247.033	360.38
247.266	314.38
247.5	322.38
247.733	311.38
247.966	350.38
248.2	347.38
248.433	356.38
248.666	377.38
248.899	385.38
249.133	439.38
249.366	455.38
249.599	419.38
249.832	366.38
250.066	358.38
250.299	383.38
250.532	364.38
250.765	336.38
250.998	356.38
251.231	353.38
251.465	364.38
251.698	325.38
251.931	345.38
252.164	338.38
252.397	387.38
252.63	361.38
252.863	342.38
253.096	324.38
253.329	342.38
253.562	357.38
253.795	377.38
254.028	349.38
254.261	343.38
254.494	327.38
254.727	332.38
254.96	352.38
255.193	382.38
255.426	403.38
255.659	444.38
255.892	455.38
256.124	390.38
256.357	405.38
256.59	408.38
256.823	407.38
257.056	414.38
257.289	486.38
257.521	518.38
257.754	489.38
257.987	452.38
258.22	482.38
258.452	463.38
258.685	411.38
258.918	405.38
259.151	388.38
259.383	379.38
259.616	357.38
259.849	373.38
260.081	421.38
260.314	452.38
260.547	459.38
260.779	477.38
261.012	426.38
261.244	399.38
261.477	392.38
261.71	405.38
261.942	414.38
262.175	380.38
262.407	420.38
262.64	378.38
262.872	396.38
263.105	369.38
263.337	369.38
263.57	373.38
263.802	374.38
264.035	356.38
264.267	356.38
264.499	334.38
264.732	375.38
264.964	389.38
265.197	408.38
265.429	449.38
265.661	446.38
265.894	493.38
266.126	490.38
266.358	455.38
266.591	462.38
266.823	513.38
267.055	465.38
267.287	465.38
267.52	453.38
267.752	436.38
267.984	464.38
268.216	478.38
268.448	457.38
268.681	468.38
268.913	409.38
269.145	410.38
269.377	417.38
269.609	465.38
269.841	519.38
270.073	575.38
270.306	630.38
270.538	642.38
270.77	553.38
271.002	497.38
271.234	486.38
271.466	481.38
271.698	552.38
271.93	598.38
272.162	593.38
272.394	551.38
272.626	495.38
272.858	481.38
273.09	427.38
273.322	416.38
273.553	409.38
273.785	414.38
274.017	413.38
274.249	446.38
274.481	454.38
274.713	420.38
274.945	403.38
275.176	413.38
275.408	424.38
275.64	409.38
275.872	416.38
276.104	440.38
276.335	473.38
276.567	519.38
276.799	527.38
277.031	487.38
277.262	488.38
277.494	518.38
277.726	531.38
277.957	501.38
278.189	487.38
278.421	423.38
278.652	420.38
278.884	439.38
279.115	412.38
279.347	435.38
279.579	443.38
279.81	443.38
280.042	488.38
280.273	506.38
280.505	526.38
280.736	511.38
280.968	482.38
281.199	436.38
281.431	435.38
281.662	436.38
281.894	438.38
282.125	426.38
282.356	475.38
282.588	454.38
282.819	459.38
283.051	488.38
283.282	522.38
283.513	470.38
283.745	449.38
283.976	422.38
284.207	429.38
284.439	447.38
284.67	438.38
284.901	462.38
285.132	458.38
285.364	463.38
285.595	458.38
285.826	475.38
286.057	462.38
286.288	457.38
286.52	481.38
286.751	489.38
286.982	476.38
287.213	468.38
287.444	443.38
287.675	453.38
287.906	474.38
288.138	491.38
288.369	481.38
288.6	456.38
288.831	434.38
289.062	463.38
289.293	468.38
289.524	459.38
289.755	474.38
289.986	465.38
290.217	441.38
290.448	430.38
290.679	471.38
290.91	458.38
291.141	484.38
291.371	479.38
291.602	490.38
291.833	484.38
292.064	501.38
292.295	501.38
292.526	519.38
292.757	523.38
292.987	498.38
293.218	487.38
293.449	513.38
293.68	563.38
293.91	590.38
294.141	554.38
294.372	562.38
294.603	562.38
294.833	562.38
295.064	543.38
295.295	498.38
295.525	474.38
295.756	462.38
295.987	458.38
296.217	449.38
296.448	453.38
296.679	466.38
296.909	467.38
297.14	459.38
297.37	494.38
297.601	512.38
297.831	544.38
298.062	518.38
298.292	482.38
298.523	465.38
298.753	457.38
298.984	467.38
299.214	505.38
299.445	486.38
299.675	505.38
299.905	499.38
300.136	480.38
300.366	463.38
300.597	457.38
300.827	473.38
301.057	476.38
301.288	508.38
301.518	512.38
301.748	537.38
301.979	548.38
302.209	589.38
302.439	584.38
302.669	585.38
302.9	556.38
303.13	531.38
303.36	489.38
303.59	513.38
303.82	512.38
304.051	497.38
304.281	526.38
304.511	531.38
304.741	584.38
304.971	614.38
305.201	629.38
305.431	545.38
305.661	485.38
305.891	447.38
306.121	452.38
306.352	499.38
306.582	530.38
306.812	541.38
307.042	580.38
307.272	583.38
307.502	590.38
307.731	641.38
307.961	632.38
308.191	589.38
308.421	523.38
308.651	500.38
308.881	499.38
309.111	495.38
309.341	497.38
309.571	493.38
309.8	489.38
310.03	501.38
310.26	502.38
310.49	486.38
310.72	508.38
310.949	549.38
311.179	521.38
311.409	521.38
311.639	517.38
311.868	528.38
312.098	537.38
312.328	494.38
312.557	498.38
312.787	511.38
313.017	528.38
313.246	531.38
313.476	533.38
313.706	524.38
313.935	549.38
314.165	529.38
314.394	550.38
314.624	583.38
314.853	631.38
315.083	636.38
315.312	659.38
315.542	591.38
315.771	531.38
316.001	554.38
316.23	585.38
316.46	563.38
316.689	572.38
316.919	527.38
317.148	517.38
317.377	548.38
317.607	609.38
317.836	656.38
318.065	659.38
318.295	622.38
318.524	587.38
318.753	554.38
318.983	561.38
319.212	557.38
319.441	570.38
319.67	562.38
319.9	548.38
320.129	583.38
320.358	609.38
320.587	626.38
320.816	625.38
321.046	578.38
321.275	579.38
321.504	607.38
321.733	632.38
321.962	587.38
322.191	576.38
322.42	564.38
322.649	568.38
322.878	556.38
323.108	574.38
323.337	580.38
323.566	572.38
323.795	581.38
324.024	575.38
324.253	535.38
324.482	558.38
324.71	542.38
324.939	524.38
325.168	563.38
325.397	573.38
325.626	575.38
325.855	586.38
326.084	581.38
326.313	562.38
326.542	586.38
326.77	594.38
326.999	561.38
327.228	553.38
327.457	539.38
327.686	513.38
327.914	550.38
328.143	595.38
328.372	552.38
328.6	561.38
328.829	565.38
329.058	558.38
329.287	554.38
329.515	563.38
329.744	582.38
329.972	604.38
330.201	630.38
330.43	607.38
330.658	604.38
330.887	587.38
331.115	608.38
331.344	613.38
331.572	598.38
331.801	590.38
332.03	591.38
332.258	595.38
332.486	609.38
332.715	613.38
332.943	617.38
333.172	592.38
333.4	618.38
333.629	642.38
333.857	664.38
334.085	736.38
334.314	793.38
334.542	827.38
334.771	769.38
334.999	693.38
335.227	619.38
335.455	623.38
335.684	645.38
335.912	678.38
336.14	637.38
336.369	625.38
336.597	611.38
336.825	606.38
337.053	619.38
337.281	668.38
337.51	701.38
337.738	700.38
337.966	656.38
338.194	614.38
338.422	603.38
338.65	587.38
338.878	582.38
339.106	581.38
339.334	572.38
339.562	549.38
339.79	588.38
340.018	597.38
340.246	651.38
340.474	615.38
340.702	622.38
340.93	613.38
341.158	619.38
341.386	604.38
341.614	624.38
341.842	597.38
342.07	600.38
342.298	619.38
342.526	617.38
342.754	604.38
342.981	588.38
343.209	588.38
343.437	610.38
343.665	602.38
343.893	634.38
344.12	647.38
344.348	629.38
344.576	631.38
344.804	613.38
345.031	602.38
345.259	601.38
345.487	575.38
345.714	569.38
345.942	567.38
346.17	570.38
346.397	581.38
346.625	573.38
346.853	545.38
347.08	570.38
347.308	563.38
347.535	562.38
347.763	569.38
347.99	573.38
348.218	565.38
348.445	568.38
348.673	584.38
348.9	600.38
349.128	626.38
349.355	597.38
349.583	602.38
349.81	551.38
350.037	543.38
350.265	525.38
350.492	526.38
350.72	563.38
350.947	610.38
351.174	604.38
351.402	564.38
351.629	530.38
351.856	523.38
352.083	532.38
352.311	549.38
352.538	577.38
352.765	565.38
352.992	582.38
353.22	561.38
353.447	565.38
353.674	579.38
353.901	577.38
354.128	551.38
354.355	549.38
354.583	586.38
354.81	614.38
355.037	580.38
355.264	589.38
355.491	585.38
355.718	595.38
355.945	582.38
356.172	555.38
356.399	550.38
356.626	569.38
356.853	589.38
357.08	651.38
357.307	671.38
357.534	638.38
357.761	568.38
357.988	531.38
358.215	551.38
358.441	561.38
358.668	562.38
358.895	559.38
359.122	607.38
359.349	648.38
359.576	628.38
359.802	567.38
360.029	541.38
360.256	552.38
360.483	571.38
360.709	603.38
360.936	601.38
361.163	649.38
361.39	692.38
361.616	716.38
361.843	729.38
362.07	634.38
362.296	585.38
362.523	579.38
362.749	580.38
362.976	586.38
363.203	585.38
363.429	549.38
363.656	554.38
363.882	612.38
364.109	677.38
364.335	677.38
364.562	628.38
364.788	574.38
365.015	582.38
365.241	591.38
365.468	582.38
365.694	601.38
365.92	633.38
366.147	606.38
366.373	561.38
366.599	550.38
366.826	556.38
367.052	558.38
367.278	579.38
367.505	590.38
367.731	613.38
367.957	603.38
368.184	632.38
368.41	671.38
368.636	665.38
368.862	631.38
369.089	682.38
369.315	640.38
369.541	620.38
369.767	620.38
369.993	579.38
370.219	603.38
370.445	599.38
370.672	645.38
370.898	685.38
371.124	647.38
371.35	634.38
371.576	657.38
371.802	666.38
372.028	633.38
372.254	615.38
372.48	600.38
372.706	602.38
372.932	600.38
373.158	619.38
373.384	622.38
373.61	658.38
373.835	659.38
374.061	637.38
374.287	625.38
374.513	628.38
374.739	629.38
374.965	658.38
375.191	623.38
375.416	653.38
375.642	645.38
375.868	717.38
376.094	737.38
376.319	678.38
376.545	667.38
376.771	682.38
376.997	721.38
377.222	687.38
377.448	670.38
377.674	694.38
377.899	689.38
378.125	720.38
378.35	685.38
378.576	651.38
378.802	625.38
379.027	627.38
379.253	629.38
379.478	669.38
379.704	638.38
379.929	643.38
380.155	674.38
380.38	653.38
380.606	681.38
380.831	675.38
381.057	702.38
381.282	703.38
381.507	703.38
381.733	763.38
381.958	748.38
382.184	695.38
382.409	671.38
382.634	677.38
382.86	676.38
383.085	686.38
383.31	722.38
383.535	785.38
383.761	809.38
383.986	756.38
384.211	732.38
384.436	753.38
384.662	769.38
384.887	786.38
385.112	750.38
385.337	747.38
385.562	734.38
385.787	750.38
386.013	778.38
386.238	770.38
386.463	745.38
386.688	815.38
386.913	853.38
387.138	829.38
387.363	806.38
387.588	779.38
387.813	781.38
388.038	802.38
388.263	780.38
388.488	765.38
388.713	713.38
388.938	731.38
389.163	749.38
389.387	729.38
389.612	740.38
389.837	769.38
390.062	761.38
390.287	780.38
390.512	757.38
390.736	759.38
390.961	755.38
391.186	728.38
391.411	758.38
391.636	753.38
391.86	778.38
392.085	754.38
392.31	732.38
392.534	763.38
392.759	770.38
392.984	778.38
393.208	767.38
393.433	807.38
393.658	847.38
393.882	831.38
394.107	789.38
394.331	733.38
394.556	754.38
394.78	796.38
395.005	818.38
395.229	843.38
395.454	892.38
395.678	863.38
395.903	815.38
396.127	809.38
396.352	838.38
396.576	857.38
396.801	853.38
397.025	862.38
397.249	858.38
397.474	834.38
397.698	842.38
397.922	876.38
398.147	898.38
398.371	921.38
398.595	899.38
398.82	865.38
399.044	897.38
399.268	923.38
399.492	978.38
399.717	988.38
399.941	994.38
400.165	983.38
400.389	983.38
400.613	994.38
400.837	1118.38
401.062	1186.38
401.286	1045.38
401.51	985.38
401.734	1016.38
401.958	941.38
402.182	911.38
402.406	884.38
402.63	883.38
402.854	894.38
403.078	910.38
403.302	893.38
403.526	921.38
403.75	934.38
403.974	931.38
404.198	927.38
404.422	983.38
404.645	1025.38
404.869	996.38
405.093	926.38
405.317	914.38
405.541	910.38
405.765	926.38
405.988	924.38
406.212	953.38
406.436	984.38
406.66	1011.38
406.883	1031.38
407.107	1130.38
407.331	1234.38
407.555	1290.38
407.778	1110.38
408.002	987.38
408.226	965.38
408.449	960.38
408.673	946.38
408.896	975.38
409.12	979.38
409.344	958.38
409.567	943.38
409.791	957.38
410.014	1004.38
410.238	1046.38
410.461	1070.38
410.685	963.38
410.908	940.38
411.132	939.38
411.355	939.38
411.578	924.38
411.802	965.38
412.025	943.38
412.249	947.38
412.472	912.38
412.695	929.38
412.919	905.38
413.142	926.38
413.365	951.38
413.589	993.38
413.812	1017.38
414.035	1009.38
414.258	940.38
414.482	923.38
414.705	939.38
414.928	918.38
415.151	890.38
415.374	906.38
415.597	947.38
415.821	921.38
416.044	980.38
416.267	964.38
416.49	897.38
416.713	911.38
416.936	972.38
417.159	993.38
417.382	975.38
417.605	936.38
417.828	920.38
418.051	929.38
418.274	947.38
418.497	938.38
418.72	911.38
418.943	933.38
419.166	982.38
419.389	1012.38
419.611	952.38
419.834	949.38
420.057	954.38
420.28	926.38
420.503	915.38
420.726	967.38
420.948	947.38
421.171	915.38
421.394	959.38
421.617	955.38
421.839	980.38
422.062	992.38
422.285	925.38
422.507	935.38
422.73	906.38
422.953	907.38
423.175	878.38
423.398	952.38
423.621	943.38
423.843	949.38
424.066	975.38
424.288	1016.38
424.511	1096.38
424.733	1010.38
424.956	947.38
425.178	942.38
425.401	943.38
425.623	958.38
425.846	929.38
426.068	1010.38
426.291	974.38
426.513	968.38
426.735	979.38
426.958	1026.38
427.18	1065.38
427.402	982.38
427.625	1037.38
427.847	1013.38
428.069	942.38
428.292	956.38
428.514	898.38
428.736	885.38
428.958	918.38
429.181	930.38
429.403	1082.38
429.625	1222.38
429.847	1049.38
430.069	957.38
430.292	1073.38
430.514	1047.38
430.736	994.38
430.958	961.38
431.18	933.38
431.402	871.38
431.624	858.38
431.846	815.38
432.068	751.38
432.29	727.38
432.512	799.38
432.734	881.38
432.956	932.38
433.178	999.38
433.4	966.38
433.622	951.38
433.844	895.38
434.066	855.38
434.287	802.38
434.509	793.38
434.731	831.38
434.953	893.38
435.175	910.38
435.397	919.38
435.618	877.38
435.84	841.38
436.062	839.38
436.284	885.38
436.505	918.38
436.727	959.38
436.949	926.38
437.17	891.38
437.392	874.38
437.614	839.38
437.835	800.38
438.057	828.38
438.278	853.38
438.5	876.38
438.721	902.38
438.943	919.38
439.165	933.38
439.386	939.38
439.608	937.38
439.829	975.38
440.05	978.38
440.272	962.38
440.493	956.38
440.715	1007.38
440.936	1037.38
441.158	1098.38
441.379	1030.38
441.6	1047.38
441.822	1036.38
442.043	1034.38
442.264	1019.38
442.486	956.38
442.707	978.38
442.928	975.38
443.149	983.38
443.371	986.38
443.592	1028.38
443.813	1035.38
444.034	1016.38
444.255	1022.38
444.476	1060.38
444.698	1049.38
444.919	1048.38
445.14	1172.38
445.361	1093.38
445.582	1085.38
445.803	1049.38
446.024	1044.38
446.245	1100.38
446.466	1046.38
446.687	1070.38
446.908	1095.38
447.129	1032.38
447.35	1046.38
447.571	1016.38
447.792	983.38
448.013	986.38
448.234	983.38
448.455	986.38
448.675	969.38
448.896	926.38
449.117	927.38
449.338	934.38
449.559	972.38
449.779	974.38
450	1026.38
450.221	1048.38
450.442	998.38
450.662	926.38
450.883	871.38
451.104	889.38
451.324	881.38
451.545	906.38
451.766	877.38
451.986	865.38
452.207	846.38
452.428	828.38
452.648	803.38
452.869	803.38
453.089	792.38
453.31	782.38
453.53	762.38
453.751	745.38
453.971	695.38
454.192	719.38
454.412	783.38
454.633	809.38
454.853	791.38
455.073	775.38
455.294	771.38
455.514	763.38
455.734	755.38
455.955	745.38
456.175	725.38
456.395	705.38
456.616	724.38
456.836	725.38
457.056	747.38
457.276	737.38
457.497	726.38
457.717	708.38
457.937	703.38
458.157	725.38
458.377	719.38
458.598	703.38
458.818	666.38
459.038	719.38
459.258	750.38
459.478	729.38
459.698	717.38
459.918	712.38
460.138	837.38
460.358	819.38
460.578	829.38
460.798	846.38
461.018	916.38
461.238	878.38
461.458	855.38
461.678	852.38
461.898	810.38
462.118	836.38
462.338	861.38
462.558	860.38
462.777	866.38
462.997	887.38
463.217	904.38
463.437	868.38
463.657	829.38
463.876	847.38
464.096	838.38
464.316	833.38
464.536	877.38
464.755	911.38
464.975	899.38
465.195	870.38
465.414	875.38
465.634	900.38
465.854	907.38
466.073	982.38
466.293	939.38
466.512	887.38
466.732	895.38
466.951	925.38
467.171	895.38
467.391	885.38
467.61	890.38
467.829	897.38
468.049	981.38
468.268	1025.38
468.488	970.38
468.707	932.38
468.927	924.38
469.146	899.38
469.365	942.38
469.585	921.38
469.804	914.38
470.023	928.38
470.243	965.38
470.462	964.38
470.681	943.38
470.901	940.38
471.12	948.38
471.339	948.38
471.558	958.38
471.777	911.38
471.997	916.38
472.216	841.38
472.435	819.38
472.654	771.38
472.873	779.38
473.092	838.38
473.311	843.38
473.53	814.38
473.749	811.38
473.968	845.38
474.187	863.38
474.406	837.38
474.625	871.38
474.844	902.38
475.063	891.38
475.282	886.38
475.501	825.38
475.72	881.38
475.939	919.38
476.158	897.38
476.377	869.38
476.596	865.38
476.814	796.38
477.033	801.38
477.252	844.38
477.471	905.38
477.69	933.38
477.908	965.38
478.127	1002.38
478.346	1043.38
478.564	1007.38
478.783	1019.38
479.002	1024.38
479.22	1016.38
479.439	1038.38
479.658	1073.38
479.876	988.38
480.095	911.38
480.313	855.38
480.532	901.38
480.751	877.38
480.969	825.38
481.188	799.38
481.406	796.38
481.624	775.38
481.843	792.38
482.061	836.38
482.28	865.38
482.498	906.38
482.717	891.38
482.935	907.38
483.153	994.38
483.372	1037.38
483.59	985.38
483.808	972.38
484.027	966.38
484.245	1025.38
484.463	1229.38
484.681	1293.38
484.9	1011.38
485.118	990.38
485.336	902.38
485.554	899.38
485.772	924.38
485.99	893.38
486.209	898.38
486.427	921.38
486.645	941.38
486.863	1003.38
487.081	1074.38
487.299	1021.38
487.517	990.38
487.735	1125.38
487.953	1202.38
488.171	1171.38
488.389	1144.38
488.607	1107.38
488.825	1138.38
489.043	1069.38
489.261	987.38
489.479	1054.38
489.696	1059.38
489.914	1032.38
490.132	1038.38
490.35	1137.38
490.568	1193.38
490.786	1184.38
491.003	1201.38
491.221	1278.38
491.439	1302.38
491.657	1346.38
491.874	1385.38
492.092	1435.38
492.31	1508.38
492.527	1471.38
492.745	1377.38
492.963	1329.38
493.18	1301.38
493.398	1347.38
493.615	1319.38
493.833	1283.38
494.05	1256.38
494.268	1271.38
494.485	1250.38
494.703	1258.38
494.92	1240.38
495.138	1242.38
495.355	1234.38
495.573	1241.38
495.79	1290.38
496.008	1291.38
496.225	1285.38
496.442	1245.38
496.66	1247.38
496.877	1238.38
497.094	1254.38
497.312	1230.38
497.529	1194.38
497.746	1194.38
497.963	1272.38
498.181	1287.38
498.398	1290.38
498.615	1249.38
498.832	1177.38
499.049	1164.38
499.267	1186.38
499.484	1251.38
499.701	1372.38
499.918	1385.38
500.135	1493.38
