Data from WStandard_LampEnergy5.5LIBS07252019.E.O._I.C._HRD10591_16-07-02-920.txt Node
Date: Thu Jul 25 16:07:02 EDT 2019
User: cochatt
Spectrometer: HR+D1059
Trigger mode: 1
Integration Time (sec): 1.000000E-1
Scans to average: 1
Electric dark correction enabled: true
Nonlinearity correction enabled: false
Boxcar width: 0
XAxis mode: Wavelengths
Number of Pixels in Spectrum: 2048
>>>>>Begin Spectral Data<<<<<
223.165	-16.25
223.4	-16.25
223.635	-16.25
223.869	-20.25
224.104	-7.25
224.338	-13.25
224.573	-16.25
224.808	-10.25
225.042	-25.25
225.277	0.75
225.511	3.75
225.746	9.75
225.98	5.75
226.215	5.75
226.449	10.75
226.683	15.75
226.918	29.75
227.152	26.75
227.387	23.75
227.621	40.75
227.856	34.75
228.09	63.75
228.324	57.75
228.559	42.75
228.793	131.75
229.027	395.75
229.262	365.75
229.496	395.75
229.73	413.75
229.964	460.75
230.199	459.75
230.433	459.75
230.667	522.75
230.901	555.75
231.136	468.75
231.37	477.75
231.604	461.75
231.838	484.75
232.072	488.75
232.306	471.75
232.541	475.75
232.775	556.75
233.009	626.75
233.243	596.75
233.477	531.75
233.711	553.75
233.945	594.75
234.179	543.75
234.413	603.75
234.647	643.75
234.881	589.75
235.115	553.75
235.349	590.75
235.583	591.75
235.817	571.75
236.051	557.75
236.285	558.75
236.519	591.75
236.753	677.75
236.987	701.75
237.221	675.75
237.455	780.75
237.689	738.75
237.922	693.75
238.156	663.75
238.39	687.75
238.624	730.75
238.858	735.75
239.091	746.75
239.325	817.75
239.559	925.75
239.793	981.75
240.027	1061.75
240.26	1057.75
240.494	766.75
240.728	712.75
240.961	709.75
241.195	745.75
241.429	828.75
241.662	839.75
241.896	776.75
242.13	803.75
242.363	879.75
242.597	952.75
242.83	894.75
243.064	899.75
243.298	966.75
243.531	948.75
243.765	925.75
243.998	957.75
244.232	822.75
244.465	767.75
244.699	816.75
244.932	900.75
245.166	1048.75
245.399	1001.75
245.633	916.75
245.866	923.75
246.099	943.75
246.333	946.75
246.566	1002.75
246.8	1076.75
247.033	1191.75
247.266	1104.75
247.5	1099.75
247.733	1037.75
247.966	1155.75
248.2	1284.75
248.433	1222.75
248.666	1271.75
248.899	1342.75
249.133	1542.75
249.366	1791.75
249.599	1441.75
249.832	1258.75
250.066	1295.75
250.299	1350.75
250.532	1244.75
250.765	1105.75
250.998	1155.75
251.231	1225.75
251.465	1251.75
251.698	1198.75
251.931	1179.75
252.164	1226.75
252.397	1256.75
252.63	1239.75
252.863	1154.75
253.096	1118.75
253.329	1163.75
253.562	1213.75
253.795	1284.75
254.028	1294.75
254.261	1187.75
254.494	1198.75
254.727	1124.75
254.96	1167.75
255.193	1291.75
255.426	1435.75
255.659	1649.75
255.892	1709.75
256.124	1406.75
256.357	1321.75
256.59	1452.75
256.823	1417.75
257.056	1417.75
257.289	1760.75
257.521	1911.75
257.754	1699.75
257.987	1604.75
258.22	1821.75
258.452	1800.75
258.685	1415.75
258.918	1377.75
259.151	1391.75
259.383	1347.75
259.616	1173.75
259.849	1245.75
260.081	1418.75
260.314	1557.75
260.547	1738.75
260.779	1732.75
261.012	1654.75
261.244	1489.75
261.477	1387.75
261.71	1455.75
261.942	1427.75
262.175	1365.75
262.407	1477.75
262.64	1423.75
262.872	1307.75
263.105	1261.75
263.337	1285.75
263.57	1306.75
263.802	1319.75
264.035	1228.75
264.267	1146.75
264.499	1103.75
264.732	1233.75
264.964	1338.75
265.197	1370.75
265.429	1411.75
265.661	1601.75
265.894	1788.75
266.126	1830.75
266.358	1641.75
266.591	1683.75
266.823	1832.75
267.055	1665.75
267.287	1633.75
267.52	1585.75
267.752	1586.75
267.984	1553.75
268.216	1655.75
268.448	1694.75
268.681	1649.75
268.913	1558.75
269.145	1431.75
269.377	1393.75
269.609	1523.75
269.841	1761.75
270.073	2045.75
270.306	2297.75
270.538	2508.75
270.77	2071.75
271.002	1745.75
271.234	1697.75
271.466	1678.75
271.698	1833.75
271.93	2230.75
272.162	2259.75
272.394	2043.75
272.626	1914.75
272.858	1674.75
273.09	1459.75
273.322	1461.75
273.553	1380.75
273.785	1413.75
274.017	1463.75
274.249	1598.75
274.481	1599.75
274.713	1491.75
274.945	1415.75
275.176	1452.75
275.408	1396.75
275.64	1429.75
275.872	1366.75
276.104	1473.75
276.335	1687.75
276.567	1931.75
276.799	1916.75
277.031	1726.75
277.262	1618.75
277.494	1647.75
277.726	1889.75
277.957	1873.75
278.189	1676.75
278.421	1575.75
278.652	1475.75
278.884	1454.75
279.115	1485.75
279.347	1550.75
279.579	1513.75
279.81	1486.75
280.042	1612.75
280.273	1767.75
280.505	1825.75
280.736	1845.75
280.968	1796.75
281.199	1542.75
281.431	1424.75
281.662	1459.75
281.894	1419.75
282.125	1500.75
282.356	1551.75
282.588	1566.75
282.819	1555.75
283.051	1688.75
283.282	1852.75
283.513	1778.75
283.745	1545.75
283.976	1431.75
284.207	1420.75
284.439	1457.75
284.67	1534.75
284.901	1569.75
285.132	1557.75
285.364	1555.75
285.595	1560.75
285.826	1554.75
286.057	1509.75
286.288	1498.75
286.52	1580.75
286.751	1664.75
286.982	1761.75
287.213	1583.75
287.444	1481.75
287.675	1452.75
287.906	1551.75
288.138	1659.75
288.369	1631.75
288.6	1542.75
288.831	1473.75
289.062	1512.75
289.293	1513.75
289.524	1493.75
289.755	1573.75
289.986	1597.75
290.217	1466.75
290.448	1479.75
290.679	1555.75
290.91	1544.75
291.141	1571.75
291.371	1653.75
291.602	1651.75
291.833	1609.75
292.064	1676.75
292.295	1633.75
292.526	1686.75
292.757	1744.75
292.987	1716.75
293.218	1538.75
293.449	1655.75
293.68	1899.75
293.91	2071.75
294.141	1919.75
294.372	1768.75
294.603	1816.75
294.833	1957.75
295.064	1848.75
295.295	1632.75
295.525	1621.75
295.756	1485.75
295.987	1393.75
296.217	1445.75
296.448	1523.75
296.679	1536.75
296.909	1521.75
297.14	1503.75
297.37	1539.75
297.601	1603.75
297.831	1761.75
298.062	1751.75
298.292	1579.75
298.523	1513.75
298.753	1525.75
298.984	1561.75
299.214	1551.75
299.445	1585.75
299.675	1629.75
299.905	1631.75
300.136	1591.75
300.366	1561.75
300.597	1489.75
300.827	1484.75
301.057	1535.75
301.288	1621.75
301.518	1630.75
301.748	1683.75
301.979	1752.75
302.209	1767.75
302.439	1863.75
302.669	1989.75
302.9	1891.75
303.13	1663.75
303.36	1626.75
303.59	1691.75
303.82	1661.75
304.051	1644.75
304.281	1672.75
304.511	1625.75
304.741	1733.75
304.971	1922.75
305.201	2099.75
305.431	1986.75
305.661	1618.75
305.891	1468.75
306.121	1454.75
306.352	1485.75
306.582	1577.75
306.812	1679.75
307.042	1829.75
307.272	1852.75
307.502	1881.75
307.731	2053.75
307.961	2153.75
308.191	2012.75
308.421	1720.75
308.651	1619.75
308.881	1586.75
309.111	1590.75
309.341	1598.75
309.571	1574.75
309.8	1599.75
310.03	1594.75
310.26	1587.75
310.49	1565.75
310.72	1607.75
310.949	1663.75
311.179	1691.75
311.409	1667.75
311.639	1633.75
311.868	1554.75
312.098	1609.75
312.328	1591.75
312.557	1617.75
312.787	1630.75
313.017	1639.75
313.246	1702.75
313.476	1662.75
313.706	1704.75
313.935	1692.75
314.165	1694.75
314.394	1708.75
314.624	1815.75
314.853	1938.75
315.083	2053.75
315.312	2079.75
315.542	1973.75
315.771	1726.75
316.001	1729.75
316.23	1795.75
316.46	1835.75
316.689	1807.75
316.919	1731.75
317.148	1642.75
317.377	1605.75
317.607	1763.75
317.836	1957.75
318.065	2062.75
318.295	1990.75
318.524	1882.75
318.753	1762.75
318.983	1829.75
319.212	1754.75
319.441	1737.75
319.67	1710.75
319.9	1765.75
320.129	1838.75
320.358	1913.75
320.587	1983.75
320.816	1960.75
321.046	1889.75
321.275	1793.75
321.504	1804.75
321.733	1964.75
321.962	1944.75
322.191	1742.75
322.42	1767.75
322.649	1689.75
322.878	1727.75
323.108	1710.75
323.337	1797.75
323.566	1816.75
323.795	1789.75
324.024	1782.75
324.253	1777.75
324.482	1786.75
324.71	1758.75
324.939	1646.75
325.168	1643.75
325.397	1727.75
325.626	1763.75
325.855	1829.75
326.084	1737.75
326.313	1721.75
326.542	1784.75
326.77	1830.75
326.999	1841.75
327.228	1774.75
327.457	1636.75
327.686	1674.75
327.914	1683.75
328.143	1763.75
328.372	1754.75
328.6	1727.75
328.829	1720.75
329.058	1689.75
329.287	1688.75
329.515	1746.75
329.744	1779.75
329.972	1845.75
330.201	1934.75
330.43	1879.75
330.658	1790.75
330.887	1841.75
331.115	1867.75
331.344	1850.75
331.572	1796.75
331.801	1783.75
332.03	1829.75
332.258	1829.75
332.486	1870.75
332.715	1848.75
332.943	1868.75
333.172	1823.75
333.4	1845.75
333.629	1893.75
333.857	2037.75
334.085	2226.75
334.314	2471.75
334.542	2711.75
334.771	2553.75
334.999	2210.75
335.227	2089.75
335.455	1986.75
335.684	1929.75
335.912	2000.75
336.14	2079.75
336.369	1984.75
336.597	1855.75
336.825	1859.75
337.053	1911.75
337.281	2017.75
337.51	2124.75
337.738	2230.75
337.966	2135.75
338.194	1896.75
338.422	1822.75
338.65	1786.75
338.878	1799.75
339.106	1766.75
339.334	1749.75
339.562	1685.75
339.79	1768.75
340.018	1887.75
340.246	1938.75
340.474	1907.75
340.702	1870.75
340.93	1891.75
341.158	1902.75
341.386	1837.75
341.614	1835.75
341.842	1794.75
342.07	1807.75
342.298	1853.75
342.526	1841.75
342.754	1793.75
342.981	1768.75
343.209	1761.75
343.437	1805.75
343.665	1794.75
343.893	1860.75
344.12	1950.75
344.348	1986.75
344.576	1896.75
344.804	1793.75
345.031	1788.75
345.259	1809.75
345.487	1787.75
345.714	1680.75
345.942	1662.75
346.17	1645.75
346.397	1695.75
346.625	1745.75
346.853	1636.75
347.08	1622.75
347.308	1630.75
347.535	1682.75
347.763	1743.75
347.99	1706.75
348.218	1615.75
348.445	1665.75
348.673	1673.75
348.9	1736.75
349.128	1769.75
349.355	1837.75
349.583	1798.75
349.81	1713.75
350.037	1596.75
350.265	1559.75
350.492	1558.75
350.72	1642.75
350.947	1696.75
351.174	1759.75
351.402	1632.75
351.629	1531.75
351.856	1533.75
352.083	1553.75
352.311	1557.75
352.538	1648.75
352.765	1669.75
352.992	1703.75
353.22	1675.75
353.447	1597.75
353.674	1653.75
353.901	1720.75
354.128	1620.75
354.355	1614.75
354.583	1663.75
354.81	1726.75
355.037	1741.75
355.264	1701.75
355.491	1671.75
355.718	1697.75
355.945	1670.75
356.172	1618.75
356.399	1636.75
356.626	1602.75
356.853	1645.75
357.08	1798.75
357.307	1926.75
357.534	1984.75
357.761	1763.75
357.988	1638.75
358.215	1538.75
358.441	1578.75
358.668	1563.75
358.895	1588.75
359.122	1707.75
359.349	1893.75
359.576	1866.75
359.802	1683.75
360.029	1593.75
360.256	1545.75
360.483	1615.75
360.709	1707.75
360.936	1742.75
361.163	1754.75
361.39	1953.75
361.616	2079.75
361.843	2024.75
362.07	1907.75
362.296	1717.75
362.523	1623.75
362.749	1609.75
362.976	1673.75
363.203	1726.75
363.429	1643.75
363.656	1589.75
363.882	1666.75
364.109	1809.75
364.335	2046.75
364.562	1881.75
364.788	1763.75
365.015	1667.75
365.241	1650.75
365.468	1668.75
365.694	1731.75
365.92	1848.75
366.147	1764.75
366.373	1635.75
366.599	1594.75
366.826	1593.75
367.052	1589.75
367.278	1630.75
367.505	1640.75
367.731	1699.75
367.957	1716.75
368.184	1710.75
368.41	1817.75
368.636	1916.75
368.862	1861.75
369.089	1921.75
369.315	1801.75
369.541	1745.75
369.767	1676.75
369.993	1648.75
370.219	1649.75
370.445	1671.75
370.672	1740.75
370.898	1859.75
371.124	1883.75
371.35	1730.75
371.576	1839.75
371.802	1871.75
372.028	1803.75
372.254	1679.75
372.48	1666.75
372.706	1631.75
372.932	1649.75
373.158	1687.75
373.384	1705.75
373.61	1732.75
373.835	1871.75
374.061	1779.75
374.287	1704.75
374.513	1785.75
374.739	1727.75
374.965	1781.75
375.191	1794.75
375.416	1798.75
375.642	1820.75
375.868	1921.75
376.094	1949.75
376.319	1814.75
376.545	1757.75
376.771	1755.75
376.997	1889.75
377.222	1848.75
377.448	1780.75
377.674	1840.75
377.899	1758.75
378.125	1929.75
378.35	1927.75
378.576	1751.75
378.802	1661.75
379.027	1677.75
379.253	1667.75
379.478	1705.75
379.704	1728.75
379.929	1703.75
380.155	1729.75
380.38	1755.75
380.606	1749.75
380.831	1727.75
381.057	1821.75
381.282	1850.75
381.507	1791.75
381.733	1902.75
381.958	2011.75
382.184	1866.75
382.409	1777.75
382.634	1845.75
382.86	1781.75
383.085	1767.75
383.31	1881.75
383.535	2005.75
383.761	2133.75
383.986	2021.75
384.211	1967.75
384.436	1933.75
384.662	2006.75
384.887	2150.75
385.112	1992.75
385.337	1988.75
385.562	2002.75
385.787	1990.75
386.013	1990.75
386.238	2043.75
386.463	2022.75
386.688	2114.75
386.913	2326.75
387.138	2198.75
387.363	2021.75
387.588	2046.75
387.813	2009.75
388.038	2044.75
388.263	2131.75
388.488	2104.75
388.713	1886.75
388.938	1919.75
389.163	1913.75
389.387	1969.75
389.612	1946.75
389.837	1977.75
390.062	2043.75
390.287	2012.75
390.512	1973.75
390.736	1937.75
390.961	1881.75
391.186	1893.75
391.411	1902.75
391.636	1948.75
391.86	1972.75
392.085	1982.75
392.31	1926.75
392.534	1941.75
392.759	1979.75
392.984	1925.75
393.208	2034.75
393.433	2051.75
393.658	2154.75
393.882	2103.75
394.107	2007.75
394.331	1949.75
394.556	1933.75
394.78	2005.75
395.005	2085.75
395.229	2124.75
395.454	2286.75
395.678	2280.75
395.903	2197.75
396.127	2103.75
396.352	2105.75
396.576	2171.75
396.801	2215.75
397.025	2181.75
397.249	2183.75
397.474	2155.75
397.698	2116.75
397.922	2213.75
398.147	2262.75
398.371	2343.75
398.595	2331.75
398.82	2251.75
399.044	2288.75
399.268	2365.75
399.492	2574.75
399.717	2713.75
399.941	2671.75
400.165	2622.75
400.389	2542.75
400.613	2489.75
400.837	2726.75
401.062	3235.75
401.286	2759.75
401.51	2437.75
401.734	2581.75
401.958	2521.75
402.182	2368.75
402.406	2254.75
402.63	2221.75
402.854	2251.75
403.078	2282.75
403.302	2272.75
403.526	2332.75
403.75	2354.75
403.974	2397.75
404.198	2350.75
404.422	2455.75
404.645	2513.75
404.869	2537.75
405.093	2318.75
405.317	2294.75
405.541	2330.75
405.765	2368.75
405.988	2340.75
406.212	2411.75
406.436	2453.75
406.66	2515.75
406.883	2532.75
407.107	2806.75
407.331	3100.75
407.555	3300.75
407.778	3081.75
408.002	2531.75
408.226	2464.75
408.449	2461.75
408.673	2438.75
408.896	2437.75
409.12	2466.75
409.344	2388.75
409.567	2325.75
409.791	2353.75
410.014	2455.75
410.238	2488.75
410.461	2702.75
410.685	2444.75
410.908	2227.75
411.132	2290.75
411.355	2365.75
411.578	2298.75
411.802	2274.75
412.025	2345.75
412.249	2305.75
412.472	2194.75
412.695	2184.75
412.919	2259.75
413.142	2208.75
413.365	2258.75
413.589	2359.75
413.812	2384.75
414.035	2527.75
414.258	2333.75
414.482	2256.75
414.705	2269.75
414.928	2251.75
415.151	2213.75
415.374	2267.75
415.597	2302.75
415.821	2297.75
416.044	2402.75
416.267	2396.75
416.49	2192.75
416.713	2182.75
416.936	2207.75
417.159	2334.75
417.382	2355.75
417.605	2177.75
417.828	2278.75
418.051	2310.75
418.274	2238.75
418.497	2204.75
418.72	2173.75
418.943	2137.75
419.166	2286.75
419.389	2408.75
419.611	2280.75
419.834	2200.75
420.057	2272.75
420.28	2164.75
420.503	2122.75
420.726	2192.75
420.948	2231.75
421.171	2128.75
421.394	2149.75
421.617	2243.75
421.839	2236.75
422.062	2201.75
422.285	2118.75
422.507	2156.75
422.73	2081.75
422.953	2077.75
423.175	2121.75
423.398	2167.75
423.621	2141.75
423.843	2169.75
424.066	2227.75
424.288	2276.75
424.511	2318.75
424.733	2283.75
424.956	2009.75
425.178	2049.75
425.401	2117.75
425.623	2122.75
425.846	2061.75
426.068	2199.75
426.291	2255.75
426.513	2242.75
426.735	2185.75
426.958	2345.75
427.18	2500.75
427.402	2268.75
427.625	2307.75
427.847	2345.75
428.069	2215.75
428.292	2142.75
428.514	2065.75
428.736	2057.75
428.958	2101.75
429.181	2115.75
429.403	2433.75
429.625	2922.75
429.847	2573.75
430.069	2169.75
430.292	2382.75
430.514	2469.75
430.736	2284.75
430.958	2420.75
431.18	2271.75
431.402	2093.75
431.624	2143.75
431.846	2069.75
432.068	2088.75
432.29	2082.75
432.512	2077.75
432.734	2178.75
432.956	2192.75
433.178	2265.75
433.4	2275.75
433.622	2229.75
433.844	2151.75
434.066	2083.75
434.287	2090.75
434.509	2173.75
434.731	2270.75
434.953	2441.75
435.175	2383.75
435.397	2211.75
435.618	2242.75
435.84	2271.75
436.062	2243.75
436.284	2204.75
436.505	2239.75
436.727	2268.75
436.949	2204.75
437.17	2119.75
437.392	2122.75
437.614	2127.75
437.835	2051.75
438.057	2183.75
438.278	2289.75
438.5	2141.75
438.721	2085.75
438.943	2097.75
439.165	2069.75
439.386	2025.75
439.608	2079.75
439.829	2134.75
440.05	2062.75
440.272	2024.75
440.493	2023.75
440.715	2097.75
440.936	2210.75
441.158	2449.75
441.379	2430.75
441.6	2320.75
441.822	2305.75
442.043	2248.75
442.264	2171.75
442.486	2085.75
442.707	2079.75
442.928	2088.75
443.149	2195.75
443.371	2275.75
443.592	2387.75
443.813	2316.75
444.034	2294.75
444.255	2294.75
444.476	2341.75
444.698	2380.75
444.919	2332.75
445.14	2481.75
445.361	2445.75
445.582	2495.75
445.803	2393.75
446.024	2297.75
446.245	2429.75
446.466	2357.75
446.687	2253.75
446.908	2199.75
447.129	2091.75
447.35	2205.75
447.571	2171.75
447.792	2046.75
448.013	2057.75
448.234	2078.75
448.455	2195.75
448.675	2209.75
448.896	2015.75
449.117	1995.75
449.338	2071.75
449.559	2126.75
449.779	2277.75
450	2505.75
450.221	2680.75
450.442	2589.75
450.662	2279.75
450.883	2009.75
451.104	1985.75
451.324	2003.75
451.545	2071.75
451.766	2054.75
451.986	1938.75
452.207	1917.75
452.428	1864.75
452.648	1870.75
452.869	1955.75
453.089	2036.75
453.31	2065.75
453.53	2095.75
453.751	2000.75
453.971	1913.75
454.192	1988.75
454.412	2092.75
454.633	2046.75
454.853	1965.75
455.073	1829.75
455.294	1833.75
455.514	1862.75
455.734	1886.75
455.955	1921.75
456.175	1872.75
456.395	1865.75
456.616	1935.75
456.836	1986.75
457.056	1970.75
457.276	1939.75
457.497	1887.75
457.717	1805.75
457.937	1859.75
458.157	1933.75
458.377	1849.75
458.598	1865.75
458.818	1873.75
459.038	2009.75
459.258	2142.75
459.478	2123.75
459.698	2084.75
459.918	2102.75
460.138	2198.75
460.358	2246.75
460.578	2222.75
460.798	2333.75
461.018	2439.75
461.238	2360.75
461.458	2230.75
461.678	2282.75
461.898	2192.75
462.118	2136.75
462.338	2241.75
462.558	2238.75
462.777	2281.75
462.997	2327.75
463.217	2514.75
463.437	2500.75
463.657	2240.75
463.876	2255.75
464.096	2239.75
464.316	2263.75
464.536	2347.75
464.755	2366.75
464.975	2391.75
465.195	2294.75
465.414	2370.75
465.634	2389.75
465.854	2219.75
466.073	2382.75
466.293	2401.75
466.512	2055.75
466.732	2093.75
466.951	2133.75
467.171	2132.75
467.391	2077.75
467.61	2031.75
467.829	1995.75
468.049	2170.75
468.268	2453.75
468.488	2289.75
468.707	2157.75
468.927	2109.75
469.146	2070.75
469.365	1989.75
469.585	2020.75
469.804	2006.75
470.023	2059.75
470.243	2120.75
470.462	2024.75
470.681	1951.75
470.901	2114.75
471.12	2077.75
471.339	2010.75
471.558	1952.75
471.777	1982.75
471.997	2019.75
472.216	2034.75
472.435	1951.75
472.654	1954.75
472.873	2069.75
473.092	2231.75
473.311	2089.75
473.53	1961.75
473.749	1950.75
473.968	1997.75
474.187	2132.75
474.406	2244.75
474.625	2096.75
474.844	2064.75
475.063	2069.75
475.282	2147.75
475.501	2083.75
475.72	2068.75
475.939	2209.75
476.158	2145.75
476.377	2076.75
476.596	2095.75
476.814	2170.75
477.033	2145.75
477.252	2253.75
477.471	2342.75
477.69	2212.75
477.908	2184.75
478.127	2235.75
478.346	2503.75
478.564	2495.75
478.783	2492.75
479.002	2536.75
479.22	2468.75
479.439	2545.75
479.658	2875.75
479.876	2897.75
480.095	2442.75
480.313	2374.75
480.532	2293.75
480.751	2313.75
480.969	2350.75
481.188	2306.75
481.406	2298.75
481.624	2246.75
481.843	2289.75
482.061	2319.75
482.28	2387.75
482.498	2421.75
482.717	2399.75
482.935	2304.75
483.153	2291.75
483.372	2261.75
483.59	2293.75
483.808	2283.75
484.027	2337.75
484.245	2485.75
484.463	2844.75
484.681	3299.75
484.9	2583.75
485.118	2380.75
485.336	2307.75
485.554	2438.75
485.772	2519.75
485.99	2445.75
486.209	2476.75
486.427	2470.75
486.645	2496.75
486.863	2359.75
487.081	2483.75
487.299	2541.75
