Data from WStandard_LampEnergy8_LIBS07252019.E.O._I.C._HRD10591_15-59-54-929.txt Node
Date: Thu Jul 25 15:59:54 EDT 2019
User: cochatt
Spectrometer: HR+D1059
Trigger mode: 1
Integration Time (sec): 1.000000E-1
Scans to average: 1
Electric dark correction enabled: true
Nonlinearity correction enabled: false
Boxcar width: 0
XAxis mode: Wavelengths
Number of Pixels in Spectrum: 2048
>>>>>Begin Spectral Data<<<<<
223.165	-11.19
223.4	-11.19
223.635	-11.19
223.869	-29.19
224.104	-14.19
224.338	-7.19
224.573	-1.19
224.808	-23.19
225.042	-1.19
225.277	-25.19
225.511	-8.19
225.746	-3.19
225.98	4.81
226.215	12.81
226.449	21.81
226.683	24.81
226.918	28.81
227.152	30.81
227.387	48.81
227.621	58.81
227.856	57.81
228.09	33.81
228.324	49.81
228.559	58.81
228.793	97.81
229.027	201.81
229.262	199.81
229.496	213.81
229.73	234.81
229.964	220.81
230.199	253.81
230.433	260.81
230.667	270.81
230.901	273.81
231.136	294.81
231.37	267.81
231.604	250.81
231.838	259.81
232.072	269.81
232.306	249.81
232.541	275.81
232.775	308.81
233.009	330.81
233.243	301.81
233.477	283.81
233.711	297.81
233.945	297.81
234.179	313.81
234.413	309.81
234.647	335.81
234.881	304.81
235.115	301.81
235.349	309.81
235.583	284.81
235.817	310.81
236.051	297.81
236.285	310.81
236.519	337.81
236.753	369.81
236.987	363.81
237.221	352.81
237.455	362.81
237.689	362.81
237.922	355.81
238.156	344.81
238.39	347.81
238.624	358.81
238.858	381.81
239.091	420.81
239.325	428.81
239.559	475.81
239.793	478.81
240.027	533.81
240.26	496.81
240.494	395.81
240.728	374.81
240.961	369.81
241.195	391.81
241.429	423.81
241.662	403.81
241.896	388.81
242.13	383.81
242.363	419.81
242.597	472.81
242.83	435.81
243.064	452.81
243.298	476.81
243.531	450.81
243.765	469.81
243.998	456.81
244.232	408.81
244.465	404.81
244.699	412.81
244.932	465.81
245.166	507.81
245.399	470.81
245.633	449.81
245.866	458.81
246.099	475.81
246.333	472.81
246.566	498.81
246.8	542.81
247.033	584.81
247.266	545.81
247.5	534.81
247.733	546.81
247.966	582.81
248.2	594.81
248.433	590.81
248.666	605.81
248.899	649.81
249.133	740.81
249.366	830.81
249.599	674.81
249.832	588.81
250.066	632.81
250.299	608.81
250.532	579.81
250.765	516.81
250.998	563.81
251.231	587.81
251.465	598.81
251.698	586.81
251.931	582.81
252.164	579.81
252.397	632.81
252.63	623.81
252.863	540.81
253.096	540.81
253.329	558.81
253.562	581.81
253.795	589.81
254.028	616.81
254.261	566.81
254.494	553.81
254.727	565.81
254.96	578.81
255.193	644.81
255.426	698.81
255.659	797.81
255.892	764.81
256.124	664.81
256.357	653.81
256.59	713.81
256.823	665.81
257.056	727.81
257.289	803.81
257.521	892.81
257.754	792.81
257.987	752.81
258.22	833.81
258.452	789.81
258.685	680.81
258.918	654.81
259.151	665.81
259.383	640.81
259.616	584.81
259.849	617.81
260.081	685.81
260.314	774.81
260.547	796.81
260.779	834.81
261.012	745.81
261.244	689.81
261.477	651.81
261.71	679.81
261.942	668.81
262.175	680.81
262.407	692.81
262.64	673.81
262.872	620.81
263.105	628.81
263.337	624.81
263.57	630.81
263.802	624.81
264.035	584.81
264.267	552.81
264.499	571.81
264.732	602.81
264.964	648.81
265.197	636.81
265.429	709.81
265.661	784.81
265.894	824.81
266.126	837.81
266.358	779.81
266.591	819.81
266.823	846.81
267.055	772.81
267.287	763.81
267.52	768.81
267.752	728.81
267.984	736.81
268.216	785.81
268.448	788.81
268.681	758.81
268.913	703.81
269.145	702.81
269.377	690.81
269.609	755.81
269.841	870.81
270.073	1011.81
270.306	1068.81
270.538	1143.81
270.77	954.81
271.002	836.81
271.234	781.81
271.466	814.81
271.698	915.81
271.93	1051.81
272.162	1048.81
272.394	938.81
272.626	886.81
272.858	775.81
273.09	698.81
273.322	698.81
273.553	653.81
273.785	660.81
274.017	701.81
274.249	756.81
274.481	741.81
274.713	700.81
274.945	690.81
275.176	681.81
275.408	680.81
275.64	664.81
275.872	689.81
276.104	732.81
276.335	816.81
276.567	915.81
276.799	891.81
277.031	829.81
277.262	770.81
277.494	840.81
277.726	893.81
277.957	868.81
278.189	806.81
278.421	742.81
278.652	737.81
278.884	699.81
279.115	726.81
279.347	739.81
279.579	726.81
279.81	714.81
280.042	807.81
280.273	889.81
280.505	856.81
280.736	878.81
280.968	788.81
281.199	722.81
281.431	702.81
281.662	716.81
281.894	713.81
282.125	724.81
282.356	741.81
282.588	763.81
282.819	784.81
283.051	809.81
283.282	895.81
283.513	811.81
283.745	737.81
283.976	700.81
284.207	721.81
284.439	736.81
284.67	754.81
284.901	768.81
285.132	748.81
285.364	730.81
285.595	793.81
285.826	772.81
286.057	732.81
286.288	747.81
286.52	775.81
286.751	848.81
286.982	839.81
287.213	779.81
287.444	746.81
287.675	736.81
287.906	785.81
288.138	827.81
288.369	793.81
288.6	744.81
288.831	734.81
289.062	738.81
289.293	745.81
289.524	758.81
289.755	803.81
289.986	765.81
290.217	718.81
290.448	757.81
290.679	754.81
290.91	777.81
291.141	797.81
291.371	799.81
291.602	806.81
291.833	807.81
292.064	809.81
292.295	838.81
292.526	858.81
292.757	856.81
292.987	837.81
293.218	760.81
293.449	850.81
293.68	969.81
293.91	994.81
294.141	922.81
294.372	920.81
294.603	926.81
294.833	978.81
295.064	899.81
295.295	845.81
295.525	806.81
295.756	762.81
295.987	730.81
296.217	740.81
296.448	743.81
296.679	776.81
296.909	769.81
297.14	720.81
297.37	781.81
297.601	836.81
297.831	894.81
298.062	866.81
298.292	787.81
298.523	768.81
298.753	770.81
298.984	785.81
299.214	776.81
299.445	830.81
299.675	859.81
299.905	845.81
300.136	808.81
300.366	774.81
300.597	747.81
300.827	780.81
301.057	800.81
301.288	854.81
301.518	855.81
301.748	874.81
301.979	873.81
302.209	923.81
302.439	1000.81
302.669	984.81
302.9	917.81
303.13	827.81
303.36	845.81
303.59	866.81
303.82	850.81
304.051	852.81
304.281	853.81
304.511	856.81
304.741	951.81
304.971	1005.81
305.201	1063.81
305.431	936.81
305.661	817.81
305.891	758.81
306.121	774.81
306.352	785.81
306.582	830.81
306.812	884.81
307.042	963.81
307.272	952.81
307.502	988.81
307.731	1063.81
307.961	1093.81
308.191	989.81
308.421	888.81
308.651	802.81
308.881	793.81
309.111	840.81
309.341	835.81
309.571	809.81
309.8	811.81
310.03	803.81
310.26	800.81
310.49	820.81
310.72	843.81
310.949	846.81
311.179	856.81
311.409	853.81
311.639	852.81
311.868	830.81
312.098	835.81
312.328	821.81
312.557	821.81
312.787	850.81
313.017	847.81
313.246	855.81
313.476	884.81
313.706	898.81
313.935	869.81
314.165	869.81
314.394	918.81
314.624	979.81
314.853	1016.81
315.083	1047.81
315.312	1036.81
315.542	981.81
315.771	925.81
316.001	901.81
316.23	924.81
316.46	916.81
316.689	913.81
316.919	853.81
317.148	853.81
317.377	867.81
317.607	988.81
317.836	1065.81
318.065	1053.81
318.295	1034.81
318.524	980.81
318.753	980.81
318.983	942.81
319.212	910.81
319.441	893.81
319.67	907.81
319.9	956.81
320.129	994.81
320.358	1016.81
320.587	1029.81
320.816	1024.81
321.046	983.81
321.275	939.81
321.504	970.81
321.733	1042.81
321.962	1002.81
322.191	936.81
322.42	917.81
322.649	918.81
322.878	924.81
323.108	962.81
323.337	964.81
323.566	953.81
323.795	940.81
324.024	970.81
324.253	920.81
324.482	939.81
324.71	889.81
324.939	850.81
325.168	879.81
325.397	930.81
325.626	928.81
325.855	959.81
326.084	896.81
326.313	937.81
326.542	925.81
326.77	962.81
326.999	973.81
327.228	909.81
327.457	894.81
327.686	831.81
327.914	905.81
328.143	953.81
328.372	906.81
328.6	923.81
328.829	910.81
329.058	899.81
329.287	892.81
329.515	929.81
329.744	948.81
329.972	992.81
330.201	1004.81
330.43	992.81
330.658	976.81
330.887	963.81
331.115	974.81
331.344	977.81
331.572	948.81
331.801	944.81
332.03	974.81
332.258	986.81
332.486	990.81
332.715	977.81
332.943	997.81
333.172	970.81
333.4	983.81
333.629	1026.81
333.857	1074.81
334.085	1225.81
334.314	1330.81
334.542	1376.81
334.771	1256.81
334.999	1120.81
335.227	1084.81
335.455	1057.81
335.684	1039.81
335.912	1047.81
336.14	1107.81
336.369	1047.81
336.597	986.81
336.825	973.81
337.053	995.81
337.281	1074.81
337.51	1131.81
337.738	1152.81
337.966	1076.81
338.194	993.81
338.422	954.81
338.65	964.81
338.878	950.81
339.106	927.81
339.334	950.81
339.562	939.81
339.79	923.81
340.018	1012.81
340.246	1043.81
340.474	1029.81
340.702	1008.81
340.93	1005.81
341.158	1002.81
341.386	977.81
341.614	969.81
341.842	965.81
342.07	963.81
342.298	989.81
342.526	968.81
342.754	951.81
342.981	934.81
343.209	953.81
343.437	963.81
343.665	985.81
343.893	1012.81
344.12	1026.81
344.348	1036.81
344.576	1025.81
344.804	992.81
345.031	992.81
345.259	973.81
345.487	924.81
345.714	929.81
345.942	902.81
346.17	916.81
346.397	938.81
346.625	929.81
346.853	899.81
347.08	877.81
347.308	895.81
347.535	904.81
347.763	953.81
347.99	911.81
348.218	889.81
348.445	909.81
348.673	933.81
348.9	938.81
349.128	992.81
349.355	980.81
349.583	970.81
349.81	920.81
350.037	856.81
350.265	862.81
350.492	883.81
350.72	877.81
350.947	944.81
351.174	930.81
351.402	908.81
351.629	872.81
351.856	860.81
352.083	823.81
352.311	867.81
352.538	874.81
352.765	935.81
352.992	916.81
353.22	916.81
353.447	872.81
353.674	896.81
353.901	894.81
354.128	909.81
354.355	920.81
354.583	929.81
354.81	936.81
355.037	941.81
355.264	938.81
355.491	944.81
355.718	906.81
355.945	889.81
356.172	892.81
356.399	876.81
356.626	888.81
356.853	937.81
357.08	1019.81
357.307	1078.81
357.534	1066.81
357.761	926.81
357.988	871.81
358.215	852.81
358.441	858.81
358.668	871.81
358.895	889.81
359.122	983.81
359.349	1090.81
359.576	994.81
359.802	941.81
360.029	879.81
360.256	896.81
360.483	876.81
360.709	944.81
360.936	933.81
361.163	1000.81
361.39	1074.81
361.616	1157.81
361.843	1113.81
362.07	1038.81
362.296	940.81
362.523	915.81
362.749	920.81
362.976	931.81
363.203	931.81
363.429	915.81
363.656	881.81
363.882	962.81
364.109	1038.81
364.335	1089.81
364.562	1012.81
364.788	986.81
365.015	919.81
365.241	896.81
365.468	922.81
365.694	966.81
365.92	994.81
366.147	928.81
366.373	902.81
366.599	903.81
366.826	897.81
367.052	888.81
367.278	878.81
367.505	964.81
367.731	954.81
367.957	930.81
368.184	980.81
368.41	1036.81
368.636	1054.81
368.862	1035.81
369.089	1052.81
369.315	1024.81
369.541	964.81
369.767	913.81
369.993	919.81
370.219	953.81
370.445	972.81
370.672	1005.81
370.898	1034.81
371.124	1003.81
371.35	995.81
371.576	1011.81
371.802	1050.81
372.028	992.81
372.254	949.81
372.48	926.81
372.706	907.81
372.932	921.81
373.158	926.81
373.384	979.81
373.61	1031.81
373.835	1032.81
374.061	982.81
374.287	972.81
374.513	979.81
374.739	989.81
374.965	997.81
375.191	998.81
375.416	1001.81
375.642	1021.81
375.868	1088.81
376.094	1091.81
376.319	1031.81
376.545	1008.81
376.771	1008.81
376.997	1031.81
377.222	1018.81
377.448	1041.81
377.674	1034.81
377.899	1020.81
378.125	1066.81
378.35	1046.81
378.576	989.81
378.802	930.81
379.027	956.81
379.253	971.81
379.478	923.81
379.704	966.81
379.929	986.81
380.155	972.81
380.38	1000.81
380.606	1011.81
380.831	1001.81
381.057	1057.81
381.282	1073.81
381.507	1030.81
381.733	1088.81
381.958	1133.81
382.184	1044.81
382.409	992.81
382.634	1021.81
382.86	1008.81
383.085	1010.81
383.31	1045.81
383.535	1150.81
383.761	1188.81
383.986	1116.81
384.211	1095.81
384.436	1099.81
384.662	1166.81
384.887	1174.81
385.112	1116.81
385.337	1120.81
385.562	1113.81
385.787	1104.81
386.013	1150.81
386.238	1152.81
386.463	1141.81
386.688	1220.81
386.913	1299.81
387.138	1223.81
387.363	1145.81
387.588	1136.81
387.813	1152.81
388.038	1190.81
388.263	1204.81
388.488	1156.81
388.713	1082.81
388.938	1088.81
389.163	1086.81
389.387	1114.81
389.612	1101.81
389.837	1141.81
390.062	1113.81
390.287	1140.81
390.512	1104.81
390.736	1111.81
390.961	1090.81
391.186	1046.81
391.411	1092.81
391.636	1141.81
391.86	1132.81
392.085	1130.81
392.31	1079.81
392.534	1109.81
392.759	1102.81
392.984	1120.81
393.208	1160.81
393.433	1171.81
393.658	1174.81
393.882	1208.81
394.107	1156.81
394.331	1148.81
394.556	1133.81
394.78	1147.81
395.005	1167.81
395.229	1217.81
395.454	1304.81
395.678	1270.81
395.903	1212.81
396.127	1173.81
396.352	1192.81
396.576	1224.81
396.801	1259.81
397.025	1251.81
397.249	1234.81
397.474	1206.81
397.698	1210.81
397.922	1257.81
398.147	1288.81
398.371	1382.81
398.595	1329.81
398.82	1273.81
399.044	1311.81
399.268	1370.81
399.492	1397.81
399.717	1482.81
399.941	1482.81
400.165	1459.81
400.389	1412.81
400.613	1426.81
400.837	1632.81
401.062	1794.81
401.286	1526.81
401.51	1423.81
401.734	1433.81
401.958	1398.81
402.182	1300.81
402.406	1286.81
402.63	1229.81
402.854	1273.81
403.078	1296.81
403.302	1309.81
403.526	1338.81
403.75	1276.81
403.974	1367.81
404.198	1366.81
404.422	1397.81
404.645	1448.81
404.869	1380.81
405.093	1308.81
405.317	1300.81
405.541	1286.81
405.765	1339.81
405.988	1360.81
406.212	1358.81
406.436	1367.81
406.66	1428.81
406.883	1476.81
407.107	1644.81
407.331	1775.81
407.555	1885.81
407.778	1639.81
408.002	1412.81
408.226	1422.81
408.449	1405.81
408.673	1358.81
408.896	1374.81
409.12	1384.81
409.344	1350.81
409.567	1316.81
409.791	1368.81
410.014	1372.81
410.238	1446.81
410.461	1538.81
410.685	1361.81
410.908	1317.81
411.132	1345.81
411.355	1354.81
411.578	1324.81
411.802	1334.81
412.025	1364.81
412.249	1325.81
412.472	1285.81
412.695	1285.81
412.919	1280.81
413.142	1259.81
413.365	1322.81
413.589	1345.81
413.812	1422.81
414.035	1388.81
414.258	1306.81
414.482	1316.81
414.705	1315.81
414.928	1292.81
415.151	1279.81
415.374	1288.81
415.597	1296.81
415.821	1314.81
416.044	1343.81
416.267	1325.81
416.49	1253.81
416.713	1261.81
416.936	1308.81
417.159	1372.81
417.382	1339.81
417.605	1272.81
417.828	1274.81
418.051	1316.81
418.274	1312.81
418.497	1253.81
418.72	1256.81
418.943	1240.81
419.166	1320.81
419.389	1368.81
419.611	1325.81
419.834	1288.81
420.057	1332.81
420.28	1276.81
420.503	1281.81
420.726	1302.81
420.948	1275.81
421.171	1228.81
421.394	1284.81
421.617	1316.81
421.839	1363.81
422.062	1314.81
422.285	1268.81
422.507	1272.81
422.73	1231.81
422.953	1215.81
423.175	1223.81
423.398	1268.81
423.621	1238.81
423.843	1268.81
424.066	1302.81
424.288	1386.81
424.511	1349.81
424.733	1316.81
424.956	1221.81
425.178	1222.81
425.401	1274.81
425.623	1281.81
425.846	1270.81
426.068	1352.81
426.291	1357.81
426.513	1317.81
426.735	1276.81
426.958	1404.81
427.18	1462.81
427.402	1352.81
427.625	1392.81
427.847	1367.81
428.069	1288.81
428.292	1255.81
428.514	1216.81
428.736	1227.81
428.958	1241.81
429.181	1264.81
429.403	1445.81
429.625	1725.81
429.847	1468.81
430.069	1281.81
430.292	1412.81
430.514	1419.81
430.736	1321.81
430.958	1339.81
431.18	1298.81
431.402	1222.81
431.624	1215.81
431.846	1149.81
432.068	1111.81
432.29	1138.81
432.512	1188.81
432.734	1232.81
432.956	1231.81
433.178	1261.81
433.4	1289.81
433.622	1281.81
433.844	1238.81
434.066	1197.81
434.287	1188.81
434.509	1231.81
434.731	1259.81
434.953	1360.81
435.175	1300.81
435.397	1278.81
435.618	1277.81
435.84	1230.81
436.062	1209.81
436.284	1222.81
436.505	1266.81
436.727	1294.81
436.949	1268.81
437.17	1220.81
437.392	1207.81
437.614	1208.81
437.835	1144.81
438.057	1224.81
438.278	1251.81
438.5	1228.81
438.721	1236.81
438.943	1221.81
439.165	1235.81
439.386	1237.81
439.608	1235.81
439.829	1247.81
440.05	1259.81
440.272	1249.81
440.493	1223.81
440.715	1226.81
440.936	1324.81
441.158	1408.81
441.379	1365.81
441.6	1346.81
441.822	1325.81
442.043	1348.81
442.264	1305.81
442.486	1268.81
442.707	1274.81
442.928	1255.81
443.149	1308.81
443.371	1345.81
443.592	1375.81
443.813	1361.81
444.034	1339.81
444.255	1326.81
444.476	1331.81
444.698	1422.81
444.919	1400.81
445.14	1503.81
445.361	1460.81
445.582	1443.81
445.803	1403.81
446.024	1337.81
446.245	1399.81
446.466	1350.81
446.687	1286.81
446.908	1364.81
447.129	1286.81
447.35	1288.81
447.571	1286.81
447.792	1232.81
448.013	1228.81
448.234	1258.81
448.455	1292.81
448.675	1258.81
448.896	1227.81
449.117	1180.81
449.338	1215.81
449.559	1283.81
449.779	1312.81
450	1389.81
450.221	1483.81
450.442	1434.81
450.662	1318.81
450.883	1204.81
451.104	1152.81
451.324	1193.81
451.545	1184.81
451.766	1168.81
451.986	1139.81
452.207	1120.81
452.428	1093.81
452.648	1082.81
452.869	1124.81
453.089	1140.81
453.31	1159.81
453.53	1122.81
453.751	1066.81
453.971	1052.81
454.192	1070.81
454.412	1158.81
454.633	1122.81
454.853	1101.81
455.073	1033.81
455.294	1058.81
455.514	1062.81
455.734	1043.81
455.955	1062.81
456.175	1036.81
456.395	1042.81
456.616	1141.81
456.836	1098.81
457.056	1065.81
457.276	1060.81
457.497	1037.81
457.717	1021.81
457.937	1017.81
458.157	1058.81
458.377	1042.81
458.598	1046.81
458.818	1025.81
459.038	1120.81
459.258	1152.81
459.478	1156.81
459.698	1087.81
459.918	1150.81
460.138	1184.81
460.358	1222.81
460.578	1245.81
460.798	1284.81
461.018	1349.81
461.238	1294.81
461.458	1249.81
461.678	1261.81
461.898	1217.81
462.118	1179.81
462.338	1246.81
462.558	1243.81
462.777	1242.81
462.997	1276.81
463.217	1343.81
463.437	1304.81
463.657	1254.81
463.876	1256.81
464.096	1246.81
464.316	1245.81
464.536	1264.81
464.755	1261.81
464.975	1232.81
465.195	1270.81
465.414	1299.81
465.634	1295.81
465.854	1268.81
466.073	1373.81
466.293	1349.81
466.512	1174.81
466.732	1193.81
466.951	1245.81
467.171	1237.81
467.391	1165.81
467.61	1160.81
467.829	1203.81
468.049	1315.81
468.268	1412.81
468.488	1304.81
468.707	1248.81
468.927	1254.81
469.146	1176.81
469.365	1229.81
469.585	1180.81
469.804	1190.81
470.023	1226.81
470.243	1219.81
470.462	1217.81
470.681	1199.81
470.901	1213.81
471.12	1232.81
471.339	1208.81
471.558	1179.81
471.777	1172.81
471.997	1187.81
472.216	1143.81
472.435	1102.81
472.654	1106.81
472.873	1174.81
473.092	1229.81
473.311	1173.81
473.53	1123.81
473.749	1159.81
473.968	1168.81
474.187	1193.81
474.406	1210.81
474.625	1185.81
474.844	1212.81
475.063	1213.81
475.282	1204.81
475.501	1173.81
475.72	1172.81
475.939	1275.81
476.158	1190.81
476.377	1172.81
476.596	1203.81
476.814	1219.81
477.033	1213.81
477.252	1228.81
477.471	1285.81
477.69	1261.81
477.908	1271.81
478.127	1356.81
478.346	1381.81
478.564	1399.81
478.783	1371.81
479.002	1460.81
479.22	1421.81
479.439	1456.81
479.658	1560.81
479.876	1533.81
480.095	1341.81
480.313	1330.81
480.532	1264.81
480.751	1296.81
480.969	1311.81
481.188	1267.81
481.406	1228.81
481.624	1202.81
481.843	1234.81
482.061	1274.81
482.28	1307.81
482.498	1324.81
482.717	1314.81
482.935	1289.81
483.153	1340.81
483.372	1345.81
483.59	1345.81
483.808	1347.81
484.027	1350.81
484.245	1443.81
484.463	1746.81
484.681	1877.81
484.9	1448.81
485.118	1356.81
485.336	1339.81
485.554	1370.81
485.772	1393.81
485.99	1358.81
486.209	1344.81
486.427	1363.81
486.645	1373.81
486.863	1413.81
487.081	1448.81
487.299	1462.81
487.517	1422.81
487.735	1445.81
487.953	1477.81
488.171	1490.81
488.389	1430.81
488.607	1418.81
488.825	1587.81
489.043	1532.81
489.261	1380.81
489.479	1442.81
489.696	1461.81
489.914	1472.81
490.132	1413.81
490.35	1413.81
490.568	1512.81
490.786	1499.81
491.003	1432.81
491.221	1507.81
491.439	1551.81
491.657	1581.81
491.874	1613.81
492.092	1643.81
492.31	1669.81
492.527	1618.81
492.745	1600.81
492.963	1536.81
493.18	1607.81
493.398	1685.81
493.615	1666.81
493.833	1612.81
