Data from WStandard_LampEnergy10_LIBS07252019.E.O._I.C._HRD10591_15-53-43-928.txt Node
Date: Thu Jul 25 15:53:43 EDT 2019
User: cochatt
Spectrometer: HR+D1059
Trigger mode: 1
Integration Time (sec): 1.000000E-1
Scans to average: 1
Electric dark correction enabled: true
Nonlinearity correction enabled: false
Boxcar width: 0
XAxis mode: Wavelengths
Number of Pixels in Spectrum: 2048
>>>>>Begin Spectral Data<<<<<
223.165	-20.38
223.4	-20.38
223.635	-20.38
223.869	-19.38
224.104	-17.38
224.338	-3.38
224.573	-15.38
224.808	-7.38
225.042	0.62
225.277	-16.38
225.511	-6.38
225.746	6.62
225.98	-0.38
226.215	16.62
226.449	16.62
226.683	17.62
226.918	11.62
227.152	36.62
227.387	31.62
227.621	45.62
227.856	45.62
228.09	51.62
228.324	48.62
228.559	44.62
228.793	91.62
229.027	137.62
229.262	126.62
229.496	140.62
229.73	141.62
229.964	157.62
230.199	162.62
230.433	183.62
230.667	199.62
230.901	184.62
231.136	185.62
231.37	167.62
231.604	166.62
231.838	160.62
232.072	166.62
232.306	185.62
232.541	165.62
232.775	190.62
233.009	200.62
233.243	193.62
233.477	193.62
233.711	187.62
233.945	196.62
234.179	215.62
234.413	220.62
234.647	212.62
234.881	192.62
235.115	201.62
235.349	194.62
235.583	192.62
235.817	200.62
236.051	181.62
236.285	189.62
236.519	209.62
236.753	208.62
236.987	226.62
237.221	219.62
237.455	232.62
237.689	241.62
237.922	218.62
238.156	213.62
238.39	223.62
238.624	238.62
238.858	244.62
239.091	248.62
239.325	259.62
239.559	291.62
239.793	308.62
240.027	295.62
240.26	313.62
240.494	262.62
240.728	225.62
240.961	252.62
241.195	243.62
241.429	264.62
241.662	255.62
241.896	255.62
242.13	256.62
242.363	259.62
242.597	295.62
242.83	279.62
243.064	273.62
243.298	298.62
243.531	298.62
243.765	282.62
243.998	273.62
244.232	251.62
244.465	261.62
244.699	256.62
244.932	286.62
245.166	308.62
245.399	295.62
245.633	276.62
245.866	257.62
246.099	294.62
246.333	289.62
246.566	325.62
246.8	311.62
247.033	335.62
247.266	331.62
247.5	328.62
247.733	327.62
247.966	354.62
248.2	359.62
248.433	351.62
248.666	372.62
248.899	385.62
249.133	415.62
249.366	484.62
249.599	407.62
249.832	350.62
250.066	360.62
250.299	371.62
250.532	369.62
250.765	326.62
250.998	344.62
251.231	356.62
251.465	353.62
251.698	355.62
251.931	339.62
252.164	372.62
252.397	355.62
252.63	370.62
252.863	325.62
253.096	346.62
253.329	345.62
253.562	343.62
253.795	353.62
254.028	364.62
254.261	344.62
254.494	338.62
254.727	325.62
254.96	338.62
255.193	382.62
255.426	412.62
255.659	458.62
255.892	467.62
256.124	384.62
256.357	393.62
256.59	420.62
256.823	415.62
257.056	419.62
257.289	483.62
257.521	512.62
257.754	469.62
257.987	451.62
258.22	475.62
258.452	450.62
258.685	397.62
258.918	394.62
259.151	390.62
259.383	385.62
259.616	330.62
259.849	375.62
260.081	414.62
260.314	450.62
260.547	489.62
260.779	491.62
261.012	444.62
261.244	409.62
261.477	407.62
261.71	405.62
261.942	410.62
262.175	394.62
262.407	412.62
262.64	378.62
262.872	364.62
263.105	373.62
263.337	363.62
263.57	385.62
263.802	369.62
264.035	357.62
264.267	331.62
264.499	345.62
264.732	368.62
264.964	369.62
265.197	408.62
265.429	422.62
265.661	444.62
265.894	498.62
266.126	499.62
266.358	451.62
266.591	463.62
266.823	493.62
267.055	452.62
267.287	471.62
267.52	458.62
267.752	439.62
267.984	454.62
268.216	471.62
268.448	468.62
268.681	461.62
268.913	418.62
269.145	425.62
269.377	419.62
269.609	447.62
269.841	507.62
270.073	593.62
270.306	600.62
270.538	631.62
270.77	535.62
271.002	490.62
271.234	478.62
271.466	490.62
271.698	553.62
271.93	597.62
272.162	601.62
272.394	549.62
272.626	531.62
272.858	475.62
273.09	417.62
273.322	410.62
273.553	404.62
273.785	399.62
274.017	435.62
274.249	451.62
274.481	457.62
274.713	428.62
274.945	421.62
275.176	420.62
275.408	413.62
275.64	395.62
275.872	390.62
276.104	414.62
276.335	498.62
276.567	525.62
276.799	536.62
277.031	501.62
277.262	474.62
277.494	494.62
277.726	548.62
277.957	521.62
278.189	456.62
278.421	421.62
278.652	454.62
278.884	427.62
279.115	441.62
279.347	449.62
279.579	420.62
279.81	451.62
280.042	476.62
280.273	501.62
280.505	509.62
280.736	510.62
280.968	464.62
281.199	426.62
281.431	418.62
281.662	425.62
281.894	432.62
282.125	442.62
282.356	457.62
282.588	470.62
282.819	465.62
283.051	524.62
283.282	496.62
283.513	496.62
283.745	462.62
283.976	451.62
284.207	421.62
284.439	427.62
284.67	457.62
284.901	458.62
285.132	477.62
285.364	458.62
285.595	451.62
285.826	467.62
286.057	465.62
286.288	432.62
286.52	477.62
286.751	489.62
286.982	503.62
287.213	457.62
287.444	444.62
287.675	433.62
287.906	458.62
288.138	493.62
288.369	480.62
288.6	449.62
288.831	421.62
289.062	442.62
289.293	459.62
289.524	449.62
289.755	474.62
289.986	465.62
290.217	421.62
290.448	435.62
290.679	450.62
290.91	467.62
291.141	461.62
291.371	496.62
291.602	492.62
291.833	482.62
292.064	504.62
292.295	470.62
292.526	501.62
292.757	507.62
292.987	499.62
293.218	486.62
293.449	538.62
293.68	557.62
293.91	596.62
294.141	559.62
294.372	550.62
294.603	563.62
294.833	590.62
295.064	551.62
295.295	500.62
295.525	472.62
295.756	473.62
295.987	437.62
296.217	439.62
296.448	453.62
296.679	480.62
296.909	460.62
297.14	476.62
297.37	477.62
297.601	485.62
297.831	534.62
298.062	517.62
298.292	497.62
298.523	471.62
298.753	452.62
298.984	471.62
299.214	487.62
299.445	518.62
299.675	507.62
299.905	500.62
300.136	471.62
300.366	465.62
300.597	485.62
300.827	467.62
301.057	488.62
301.288	546.62
301.518	496.62
301.748	498.62
301.979	567.62
302.209	540.62
302.439	601.62
302.669	581.62
302.9	562.62
303.13	519.62
303.36	513.62
303.59	530.62
303.82	513.62
304.051	528.62
304.281	523.62
304.511	552.62
304.741	588.62
304.971	607.62
305.201	629.62
305.431	552.62
305.661	481.62
305.891	441.62
306.121	474.62
306.352	465.62
306.582	509.62
306.812	545.62
307.042	561.62
307.272	575.62
307.502	603.62
307.731	625.62
307.961	646.62
308.191	587.62
308.421	539.62
308.651	519.62
308.881	490.62
309.111	495.62
309.341	511.62
309.571	509.62
309.8	508.62
310.03	510.62
310.26	483.62
310.49	510.62
310.72	515.62
310.949	538.62
311.179	559.62
311.409	512.62
311.639	504.62
311.868	515.62
312.098	515.62
312.328	522.62
312.557	528.62
312.787	515.62
313.017	529.62
313.246	536.62
313.476	520.62
313.706	530.62
313.935	537.62
314.165	559.62
314.394	553.62
314.624	570.62
314.853	618.62
315.083	644.62
315.312	617.62
315.542	590.62
315.771	542.62
316.001	548.62
316.23	579.62
316.46	576.62
316.689	568.62
316.919	537.62
317.148	519.62
317.377	546.62
317.607	594.62
317.836	637.62
318.065	648.62
318.295	617.62
318.524	589.62
318.753	565.62
318.983	561.62
319.212	539.62
319.441	551.62
319.67	546.62
319.9	569.62
320.129	604.62
320.358	616.62
320.587	639.62
320.816	599.62
321.046	598.62
321.275	577.62
321.504	598.62
321.733	639.62
321.962	621.62
322.191	599.62
322.42	563.62
322.649	572.62
322.878	554.62
323.108	570.62
323.337	569.62
323.566	593.62
323.795	565.62
324.024	572.62
324.253	588.62
324.482	559.62
324.71	570.62
324.939	536.62
325.168	553.62
325.397	575.62
325.626	583.62
325.855	571.62
326.084	549.62
326.313	575.62
326.542	580.62
326.77	619.62
326.999	576.62
327.228	538.62
327.457	524.62
327.686	519.62
327.914	552.62
328.143	567.62
328.372	570.62
328.6	548.62
328.829	567.62
329.058	532.62
329.287	548.62
329.515	560.62
329.744	602.62
329.972	615.62
330.201	632.62
330.43	590.62
330.658	593.62
330.887	608.62
331.115	602.62
331.344	618.62
331.572	611.62
331.801	581.62
332.03	591.62
332.258	600.62
332.486	604.62
332.715	599.62
332.943	599.62
333.172	589.62
333.4	620.62
333.629	617.62
333.857	659.62
334.085	758.62
334.314	831.62
334.542	849.62
334.771	782.62
334.999	713.62
335.227	671.62
335.455	639.62
335.684	649.62
335.912	661.62
336.14	646.62
336.369	632.62
336.597	589.62
336.825	584.62
337.053	647.62
337.281	684.62
337.51	689.62
337.738	693.62
337.966	659.62
338.194	618.62
338.422	591.62
338.65	578.62
338.878	598.62
339.106	590.62
339.334	593.62
339.562	573.62
339.79	599.62
340.018	613.62
340.246	628.62
340.474	625.62
340.702	597.62
340.93	628.62
341.158	610.62
341.386	589.62
341.614	606.62
341.842	592.62
342.07	612.62
342.298	631.62
342.526	611.62
342.754	594.62
342.981	594.62
343.209	602.62
343.437	586.62
343.665	593.62
343.893	652.62
344.12	645.62
344.348	645.62
344.576	606.62
344.804	575.62
345.031	611.62
345.259	607.62
345.487	566.62
345.714	538.62
345.942	571.62
346.17	573.62
346.397	583.62
346.625	589.62
346.853	565.62
347.08	551.62
347.308	567.62
347.535	561.62
347.763	605.62
347.99	557.62
348.218	561.62
348.445	563.62
348.673	585.62
348.9	607.62
349.128	619.62
349.355	614.62
349.583	605.62
349.81	559.62
350.037	517.62
350.265	537.62
350.492	533.62
350.72	580.62
350.947	575.62
351.174	561.62
351.402	550.62
351.629	526.62
351.856	538.62
352.083	517.62
352.311	551.62
352.538	569.62
352.765	567.62
352.992	579.62
353.22	549.62
353.447	556.62
353.674	577.62
353.901	595.62
354.128	585.62
354.355	571.62
354.583	584.62
354.81	613.62
355.037	597.62
355.264	573.62
355.491	581.62
355.718	582.62
355.945	575.62
356.172	544.62
356.399	534.62
356.626	549.62
356.853	584.62
357.08	659.62
357.307	664.62
357.534	654.62
357.761	594.62
357.988	555.62
358.215	534.62
358.441	542.62
358.668	552.62
358.895	573.62
359.122	607.62
359.349	657.62
359.576	619.62
359.802	540.62
360.029	580.62
360.256	529.62
360.483	559.62
360.709	606.62
360.936	618.62
361.163	632.62
361.39	697.62
361.616	715.62
361.843	673.62
362.07	647.62
362.296	565.62
362.523	569.62
362.749	565.62
362.976	575.62
363.203	591.62
363.429	568.62
363.656	550.62
363.882	593.62
364.109	669.62
364.335	669.62
364.562	631.62
364.788	602.62
365.015	572.62
365.241	559.62
365.468	599.62
365.694	592.62
365.92	608.62
366.147	603.62
366.373	560.62
366.599	559.62
366.826	563.62
367.052	563.62
367.278	601.62
367.505	601.62
367.731	601.62
367.957	620.62
368.184	629.62
368.41	713.62
368.636	674.62
368.862	687.62
369.089	655.62
369.315	646.62
369.541	627.62
369.767	609.62
369.993	591.62
370.219	596.62
370.445	633.62
370.672	659.62
370.898	661.62
371.124	666.62
371.35	628.62
371.576	646.62
371.802	672.62
372.028	628.62
372.254	613.62
372.48	610.62
372.706	604.62
372.932	603.62
373.158	646.62
373.384	637.62
373.61	667.62
373.835	677.62
374.061	637.62
374.287	627.62
374.513	606.62
374.739	661.62
374.965	618.62
375.191	653.62
375.416	654.62
375.642	670.62
375.868	695.62
376.094	716.62
376.319	662.62
376.545	637.62
376.771	677.62
376.997	697.62
377.222	679.62
377.448	667.62
377.674	671.62
377.899	698.62
378.125	727.62
378.35	714.62
378.576	633.62
378.802	612.62
379.027	619.62
379.253	636.62
379.478	653.62
379.704	639.62
379.929	643.62
380.155	629.62
380.38	651.62
380.606	674.62
380.831	679.62
381.057	694.62
381.282	689.62
381.507	701.62
381.733	745.62
381.958	746.62
382.184	677.62
382.409	665.62
382.634	659.62
382.86	680.62
383.085	661.62
383.31	697.62
383.535	759.62
383.761	789.62
383.986	751.62
384.211	731.62
384.436	754.62
384.662	729.62
384.887	759.62
385.112	730.62
385.337	729.62
385.562	731.62
385.787	746.62
386.013	759.62
386.238	768.62
386.463	800.62
386.688	813.62
386.913	831.62
387.138	801.62
387.363	784.62
387.588	754.62
387.813	767.62
388.038	759.62
388.263	807.62
388.488	747.62
388.713	712.62
388.938	738.62
389.163	752.62
389.387	747.62
389.612	765.62
389.837	747.62
390.062	762.62
390.287	768.62
390.512	778.62
390.736	734.62
390.961	752.62
391.186	714.62
391.411	753.62
391.636	736.62
391.86	747.62
392.085	771.62
392.31	727.62
392.534	763.62
392.759	763.62
392.984	757.62
393.208	790.62
393.433	791.62
393.658	809.62
393.882	833.62
394.107	782.62
394.331	770.62
394.556	781.62
394.78	793.62
395.005	803.62
395.229	835.62
395.454	883.62
395.678	880.62
395.903	819.62
396.127	801.62
396.352	832.62
396.576	862.62
396.801	837.62
397.025	851.62
397.249	838.62
397.474	848.62
397.698	843.62
397.922	882.62
398.147	903.62
398.371	915.62
398.595	916.62
398.82	872.62
399.044	889.62
399.268	929.62
399.492	960.62
399.717	978.62
399.941	993.62
400.165	985.62
400.389	950.62
400.613	976.62
400.837	1131.62
401.062	1178.62
401.286	1023.62
401.51	997.62
401.734	982.62
401.958	937.62
402.182	909.62
402.406	891.62
402.63	845.62
402.854	867.62
403.078	898.62
403.302	903.62
403.526	918.62
403.75	936.62
403.974	933.62
404.198	904.62
404.422	986.62
404.645	1063.62
404.869	992.62
405.093	920.62
405.317	891.62
405.541	915.62
405.765	930.62
405.988	907.62
406.212	935.62
406.436	956.62
406.66	975.62
406.883	1029.62
407.107	1151.62
407.331	1196.62
407.555	1257.62
407.778	1157.62
408.002	986.62
408.226	983.62
408.449	958.62
408.673	951.62
408.896	970.62
409.12	973.62
409.344	974.62
409.567	945.62
409.791	977.62
410.014	990.62
410.238	1015.62
410.461	1048.62
410.685	951.62
410.908	924.62
411.132	941.62
411.355	948.62
411.578	945.62
411.802	908.62
412.025	933.62
412.249	921.62
412.472	913.62
412.695	922.62
412.919	907.62
413.142	895.62
413.365	927.62
413.589	973.62
413.812	1012.62
414.035	990.62
414.258	930.62
414.482	929.62
414.705	936.62
414.928	928.62
415.151	908.62
415.374	930.62
415.597	968.62
415.821	927.62
416.044	938.62
416.267	931.62
416.49	901.62
416.713	897.62
416.936	975.62
417.159	990.62
417.382	973.62
417.605	943.62
417.828	967.62
418.051	950.62
418.274	943.62
418.497	923.62
418.72	921.62
418.943	923.62
419.166	973.62
419.389	984.62
419.611	948.62
419.834	945.62
420.057	932.62
420.28	957.62
420.503	987.62
420.726	945.62
420.948	957.62
421.171	909.62
421.394	957.62
421.617	1000.62
421.839	977.62
422.062	984.62
422.285	927.62
422.507	939.62
422.73	901.62
422.953	880.62
423.175	897.62
423.398	920.62
423.621	927.62
423.843	953.62
424.066	956.62
424.288	1036.62
424.511	1058.62
424.733	1017.62
424.956	940.62
425.178	941.62
425.401	933.62
425.623	957.62
425.846	931.62
426.068	993.62
426.291	972.62
426.513	947.62
426.735	965.62
426.958	1065.62
427.18	1063.62
427.402	966.62
427.625	1046.62
427.847	979.62
428.069	940.62
428.292	937.62
428.514	919.62
428.736	883.62
428.958	921.62
429.181	931.62
429.403	1086.62
429.625	1209.62
429.847	1049.62
430.069	963.62
430.292	1066.62
430.514	1039.62
430.736	1022.62
430.958	1009.62
431.18	964.62
431.402	867.62
431.624	843.62
431.846	793.62
432.068	724.62
432.29	745.62
432.512	797.62
432.734	887.62
432.956	930.62
433.178	968.62
433.4	982.62
433.622	985.62
433.844	914.62
434.066	868.62
434.287	796.62
434.509	796.62
434.731	844.62
434.953	905.62
435.175	925.62
435.397	907.62
435.618	874.62
435.84	849.62
436.062	877.62
436.284	888.62
436.505	953.62
436.727	951.62
436.949	924.62
437.17	915.62
437.392	902.62
437.614	866.62
437.835	797.62
438.057	827.62
438.278	844.62
438.5	860.62
438.721	893.62
438.943	923.62
439.165	924.62
439.386	932.62
439.608	958.62
439.829	947.62
440.05	941.62
440.272	948.62
440.493	949.62
440.715	1001.62
440.936	1017.62
441.158	1040.62
441.379	1029.62
441.6	1045.62
441.822	1043.62
442.043	1023.62
442.264	1030.62
442.486	973.62
442.707	980.62
442.928	965.62
443.149	964.62
443.371	988.62
443.592	1014.62
443.813	1057.62
444.034	996.62
444.255	1021.62
444.476	1023.62
444.698	1029.62
444.919	1044.62
445.14	1099.62
445.361	1052.62
445.582	1076.62
445.803	1016.62
446.024	1036.62
446.245	1037.62
446.466	1043.62
446.687	1066.62
446.908	1055.62
447.129	1039.62
447.35	1028.62
447.571	1036.62
447.792	985.62
448.013	943.62
448.234	956.62
448.455	1010.62
448.675	982.62
448.896	946.62
449.117	896.62
449.338	936.62
449.559	983.62
449.779	961.62
450	997.62
450.221	1057.62
450.442	1002.62
450.662	958.62
450.883	896.62
451.104	877.62
451.324	893.62
451.545	898.62
451.766	841.62
451.986	837.62
452.207	823.62
452.428	792.62
452.648	790.62
452.869	785.62
453.089	757.62
453.31	783.62
453.53	769.62
453.751	728.62
453.971	717.62
454.192	721.62
454.412	805.62
454.633	787.62
454.853	766.62
455.073	772.62
455.294	804.62
455.514	784.62
455.734	773.62
455.955	780.62
456.175	773.62
456.395	736.62
456.616	739.62
456.836	748.62
457.056	726.62
457.276	719.62
457.497	712.62
457.717	672.62
457.937	710.62
458.157	715.62
458.377	680.62
458.598	688.62
458.818	683.62
459.038	700.62
459.258	723.62
459.478	709.62
459.698	695.62
459.918	737.62
460.138	804.62
460.358	801.62
460.578	835.62
460.798	867.62
461.018	890.62
461.238	848.62
461.458	857.62
461.678	835.62
461.898	799.62
462.118	802.62
462.338	845.62
462.558	849.62
462.777	850.62
462.997	868.62
463.217	895.62
463.437	859.62
463.657	849.62
463.876	851.62
464.096	831.62
464.316	860.62
464.536	861.62
464.755	905.62
464.975	880.62
465.195	882.62
465.414	856.62
465.634	880.62
465.854	895.62
466.073	970.62
466.293	917.62
466.512	858.62
466.732	873.62
466.951	888.62
467.171	911.62
467.391	888.62
467.61	888.62
467.829	914.62
468.049	973.62
468.268	1056.62
468.488	959.62
468.707	921.62
468.927	931.62
469.146	883.62
469.365	909.62
469.585	953.62
469.804	935.62
470.023	924.62
470.243	964.62
470.462	921.62
470.681	971.62
470.901	925.62
471.12	930.62
471.339	945.62
471.558	896.62
471.777	908.62
471.997	896.62
472.216	871.62
472.435	785.62
472.654	757.62
472.873	783.62
473.092	824.62
473.311	813.62
473.53	808.62
473.749	819.62
473.968	847.62
474.187	856.62
474.406	837.62
474.625	879.62
474.844	838.62
475.063	893.62
475.282	868.62
475.501	842.62
475.72	843.62
475.939	908.62
476.158	879.62
476.377	874.62
476.596	860.62
476.814	835.62
477.033	827.62
477.252	828.62
477.471	911.62
477.69	926.62
477.908	928.62
478.127	984.62
478.346	1024.62
478.564	977.62
478.783	992.62
479.002	1025.62
479.22	1041.62
479.439	1043.62
479.658	1027.62
479.876	993.62
480.095	904.62
480.313	899.62
480.532	877.62
480.751	871.62
480.969	825.62
481.188	805.62
481.406	805.62
481.624	776.62
481.843	777.62
482.061	827.62
482.28	879.62
482.498	881.62
482.717	877.62
482.935	886.62
483.153	987.62
483.372	1009.62
483.59	1052.62
483.808	957.62
484.027	954.62
484.245	1006.62
484.463	1225.62
484.681	1292.62
484.9	1034.62
485.118	976.62
485.336	919.62
485.554	940.62
485.772	892.62
485.99	894.62
486.209	919.62
486.427	900.62
486.645	954.62
486.863	1012.62
487.081	1037.62
487.299	1012.62
487.517	1026.62
487.735	1086.62
487.953	1206.62
488.171	1181.62
488.389	1148.62
488.607	1100.62
488.825	1173.62
489.043	1079.62
489.261	1003.62
489.479	1011.62
489.696	1082.62
489.914	1066.62
490.132	1044.62
490.35	1080.62
490.568	1145.62
490.786	1184.62
491.003	1220.62
491.221	1265.62
491.439	1293.62
491.657	1336.62
491.874	1379.62
492.092	1429.62
492.31	1527.62
492.527	1427.62
492.745	1362.62
492.963	1321.62
493.18	1319.62
493.398	1361.62
493.615	1360.62
493.833	1266.62
494.05	1223.62
494.268	1237.62
494.485	1254.62
494.703	1245.62
494.92	1267.62
495.138	1189.62
495.355	1235.62
495.573	1268.62
495.79	1301.62
496.008	1293.62
496.225	1216.62
496.442	1240.62
496.66	1223.62
496.877	1244.62
497.094	1205.62
497.312	1211.62
497.529	1181.62
497.746	1199.62
497.963	1285.62
498.181	1309.62
498.398	1259.62
498.615	1206.62
498.832	1166.62
499.049	1123.62
499.267	1173.62
499.484	1217.62
499.701	1348.62
499.918	1339.62
500.135	1524.62
500.352	1563.62
