Data from WStandard_LampEnergy10_LIBS07252019.E.O._I.C._HRD10591_15-55-05-928.txt Node
Date: Thu Jul 25 15:55:05 EDT 2019
User: cochatt
Spectrometer: HR+D1059
Trigger mode: 1
Integration Time (sec): 1.000000E-1
Scans to average: 1
Electric dark correction enabled: true
Nonlinearity correction enabled: false
Boxcar width: 0
XAxis mode: Wavelengths
Number of Pixels in Spectrum: 2048
>>>>>Begin Spectral Data<<<<<
223.165	-26.25
223.4	-26.25
223.635	-26.25
223.869	-32.25
224.104	-19.25
224.338	-17.25
224.573	-12.25
224.808	-17.25
225.042	-18.25
225.277	-4.25
225.511	5.75
225.746	14.75
225.98	-6.25
226.215	6.75
226.449	27.75
226.683	24.75
226.918	35.75
227.152	37.75
227.387	32.75
227.621	39.75
227.856	46.75
228.09	53.75
228.324	59.75
228.559	53.75
228.793	77.75
229.027	136.75
229.262	133.75
229.496	141.75
229.73	159.75
229.964	159.75
230.199	165.75
230.433	171.75
230.667	179.75
230.901	190.75
231.136	164.75
231.37	167.75
231.604	164.75
231.838	176.75
232.072	181.75
232.306	191.75
232.541	188.75
232.775	191.75
233.009	199.75
233.243	201.75
233.477	192.75
233.711	189.75
233.945	195.75
234.179	198.75
234.413	196.75
234.647	209.75
234.881	220.75
235.115	191.75
235.349	202.75
235.583	191.75
235.817	196.75
236.051	190.75
236.285	197.75
236.519	204.75
236.753	225.75
236.987	230.75
237.221	203.75
237.455	225.75
237.689	232.75
237.922	223.75
238.156	222.75
238.39	213.75
238.624	227.75
238.858	238.75
239.091	253.75
239.325	257.75
239.559	295.75
239.793	273.75
240.027	294.75
240.26	272.75
240.494	243.75
240.728	230.75
240.961	237.75
241.195	254.75
241.429	243.75
241.662	264.75
241.896	245.75
242.13	236.75
242.363	268.75
242.597	261.75
242.83	273.75
243.064	267.75
243.298	267.75
243.531	269.75
243.765	275.75
243.998	270.75
244.232	260.75
244.465	244.75
244.699	260.75
244.932	297.75
245.166	309.75
245.399	313.75
245.633	291.75
245.866	283.75
246.099	279.75
246.333	319.75
246.566	308.75
246.8	311.75
247.033	336.75
247.266	331.75
247.5	313.75
247.733	311.75
247.966	337.75
248.2	364.75
248.433	349.75
248.666	347.75
248.899	383.75
249.133	423.75
249.366	457.75
249.599	397.75
249.832	367.75
250.066	345.75
250.299	359.75
250.532	335.75
250.765	333.75
250.998	331.75
251.231	348.75
251.465	360.75
251.698	343.75
251.931	342.75
252.164	347.75
252.397	362.75
252.63	355.75
252.863	328.75
253.096	331.75
253.329	339.75
253.562	351.75
253.795	349.75
254.028	356.75
254.261	338.75
254.494	337.75
254.727	336.75
254.96	334.75
255.193	376.75
255.426	419.75
255.659	440.75
255.892	460.75
256.124	403.75
256.357	372.75
256.59	413.75
256.823	397.75
257.056	402.75
257.289	472.75
257.521	497.75
257.754	475.75
257.987	443.75
258.22	479.75
258.452	435.75
258.685	402.75
258.918	380.75
259.151	384.75
259.383	360.75
259.616	331.75
259.849	364.75
260.081	409.75
260.314	443.75
260.547	480.75
260.779	474.75
261.012	438.75
261.244	393.75
261.477	380.75
261.71	398.75
261.942	405.75
262.175	401.75
262.407	402.75
262.64	395.75
262.872	368.75
263.105	339.75
263.337	357.75
263.57	366.75
263.802	380.75
264.035	343.75
264.267	358.75
264.499	346.75
264.732	368.75
264.964	368.75
265.197	400.75
265.429	409.75
265.661	437.75
265.894	470.75
266.126	497.75
266.358	449.75
266.591	476.75
266.823	489.75
267.055	427.75
267.287	449.75
267.52	432.75
267.752	427.75
267.984	446.75
268.216	481.75
268.448	470.75
268.681	445.75
268.913	415.75
269.145	398.75
269.377	394.75
269.609	452.75
269.841	496.75
270.073	569.75
270.306	583.75
270.538	607.75
270.77	545.75
271.002	470.75
271.234	464.75
271.466	483.75
271.698	523.75
271.93	592.75
272.162	573.75
272.394	515.75
272.626	491.75
272.858	451.75
273.09	440.75
273.322	411.75
273.553	400.75
273.785	407.75
274.017	419.75
274.249	437.75
274.481	441.75
274.713	430.75
274.945	395.75
275.176	407.75
275.408	398.75
275.64	416.75
275.872	408.75
276.104	437.75
276.335	492.75
276.567	521.75
276.799	512.75
277.031	479.75
277.262	476.75
277.494	503.75
277.726	529.75
277.957	502.75
278.189	453.75
278.421	432.75
278.652	425.75
278.884	413.75
279.115	421.75
279.347	437.75
279.579	431.75
279.81	413.75
280.042	459.75
280.273	503.75
280.505	502.75
280.736	484.75
280.968	464.75
281.199	404.75
281.431	409.75
281.662	415.75
281.894	432.75
282.125	439.75
282.356	432.75
282.588	433.75
282.819	427.75
283.051	478.75
283.282	527.75
283.513	460.75
283.745	447.75
283.976	399.75
284.207	425.75
284.439	428.75
284.67	431.75
284.901	456.75
285.132	449.75
285.364	455.75
285.595	459.75
285.826	429.75
286.057	424.75
286.288	448.75
286.52	441.75
286.751	479.75
286.982	478.75
287.213	449.75
287.444	443.75
287.675	441.75
287.906	474.75
288.138	493.75
288.369	446.75
288.6	443.75
288.831	440.75
289.062	450.75
289.293	440.75
289.524	436.75
289.755	447.75
289.986	447.75
290.217	416.75
290.448	428.75
290.679	432.75
290.91	459.75
291.141	466.75
291.371	462.75
291.602	476.75
291.833	480.75
292.064	507.75
292.295	493.75
292.526	496.75
292.757	482.75
292.987	495.75
293.218	477.75
293.449	519.75
293.68	580.75
293.91	588.75
294.141	560.75
294.372	532.75
294.603	540.75
294.833	559.75
295.064	533.75
295.295	480.75
295.525	470.75
295.756	435.75
295.987	439.75
296.217	446.75
296.448	455.75
296.679	446.75
296.909	449.75
297.14	454.75
297.37	464.75
297.601	495.75
297.831	523.75
298.062	507.75
298.292	497.75
298.523	454.75
298.753	454.75
298.984	464.75
299.214	496.75
299.445	488.75
299.675	513.75
299.905	501.75
300.136	467.75
300.366	467.75
300.597	450.75
300.827	462.75
301.057	475.75
301.288	484.75
301.518	518.75
301.748	518.75
301.979	537.75
302.209	552.75
302.439	567.75
302.669	581.75
302.9	548.75
303.13	505.75
303.36	499.75
303.59	512.75
303.82	521.75
304.051	515.75
304.281	531.75
304.511	519.75
304.741	567.75
304.971	605.75
305.201	616.75
305.431	565.75
305.661	472.75
305.891	447.75
306.121	461.75
306.352	495.75
306.582	516.75
306.812	527.75
307.042	569.75
307.272	545.75
307.502	573.75
307.731	632.75
307.961	623.75
308.191	581.75
308.421	534.75
308.651	489.75
308.881	470.75
309.111	489.75
309.341	484.75
309.571	504.75
309.8	485.75
310.03	491.75
310.26	501.75
310.49	493.75
310.72	513.75
310.949	519.75
311.179	529.75
311.409	526.75
311.639	500.75
311.868	495.75
312.098	541.75
312.328	481.75
312.557	494.75
312.787	515.75
313.017	519.75
313.246	538.75
313.476	512.75
313.706	509.75
313.935	511.75
314.165	534.75
314.394	558.75
314.624	582.75
314.853	596.75
315.083	611.75
315.312	616.75
315.542	548.75
315.771	556.75
316.001	559.75
316.23	555.75
316.46	570.75
316.689	519.75
316.919	519.75
317.148	530.75
317.377	547.75
317.607	579.75
317.836	634.75
318.065	612.75
318.295	623.75
318.524	594.75
318.753	548.75
318.983	582.75
319.212	537.75
319.441	536.75
319.67	539.75
319.9	570.75
320.129	579.75
320.358	628.75
320.587	595.75
320.816	593.75
321.046	598.75
321.275	593.75
321.504	616.75
321.733	619.75
321.962	610.75
322.191	561.75
322.42	558.75
322.649	545.75
322.878	564.75
323.108	563.75
323.337	564.75
323.566	581.75
323.795	568.75
324.024	563.75
324.253	559.75
324.482	558.75
324.71	527.75
324.939	547.75
325.168	558.75
325.397	567.75
325.626	569.75
325.855	549.75
326.084	541.75
326.313	560.75
326.542	587.75
326.77	592.75
326.999	565.75
327.228	566.75
327.457	508.75
327.686	541.75
327.914	526.75
328.143	551.75
328.372	559.75
328.6	535.75
328.829	568.75
329.058	542.75
329.287	542.75
329.515	552.75
329.744	589.75
329.972	613.75
330.201	615.75
330.43	596.75
330.658	567.75
330.887	608.75
331.115	606.75
331.344	598.75
331.572	597.75
331.801	569.75
332.03	587.75
332.258	601.75
332.486	595.75
332.715	601.75
332.943	600.75
333.172	607.75
333.4	615.75
333.629	615.75
333.857	677.75
334.085	719.75
334.314	785.75
334.542	827.75
334.771	760.75
334.999	677.75
335.227	620.75
335.455	620.75
335.684	637.75
335.912	633.75
336.14	622.75
336.369	618.75
336.597	609.75
336.825	601.75
337.053	620.75
337.281	683.75
337.51	697.75
337.738	691.75
337.966	617.75
338.194	591.75
338.422	591.75
338.65	586.75
338.878	568.75
339.106	583.75
339.334	556.75
339.562	554.75
339.79	587.75
340.018	598.75
340.246	621.75
340.474	640.75
340.702	617.75
340.93	605.75
341.158	608.75
341.386	606.75
341.614	571.75
341.842	582.75
342.07	589.75
342.298	593.75
342.526	569.75
342.754	570.75
342.981	604.75
343.209	588.75
343.437	583.75
343.665	567.75
343.893	591.75
344.12	654.75
344.348	627.75
344.576	609.75
344.804	595.75
345.031	587.75
345.259	599.75
345.487	570.75
345.714	560.75
345.942	547.75
346.17	567.75
346.397	585.75
346.625	568.75
346.853	537.75
347.08	528.75
347.308	534.75
347.535	559.75
347.763	572.75
347.99	567.75
348.218	558.75
348.445	565.75
348.673	567.75
348.9	589.75
349.128	577.75
349.355	613.75
349.583	603.75
349.81	553.75
350.037	533.75
350.265	516.75
350.492	550.75
350.72	548.75
350.947	565.75
351.174	565.75
351.402	532.75
351.629	507.75
351.856	507.75
352.083	526.75
352.311	549.75
352.538	551.75
352.765	557.75
352.992	556.75
353.22	536.75
353.447	534.75
353.674	556.75
353.901	569.75
354.128	541.75
354.355	566.75
354.583	581.75
354.81	595.75
355.037	573.75
355.264	581.75
355.491	590.75
355.718	550.75
355.945	569.75
356.172	542.75
356.399	538.75
356.626	551.75
356.853	587.75
357.08	632.75
357.307	681.75
357.534	651.75
357.761	589.75
357.988	555.75
358.215	532.75
358.441	533.75
358.668	535.75
358.895	570.75
359.122	595.75
359.349	647.75
359.576	605.75
359.802	552.75
360.029	547.75
360.256	539.75
360.483	547.75
360.709	579.75
360.936	608.75
361.163	616.75
361.39	694.75
361.616	684.75
361.843	677.75
362.07	636.75
362.296	559.75
362.523	557.75
362.749	557.75
362.976	588.75
363.203	578.75
363.429	550.75
363.656	564.75
363.882	583.75
364.109	643.75
364.335	662.75
364.562	606.75
364.788	594.75
365.015	567.75
365.241	550.75
365.468	591.75
365.694	596.75
365.92	633.75
366.147	561.75
366.373	555.75
366.599	549.75
366.826	564.75
367.052	569.75
367.278	564.75
367.505	563.75
367.731	603.75
367.957	619.75
368.184	629.75
368.41	666.75
368.636	662.75
368.862	658.75
369.089	656.75
369.315	630.75
369.541	616.75
369.767	597.75
369.993	586.75
370.219	600.75
370.445	605.75
370.672	679.75
370.898	665.75
371.124	639.75
371.35	613.75
371.576	647.75
371.802	657.75
372.028	637.75
372.254	621.75
372.48	597.75
372.706	604.75
372.932	603.75
373.158	613.75
373.384	623.75
373.61	630.75
373.835	659.75
374.061	615.75
374.287	604.75
374.513	643.75
374.739	637.75
374.965	656.75
375.191	643.75
375.416	647.75
375.642	657.75
375.868	731.75
376.094	707.75
376.319	677.75
376.545	653.75
376.771	666.75
376.997	700.75
377.222	675.75
377.448	667.75
377.674	665.75
377.899	685.75
378.125	691.75
378.35	687.75
378.576	648.75
378.802	617.75
379.027	621.75
379.253	651.75
379.478	636.75
379.704	639.75
379.929	620.75
380.155	643.75
380.38	675.75
380.606	639.75
380.831	679.75
381.057	661.75
381.282	695.75
381.507	687.75
381.733	745.75
381.958	739.75
382.184	672.75
382.409	644.75
382.634	676.75
382.86	688.75
383.085	678.75
383.31	703.75
383.535	783.75
383.761	820.75
383.986	753.75
384.211	735.75
384.436	733.75
384.662	784.75
384.887	779.75
385.112	720.75
385.337	730.75
385.562	716.75
385.787	740.75
386.013	773.75
386.238	773.75
386.463	789.75
386.688	796.75
386.913	850.75
387.138	810.75
387.363	773.75
387.588	755.75
387.813	736.75
388.038	783.75
388.263	782.75
388.488	771.75
388.713	720.75
388.938	704.75
389.163	716.75
389.387	738.75
389.612	751.75
389.837	763.75
390.062	753.75
390.287	739.75
390.512	744.75
390.736	726.75
390.961	740.75
391.186	704.75
391.411	719.75
391.636	742.75
391.86	721.75
392.085	753.75
392.31	732.75
392.534	728.75
392.759	728.75
392.984	762.75
393.208	751.75
393.433	787.75
393.658	819.75
393.882	808.75
394.107	747.75
394.331	765.75
394.556	740.75
394.78	780.75
395.005	816.75
395.229	845.75
395.454	884.75
395.678	837.75
395.903	821.75
396.127	789.75
396.352	835.75
396.576	835.75
396.801	825.75
397.025	832.75
397.249	837.75
397.474	835.75
397.698	820.75
397.922	860.75
398.147	888.75
398.371	911.75
398.595	865.75
398.82	857.75
399.044	874.75
399.268	908.75
399.492	928.75
399.717	957.75
399.941	954.75
400.165	953.75
400.389	961.75
400.613	999.75
400.837	1079.75
401.062	1164.75
401.286	1007.75
401.51	981.75
401.734	957.75
401.958	931.75
402.182	891.75
402.406	889.75
402.63	888.75
402.854	884.75
403.078	899.75
403.302	873.75
403.526	913.75
403.75	933.75
403.974	921.75
404.198	936.75
404.422	959.75
404.645	1000.75
404.869	987.75
405.093	907.75
405.317	894.75
405.541	923.75
405.765	910.75
405.988	907.75
406.212	931.75
406.436	960.75
406.66	987.75
406.883	990.75
407.107	1147.75
407.331	1201.75
407.555	1255.75
407.778	1097.75
408.002	968.75
408.226	966.75
408.449	977.75
408.673	938.75
408.896	949.75
409.12	961.75
409.344	932.75
409.567	933.75
409.791	933.75
410.014	983.75
410.238	1014.75
410.461	1049.75
410.685	938.75
410.908	915.75
411.132	941.75
411.355	898.75
411.578	928.75
411.802	907.75
412.025	931.75
412.249	918.75
412.472	892.75
412.695	897.75
412.919	897.75
413.142	900.75
413.365	894.75
413.589	970.75
413.812	989.75
414.035	966.75
414.258	915.75
414.482	907.75
414.705	927.75
414.928	908.75
415.151	902.75
415.374	911.75
415.597	907.75
415.821	920.75
416.044	970.75
416.267	923.75
416.49	903.75
416.713	911.75
416.936	937.75
417.159	968.75
417.382	961.75
417.605	912.75
417.828	912.75
418.051	913.75
418.274	936.75
418.497	924.75
418.72	925.75
418.943	925.75
419.166	969.75
419.389	963.75
419.611	918.75
419.834	918.75
420.057	966.75
420.28	936.75
420.503	906.75
420.726	950.75
420.948	926.75
421.171	880.75
421.394	896.75
421.617	976.75
421.839	975.75
422.062	969.75
422.285	925.75
422.507	910.75
422.73	891.75
422.953	878.75
423.175	887.75
423.398	920.75
423.621	905.75
423.843	943.75
424.066	970.75
424.288	1023.75
424.511	1029.75
424.733	983.75
424.956	937.75
425.178	927.75
425.401	925.75
425.623	938.75
425.846	928.75
426.068	972.75
426.291	972.75
426.513	940.75
426.735	952.75
426.958	1030.75
427.18	1064.75
427.402	984.75
427.625	1007.75
427.847	984.75
428.069	947.75
428.292	896.75
428.514	917.75
428.736	906.75
428.958	913.75
429.181	926.75
429.403	1075.75
429.625	1216.75
429.847	1036.75
430.069	942.75
430.292	1055.75
430.514	1034.75
430.736	960.75
430.958	985.75
431.18	918.75
431.402	878.75
431.624	848.75
431.846	805.75
432.068	735.75
432.29	728.75
432.512	808.75
432.734	897.75
432.956	944.75
433.178	945.75
433.4	918.75
433.622	923.75
433.844	909.75
434.066	856.75
434.287	792.75
434.509	784.75
434.731	827.75
434.953	934.75
435.175	929.75
435.397	900.75
435.618	867.75
435.84	821.75
436.062	844.75
436.284	872.75
436.505	934.75
436.727	957.75
436.949	899.75
437.17	887.75
437.392	884.75
437.614	853.75
437.835	786.75
438.057	803.75
438.278	848.75
438.5	859.75
438.721	919.75
438.943	894.75
439.165	917.75
439.386	905.75
439.608	938.75
439.829	927.75
440.05	934.75
440.272	955.75
440.493	937.75
440.715	976.75
440.936	1001.75
441.158	1056.75
441.379	1027.75
441.6	1023.75
441.822	1029.75
442.043	1009.75
442.264	999.75
442.486	956.75
442.707	967.75
442.928	955.75
443.149	932.75
443.371	990.75
443.592	998.75
443.813	986.75
444.034	997.75
444.255	998.75
444.476	1012.75
444.698	1004.75
444.919	1014.75
445.14	1132.75
445.361	1091.75
445.582	1075.75
445.803	1038.75
446.024	1039.75
446.245	1066.75
446.466	1058.75
446.687	1041.75
446.908	1053.75
447.129	1017.75
447.35	1017.75
447.571	998.75
447.792	947.75
448.013	965.75
448.234	963.75
448.455	974.75
448.675	993.75
448.896	929.75
449.117	899.75
449.338	924.75
449.559	942.75
449.779	974.75
450	1007.75
450.221	1052.75
450.442	1001.75
450.662	918.75
450.883	885.75
451.104	836.75
451.324	884.75
451.545	889.75
451.766	832.75
451.986	807.75
452.207	827.75
452.428	798.75
452.648	796.75
452.869	771.75
453.089	761.75
453.31	796.75
453.53	754.75
453.751	720.75
453.971	708.75
454.192	737.75
454.412	775.75
454.633	781.75
454.853	783.75
455.073	752.75
455.294	800.75
455.514	779.75
455.734	761.75
455.955	733.75
456.175	727.75
456.395	752.75
456.616	737.75
456.836	751.75
457.056	725.75
457.276	710.75
457.497	720.75
457.717	696.75
457.937	706.75
458.157	695.75
458.377	681.75
458.598	685.75
458.818	678.75
459.038	711.75
459.258	683.75
459.478	710.75
459.698	697.75
459.918	702.75
460.138	805.75
460.358	831.75
460.578	832.75
460.798	843.75
461.018	885.75
461.238	858.75
461.458	850.75
461.678	836.75
461.898	850.75
462.118	809.75
462.338	848.75
462.558	831.75
462.777	863.75
462.997	867.75
463.217	892.75
463.437	869.75
463.657	825.75
463.876	832.75
464.096	858.75
464.316	831.75
464.536	867.75
464.755	880.75
464.975	880.75
465.195	851.75
465.414	899.75
465.634	864.75
465.854	870.75
466.073	952.75
466.293	911.75
466.512	842.75
466.732	866.75
466.951	917.75
467.171	919.75
467.391	884.75
467.61	891.75
467.829	885.75
468.049	977.75
468.268	1042.75
468.488	934.75
468.707	905.75
468.927	887.75
469.146	870.75
469.365	890.75
469.585	921.75
469.804	921.75
470.023	934.75
470.243	937.75
470.462	937.75
470.681	922.75
470.901	939.75
471.12	934.75
471.339	918.75
471.558	902.75
471.777	884.75
471.997	894.75
472.216	836.75
472.435	780.75
472.654	748.75
472.873	782.75
473.092	824.75
473.311	827.75
473.53	792.75
473.749	829.75
473.968	861.75
474.187	841.75
474.406	859.75
474.625	867.75
474.844	897.75
475.063	885.75
475.282	800.75
475.501	835.75
475.72	838.75
475.939	893.75
476.158	884.75
476.377	853.75
476.596	855.75
476.814	821.75
477.033	785.75
477.252	851.75
477.471	905.75
477.69	925.75
477.908	951.75
478.127	975.75
478.346	1008.75
478.564	978.75
478.783	983.75
479.002	1060.75
479.22	987.75
479.439	1032.75
479.658	1005.75
479.876	966.75
480.095	912.75
480.313	895.75
480.532	879.75
480.751	856.75
480.969	821.75
481.188	786.75
481.406	764.75
481.624	784.75
481.843	780.75
482.061	805.75
482.28	873.75
482.498	893.75
482.717	827.75
482.935	869.75
483.153	975.75
483.372	1067.75
483.59	1020.75
483.808	959.75
484.027	940.75
484.245	998.75
484.463	1189.75
484.681	1287.75
484.9	1033.75
485.118	957.75
485.336	905.75
485.554	893.75
485.772	907.75
485.99	871.75
486.209	888.75
486.427	899.75
486.645	941.75
486.863	1008.75
487.081	1030.75
487.299	1028.75
487.517	1009.75
487.735	1106.75
487.953	1173.75
488.171	1189.75
488.389	1138.75
488.607	1047.75
488.825	1088.75
489.043	1074.75
489.261	983.75
489.479	1013.75
489.696	1043.75
489.914	1021.75
490.132	1048.75
490.35	1067.75
490.568	1151.75
490.786	1186.75
491.003	1181.75
491.221	1241.75
491.439	1268.75
491.657	1292.75
491.874	1365.75
492.092	1449.75
492.31	1467.75
492.527	1470.75
492.745	1360.75
492.963	1324.75
493.18	1342.75
493.398	1352.75
493.615	1337.75
493.833	1240.75
494.05	1208.75
494.268	1246.75
494.485	1207.75
494.703	1223.75
494.92	1244.75
495.138	1235.75
495.355	1248.75
495.573	1227.75
495.79	1292.75
496.008	1241.75
496.225	1241.75
496.442	1263.75
496.66	1219.75
496.877	1183.75
497.094	1237.75
497.312	1236.75
497.529	1199.75
497.746	1191.75
497.963	1247.75
498.181	1280.75
498.398	1235.75
498.615	1197.75
498.832	1155.75
499.049	1164.75
499.267	1157.75
499.484	1217.75
499.701	1328.75
499.918	1379.75
500.135	1481.75
500.352	1579.75
