Data from WStandard_LampEnergy5.5LIBS07252019.E.O._I.C._HRD10591_16-07-04-920.txt Node
Date: Thu Jul 25 16:07:04 EDT 2019
User: cochatt
Spectrometer: HR+D1059
Trigger mode: 1
Integration Time (sec): 1.000000E-1
Scans to average: 1
Electric dark correction enabled: true
Nonlinearity correction enabled: false
Boxcar width: 0
XAxis mode: Wavelengths
Number of Pixels in Spectrum: 2048
>>>>>Begin Spectral Data<<<<<
223.165	-11
223.4	-11
223.635	-11
223.869	-24
224.104	-10
224.338	-13
224.573	-13
224.808	-11
225.042	-5
225.277	5
225.511	-8
225.746	2
225.98	25
226.215	-12
226.449	14
226.683	6
226.918	32
227.152	23
227.387	33
227.621	32
227.856	31
228.09	23
228.324	49
228.559	36
228.793	141
229.027	389
229.262	386
229.496	377
229.73	394
229.964	440
230.199	467
230.433	472
230.667	487
230.901	539
231.136	515
231.37	479
231.604	480
231.838	482
232.072	478
232.306	478
232.541	486
232.775	600
233.009	652
233.243	617
233.477	523
233.711	566
233.945	611
234.179	589
234.413	580
234.647	676
234.881	613
235.115	542
235.349	569
235.583	598
235.817	574
236.051	564
236.285	572
236.519	644
236.753	706
236.987	678
237.221	710
237.455	769
237.689	741
237.922	698
238.156	683
238.39	698
238.624	743
238.858	764
239.091	822
239.325	822
239.559	964
239.793	988
240.027	1096
240.26	1080
240.494	815
240.728	754
240.961	781
241.195	767
241.429	887
241.662	892
241.896	825
242.13	771
242.363	897
242.597	944
242.83	914
243.064	937
243.298	1013
243.531	967
243.765	931
243.998	976
244.232	866
244.465	809
244.699	801
244.932	923
245.166	1102
245.399	1043
245.633	931
245.866	928
246.099	936
246.333	982
246.566	1022
246.8	1059
247.033	1250
247.266	1143
247.5	1126
247.733	1068
247.966	1177
248.2	1299
248.433	1238
248.666	1309
248.899	1390
249.133	1576
249.366	1819
249.599	1489
249.832	1296
250.066	1346
250.299	1348
250.532	1265
250.765	1142
250.998	1228
251.231	1234
251.465	1296
251.698	1226
251.931	1238
252.164	1250
252.397	1345
252.63	1326
252.863	1170
253.096	1163
253.329	1226
253.562	1249
253.795	1314
254.028	1345
254.261	1240
254.494	1252
254.727	1176
254.96	1235
255.193	1315
255.426	1480
255.659	1735
255.892	1758
256.124	1444
256.357	1380
256.59	1495
256.823	1484
257.056	1468
257.289	1821
257.521	2017
257.754	1815
257.987	1699
258.22	1839
258.452	1850
258.685	1462
258.918	1423
259.151	1438
259.383	1415
259.616	1219
259.849	1306
260.081	1446
260.314	1619
260.547	1771
260.779	1814
261.012	1697
261.244	1535
261.477	1409
261.71	1518
261.942	1480
262.175	1426
262.407	1544
262.64	1444
262.872	1375
263.105	1315
263.337	1348
263.57	1351
263.802	1340
264.035	1308
264.267	1239
264.499	1176
264.732	1263
264.964	1350
265.197	1412
265.429	1456
265.661	1675
265.894	1829
266.126	1893
266.358	1630
266.591	1704
266.823	1887
267.055	1702
267.287	1689
267.52	1675
267.752	1628
267.984	1624
268.216	1708
268.448	1754
268.681	1740
268.913	1578
269.145	1485
269.377	1456
269.609	1552
269.841	1808
270.073	2138
270.306	2385
270.538	2582
270.77	2176
271.002	1814
271.234	1715
271.466	1762
271.698	1922
271.93	2331
272.162	2356
272.394	2119
272.626	2011
272.858	1782
273.09	1531
273.322	1508
273.553	1444
273.785	1442
274.017	1546
274.249	1668
274.481	1635
274.713	1507
274.945	1465
275.176	1482
275.408	1464
275.64	1446
275.872	1414
276.104	1516
276.335	1726
276.567	1974
276.799	2046
277.031	1803
277.262	1677
277.494	1747
277.726	1936
277.957	1946
278.189	1774
278.421	1601
278.652	1552
278.884	1551
279.115	1512
279.347	1574
279.579	1536
279.81	1530
280.042	1642
280.273	1903
280.505	1883
280.736	1903
280.968	1779
281.199	1601
281.431	1477
281.662	1509
281.894	1506
282.125	1551
282.356	1609
282.588	1617
282.819	1632
283.051	1740
283.282	1917
283.513	1861
283.745	1590
283.976	1504
284.207	1489
284.439	1534
284.67	1564
284.901	1619
285.132	1594
285.364	1627
285.595	1656
285.826	1571
286.057	1556
286.288	1558
286.52	1610
286.751	1763
286.982	1828
287.213	1679
287.444	1523
287.675	1486
287.906	1590
288.138	1700
288.369	1649
288.6	1568
288.831	1520
289.062	1539
289.293	1591
289.524	1556
289.755	1586
289.986	1621
290.217	1504
290.448	1542
290.679	1611
290.91	1587
291.141	1661
291.371	1716
291.602	1710
291.833	1683
292.064	1762
292.295	1703
292.526	1718
292.757	1859
292.987	1724
293.218	1610
293.449	1693
293.68	2016
293.91	2143
294.141	1992
294.372	1853
294.603	1896
294.833	2007
295.064	1902
295.295	1710
295.525	1682
295.756	1557
295.987	1442
296.217	1536
296.448	1554
296.679	1570
296.909	1549
297.14	1561
297.37	1556
297.601	1680
297.831	1778
298.062	1799
298.292	1642
298.523	1612
298.753	1585
298.984	1620
299.214	1611
299.445	1641
299.675	1714
299.905	1696
300.136	1682
300.366	1596
300.597	1541
300.827	1538
301.057	1626
301.288	1726
301.518	1686
301.748	1714
301.979	1770
302.209	1824
302.439	1950
302.669	2070
302.9	1896
303.13	1737
303.36	1704
303.59	1755
303.82	1715
304.051	1739
304.281	1669
304.511	1698
304.741	1798
304.971	1979
305.201	2203
305.431	2044
305.661	1642
305.891	1523
306.121	1450
306.352	1568
306.582	1627
306.812	1758
307.042	1945
307.272	1906
307.502	1914
307.731	2082
307.961	2288
308.191	2112
308.421	1755
308.651	1638
308.881	1630
309.111	1627
309.341	1651
309.571	1622
309.8	1667
310.03	1626
310.26	1639
310.49	1612
310.72	1644
310.949	1750
311.179	1768
311.409	1754
311.639	1695
311.868	1662
312.098	1668
312.328	1663
312.557	1667
312.787	1691
313.017	1740
313.246	1731
313.476	1733
313.706	1803
313.935	1755
314.165	1712
314.394	1784
314.624	1906
314.853	1984
315.083	2100
315.312	2170
315.542	2020
315.771	1782
316.001	1789
316.23	1879
316.46	1872
316.689	1847
316.919	1744
317.148	1686
317.377	1662
317.607	1797
317.836	2073
318.065	2138
318.295	2079
318.524	1974
318.753	1902
318.983	1883
319.212	1818
319.441	1807
319.67	1739
319.9	1776
320.129	1905
320.358	1978
320.587	2046
320.816	2023
321.046	1996
321.275	1846
321.504	1883
321.733	2057
321.962	1993
322.191	1841
322.42	1824
322.649	1776
322.878	1782
323.108	1768
323.337	1880
323.566	1875
323.795	1814
324.024	1873
324.253	1836
324.482	1853
324.71	1802
324.939	1706
325.168	1732
325.397	1814
325.626	1811
325.855	1882
326.084	1754
326.313	1804
326.542	1760
326.77	1868
326.999	1909
327.228	1830
327.457	1722
327.686	1690
327.914	1724
328.143	1813
328.372	1792
328.6	1804
328.829	1808
329.058	1776
329.287	1718
329.515	1822
329.744	1842
329.972	1889
330.201	2022
330.43	1972
330.658	1879
330.887	1911
331.115	1880
331.344	1914
331.572	1910
331.801	1856
332.03	1863
332.258	1893
332.486	1933
332.715	1946
332.943	1935
333.172	1905
333.4	1934
333.629	1971
333.857	2073
334.085	2236
334.314	2593
334.542	2872
334.771	2661
334.999	2272
335.227	2180
335.455	2043
335.684	1994
335.912	2066
336.14	2171
336.369	2104
336.597	2008
336.825	1931
337.053	1990
337.281	2055
337.51	2176
337.738	2308
337.966	2192
338.194	1982
338.422	1884
338.65	1883
338.878	1875
339.106	1841
339.334	1784
339.562	1738
339.79	1817
340.018	1926
340.246	1988
340.474	2022
340.702	1937
340.93	1952
341.158	1929
341.386	1887
341.614	1922
341.842	1881
342.07	1847
342.298	1916
342.526	1908
342.754	1825
342.981	1860
343.209	1818
343.437	1823
343.665	1833
343.893	1926
344.12	2008
344.348	2056
344.576	1951
344.804	1905
345.031	1846
345.259	1890
345.487	1854
345.714	1778
345.942	1739
346.17	1732
346.397	1790
346.625	1820
346.853	1717
347.08	1643
347.308	1686
347.535	1722
347.763	1809
347.99	1764
348.218	1704
348.445	1703
348.673	1743
348.9	1751
349.128	1834
349.355	1896
349.583	1870
349.81	1767
350.037	1638
350.265	1594
350.492	1658
350.72	1714
350.947	1748
351.174	1813
351.402	1740
351.629	1609
351.856	1608
352.083	1574
352.311	1627
352.538	1613
352.765	1772
352.992	1777
353.22	1763
353.447	1655
353.674	1698
353.901	1750
354.128	1649
354.355	1665
354.583	1759
354.81	1773
355.037	1793
355.264	1790
355.491	1736
355.718	1771
355.945	1754
356.172	1706
356.399	1687
356.626	1678
356.853	1708
357.08	1862
357.307	2072
357.534	2120
357.761	1845
357.988	1656
358.215	1598
358.441	1617
358.668	1634
358.895	1633
359.122	1754
359.349	1966
359.576	1975
359.802	1749
360.029	1656
360.256	1611
360.483	1674
360.709	1702
360.936	1792
361.163	1833
361.39	1966
361.616	2192
361.843	2142
362.07	2047
362.296	1764
362.523	1684
362.749	1673
362.976	1738
363.203	1797
363.429	1716
363.656	1657
363.882	1689
364.109	1869
364.335	2073
364.562	1920
364.788	1834
365.015	1738
365.241	1666
365.468	1699
365.694	1801
365.92	1878
366.147	1809
366.373	1661
366.599	1620
366.826	1668
367.052	1665
367.278	1695
367.505	1708
367.731	1731
367.957	1743
368.184	1804
368.41	1932
368.636	1954
368.862	1887
369.089	1966
369.315	1860
369.541	1876
369.767	1717
369.993	1726
370.219	1687
370.445	1741
370.672	1842
370.898	1935
371.124	1927
371.35	1783
371.576	1853
371.802	1948
372.028	1835
372.254	1756
372.48	1736
372.706	1733
372.932	1701
373.158	1739
373.384	1798
373.61	1786
373.835	1904
374.061	1833
374.287	1766
374.513	1799
374.739	1803
374.965	1804
375.191	1861
375.416	1878
375.642	1867
375.868	1909
376.094	2011
376.319	1938
376.545	1773
376.771	1832
376.997	1961
377.222	1914
377.448	1826
377.674	1861
377.899	1856
378.125	1962
378.35	1945
378.576	1815
378.802	1757
379.027	1716
379.253	1799
379.478	1774
379.704	1737
379.929	1762
380.155	1782
380.38	1822
380.606	1842
380.831	1802
381.057	1871
381.282	1883
381.507	1887
381.733	1986
381.958	2074
382.184	1927
382.409	1850
382.634	1910
382.86	1886
383.085	1860
383.31	1931
383.535	2058
383.761	2212
383.986	2130
384.211	2017
384.436	1997
384.662	2078
384.887	2236
385.112	2105
385.337	2068
385.562	2068
385.787	2034
386.013	2140
386.238	2125
386.463	2071
386.688	2159
386.913	2372
387.138	2355
387.363	2135
387.588	2127
387.813	2112
388.038	2112
388.263	2196
388.488	2151
388.713	1951
388.938	1977
389.163	1966
389.387	2038
389.612	2001
389.837	2071
390.062	2073
390.287	2094
390.512	2019
390.736	1988
390.961	1984
391.186	1970
391.411	1930
391.636	2003
391.86	2048
392.085	2035
392.31	2034
392.534	1998
392.759	2086
392.984	2019
393.208	2115
393.433	2153
393.658	2248
393.882	2267
394.107	2122
394.331	2041
394.556	2050
394.78	2068
395.005	2109
395.229	2194
395.454	2391
395.678	2389
395.903	2238
396.127	2114
396.352	2178
396.576	2253
396.801	2263
397.025	2320
397.249	2275
397.474	2203
397.698	2169
397.922	2258
398.147	2363
398.371	2472
398.595	2448
398.82	2353
399.044	2434
399.268	2479
399.492	2616
399.717	2772
399.941	2754
400.165	2758
400.389	2635
400.613	2565
400.837	2840
401.062	3317
401.286	2829
401.51	2578
401.734	2711
401.958	2678
402.182	2394
402.406	2352
402.63	2283
402.854	2302
403.078	2347
403.302	2409
403.526	2467
403.75	2441
403.974	2451
404.198	2441
404.422	2556
404.645	2616
404.869	2626
405.093	2415
405.317	2391
405.541	2439
405.765	2483
405.988	2454
406.212	2456
406.436	2510
406.66	2646
406.883	2649
407.107	2919
407.331	3185
407.555	3505
407.778	3189
408.002	2635
408.226	2594
408.449	2521
408.673	2462
408.896	2493
409.12	2526
409.344	2460
409.567	2374
409.791	2484
410.014	2534
410.238	2615
410.461	2751
410.685	2492
410.908	2360
411.132	2424
411.355	2450
411.578	2367
411.802	2356
412.025	2431
412.249	2350
412.472	2271
412.695	2304
412.919	2331
413.142	2297
413.365	2375
413.589	2380
413.812	2453
414.035	2562
414.258	2367
414.482	2371
414.705	2356
414.928	2335
415.151	2298
415.374	2353
415.597	2362
415.821	2401
416.044	2443
416.267	2455
416.49	2229
416.713	2203
416.936	2302
417.159	2404
417.382	2448
417.605	2249
417.828	2377
418.051	2427
418.274	2283
418.497	2224
418.72	2257
418.943	2218
419.166	2427
419.389	2464
419.611	2360
419.834	2326
420.057	2364
420.28	2265
420.503	2256
420.726	2283
420.948	2294
421.171	2211
421.394	2224
421.617	2358
421.839	2280
422.062	2270
422.285	2228
422.507	2259
422.73	2161
422.953	2175
423.175	2135
423.398	2203
423.621	2219
423.843	2305
424.066	2312
424.288	2335
424.511	2391
424.733	2361
424.956	2138
425.178	2132
425.401	2191
425.623	2143
425.846	2183
426.068	2279
426.291	2333
426.513	2288
426.735	2314
426.958	2447
427.18	2584
427.402	2343
427.625	2390
427.847	2416
428.069	2261
428.292	2222
428.514	2169
428.736	2127
428.958	2165
429.181	2190
429.403	2473
429.625	3067
429.847	2675
430.069	2260
430.292	2444
430.514	2584
430.736	2358
430.958	2490
431.18	2299
431.402	2170
431.624	2136
431.846	2146
432.068	2068
432.29	2202
432.512	2215
432.734	2202
432.956	2312
433.178	2340
433.4	2297
433.622	2320
433.844	2235
434.066	2123
434.287	2162
434.509	2249
434.731	2371
434.953	2498
435.175	2493
435.397	2312
435.618	2283
435.84	2299
436.062	2274
436.284	2291
436.505	2272
436.727	2314
436.949	2242
437.17	2186
437.392	2198
437.614	2184
437.835	2138
438.057	2266
438.278	2374
438.5	2158
438.721	2181
438.943	2171
439.165	2137
439.386	2106
439.608	2098
439.829	2149
440.05	2174
440.272	2109
440.493	2095
440.715	2136
440.936	2287
441.158	2603
441.379	2571
441.6	2416
441.822	2360
442.043	2326
442.264	2306
442.486	2142
442.707	2120
442.928	2155
443.149	2208
443.371	2358
443.592	2446
443.813	2378
444.034	2370
444.255	2354
444.476	2407
444.698	2512
444.919	2454
445.14	2485
445.361	2522
445.582	2615
445.803	2482
446.024	2375
446.245	2470
446.466	2318
446.687	2270
446.908	2262
447.129	2199
447.35	2201
447.571	2268
447.792	2132
448.013	2118
448.234	2088
448.455	2279
448.675	2291
448.896	2117
449.117	2073
449.338	2142
449.559	2218
449.779	2365
450	2617
450.221	2735
450.442	2646
450.662	2371
450.883	2102
451.104	1988
451.324	2131
451.545	2180
451.766	2116
451.986	1998
452.207	1999
452.428	1970
452.648	1899
452.869	1972
453.089	2112
453.31	2117
453.53	2226
453.751	2091
453.971	1964
454.192	2046
454.412	2174
454.633	2097
454.853	2021
455.073	1918
455.294	1896
455.514	1911
455.734	1863
455.955	1979
456.175	1918
456.395	1932
456.616	2020
456.836	2038
457.056	2016
457.276	1987
457.497	1941
457.717	1852
457.937	1892
458.157	1978
458.377	1937
458.598	1910
458.818	1913
459.038	2058
459.258	2206
459.478	2182
459.698	2129
459.918	2152
460.138	2273
460.358	2286
460.578	2279
460.798	2358
461.018	2542
461.238	2452
461.458	2291
461.678	2354
461.898	2259
462.118	2241
462.338	2337
462.558	2345
462.777	2336
462.997	2423
463.217	2578
463.437	2527
463.657	2360
463.876	2374
464.096	2314
464.316	2342
464.536	2439
464.755	2418
464.975	2464
465.195	2356
465.414	2464
465.634	2450
465.854	2320
466.073	2453
466.293	2430
466.512	2123
466.732	2122
466.951	2230
467.171	2185
467.391	2090
467.61	2076
467.829	2103
468.049	2235
468.268	2579
468.488	2427
468.707	2228
468.927	2187
469.146	2122
469.365	2085
469.585	2148
469.804	2109
470.023	2143
470.243	2153
470.462	2108
470.681	2076
470.901	2144
471.12	2097
471.339	2076
471.558	2044
471.777	2040
471.997	2063
472.216	2076
472.435	2008
472.654	2046
472.873	2136
473.092	2279
473.311	2151
473.53	1965
473.749	2005
473.968	2098
474.187	2231
474.406	2334
474.625	2201
474.844	2153
475.063	2147
475.282	2242
475.501	2151
475.72	2141
475.939	2277
476.158	2187
476.377	2164
476.596	2142
476.814	2216
477.033	2249
477.252	2316
477.471	2377
477.69	2265
477.908	2217
478.127	2341
478.346	2547
478.564	2607
478.783	2547
479.002	2624
479.22	2549
479.439	2658
479.658	3002
479.876	2960
480.095	2592
480.313	2482
480.532	2374
480.751	2424
480.969	2469
481.188	2376
481.406	2395
481.624	2289
481.843	2379
482.061	2414
482.28	2460
482.498	2453
482.717	2487
482.935	2371
483.153	2382
483.372	2366
483.59	2359
483.808	2308
484.027	2432
484.245	2586
484.463	2966
484.681	3434
484.9	2625
485.118	2425
485.336	2411
485.554	2482
485.772	2610
485.99	2572
486.209	2591
486.427	2583
486.645	2546
486.863	2525
487.081	2545
487.299	2645
487.517	2590
487.735	2478
487.953	2439
488.171	2422
488.389	2493
488.607	2460
488.825	2771
489.043	2784
489.261	2494
489.479	2637
489.696	2634
489.914	2614
490.132	2535
490.35	2484
490.568	2616
490.786	2508
491.003	2450
491.221	2486
491.439	2561
491.657	2566
491.874	2590
492.092	2618
492.31	2569
492.527	2578
492.745	2538
492.963	2512
493.18	2647
493.398	2802
493.615	2935
493.833	2606
494.05	2576
494.268	2594
494.485	2670
494.703	2584
494.92	2517
495.138	2593
495.355	2586
495.573	2658
495.79	2873
496.008	2869
496.225	2649
496.442	2704
496.66	2774
496.877	2722
497.094	2845
497.312	2822
497.529	2798
497.746	2927
497.963	3340
498.181	3759
498.398	3478
498.615	3440
498.832	3338
499.049	3299
499.267	3290
499.484	3550
499.701	3790
499.918	3867
500.135	4082
500.352	4467
500.569	4392
500.786	4639
501.003	4370
501.22	3964
501.437	3834
501.654	3840
501.871	3707
502.088	3254
502.305	3264
502.522	3147
502.739	2959
502.956	2869
503.172	2892
503.389	2826
503.606	2698
503.823	2736
504.04	2749
504.256	2731
504.473	2758
504.69	2884
504.907	2729
505.123	2572
505.34	2714
505.557	3474
505.773	2988
505.99	2497
506.207	2351
506.423	2347
506.64	2337
506.856	2383
507.073	2690
507.289	2842
507.506	2749
507.722	2412
507.939	2287
508.155	2263
508.372	2278
508.588	2218
508.805	2162
509.021	2104
509.238	2140
509.454	2087
509.67	2118
509.887	2145
510.103	2115
510.319	2123
510.536	2253
510.752	2321
510.968	2305
511.184	2435
511.401	2418
511.617	2099
511.833	2037
512.049	2041
512.265	2064
512.481	2042
512.698	2122
512.914	2256
513.13	2223
513.346	2102
513.562	2039
513.778	2025
513.994	2182
514.21	2246
514.426	2233
514.642	2457
514.858	2394
515.074	2151
515.29	2067
515.506	2205
515.721	2236
515.937	2206
516.153	2490
516.369	2434
516.585	2310
516.801	2155
517.016	2167
517.232	2203
517.448	2356
517.664	2282
517.879	2279
518.095	2383
518.311	2339
518.527	2205
518.742	2146
518.958	2104
519.173	2078
519.389	2150
519.605	2160
519.82	2171
520.036	2180
520.251	2054
520.467	2094
520.682	2274
520.898	2350
521.113	2116
521.329	2053
521.544	2272
521.76	2098
521.975	1990
522.19	1946
522.406	1952
522.621	2402
522.836	2478
523.052	1952
523.267	1984
523.482	1988
523.698	1856
523.913	1843
524.128	1919
524.343	2032
524.559	2080
524.774	1900
524.989	1902
525.204	1894
525.419	1860
525.634	1811
525.849	1863
526.064	1870
526.28	1955
526.495	1866
526.71	1799
526.925	1852
527.14	1806
527.355	1764
527.57	1780
527.785	1842
527.999	1785
528.214	1738
528.429	1726
528.644	1770
528.859	1774
529.074	1773
529.289	1814
529.503	1834
529.718	1830
529.933	1798
530.148	1704
530.363	1734
530.577	1755
530.792	1767
531.007	1812
531.221	1763
531.436	1838
531.651	1860
531.865	1970
532.08	1874
532.295	1750
532.509	1698
532.724	1745
532.938	1832
533.153	1923
533.367	1848
533.582	1783
533.796	1777
534.011	1795
534.225	1823
534.44	1778
534.654	1760
534.868	1731
535.083	1830
535.297	1844
535.511	1804
535.726	1787
535.94	1759
536.154	1742
536.369	1768
536.583	1707
536.797	1655
537.011	1745
537.225	1708
537.44	1690
537.654	1738
537.868	1688
538.082	1604
538.296	1611
538.51	1617
538.724	1586
538.938	1614
539.153	1704
539.367	1703
539.581	1681
539.795	1787
540.009	1727
540.222	1729
540.436	1679
540.65	1906
540.864	1881
541.078	1776
541.292	1664
541.506	1659
541.72	1684
