Data from WStandard_LampEnergy5.5LIBS07252019.E.O._I.C._HRD10591_16-09-04-921.txt Node
Date: Thu Jul 25 16:09:04 EDT 2019
User: cochatt
Spectrometer: HR+D1059
Trigger mode: 1
Integration Time (sec): 1.000000E-1
Scans to average: 1
Electric dark correction enabled: true
Nonlinearity correction enabled: false
Boxcar width: 0
XAxis mode: Wavelengths
Number of Pixels in Spectrum: 2048
>>>>>Begin Spectral Data<<<<<
223.165	-14.69
223.4	-14.69
223.635	-14.69
223.869	-9.69
224.104	-11.69
224.338	-7.69
224.573	-24.69
224.808	-26.69
225.042	-10.69
225.277	-3.69
225.511	1.31
225.746	-7.69
225.98	1.31
226.215	6.31
226.449	27.31
226.683	21.31
226.918	29.31
227.152	30.31
227.387	28.31
227.621	23.31
227.856	42.31
228.09	49.31
228.324	57.31
228.559	63.31
228.793	150.31
229.027	368.31
229.262	340.31
229.496	379.31
229.73	389.31
229.964	425.31
230.199	454.31
230.433	439.31
230.667	469.31
230.901	533.31
231.136	446.31
231.37	435.31
231.604	444.31
231.838	443.31
232.072	432.31
232.306	429.31
232.541	465.31
232.775	531.31
233.009	603.31
233.243	562.31
233.477	498.31
233.711	494.31
233.945	575.31
234.179	526.31
234.413	553.31
234.647	620.31
234.881	582.31
235.115	522.31
235.349	535.31
235.583	546.31
235.817	554.31
236.051	506.31
236.285	515.31
236.519	551.31
236.753	636.31
236.987	660.31
237.221	647.31
237.455	733.31
237.689	703.31
237.922	634.31
238.156	633.31
238.39	653.31
238.624	668.31
238.858	708.31
239.091	718.31
239.325	762.31
239.559	891.31
239.793	934.31
240.027	1000.31
240.26	993.31
240.494	724.31
240.728	687.31
240.961	683.31
241.195	713.31
241.429	785.31
241.662	793.31
241.896	729.31
242.13	734.31
242.363	829.31
242.597	855.31
242.83	801.31
243.064	852.31
243.298	946.31
243.531	921.31
243.765	886.31
243.998	881.31
244.232	766.31
244.465	759.31
244.699	778.31
244.932	863.31
245.166	1010.31
245.399	947.31
245.633	848.31
245.866	837.31
246.099	907.31
246.333	926.31
246.566	923.31
246.8	993.31
247.033	1122.31
247.266	1047.31
247.5	1005.31
247.733	974.31
247.966	1062.31
248.2	1190.31
248.433	1135.31
248.666	1177.31
248.899	1258.31
249.133	1470.31
249.366	1692.31
249.599	1348.31
249.832	1168.31
250.066	1210.31
250.299	1254.31
250.532	1153.31
250.765	1050.31
250.998	1115.31
251.231	1152.31
251.465	1175.31
251.698	1119.31
251.931	1121.31
252.164	1166.31
252.397	1240.31
252.63	1212.31
252.863	1096.31
253.096	1051.31
253.329	1103.31
253.562	1146.31
253.795	1219.31
254.028	1244.31
254.261	1146.31
254.494	1101.31
254.727	1057.31
254.96	1101.31
255.193	1201.31
255.426	1328.31
255.659	1573.31
255.892	1593.31
256.124	1319.31
256.357	1256.31
256.59	1353.31
256.823	1368.31
257.056	1364.31
257.289	1638.31
257.521	1803.31
257.754	1654.31
257.987	1507.31
258.22	1677.31
258.452	1682.31
258.685	1352.31
258.918	1286.31
259.151	1352.31
259.383	1285.31
259.616	1117.31
259.849	1199.31
260.081	1318.31
260.314	1443.31
260.547	1619.31
260.779	1647.31
261.012	1511.31
261.244	1380.31
261.477	1285.31
261.71	1376.31
261.942	1356.31
262.175	1311.31
262.407	1378.31
262.64	1312.31
262.872	1241.31
263.105	1154.31
263.337	1216.31
263.57	1242.31
263.802	1217.31
264.035	1149.31
264.267	1086.31
264.499	1087.31
264.732	1141.31
264.964	1232.31
265.197	1247.31
265.429	1347.31
265.661	1479.31
265.894	1647.31
266.126	1738.31
266.358	1521.31
266.591	1581.31
266.823	1726.31
267.055	1561.31
267.287	1505.31
267.52	1482.31
267.752	1473.31
267.984	1482.31
268.216	1554.31
268.448	1567.31
268.681	1608.31
268.913	1422.31
269.145	1359.31
269.377	1325.31
269.609	1444.31
269.841	1625.31
270.073	1932.31
270.306	2171.31
270.538	2331.31
270.77	1963.31
271.002	1682.31
271.234	1587.31
271.466	1544.31
271.698	1772.31
271.93	2076.31
272.162	2108.31
272.394	1882.31
272.626	1843.31
272.858	1611.31
273.09	1401.31
273.322	1387.31
273.553	1311.31
273.785	1307.31
274.017	1405.31
274.249	1475.31
274.481	1514.31
274.713	1404.31
274.945	1354.31
275.176	1344.31
275.408	1306.31
275.64	1330.31
275.872	1281.31
276.104	1382.31
276.335	1574.31
276.567	1814.31
276.799	1835.31
277.031	1612.31
277.262	1526.31
277.494	1591.31
277.726	1765.31
277.957	1782.31
278.189	1592.31
278.421	1459.31
278.652	1438.31
278.884	1409.31
279.115	1424.31
279.347	1434.31
279.579	1434.31
279.81	1366.31
280.042	1523.31
280.273	1666.31
280.505	1671.31
280.736	1684.31
280.968	1653.31
281.199	1406.31
281.431	1369.31
281.662	1374.31
281.894	1371.31
282.125	1423.31
282.356	1461.31
282.588	1476.31
282.819	1451.31
283.051	1583.31
283.282	1731.31
283.513	1664.31
283.745	1449.31
283.976	1355.31
284.207	1378.31
284.439	1381.31
284.67	1417.31
284.901	1445.31
285.132	1497.31
285.364	1446.31
285.595	1469.31
285.826	1422.31
286.057	1407.31
286.288	1426.31
286.52	1430.31
286.751	1590.31
286.982	1660.31
287.213	1517.31
287.444	1411.31
287.675	1357.31
287.906	1451.31
288.138	1534.31
288.369	1518.31
288.6	1434.31
288.831	1388.31
289.062	1382.31
289.293	1431.31
289.524	1448.31
289.755	1528.31
289.986	1486.31
290.217	1396.31
290.448	1374.31
290.679	1485.31
290.91	1448.31
291.141	1493.31
291.371	1547.31
291.602	1510.31
291.833	1528.31
292.064	1573.31
292.295	1500.31
292.526	1564.31
292.757	1645.31
292.987	1565.31
293.218	1460.31
293.449	1546.31
293.68	1786.31
293.91	1909.31
294.141	1795.31
294.372	1691.31
294.603	1731.31
294.833	1832.31
295.064	1729.31
295.295	1575.31
295.525	1510.31
295.756	1405.31
295.987	1347.31
296.217	1363.31
296.448	1432.31
296.679	1439.31
296.909	1417.31
297.14	1389.31
297.37	1408.31
297.601	1523.31
297.831	1616.31
298.062	1662.31
298.292	1483.31
298.523	1457.31
298.753	1415.31
298.984	1460.31
299.214	1452.31
299.445	1503.31
299.675	1532.31
299.905	1521.31
300.136	1446.31
300.366	1446.31
300.597	1427.31
300.827	1411.31
301.057	1442.31
301.288	1545.31
301.518	1530.31
301.748	1542.31
301.979	1625.31
302.209	1667.31
302.439	1766.31
302.669	1825.31
302.9	1741.31
303.13	1542.31
303.36	1560.31
303.59	1599.31
303.82	1565.31
304.051	1534.31
304.281	1561.31
304.511	1521.31
304.741	1675.31
304.971	1799.31
305.201	2024.31
305.431	1852.31
305.661	1530.31
305.891	1385.31
306.121	1349.31
306.352	1419.31
306.582	1491.31
306.812	1604.31
307.042	1722.31
307.272	1714.31
307.502	1758.31
307.731	1916.31
307.961	2049.31
308.191	1851.31
308.421	1641.31
308.651	1547.31
308.881	1516.31
309.111	1503.31
309.341	1465.31
309.571	1493.31
309.8	1491.31
310.03	1478.31
310.26	1465.31
310.49	1454.31
310.72	1493.31
310.949	1582.31
311.179	1630.31
311.409	1610.31
311.639	1511.31
311.868	1481.31
312.098	1585.31
312.328	1505.31
312.557	1485.31
312.787	1526.31
313.017	1579.31
313.246	1546.31
313.476	1513.31
313.706	1608.31
313.935	1576.31
314.165	1611.31
314.394	1650.31
314.624	1705.31
314.853	1818.31
315.083	1878.31
315.312	1933.31
315.542	1863.31
315.771	1626.31
316.001	1606.31
316.23	1712.31
316.46	1699.31
316.689	1672.31
316.919	1589.31
317.148	1548.31
317.377	1521.31
317.607	1635.31
317.836	1825.31
318.065	1953.31
318.295	1848.31
318.524	1747.31
318.753	1707.31
318.983	1657.31
319.212	1690.31
319.441	1597.31
319.67	1583.31
319.9	1630.31
320.129	1732.31
320.358	1815.31
320.587	1811.31
320.816	1794.31
321.046	1785.31
321.275	1679.31
321.504	1675.31
321.733	1834.31
321.962	1803.31
322.191	1637.31
322.42	1643.31
322.649	1616.31
322.878	1598.31
323.108	1609.31
323.337	1685.31
323.566	1678.31
323.795	1663.31
324.024	1687.31
324.253	1642.31
324.482	1693.31
324.71	1641.31
324.939	1520.31
325.168	1559.31
325.397	1614.31
325.626	1681.31
325.855	1670.31
326.084	1631.31
326.313	1657.31
326.542	1689.31
326.77	1716.31
326.999	1719.31
327.228	1608.31
327.457	1563.31
327.686	1540.31
327.914	1589.31
328.143	1635.31
328.372	1596.31
328.6	1618.31
328.829	1620.31
329.058	1609.31
329.287	1595.31
329.515	1645.31
329.744	1635.31
329.972	1700.31
330.201	1847.31
330.43	1788.31
330.658	1719.31
330.887	1711.31
331.115	1724.31
331.344	1729.31
331.572	1688.31
331.801	1682.31
332.03	1689.31
332.258	1733.31
332.486	1739.31
332.715	1769.31
332.943	1759.31
333.172	1716.31
333.4	1737.31
333.629	1800.31
333.857	1894.31
334.085	2050.31
334.314	2323.31
334.542	2549.31
334.771	2379.31
334.999	2086.31
335.227	1971.31
335.455	1879.31
335.684	1847.31
335.912	1887.31
336.14	1961.31
336.369	1921.31
336.597	1774.31
336.825	1749.31
337.053	1768.31
337.281	1898.31
337.51	1955.31
337.738	2097.31
337.966	1997.31
338.194	1778.31
338.422	1741.31
338.65	1737.31
338.878	1722.31
339.106	1628.31
339.334	1624.31
339.562	1578.31
339.79	1616.31
340.018	1751.31
340.246	1811.31
340.474	1804.31
340.702	1732.31
340.93	1769.31
341.158	1756.31
341.386	1735.31
341.614	1693.31
341.842	1682.31
342.07	1680.31
342.298	1731.31
342.526	1706.31
342.754	1659.31
342.981	1683.31
343.209	1726.31
343.437	1694.31
343.665	1694.31
343.893	1741.31
344.12	1861.31
344.348	1874.31
344.576	1749.31
344.804	1697.31
345.031	1630.31
345.259	1679.31
345.487	1661.31
345.714	1599.31
345.942	1568.31
346.17	1565.31
346.397	1639.31
346.625	1661.31
346.853	1518.31
347.08	1515.31
347.308	1516.31
347.535	1558.31
347.763	1624.31
347.99	1591.31
348.218	1503.31
348.445	1511.31
348.673	1602.31
348.9	1637.31
349.128	1688.31
349.355	1734.31
349.583	1707.31
349.81	1607.31
350.037	1473.31
350.265	1486.31
350.492	1525.31
350.72	1530.31
350.947	1576.31
351.174	1623.31
351.402	1565.31
351.629	1514.31
351.856	1468.31
352.083	1442.31
352.311	1469.31
352.538	1521.31
352.765	1597.31
352.992	1574.31
353.22	1577.31
353.447	1492.31
353.674	1521.31
353.901	1589.31
354.128	1502.31
354.355	1521.31
354.583	1581.31
354.81	1609.31
355.037	1622.31
355.264	1605.31
355.491	1565.31
355.718	1612.31
355.945	1571.31
356.172	1528.31
356.399	1532.31
356.626	1496.31
356.853	1588.31
357.08	1678.31
357.307	1826.31
357.534	1882.31
357.761	1646.31
357.988	1540.31
358.215	1449.31
358.441	1494.31
358.668	1509.31
358.895	1497.31
359.122	1599.31
359.349	1754.31
359.576	1768.31
359.802	1598.31
360.029	1518.31
360.256	1476.31
360.483	1523.31
360.709	1555.31
360.936	1604.31
361.163	1643.31
361.39	1809.31
361.616	1975.31
361.843	1946.31
362.07	1819.31
362.296	1565.31
362.523	1543.31
362.749	1505.31
362.976	1577.31
363.203	1593.31
363.429	1588.31
363.656	1495.31
363.882	1562.31
364.109	1710.31
364.335	1924.31
364.562	1733.31
364.788	1661.31
365.015	1602.31
365.241	1486.31
365.468	1570.31
365.694	1634.31
365.92	1713.31
366.147	1649.31
366.373	1517.31
366.599	1497.31
366.826	1501.31
367.052	1533.31
367.278	1541.31
367.505	1586.31
367.731	1566.31
367.957	1590.31
368.184	1627.31
368.41	1681.31
368.636	1718.31
368.862	1710.31
369.089	1752.31
369.315	1727.31
369.541	1630.31
369.767	1594.31
369.993	1542.31
370.219	1554.31
370.445	1573.31
370.672	1675.31
370.898	1753.31
371.124	1723.31
371.35	1659.31
371.576	1652.31
371.802	1737.31
372.028	1703.31
372.254	1607.31
372.48	1599.31
372.706	1589.31
372.932	1575.31
373.158	1563.31
373.384	1590.31
373.61	1637.31
373.835	1783.31
374.061	1707.31
374.287	1641.31
374.513	1657.31
374.739	1672.31
374.965	1668.31
375.191	1662.31
375.416	1723.31
375.642	1708.31
375.868	1758.31
376.094	1853.31
376.319	1761.31
376.545	1589.31
376.771	1651.31
376.997	1754.31
377.222	1729.31
377.448	1691.31
377.674	1669.31
377.899	1658.31
378.125	1811.31
378.35	1810.31
378.576	1630.31
378.802	1594.31
379.027	1558.31
379.253	1640.31
379.478	1616.31
379.704	1611.31
379.929	1628.31
380.155	1641.31
380.38	1658.31
380.606	1689.31
380.831	1651.31
381.057	1695.31
381.282	1766.31
381.507	1672.31
381.733	1803.31
381.958	1851.31
382.184	1735.31
382.409	1684.31
382.634	1738.31
382.86	1687.31
383.085	1699.31
383.31	1736.31
383.535	1913.31
383.761	1987.31
383.986	1925.31
384.211	1825.31
384.436	1801.31
384.662	1901.31
384.887	1955.31
385.112	1889.31
385.337	1903.31
385.562	1869.31
385.787	1888.31
386.013	1948.31
386.238	1953.31
386.463	1858.31
386.688	1973.31
386.913	2145.31
387.138	2101.31
387.363	1922.31
387.588	1939.31
387.813	1937.31
388.038	1944.31
388.263	1953.31
388.488	1934.31
388.713	1811.31
388.938	1769.31
389.163	1780.31
389.387	1843.31
389.612	1851.31
389.837	1874.31
390.062	1875.31
390.287	1871.31
390.512	1860.31
390.736	1811.31
390.961	1797.31
391.186	1813.31
391.411	1844.31
391.636	1821.31
391.86	1860.31
392.085	1838.31
392.31	1834.31
392.534	1861.31
392.759	1871.31
392.984	1906.31
393.208	1877.31
393.433	1945.31
393.658	1979.31
393.882	2005.31
394.107	1898.31
394.331	1861.31
394.556	1842.31
394.78	1849.31
395.005	1945.31
395.229	1978.31
395.454	2134.31
395.678	2142.31
395.903	2084.31
396.127	1949.31
396.352	2000.31
396.576	2030.31
396.801	2044.31
397.025	2005.31
397.249	2065.31
397.474	2043.31
397.698	1980.31
397.922	2005.31
398.147	2138.31
398.371	2187.31
398.595	2211.31
398.82	2106.31
399.044	2166.31
399.268	2243.31
399.492	2391.31
399.717	2453.31
399.941	2549.31
400.165	2459.31
400.389	2343.31
400.613	2340.31
400.837	2551.31
401.062	2952.31
401.286	2603.31
401.51	2313.31
401.734	2429.31
401.958	2371.31
402.182	2201.31
402.406	2099.31
402.63	2103.31
402.854	2073.31
403.078	2120.31
403.302	2191.31
403.526	2213.31
403.75	2189.31
403.974	2242.31
404.198	2230.31
404.422	2261.31
404.645	2337.31
404.869	2349.31
405.093	2160.31
405.317	2121.31
405.541	2232.31
405.765	2234.31
405.988	2199.31
406.212	2233.31
406.436	2295.31
406.66	2365.31
406.883	2370.31
407.107	2645.31
407.331	2856.31
407.555	3105.31
407.778	2884.31
408.002	2418.31
408.226	2293.31
408.449	2315.31
408.673	2279.31
408.896	2315.31
409.12	2324.31
409.344	2219.31
409.567	2181.31
409.791	2194.31
410.014	2243.31
410.238	2355.31
410.461	2507.31
410.685	2283.31
410.908	2110.31
411.132	2177.31
411.355	2177.31
411.578	2137.31
411.802	2149.31
412.025	2186.31
412.249	2142.31
412.472	2119.31
412.695	2061.31
412.919	2131.31
413.142	2068.31
413.365	2128.31
413.589	2185.31
413.812	2223.31
414.035	2306.31
414.258	2183.31
414.482	2091.31
414.705	2133.31
414.928	2110.31
415.151	2094.31
415.374	2114.31
415.597	2176.31
415.821	2211.31
416.044	2227.31
416.267	2265.31
416.49	2018.31
416.713	2026.31
416.936	2102.31
417.159	2188.31
417.382	2145.31
417.605	2049.31
417.828	2139.31
418.051	2210.31
418.274	2091.31
418.497	2014.31
418.72	2043.31
418.943	2006.31
419.166	2187.31
419.389	2270.31
419.611	2137.31
419.834	2061.31
420.057	2073.31
420.28	2056.31
420.503	2020.31
420.726	2106.31
420.948	2091.31
421.171	2055.31
421.394	2020.31
421.617	2063.31
421.839	2106.31
422.062	2046.31
422.285	2012.31
422.507	2075.31
422.73	1998.31
422.953	1991.31
423.175	1938.31
423.398	2000.31
423.621	2033.31
423.843	2074.31
424.066	2061.31
424.288	2170.31
424.511	2204.31
424.733	2119.31
424.956	1913.31
425.178	1907.31
425.401	1969.31
425.623	2005.31
425.846	1964.31
426.068	2037.31
426.291	2102.31
426.513	2060.31
426.735	2055.31
426.958	2188.31
427.18	2347.31
427.402	2133.31
427.625	2185.31
427.847	2238.31
428.069	2042.31
428.292	2005.31
428.514	1962.31
428.736	1956.31
428.958	2005.31
429.181	1998.31
429.403	2218.31
429.625	2782.31
429.847	2411.31
430.069	2018.31
430.292	2185.31
430.514	2319.31
430.736	2137.31
430.958	2253.31
431.18	2174.31
431.402	1958.31
431.624	1962.31
431.846	1953.31
432.068	1935.31
432.29	1931.31
432.512	1990.31
432.734	2020.31
432.956	2109.31
433.178	2127.31
433.4	2129.31
433.622	2150.31
433.844	1998.31
434.066	1935.31
434.287	1924.31
434.509	2037.31
434.731	2143.31
434.953	2270.31
435.175	2236.31
435.397	2042.31
435.618	2105.31
435.84	2064.31
436.062	2087.31
436.284	2058.31
436.505	2060.31
436.727	2150.31
436.949	2039.31
437.17	1974.31
437.392	1970.31
437.614	2015.31
437.835	1910.31
438.057	2055.31
438.278	2151.31
438.5	1992.31
438.721	1966.31
438.943	1974.31
439.165	1995.31
439.386	1949.31
439.608	1931.31
439.829	1950.31
440.05	1918.31
440.272	1933.31
440.493	1939.31
440.715	2017.31
440.936	2104.31
441.158	2305.31
441.379	2221.31
441.6	2174.31
441.822	2154.31
442.043	2099.31
442.264	2030.31
442.486	1991.31
442.707	1957.31
442.928	1964.31
443.149	2018.31
443.371	2151.31
443.592	2218.31
443.813	2204.31
444.034	2142.31
444.255	2143.31
444.476	2181.31
444.698	2269.31
444.919	2236.31
445.14	2251.31
445.361	2262.31
445.582	2358.31
445.803	2271.31
446.024	2139.31
446.245	2236.31
446.466	2155.31
446.687	2076.31
446.908	2063.31
447.129	2003.31
447.35	2019.31
447.571	2056.31
447.792	1979.31
448.013	1921.31
448.234	1986.31
448.455	2085.31
448.675	2072.31
448.896	1912.31
449.117	1883.31
449.338	1989.31
449.559	2010.31
449.779	2122.31
450	2324.31
450.221	2548.31
450.442	2436.31
450.662	2149.31
450.883	1899.31
451.104	1894.31
451.324	1867.31
451.545	1946.31
451.766	1935.31
451.986	1892.31
452.207	1815.31
452.428	1763.31
452.648	1760.31
452.869	1828.31
453.089	1886.31
453.31	1893.31
453.53	1985.31
453.751	1926.31
453.971	1815.31
454.192	1831.31
454.412	1950.31
454.633	1932.31
454.853	1846.31
455.073	1715.31
455.294	1685.31
455.514	1716.31
455.734	1720.31
455.955	1788.31
456.175	1778.31
456.395	1758.31
456.616	1838.31
456.836	1825.31
457.056	1781.31
457.276	1842.31
457.497	1761.31
457.717	1694.31
457.937	1735.31
458.157	1793.31
458.377	1758.31
458.598	1759.31
458.818	1759.31
459.038	1879.31
459.258	1993.31
459.478	2003.31
459.698	1921.31
459.918	1939.31
460.138	2056.31
460.358	2054.31
460.578	2086.31
460.798	2191.31
461.018	2355.31
461.238	2214.31
461.458	2105.31
461.678	2169.31
461.898	2074.31
462.118	2053.31
462.338	2093.31
462.558	2104.31
462.777	2063.31
462.997	2197.31
463.217	2356.31
463.437	2317.31
463.657	2125.31
463.876	2134.31
464.096	2089.31
464.316	2124.31
464.536	2167.31
464.755	2177.31
464.975	2207.31
465.195	2127.31
465.414	2229.31
465.634	2240.31
465.854	2134.31
466.073	2227.31
466.293	2170.31
466.512	1915.31
466.732	1918.31
466.951	2038.31
467.171	2024.31
467.391	1928.31
467.61	1846.31
467.829	1878.31
468.049	2081.31
468.268	2257.31
468.488	2141.31
468.707	2042.31
468.927	2000.31
469.146	1943.31
469.365	1882.31
469.585	1943.31
469.804	1868.31
470.023	1941.31
470.243	1953.31
470.462	1898.31
470.681	1909.31
470.901	1943.31
471.12	1955.31
471.339	1886.31
471.558	1882.31
471.777	1822.31
471.997	1900.31
472.216	1918.31
472.435	1835.31
472.654	1835.31
472.873	1916.31
473.092	2035.31
473.311	1971.31
473.53	1817.31
473.749	1823.31
473.968	1922.31
474.187	2035.31
474.406	2090.31
474.625	1981.31
474.844	1957.31
475.063	1985.31
475.282	2039.31
475.501	1962.31
475.72	1981.31
475.939	2077.31
476.158	2005.31
476.377	1943.31
476.596	1964.31
476.814	2011.31
477.033	2054.31
477.252	2136.31
477.471	2200.31
477.69	2055.31
477.908	2015.31
478.127	2156.31
478.346	2318.31
478.564	2350.31
478.783	2262.31
479.002	2373.31
479.22	2320.31
479.439	2395.31
479.658	2754.31
479.876	2695.31
480.095	2366.31
480.313	2238.31
480.532	2106.31
480.751	2165.31
480.969	2253.31
481.188	2188.31
481.406	2192.31
481.624	2087.31
481.843	2123.31
482.061	2220.31
482.28	2259.31
482.498	2301.31
482.717	2241.31
482.935	2136.31
483.153	2185.31
483.372	2163.31
483.59	2114.31
483.808	2187.31
484.027	2187.31
484.245	2329.31
484.463	2679.31
484.681	3137.31
484.9	2391.31
485.118	2253.31
485.336	2178.31
485.554	2259.31
485.772	2393.31
485.99	2348.31
486.209	2353.31
486.427	2278.31
486.645	2293.31
486.863	2261.31
487.081	2370.31
487.299	2378.31
487.517	2355.31
