Data from WStandard_LampEnergy8_LIBS07252019.E.O._I.C._HRD10591_15-59-12-929.txt Node
Date: Thu Jul 25 15:59:12 EDT 2019
User: cochatt
Spectrometer: HR+D1059
Trigger mode: 1
Integration Time (sec): 1.000000E-1
Scans to average: 1
Electric dark correction enabled: true
Nonlinearity correction enabled: false
Boxcar width: 0
XAxis mode: Wavelengths
Number of Pixels in Spectrum: 2048
>>>>>Begin Spectral Data<<<<<
223.165	-4.62
223.4	-4.62
223.635	-4.62
223.869	-8.62
224.104	-19.62
224.338	-17.62
224.573	-24.62
224.808	-9.62
225.042	-16.62
225.277	-13.62
225.511	4.38
225.746	-0.62
225.98	3.38
226.215	8.38
226.449	5.38
226.683	15.38
226.918	34.38
227.152	44.38
227.387	39.38
227.621	19.38
227.856	50.38
228.09	33.38
228.324	30.38
228.559	55.38
228.793	99.38
229.027	214.38
229.262	199.38
229.496	202.38
229.73	220.38
229.964	239.38
230.199	258.38
230.433	260.38
230.667	285.38
230.901	280.38
231.136	260.38
231.37	268.38
231.604	258.38
231.838	266.38
232.072	260.38
232.306	253.38
232.541	276.38
232.775	298.38
233.009	329.38
233.243	321.38
233.477	303.38
233.711	296.38
233.945	295.38
234.179	302.38
234.413	326.38
234.647	354.38
234.881	315.38
235.115	310.38
235.349	304.38
235.583	320.38
235.817	299.38
236.051	270.38
236.285	308.38
236.519	344.38
236.753	351.38
236.987	363.38
237.221	362.38
237.455	378.38
237.689	377.38
237.922	369.38
238.156	345.38
238.39	356.38
238.624	378.38
238.858	400.38
239.091	407.38
239.325	402.38
239.559	459.38
239.793	468.38
240.027	530.38
240.26	500.38
240.494	405.38
240.728	373.38
240.961	366.38
241.195	382.38
241.429	419.38
241.662	415.38
241.896	395.38
242.13	420.38
242.363	452.38
242.597	445.38
242.83	442.38
243.064	445.38
243.298	484.38
243.531	477.38
243.765	472.38
243.998	452.38
244.232	419.38
244.465	427.38
244.699	410.38
244.932	451.38
245.166	524.38
245.399	487.38
245.633	474.38
245.866	464.38
246.099	476.38
246.333	481.38
246.566	496.38
246.8	547.38
247.033	560.38
247.266	524.38
247.5	541.38
247.733	530.38
247.966	562.38
248.2	612.38
248.433	592.38
248.666	618.38
248.899	659.38
249.133	742.38
249.366	832.38
249.599	705.38
249.832	640.38
250.066	657.38
250.299	636.38
250.532	596.38
250.765	544.38
250.998	604.38
251.231	598.38
251.465	614.38
251.698	576.38
251.931	570.38
252.164	612.38
252.397	633.38
252.63	630.38
252.863	542.38
253.096	537.38
253.329	577.38
253.562	581.38
253.795	627.38
254.028	620.38
254.261	580.38
254.494	579.38
254.727	543.38
254.96	580.38
255.193	633.38
255.426	713.38
255.659	788.38
255.892	800.38
256.124	677.38
256.357	679.38
256.59	701.38
256.823	678.38
257.056	711.38
257.289	851.38
257.521	924.38
257.754	809.38
257.987	793.38
258.22	843.38
258.452	808.38
258.685	669.38
258.918	664.38
259.151	676.38
259.383	642.38
259.616	580.38
259.849	607.38
260.081	702.38
260.314	761.38
260.547	834.38
260.779	856.38
261.012	768.38
261.244	704.38
261.477	675.38
261.71	685.38
261.942	680.38
262.175	685.38
262.407	705.38
262.64	678.38
262.872	618.38
263.105	614.38
263.337	640.38
263.57	630.38
263.802	633.38
264.035	593.38
264.267	584.38
264.499	581.38
264.732	623.38
264.964	639.38
265.197	664.38
265.429	687.38
265.661	804.38
265.894	840.38
266.126	855.38
266.358	815.38
266.591	839.38
266.823	848.38
267.055	790.38
267.287	782.38
267.52	767.38
267.752	744.38
267.984	779.38
268.216	812.38
268.448	808.38
268.681	797.38
268.913	744.38
269.145	689.38
269.377	714.38
269.609	798.38
269.841	884.38
270.073	998.38
270.306	1096.38
270.538	1110.38
270.77	990.38
271.002	854.38
271.234	843.38
271.466	843.38
271.698	913.38
271.93	1068.38
272.162	1094.38
272.394	942.38
272.626	916.38
272.858	788.38
273.09	719.38
273.322	693.38
273.553	683.38
273.785	708.38
274.017	700.38
274.249	755.38
274.481	770.38
274.713	709.38
274.945	704.38
275.176	695.38
275.408	691.38
275.64	688.38
275.872	684.38
276.104	763.38
276.335	862.38
276.567	917.38
276.799	926.38
277.031	827.38
277.262	832.38
277.494	853.38
277.726	912.38
277.957	875.38
278.189	817.38
278.421	748.38
278.652	734.38
278.884	727.38
279.115	726.38
279.347	758.38
279.579	731.38
279.81	730.38
280.042	828.38
280.273	890.38
280.505	908.38
280.736	895.38
280.968	847.38
281.199	730.38
281.431	708.38
281.662	730.38
281.894	738.38
282.125	755.38
282.356	790.38
282.588	770.38
282.819	780.38
283.051	842.38
283.282	874.38
283.513	843.38
283.745	745.38
283.976	752.38
284.207	742.38
284.439	740.38
284.67	731.38
284.901	767.38
285.132	790.38
285.364	807.38
285.595	788.38
285.826	788.38
286.057	779.38
286.288	752.38
286.52	800.38
286.751	860.38
286.982	886.38
287.213	792.38
287.444	750.38
287.675	713.38
287.906	788.38
288.138	844.38
288.369	808.38
288.6	758.38
288.831	745.38
289.062	758.38
289.293	762.38
289.524	774.38
289.755	794.38
289.986	807.38
290.217	743.38
290.448	780.38
290.679	795.38
290.91	786.38
291.141	800.38
291.371	830.38
291.602	833.38
291.833	799.38
292.064	863.38
292.295	856.38
292.526	858.38
292.757	870.38
292.987	824.38
293.218	803.38
293.449	862.38
293.68	963.38
293.91	1040.38
294.141	949.38
294.372	910.38
294.603	946.38
294.833	994.38
295.064	930.38
295.295	851.38
295.525	828.38
295.756	750.38
295.987	771.38
296.217	767.38
296.448	784.38
296.679	788.38
296.909	783.38
297.14	770.38
297.37	787.38
297.601	862.38
297.831	918.38
298.062	874.38
298.292	827.38
298.523	798.38
298.753	800.38
298.984	803.38
299.214	815.38
299.445	810.38
299.675	833.38
299.905	818.38
300.136	835.38
300.366	805.38
300.597	763.38
300.827	787.38
301.057	831.38
301.288	851.38
301.518	850.38
301.748	864.38
301.979	931.38
302.209	946.38
302.439	966.38
302.669	1032.38
302.9	957.38
303.13	893.38
303.36	871.38
303.59	851.38
303.82	866.38
304.051	904.38
304.281	878.38
304.511	895.38
304.741	952.38
304.971	1041.38
305.201	1054.38
305.431	989.38
305.661	840.38
305.891	751.38
306.121	772.38
306.352	820.38
306.582	837.38
306.812	922.38
307.042	988.38
307.272	970.38
307.502	1010.38
307.731	1088.38
307.961	1129.38
308.191	993.38
308.421	870.38
308.651	849.38
308.881	824.38
309.111	851.38
309.341	825.38
309.571	839.38
309.8	841.38
310.03	817.38
310.26	809.38
310.49	833.38
310.72	859.38
310.949	877.38
311.179	889.38
311.409	854.38
311.639	856.38
311.868	871.38
312.098	855.38
312.328	837.38
312.557	850.38
312.787	863.38
313.017	861.38
313.246	892.38
313.476	866.38
313.706	904.38
313.935	878.38
314.165	922.38
314.394	937.38
314.624	976.38
314.853	1057.38
315.083	1044.38
315.312	1065.38
315.542	962.38
315.771	921.38
316.001	909.38
316.23	982.38
316.46	966.38
316.689	920.38
316.919	882.38
317.148	878.38
317.377	935.38
317.607	984.38
317.836	1067.38
318.065	1107.38
318.295	1043.38
318.524	1017.38
318.753	950.38
318.983	938.38
319.212	922.38
319.441	927.38
319.67	928.38
319.9	952.38
320.129	1001.38
320.358	1045.38
320.587	1043.38
320.816	1043.38
321.046	1022.38
321.275	984.38
321.504	976.38
321.733	1043.38
321.962	1008.38
322.191	967.38
322.42	927.38
322.649	948.38
322.878	935.38
323.108	962.38
323.337	967.38
323.566	969.38
323.795	971.38
324.024	959.38
324.253	914.38
324.482	932.38
324.71	899.38
324.939	885.38
325.168	917.38
325.397	961.38
325.626	992.38
325.855	952.38
326.084	949.38
326.313	943.38
326.542	967.38
326.77	986.38
326.999	964.38
327.228	957.38
327.457	895.38
327.686	880.38
327.914	936.38
328.143	943.38
328.372	947.38
328.6	918.38
328.829	921.38
329.058	915.38
329.287	924.38
329.515	947.38
329.744	969.38
329.972	1043.38
330.201	1074.38
330.43	1001.38
330.658	996.38
330.887	989.38
331.115	1010.38
331.344	998.38
331.572	977.38
331.801	980.38
332.03	978.38
332.258	1008.38
332.486	1010.38
332.715	1059.38
332.943	1007.38
333.172	971.38
333.4	1009.38
333.629	1032.38
333.857	1138.38
334.085	1248.38
334.314	1376.38
334.542	1470.38
334.771	1302.38
334.999	1147.38
335.227	1105.38
335.455	1063.38
335.684	1086.38
335.912	1106.38
336.14	1098.38
336.369	1087.38
336.597	1031.38
336.825	1024.38
337.053	1069.38
337.281	1116.38
337.51	1154.38
337.738	1193.38
337.966	1113.38
338.194	1020.38
338.422	981.38
338.65	980.38
338.878	965.38
339.106	946.38
339.334	944.38
339.562	947.38
339.79	990.38
340.018	1015.38
340.246	1057.38
340.474	1063.38
340.702	1034.38
340.93	1042.38
341.158	1020.38
341.386	1033.38
341.614	1000.38
341.842	973.38
342.07	989.38
342.298	1016.38
342.526	1016.38
342.754	990.38
342.981	1002.38
343.209	993.38
343.437	1003.38
343.665	992.38
343.893	1004.38
344.12	1051.38
344.348	1041.38
344.576	1041.38
344.804	972.38
345.031	980.38
345.259	996.38
345.487	962.38
345.714	922.38
345.942	924.38
346.17	911.38
346.397	942.38
346.625	948.38
346.853	900.38
347.08	896.38
347.308	920.38
347.535	930.38
347.763	962.38
347.99	923.38
348.218	925.38
348.445	896.38
348.673	952.38
348.9	960.38
349.128	963.38
349.355	1024.38
349.583	987.38
349.81	924.38
350.037	876.38
350.265	878.38
350.492	918.38
350.72	930.38
350.947	945.38
351.174	958.38
351.402	904.38
351.629	857.38
351.856	859.38
352.083	883.38
352.311	873.38
352.538	939.38
352.765	969.38
352.992	975.38
353.22	942.38
353.447	895.38
353.674	948.38
353.901	914.38
354.128	874.38
354.355	928.38
354.583	960.38
354.81	965.38
355.037	968.38
355.264	965.38
355.491	921.38
355.718	930.38
355.945	919.38
356.172	908.38
356.399	906.38
356.626	898.38
356.853	951.38
357.08	1055.38
357.307	1143.38
357.534	1099.38
357.761	955.38
357.988	889.38
358.215	864.38
358.441	891.38
358.668	886.38
358.895	916.38
359.122	1004.38
359.349	1048.38
359.576	1050.38
359.802	932.38
360.029	905.38
360.256	890.38
360.483	930.38
360.709	940.38
360.936	952.38
361.163	1024.38
361.39	1147.38
361.616	1170.38
361.843	1130.38
362.07	1042.38
362.296	924.38
362.523	909.38
362.749	912.38
362.976	979.38
363.203	947.38
363.429	939.38
363.656	900.38
363.882	944.38
364.109	1095.38
364.335	1104.38
364.562	1022.38
364.788	970.38
365.015	926.38
365.241	919.38
365.468	938.38
365.694	1008.38
365.92	1024.38
366.147	963.38
366.373	907.38
366.599	914.38
366.826	919.38
367.052	905.38
367.278	903.38
367.505	969.38
367.731	957.38
367.957	982.38
368.184	1020.38
368.41	1044.38
368.636	1058.38
368.862	1085.38
369.089	1063.38
369.315	991.38
369.541	974.38
369.767	964.38
369.993	932.38
370.219	952.38
370.445	963.38
370.672	1047.38
370.898	1063.38
371.124	1017.38
371.35	999.38
371.576	1027.38
371.802	1066.38
372.028	1001.38
372.254	995.38
372.48	965.38
372.706	944.38
372.932	938.38
373.158	971.38
373.384	967.38
373.61	1053.38
373.835	1031.38
374.061	1023.38
374.287	987.38
374.513	983.38
374.739	972.38
374.965	1012.38
375.191	1002.38
375.416	1010.38
375.642	1047.38
375.868	1100.38
376.094	1102.38
376.319	1048.38
376.545	999.38
376.771	1041.38
376.997	1116.38
377.222	1076.38
377.448	1032.38
377.674	1044.38
377.899	1060.38
378.125	1126.38
378.35	1071.38
378.576	991.38
378.802	965.38
379.027	956.38
379.253	986.38
379.478	1001.38
379.704	999.38
379.929	1004.38
380.155	1010.38
380.38	993.38
380.606	1012.38
380.831	1010.38
381.057	1069.38
381.282	1080.38
381.507	1026.38
381.733	1130.38
381.958	1157.38
382.184	1062.38
382.409	1043.38
382.634	1054.38
382.86	988.38
383.085	1045.38
383.31	1080.38
383.535	1159.38
383.761	1254.38
383.986	1185.38
384.211	1116.38
384.436	1142.38
384.662	1206.38
384.887	1203.38
385.112	1146.38
385.337	1183.38
385.562	1173.38
385.787	1117.38
386.013	1156.38
386.238	1142.38
386.463	1164.38
386.688	1266.38
386.913	1294.38
387.138	1257.38
387.363	1226.38
387.588	1166.38
387.813	1201.38
388.038	1215.38
388.263	1227.38
388.488	1159.38
388.713	1054.38
388.938	1110.38
389.163	1110.38
389.387	1127.38
389.612	1135.38
389.837	1145.38
390.062	1151.38
390.287	1131.38
390.512	1128.38
390.736	1135.38
390.961	1113.38
391.186	1080.38
391.411	1094.38
391.636	1156.38
391.86	1151.38
392.085	1186.38
392.31	1146.38
392.534	1119.38
392.759	1156.38
392.984	1154.38
393.208	1193.38
393.433	1154.38
393.658	1209.38
393.882	1263.38
394.107	1156.38
394.331	1167.38
394.556	1156.38
394.78	1152.38
395.005	1214.38
395.229	1280.38
395.454	1334.38
395.678	1310.38
395.903	1243.38
396.127	1226.38
396.352	1239.38
396.576	1249.38
396.801	1258.38
397.025	1292.38
397.249	1248.38
397.474	1236.38
397.698	1229.38
397.922	1289.38
398.147	1303.38
398.371	1381.38
398.595	1353.38
398.82	1316.38
399.044	1331.38
399.268	1386.38
399.492	1474.38
399.717	1505.38
399.941	1500.38
400.165	1475.38
400.389	1463.38
400.613	1477.38
400.837	1672.38
401.062	1821.38
401.286	1523.38
401.51	1474.38
401.734	1508.38
401.958	1427.38
402.182	1330.38
402.406	1335.38
402.63	1262.38
402.854	1324.38
403.078	1318.38
403.302	1288.38
403.526	1369.38
403.75	1358.38
403.974	1396.38
404.198	1383.38
404.422	1418.38
404.645	1496.38
404.869	1449.38
405.093	1360.38
405.317	1334.38
405.541	1351.38
405.765	1370.38
405.988	1389.38
406.212	1414.38
406.436	1393.38
406.66	1500.38
406.883	1519.38
407.107	1705.38
407.331	1826.38
407.555	1930.38
407.778	1682.38
408.002	1459.38
408.226	1450.38
408.449	1439.38
408.673	1392.38
408.896	1381.38
409.12	1414.38
409.344	1379.38
409.567	1361.38
409.791	1364.38
410.014	1387.38
410.238	1491.38
410.461	1554.38
410.685	1366.38
410.908	1350.38
411.132	1357.38
411.355	1374.38
411.578	1306.38
411.802	1352.38
412.025	1379.38
412.249	1321.38
412.472	1335.38
412.695	1323.38
412.919	1294.38
413.142	1294.38
413.365	1320.38
413.589	1339.38
413.812	1426.38
414.035	1438.38
414.258	1332.38
414.482	1285.38
414.705	1351.38
414.928	1322.38
415.151	1307.38
415.374	1307.38
415.597	1365.38
415.821	1376.38
416.044	1338.38
416.267	1336.38
416.49	1263.38
416.713	1294.38
416.936	1375.38
417.159	1397.38
417.382	1361.38
417.605	1312.38
417.828	1320.38
418.051	1338.38
418.274	1308.38
418.497	1281.38
418.72	1295.38
418.943	1291.38
419.166	1347.38
419.389	1360.38
419.611	1333.38
419.834	1331.38
420.057	1329.38
420.28	1306.38
420.503	1298.38
420.726	1333.38
420.948	1323.38
421.171	1258.38
421.394	1308.38
421.617	1335.38
421.839	1339.38
422.062	1296.38
422.285	1274.38
422.507	1285.38
422.73	1231.38
422.953	1225.38
423.175	1206.38
423.398	1276.38
423.621	1303.38
423.843	1295.38
424.066	1343.38
424.288	1382.38
424.511	1438.38
424.733	1409.38
424.956	1284.38
425.178	1282.38
425.401	1272.38
425.623	1286.38
425.846	1281.38
426.068	1362.38
426.291	1314.38
426.513	1354.38
426.735	1315.38
426.958	1459.38
427.18	1499.38
427.402	1386.38
427.625	1414.38
427.847	1405.38
428.069	1303.38
428.292	1265.38
428.514	1265.38
428.736	1249.38
428.958	1280.38
429.181	1234.38
429.403	1478.38
429.625	1754.38
429.847	1488.38
430.069	1334.38
430.292	1450.38
430.514	1429.38
430.736	1368.38
430.958	1381.38
431.18	1302.38
431.402	1214.38
431.624	1204.38
431.846	1157.38
432.068	1156.38
432.29	1154.38
432.512	1205.38
432.734	1264.38
432.956	1291.38
433.178	1339.38
433.4	1329.38
433.622	1346.38
433.844	1278.38
434.066	1217.38
434.287	1210.38
434.509	1210.38
434.731	1286.38
434.953	1383.38
435.175	1360.38
435.397	1310.38
435.618	1300.38
435.84	1265.38
436.062	1256.38
436.284	1278.38
436.505	1315.38
436.727	1326.38
436.949	1259.38
437.17	1242.38
437.392	1243.38
437.614	1204.38
437.835	1165.38
438.057	1221.38
438.278	1265.38
438.5	1260.38
438.721	1251.38
438.943	1251.38
439.165	1274.38
439.386	1228.38
439.608	1290.38
439.829	1238.38
440.05	1277.38
440.272	1270.38
440.493	1270.38
440.715	1282.38
440.936	1407.38
441.158	1437.38
441.379	1401.38
441.6	1396.38
441.822	1351.38
442.043	1368.38
442.264	1299.38
442.486	1272.38
442.707	1252.38
442.928	1252.38
443.149	1262.38
443.371	1382.38
443.592	1383.38
443.813	1400.38
444.034	1363.38
444.255	1424.38
444.476	1380.38
444.698	1403.38
444.919	1369.38
445.14	1469.38
445.361	1458.38
445.582	1484.38
445.803	1423.38
446.024	1390.38
446.245	1443.38
446.466	1380.38
446.687	1329.38
446.908	1328.38
447.129	1298.38
447.35	1300.38
447.571	1320.38
447.792	1255.38
448.013	1217.38
448.234	1256.38
448.455	1322.38
448.675	1319.38
448.896	1204.38
449.117	1213.38
449.338	1216.38
449.559	1330.38
449.779	1336.38
450	1420.38
450.221	1489.38
450.442	1446.38
450.662	1296.38
450.883	1190.38
451.104	1202.38
451.324	1207.38
451.545	1246.38
451.766	1209.38
451.986	1130.38
452.207	1130.38
452.428	1095.38
452.648	1122.38
452.869	1085.38
453.089	1148.38
453.31	1164.38
453.53	1207.38
453.751	1136.38
453.971	1054.38
454.192	1086.38
454.412	1152.38
454.633	1138.38
454.853	1113.38
455.073	1066.38
455.294	1112.38
455.514	1074.38
455.734	1089.38
455.955	1112.38
456.175	1108.38
456.395	1091.38
456.616	1119.38
456.836	1085.38
457.056	1092.38
457.276	1080.38
457.497	1048.38
457.717	1022.38
457.937	1050.38
458.157	1074.38
458.377	1054.38
458.598	1008.38
458.818	1054.38
459.038	1135.38
459.258	1167.38
459.478	1130.38
459.698	1103.38
459.918	1159.38
460.138	1227.38
460.358	1236.38
460.578	1229.38
460.798	1292.38
461.018	1379.38
461.238	1322.38
461.458	1264.38
461.678	1245.38
461.898	1235.38
462.118	1210.38
462.338	1263.38
462.558	1251.38
462.777	1253.38
462.997	1330.38
463.217	1382.38
463.437	1373.38
463.657	1308.38
463.876	1238.38
464.096	1288.38
464.316	1305.38
464.536	1294.38
464.755	1316.38
464.975	1299.38
465.195	1278.38
465.414	1358.38
465.634	1310.38
465.854	1330.38
466.073	1404.38
466.293	1371.38
466.512	1234.38
466.732	1222.38
466.951	1256.38
467.171	1244.38
467.391	1196.38
467.61	1187.38
467.829	1237.38
468.049	1329.38
468.268	1478.38
468.488	1326.38
468.707	1284.38
468.927	1247.38
469.146	1228.38
469.365	1210.38
469.585	1246.38
469.804	1202.38
470.023	1261.38
470.243	1264.38
470.462	1278.38
470.681	1242.38
470.901	1213.38
471.12	1254.38
471.339	1202.38
471.558	1214.38
471.777	1198.38
471.997	1172.38
472.216	1199.38
472.435	1136.38
472.654	1163.38
472.873	1207.38
473.092	1250.38
473.311	1195.38
473.53	1182.38
473.749	1176.38
473.968	1174.38
474.187	1205.38
474.406	1229.38
474.625	1203.38
474.844	1189.38
475.063	1197.38
475.282	1224.38
475.501	1194.38
475.72	1227.38
475.939	1287.38
476.158	1278.38
476.377	1218.38
476.596	1184.38
476.814	1190.38
477.033	1232.38
477.252	1270.38
477.471	1310.38
477.69	1284.38
477.908	1283.38
478.127	1407.38
478.346	1423.38
478.564	1457.38
478.783	1421.38
479.002	1455.38
479.22	1409.38
479.439	1475.38
479.658	1594.38
479.876	1562.38
480.095	1369.38
480.313	1349.38
480.532	1309.38
480.751	1277.38
480.969	1325.38
481.188	1291.38
481.406	1237.38
481.624	1208.38
481.843	1252.38
482.061	1306.38
482.28	1353.38
482.498	1378.38
482.717	1306.38
482.935	1330.38
483.153	1364.38
483.372	1415.38
483.59	1394.38
483.808	1373.38
484.027	1378.38
484.245	1463.38
484.463	1767.38
484.681	1898.38
484.9	1497.38
485.118	1380.38
485.336	1340.38
485.554	1410.38
485.772	1376.38
485.99	1370.38
486.209	1392.38
486.427	1376.38
486.645	1421.38
486.863	1441.38
487.081	1490.38
487.299	1441.38
487.517	1460.38
487.735	1478.38
487.953	1489.38
488.171	1505.38
488.389	1498.38
488.607	1473.38
488.825	1611.38
489.043	1559.38
489.261	1412.38
489.479	1488.38
489.696	1495.38
489.914	1450.38
490.132	1418.38
490.35	1458.38
490.568	1531.38
490.786	1524.38
491.003	1476.38
491.221	1510.38
491.439	1607.38
491.657	1599.38
491.874	1661.38
492.092	1655.38
492.31	1731.38
492.527	1668.38
492.745	1590.38
492.963	1605.38
493.18	1631.38
493.398	1733.38
