Data from WStandard_LampEnergy8_LIBS07252019.E.O._I.C._HRD10591_15-58-40-929.txt Node
Date: Thu Jul 25 15:58:40 EDT 2019
User: cochatt
Spectrometer: HR+D1059
Trigger mode: 1
Integration Time (sec): 1.000000E-1
Scans to average: 1
Electric dark correction enabled: true
Nonlinearity correction enabled: false
Boxcar width: 0
XAxis mode: Wavelengths
Number of Pixels in Spectrum: 2048
>>>>>Begin Spectral Data<<<<<
223.165	-9.19
223.4	-9.19
223.635	-9.19
223.869	-19.19
224.104	-12.19
224.338	-11.19
224.573	-15.19
224.808	-16.19
225.042	-27.19
225.277	-23.19
225.511	11.81
225.746	0.81
225.98	4.81
226.215	12.81
226.449	18.81
226.683	31.81
226.918	26.81
227.152	25.81
227.387	27.81
227.621	42.81
227.856	47.81
228.09	41.81
228.324	55.81
228.559	42.81
228.793	89.81
229.027	209.81
229.262	204.81
229.496	203.81
229.73	223.81
229.964	244.81
230.199	241.81
230.433	244.81
230.667	272.81
230.901	280.81
231.136	258.81
231.37	257.81
231.604	255.81
231.838	246.81
232.072	271.81
232.306	268.81
232.541	272.81
232.775	322.81
233.009	316.81
233.243	318.81
233.477	291.81
233.711	302.81
233.945	312.81
234.179	306.81
234.413	340.81
234.647	352.81
234.881	340.81
235.115	288.81
235.349	330.81
235.583	308.81
235.817	319.81
236.051	298.81
236.285	315.81
236.519	307.81
236.753	353.81
236.987	375.81
237.221	373.81
237.455	388.81
237.689	390.81
237.922	361.81
238.156	343.81
238.39	368.81
238.624	376.81
238.858	395.81
239.091	414.81
239.325	424.81
239.559	476.81
239.793	495.81
240.027	529.81
240.26	482.81
240.494	381.81
240.728	382.81
240.961	383.81
241.195	389.81
241.429	402.81
241.662	400.81
241.896	411.81
242.13	400.81
242.363	431.81
242.597	452.81
242.83	440.81
243.064	469.81
243.298	464.81
243.531	473.81
243.765	477.81
243.998	474.81
244.232	424.81
244.465	419.81
244.699	427.81
244.932	467.81
245.166	524.81
245.399	489.81
245.633	447.81
245.866	455.81
246.099	479.81
246.333	499.81
246.566	520.81
246.8	551.81
247.033	578.81
247.266	552.81
247.5	533.81
247.733	527.81
247.966	594.81
248.2	611.81
248.433	595.81
248.666	648.81
248.899	696.81
249.133	734.81
249.366	826.81
249.599	680.81
249.832	626.81
250.066	635.81
250.299	664.81
250.532	595.81
250.765	558.81
250.998	588.81
251.231	596.81
251.465	616.81
251.698	595.81
251.931	581.81
252.164	609.81
252.397	602.81
252.63	610.81
252.863	541.81
253.096	552.81
253.329	539.81
253.562	610.81
253.795	658.81
254.028	613.81
254.261	599.81
254.494	576.81
254.727	555.81
254.96	597.81
255.193	640.81
255.426	711.81
255.659	772.81
255.892	787.81
256.124	659.81
256.357	662.81
256.59	712.81
256.823	710.81
257.056	703.81
257.289	835.81
257.521	909.81
257.754	804.81
257.987	784.81
258.22	868.81
258.452	831.81
258.685	689.81
258.918	671.81
259.151	692.81
259.383	656.81
259.616	591.81
259.849	614.81
260.081	704.81
260.314	808.81
260.547	831.81
260.779	839.81
261.012	802.81
261.244	705.81
261.477	699.81
261.71	700.81
261.942	690.81
262.175	671.81
262.407	716.81
262.64	672.81
262.872	619.81
263.105	614.81
263.337	646.81
263.57	622.81
263.802	626.81
264.035	601.81
264.267	600.81
264.499	567.81
264.732	608.81
264.964	678.81
265.197	706.81
265.429	720.81
265.661	806.81
265.894	872.81
266.126	857.81
266.358	757.81
266.591	817.81
266.823	871.81
267.055	819.81
267.287	801.81
267.52	798.81
267.752	794.81
267.984	760.81
268.216	791.81
268.448	835.81
268.681	785.81
268.913	734.81
269.145	690.81
269.377	689.81
269.609	780.81
269.841	892.81
270.073	1024.81
270.306	1119.81
270.538	1110.81
270.77	968.81
271.002	851.81
271.234	811.81
271.466	849.81
271.698	942.81
271.93	1092.81
272.162	1041.81
272.394	970.81
272.626	930.81
272.858	809.81
273.09	731.81
273.322	706.81
273.553	693.81
273.785	707.81
274.017	708.81
274.249	761.81
274.481	786.81
274.713	737.81
274.945	688.81
275.176	716.81
275.408	695.81
275.64	692.81
275.872	694.81
276.104	750.81
276.335	844.81
276.567	919.81
276.799	914.81
277.031	827.81
277.262	822.81
277.494	848.81
277.726	913.81
277.957	910.81
278.189	809.81
278.421	771.81
278.652	756.81
278.884	750.81
279.115	742.81
279.347	783.81
279.579	750.81
279.81	751.81
280.042	815.81
280.273	874.81
280.505	883.81
280.736	905.81
280.968	835.81
281.199	752.81
281.431	718.81
281.662	723.81
281.894	751.81
282.125	733.81
282.356	770.81
282.588	773.81
282.819	792.81
283.051	861.81
283.282	898.81
283.513	847.81
283.745	747.81
283.976	704.81
284.207	708.81
284.439	750.81
284.67	759.81
284.901	780.81
285.132	794.81
285.364	768.81
285.595	761.81
285.826	758.81
286.057	771.81
286.288	775.81
286.52	788.81
286.751	861.81
286.982	872.81
287.213	823.81
287.444	742.81
287.675	768.81
287.906	778.81
288.138	856.81
288.369	806.81
288.6	766.81
288.831	747.81
289.062	790.81
289.293	776.81
289.524	785.81
289.755	791.81
289.986	791.81
290.217	733.81
290.448	779.81
290.679	793.81
290.91	754.81
291.141	804.81
291.371	846.81
291.602	827.81
291.833	829.81
292.064	856.81
292.295	850.81
292.526	858.81
292.757	874.81
292.987	830.81
293.218	812.81
293.449	906.81
293.68	989.81
293.91	1014.81
294.141	937.81
294.372	942.81
294.603	956.81
294.833	980.81
295.064	935.81
295.295	837.81
295.525	816.81
295.756	748.81
295.987	743.81
296.217	753.81
296.448	774.81
296.679	784.81
296.909	776.81
297.14	781.81
297.37	810.81
297.601	849.81
297.831	903.81
298.062	906.81
298.292	822.81
298.523	786.81
298.753	803.81
298.984	814.81
299.214	840.81
299.445	824.81
299.675	883.81
299.905	818.81
300.136	800.81
300.366	769.81
300.597	763.81
300.827	790.81
301.057	802.81
301.288	842.81
301.518	851.81
301.748	894.81
301.979	924.81
302.209	922.81
302.439	1000.81
302.669	1032.81
302.9	934.81
303.13	874.81
303.36	861.81
303.59	876.81
303.82	857.81
304.051	856.81
304.281	858.81
304.511	915.81
304.741	968.81
304.971	1032.81
305.201	1080.81
305.431	952.81
305.661	832.81
305.891	758.81
306.121	774.81
306.352	808.81
306.582	865.81
306.812	908.81
307.042	981.81
307.272	984.81
307.502	1029.81
307.731	1067.81
307.961	1094.81
308.191	1035.81
308.421	907.81
308.651	849.81
308.881	836.81
309.111	824.81
309.341	829.81
309.571	834.81
309.8	839.81
310.03	821.81
310.26	824.81
310.49	826.81
310.72	860.81
310.949	889.81
311.179	867.81
311.409	878.81
311.639	880.81
311.868	863.81
312.098	822.81
312.328	864.81
312.557	836.81
312.787	877.81
313.017	851.81
313.246	883.81
313.476	874.81
313.706	892.81
313.935	883.81
314.165	923.81
314.394	947.81
314.624	978.81
314.853	1027.81
315.083	1063.81
315.312	1059.81
315.542	1006.81
315.771	910.81
316.001	933.81
316.23	968.81
316.46	931.81
316.689	924.81
316.919	904.81
317.148	875.81
317.377	890.81
317.607	982.81
317.836	1053.81
318.065	1082.81
318.295	1029.81
318.524	1014.81
318.753	976.81
318.983	948.81
319.212	938.81
319.441	924.81
319.67	901.81
319.9	958.81
320.129	1023.81
320.358	1043.81
320.587	1054.81
320.816	1062.81
321.046	1006.81
321.275	958.81
321.504	987.81
321.733	1070.81
321.962	1001.81
322.191	924.81
322.42	946.81
322.649	906.81
322.878	922.81
323.108	922.81
323.337	968.81
323.566	955.81
323.795	966.81
324.024	975.81
324.253	943.81
324.482	964.81
324.71	904.81
324.939	869.81
325.168	924.81
325.397	963.81
325.626	945.81
325.855	967.81
326.084	924.81
326.313	936.81
326.542	944.81
326.77	976.81
326.999	961.81
327.228	922.81
327.457	883.81
327.686	883.81
327.914	890.81
328.143	928.81
328.372	932.81
328.6	936.81
328.829	915.81
329.058	932.81
329.287	934.81
329.515	931.81
329.744	942.81
329.972	1027.81
330.201	1056.81
330.43	1033.81
330.658	987.81
330.887	984.81
331.115	994.81
331.344	995.81
331.572	979.81
331.801	980.81
332.03	1008.81
332.258	985.81
332.486	978.81
332.715	1017.81
332.943	1032.81
333.172	994.81
333.4	1014.81
333.629	1067.81
333.857	1103.81
334.085	1248.81
334.314	1386.81
334.542	1472.81
334.771	1306.81
334.999	1210.81
335.227	1141.81
335.455	1051.81
335.684	1063.81
335.912	1096.81
336.14	1114.81
336.369	1072.81
336.597	1031.81
336.825	1013.81
337.053	1041.81
337.281	1123.81
337.51	1141.81
337.738	1179.81
337.966	1094.81
338.194	1016.81
338.422	999.81
338.65	970.81
338.878	984.81
339.106	949.81
339.334	933.81
339.562	940.81
339.79	964.81
340.018	1031.81
340.246	1066.81
340.474	1048.81
340.702	1022.81
340.93	1049.81
341.158	1025.81
341.386	993.81
341.614	982.81
341.842	971.81
342.07	988.81
342.298	992.81
342.526	968.81
342.754	964.81
342.981	990.81
343.209	973.81
343.437	958.81
343.665	965.81
343.893	1032.81
344.12	1077.81
344.348	1067.81
344.576	993.81
344.804	982.81
345.031	1002.81
345.259	1001.81
345.487	971.81
345.714	912.81
345.942	918.81
346.17	935.81
346.397	955.81
346.625	950.81
346.853	898.81
347.08	894.81
347.308	879.81
347.535	939.81
347.763	943.81
347.99	953.81
348.218	917.81
348.445	914.81
348.673	962.81
348.9	962.81
349.128	1008.81
349.355	1030.81
349.583	1000.81
349.81	931.81
350.037	903.81
350.265	875.81
350.492	862.81
350.72	916.81
350.947	945.81
351.174	949.81
351.402	906.81
351.629	867.81
351.856	857.81
352.083	852.81
352.311	900.81
352.538	923.81
352.765	934.81
352.992	967.81
353.22	923.81
353.447	898.81
353.674	921.81
353.901	943.81
354.128	895.81
354.355	936.81
354.583	951.81
354.81	982.81
355.037	985.81
355.264	980.81
355.491	962.81
355.718	948.81
355.945	917.81
356.172	919.81
356.399	883.81
356.626	899.81
356.853	946.81
357.08	1051.81
357.307	1109.81
357.534	1077.81
357.761	944.81
357.988	893.81
358.215	886.81
358.441	896.81
358.668	866.81
358.895	910.81
359.122	977.81
359.349	1062.81
359.576	999.81
359.802	951.81
360.029	907.81
360.256	894.81
360.483	903.81
360.709	935.81
360.936	993.81
361.163	1042.81
361.39	1112.81
361.616	1131.81
361.843	1156.81
362.07	1033.81
362.296	930.81
362.523	918.81
362.749	909.81
362.976	957.81
363.203	955.81
363.429	916.81
363.656	884.81
363.882	967.81
364.109	1069.81
364.335	1105.81
364.562	1026.81
364.788	974.81
365.015	955.81
365.241	922.81
365.468	953.81
365.694	963.81
365.92	995.81
366.147	951.81
366.373	934.81
366.599	906.81
366.826	891.81
367.052	899.81
367.278	934.81
367.505	944.81
367.731	963.81
367.957	958.81
368.184	1033.81
368.41	1059.81
368.636	1058.81
368.862	1077.81
369.089	1058.81
369.315	1036.81
369.541	996.81
369.767	935.81
369.993	956.81
370.219	933.81
370.445	994.81
370.672	1042.81
370.898	1063.81
371.124	1044.81
371.35	1004.81
371.576	1050.81
371.802	1066.81
372.028	1011.81
372.254	950.81
372.48	939.81
372.706	933.81
372.932	950.81
373.158	971.81
373.384	974.81
373.61	1026.81
373.835	1037.81
374.061	970.81
374.287	995.81
374.513	1008.81
374.739	996.81
374.965	1000.81
375.191	1012.81
375.416	1003.81
375.642	1054.81
375.868	1090.81
376.094	1107.81
376.319	1051.81
376.545	996.81
376.771	1066.81
376.997	1140.81
377.222	1070.81
377.448	1032.81
377.674	1062.81
377.899	1074.81
378.125	1101.81
378.35	1079.81
378.576	970.81
378.802	965.81
379.027	983.81
379.253	967.81
379.478	970.81
379.704	1011.81
379.929	959.81
380.155	977.81
380.38	1014.81
380.606	1023.81
380.831	1007.81
381.057	1057.81
381.282	1072.81
381.507	1049.81
381.733	1137.81
381.958	1169.81
382.184	1039.81
382.409	1032.81
382.634	1045.81
382.86	1042.81
383.085	1045.81
383.31	1071.81
383.535	1196.81
383.761	1244.81
383.986	1194.81
384.211	1144.81
384.436	1155.81
384.662	1170.81
384.887	1233.81
385.112	1135.81
385.337	1137.81
385.562	1130.81
385.787	1147.81
386.013	1182.81
386.238	1146.81
386.463	1176.81
386.688	1257.81
386.913	1312.81
387.138	1260.81
387.363	1176.81
387.588	1187.81
387.813	1175.81
388.038	1178.81
388.263	1216.81
388.488	1152.81
388.713	1087.81
388.938	1066.81
389.163	1104.81
389.387	1120.81
389.612	1128.81
389.837	1116.81
390.062	1142.81
390.287	1164.81
390.512	1123.81
390.736	1107.81
390.961	1124.81
391.186	1065.81
391.411	1073.81
391.636	1136.81
391.86	1115.81
392.085	1113.81
392.31	1123.81
392.534	1112.81
392.759	1143.81
392.984	1162.81
393.208	1164.81
393.433	1193.81
393.658	1249.81
393.882	1229.81
394.107	1152.81
394.331	1156.81
394.556	1161.81
394.78	1183.81
395.005	1185.81
395.229	1247.81
395.454	1274.81
395.678	1253.81
395.903	1236.81
396.127	1222.81
396.352	1216.81
396.576	1223.81
396.801	1244.81
397.025	1248.81
397.249	1224.81
397.474	1224.81
397.698	1220.81
397.922	1299.81
398.147	1323.81
398.371	1376.81
398.595	1353.81
398.82	1292.81
399.044	1304.81
399.268	1375.81
399.492	1470.81
399.717	1480.81
399.941	1488.81
400.165	1461.81
400.389	1457.81
400.613	1448.81
400.837	1660.81
401.062	1857.81
401.286	1532.81
401.51	1473.81
401.734	1494.81
401.958	1458.81
402.182	1342.81
402.406	1290.81
402.63	1290.81
402.854	1329.81
403.078	1280.81
403.302	1332.81
403.526	1332.81
403.75	1370.81
403.974	1388.81
404.198	1352.81
404.422	1418.81
404.645	1489.81
404.869	1480.81
405.093	1318.81
405.317	1338.81
405.541	1341.81
405.765	1379.81
405.988	1371.81
406.212	1378.81
406.436	1439.81
406.66	1458.81
406.883	1506.81
407.107	1682.81
407.331	1831.81
407.555	1894.81
407.778	1722.81
408.002	1452.81
408.226	1434.81
408.449	1426.81
408.673	1365.81
408.896	1369.81
409.12	1385.81
409.344	1374.81
409.567	1331.81
409.791	1360.81
410.014	1403.81
410.238	1501.81
410.461	1564.81
410.685	1374.81
410.908	1398.81
411.132	1396.81
411.355	1371.81
411.578	1332.81
411.802	1340.81
412.025	1351.81
412.249	1302.81
412.472	1283.81
412.695	1315.81
412.919	1300.81
413.142	1299.81
413.365	1289.81
413.589	1363.81
413.812	1459.81
414.035	1460.81
414.258	1344.81
414.482	1302.81
414.705	1317.81
414.928	1291.81
415.151	1321.81
415.374	1307.81
415.597	1338.81
415.821	1338.81
416.044	1358.81
416.267	1340.81
416.49	1287.81
416.713	1285.81
416.936	1292.81
417.159	1388.81
417.382	1394.81
417.605	1319.81
417.828	1349.81
418.051	1329.81
418.274	1307.81
418.497	1281.81
418.72	1269.81
418.943	1289.81
419.166	1330.81
419.389	1373.81
419.611	1302.81
419.834	1310.81
420.057	1307.81
420.28	1299.81
420.503	1294.81
420.726	1373.81
420.948	1307.81
421.171	1269.81
421.394	1293.81
421.617	1332.81
421.839	1313.81
422.062	1323.81
422.285	1299.81
422.507	1292.81
422.73	1246.81
422.953	1219.81
423.175	1201.81
423.398	1263.81
423.621	1253.81
423.843	1288.81
424.066	1336.81
424.288	1394.81
424.511	1421.81
424.733	1365.81
424.956	1262.81
425.178	1262.81
425.401	1283.81
425.623	1259.81
425.846	1231.81
426.068	1331.81
426.291	1326.81
426.513	1339.81
426.735	1319.81
426.958	1432.81
427.18	1524.81
427.402	1396.81
427.625	1431.81
427.847	1392.81
428.069	1272.81
428.292	1262.81
428.514	1227.81
428.736	1212.81
428.958	1263.81
429.181	1288.81
429.403	1491.81
429.625	1786.81
429.847	1475.81
430.069	1307.81
430.292	1420.81
430.514	1472.81
430.736	1324.81
430.958	1368.81
431.18	1302.81
431.402	1226.81
431.624	1214.81
431.846	1183.81
432.068	1152.81
432.29	1164.81
432.512	1183.81
432.734	1284.81
432.956	1298.81
433.178	1352.81
433.4	1303.81
433.622	1310.81
433.844	1251.81
434.066	1215.81
434.287	1214.81
434.509	1215.81
434.731	1259.81
434.953	1396.81
435.175	1324.81
435.397	1262.81
435.618	1258.81
435.84	1236.81
436.062	1244.81
436.284	1281.81
436.505	1310.81
436.727	1320.81
436.949	1282.81
437.17	1223.81
437.392	1239.81
437.614	1238.81
437.835	1182.81
438.057	1254.81
438.278	1270.81
438.5	1222.81
438.721	1244.81
438.943	1240.81
439.165	1255.81
439.386	1211.81
439.608	1252.81
439.829	1253.81
440.05	1247.81
440.272	1258.81
440.493	1264.81
440.715	1242.81
440.936	1346.81
441.158	1443.81
441.379	1410.81
441.6	1368.81
441.822	1336.81
442.043	1336.81
442.264	1339.81
442.486	1271.81
442.707	1240.81
442.928	1244.81
443.149	1295.81
443.371	1370.81
443.592	1363.81
443.813	1373.81
444.034	1342.81
444.255	1384.81
444.476	1400.81
444.698	1424.81
444.919	1402.81
445.14	1516.81
445.361	1473.81
445.582	1484.81
445.803	1429.81
446.024	1375.81
446.245	1437.81
446.466	1396.81
446.687	1338.81
446.908	1328.81
447.129	1311.81
447.35	1314.81
447.571	1309.81
447.792	1278.81
448.013	1225.81
448.234	1283.81
448.455	1306.81
448.675	1320.81
448.896	1227.81
449.117	1232.81
449.338	1251.81
449.559	1282.81
449.779	1340.81
450	1463.81
450.221	1490.81
450.442	1396.81
450.662	1276.81
450.883	1171.81
451.104	1187.81
451.324	1201.81
451.545	1213.81
451.766	1180.81
451.986	1152.81
452.207	1141.81
452.428	1099.81
452.648	1124.81
452.869	1117.81
453.089	1172.81
453.31	1137.81
453.53	1150.81
453.751	1127.81
453.971	1037.81
454.192	1088.81
454.412	1165.81
454.633	1188.81
454.853	1138.81
455.073	1081.81
455.294	1059.81
455.514	1059.81
455.734	1067.81
455.955	1091.81
456.175	1066.81
456.395	1096.81
456.616	1089.81
456.836	1082.81
457.056	1078.81
457.276	1062.81
457.497	1017.81
457.717	1016.81
457.937	1040.81
458.157	1062.81
458.377	1091.81
458.598	1040.81
458.818	1034.81
459.038	1108.81
459.258	1114.81
459.478	1113.81
459.698	1107.81
459.918	1148.81
460.138	1207.81
460.358	1223.81
460.578	1269.81
460.798	1310.81
461.018	1339.81
461.238	1305.81
461.458	1278.81
461.678	1258.81
461.898	1235.81
462.118	1200.81
462.338	1278.81
462.558	1274.81
462.777	1263.81
462.997	1315.81
463.217	1375.81
463.437	1367.81
463.657	1263.81
463.876	1257.81
464.096	1270.81
464.316	1285.81
464.536	1306.81
464.755	1288.81
464.975	1300.81
465.195	1252.81
465.414	1331.81
465.634	1314.81
465.854	1321.81
466.073	1371.81
466.293	1365.81
466.512	1175.81
466.732	1202.81
466.951	1242.81
467.171	1255.81
467.391	1194.81
467.61	1194.81
467.829	1219.81
468.049	1347.81
468.268	1483.81
468.488	1384.81
468.707	1290.81
468.927	1259.81
469.146	1251.81
469.365	1190.81
469.585	1219.81
469.804	1227.81
470.023	1248.81
470.243	1243.81
470.462	1235.81
470.681	1208.81
470.901	1225.81
471.12	1228.81
471.339	1231.81
471.558	1227.81
471.777	1199.81
471.997	1207.81
472.216	1215.81
472.435	1119.81
472.654	1116.81
472.873	1149.81
473.092	1242.81
473.311	1164.81
473.53	1142.81
473.749	1135.81
473.968	1188.81
474.187	1209.81
474.406	1250.81
474.625	1224.81
474.844	1205.81
475.063	1211.81
475.282	1235.81
475.501	1205.81
475.72	1212.81
475.939	1278.81
476.158	1234.81
476.377	1222.81
476.596	1211.81
476.814	1219.81
477.033	1236.81
477.252	1284.81
477.471	1288.81
477.69	1282.81
477.908	1263.81
478.127	1349.81
478.346	1399.81
478.564	1423.81
478.783	1410.81
479.002	1458.81
479.22	1420.81
479.439	1457.81
479.658	1578.81
479.876	1534.81
480.095	1353.81
480.313	1342.81
480.532	1307.81
480.751	1322.81
480.969	1332.81
481.188	1269.81
481.406	1286.81
481.624	1202.81
481.843	1264.81
482.061	1277.81
482.28	1343.81
482.498	1357.81
482.717	1295.81
482.935	1293.81
483.153	1337.81
483.372	1356.81
483.59	1348.81
483.808	1327.81
484.027	1383.81
484.245	1462.81
484.463	1739.81
484.681	1886.81
484.9	1468.81
485.118	1347.81
485.336	1347.81
485.554	1370.81
485.772	1418.81
485.99	1386.81
486.209	1390.81
486.427	1406.81
486.645	1394.81
486.863	1432.81
487.081	1453.81
487.299	1443.81
487.517	1451.81
487.735	1480.81
487.953	1502.81
488.171	1514.81
488.389	1473.81
488.607	1442.81
488.825	1604.81
489.043	1526.81
489.261	1402.81
489.479	1514.81
489.696	1496.81
489.914	1473.81
490.132	1428.81
490.35	1466.81
490.568	1532.81
490.786	1488.81
491.003	1471.81
491.221	1540.81
491.439	1602.81
491.657	1605.81
491.874	1590.81
492.092	1686.81
492.31	1695.81
492.527	1662.81
492.745	1625.81
492.963	1589.81
493.18	1620.81
493.398	1689.81
