Data from WStandard_LampEnergy8_LIBS07252019.E.O._I.C._HRD10591_15-58-26-929.txt Node
Date: Thu Jul 25 15:58:26 EDT 2019
User: cochatt
Spectrometer: HR+D1059
Trigger mode: 1
Integration Time (sec): 1.000000E-1
Scans to average: 1
Electric dark correction enabled: true
Nonlinearity correction enabled: false
Boxcar width: 0
XAxis mode: Wavelengths
Number of Pixels in Spectrum: 2048
>>>>>Begin Spectral Data<<<<<
223.165	-17.44
223.4	-17.44
223.635	-17.44
223.869	-12.44
224.104	-24.44
224.338	-20.44
224.573	-21.44
224.808	-8.44
225.042	-20.44
225.277	-14.44
225.511	2.56
225.746	14.56
225.98	9.56
226.215	3.56
226.449	15.56
226.683	25.56
226.918	33.56
227.152	34.56
227.387	28.56
227.621	43.56
227.856	50.56
228.09	46.56
228.324	50.56
228.559	49.56
228.793	98.56
229.027	196.56
229.262	199.56
229.496	218.56
229.73	238.56
229.964	218.56
230.199	247.56
230.433	274.56
230.667	274.56
230.901	292.56
231.136	262.56
231.37	262.56
231.604	232.56
231.838	247.56
232.072	272.56
232.306	260.56
232.541	282.56
232.775	300.56
233.009	302.56
233.243	292.56
233.477	287.56
233.711	288.56
233.945	313.56
234.179	294.56
234.413	331.56
234.647	338.56
234.881	321.56
235.115	297.56
235.349	302.56
235.583	303.56
235.817	304.56
236.051	284.56
236.285	316.56
236.519	335.56
236.753	361.56
236.987	359.56
237.221	354.56
237.455	388.56
237.689	367.56
237.922	343.56
238.156	338.56
238.39	354.56
238.624	362.56
238.858	405.56
239.091	400.56
239.325	424.56
239.559	460.56
239.793	487.56
240.027	516.56
240.26	482.56
240.494	383.56
240.728	373.56
240.961	384.56
241.195	391.56
241.429	426.56
241.662	416.56
241.896	382.56
242.13	386.56
242.363	454.56
242.597	469.56
242.83	457.56
243.064	473.56
243.298	476.56
243.531	475.56
243.765	462.56
243.998	471.56
244.232	408.56
244.465	393.56
244.699	420.56
244.932	479.56
245.166	543.56
245.399	501.56
245.633	479.56
245.866	445.56
246.099	451.56
246.333	473.56
246.566	496.56
246.8	530.56
247.033	568.56
247.266	536.56
247.5	542.56
247.733	562.56
247.966	562.56
248.2	614.56
248.433	598.56
248.666	627.56
248.899	675.56
249.133	744.56
249.366	824.56
249.599	664.56
249.832	608.56
250.066	628.56
250.299	636.56
250.532	600.56
250.765	550.56
250.998	549.56
251.231	583.56
251.465	605.56
251.698	569.56
251.931	589.56
252.164	592.56
252.397	610.56
252.63	588.56
252.863	540.56
253.096	536.56
253.329	578.56
253.562	562.56
253.795	621.56
254.028	614.56
254.261	576.56
254.494	563.56
254.727	560.56
254.96	606.56
255.193	639.56
255.426	722.56
255.659	786.56
255.892	771.56
256.124	660.56
256.357	683.56
256.59	690.56
256.823	710.56
257.056	733.56
257.289	851.56
257.521	869.56
257.754	790.56
257.987	795.56
258.22	847.56
258.452	802.56
258.685	694.56
258.918	658.56
259.151	645.56
259.383	645.56
259.616	586.56
259.849	614.56
260.081	691.56
260.314	779.56
260.547	802.56
260.779	832.56
261.012	772.56
261.244	709.56
261.477	658.56
261.71	694.56
261.942	705.56
262.175	678.56
262.407	705.56
262.64	662.56
262.872	628.56
263.105	588.56
263.337	648.56
263.57	641.56
263.802	642.56
264.035	601.56
264.267	558.56
264.499	558.56
264.732	625.56
264.964	662.56
265.197	680.56
265.429	713.56
265.661	793.56
265.894	850.56
266.126	853.56
266.358	800.56
266.591	828.56
266.823	864.56
267.055	791.56
267.287	794.56
267.52	758.56
267.752	724.56
267.984	780.56
268.216	819.56
268.448	821.56
268.681	795.56
268.913	724.56
269.145	687.56
269.377	690.56
269.609	767.56
269.841	878.56
270.073	1000.56
270.306	1083.56
270.538	1092.56
270.77	969.56
271.002	859.56
271.234	825.56
271.466	814.56
271.698	924.56
271.93	1065.56
272.162	1040.56
272.394	953.56
272.626	917.56
272.858	806.56
273.09	725.56
273.322	713.56
273.553	680.56
273.785	696.56
274.017	712.56
274.249	755.56
274.481	755.56
274.713	707.56
274.945	707.56
275.176	727.56
275.408	715.56
275.64	691.56
275.872	714.56
276.104	735.56
276.335	798.56
276.567	920.56
276.799	922.56
277.031	818.56
277.262	797.56
277.494	831.56
277.726	905.56
277.957	881.56
278.189	822.56
278.421	744.56
278.652	724.56
278.884	742.56
279.115	719.56
279.347	756.56
279.579	711.56
279.81	734.56
280.042	818.56
280.273	856.56
280.505	880.56
280.736	882.56
280.968	820.56
281.199	728.56
281.431	729.56
281.662	704.56
281.894	726.56
282.125	711.56
282.356	773.56
282.588	770.56
282.819	791.56
283.051	834.56
283.282	915.56
283.513	874.56
283.745	780.56
283.976	715.56
284.207	716.56
284.439	750.56
284.67	743.56
284.901	785.56
285.132	744.56
285.364	779.56
285.595	760.56
285.826	772.56
286.057	780.56
286.288	752.56
286.52	790.56
286.751	861.56
286.982	862.56
287.213	778.56
287.444	753.56
287.675	760.56
287.906	798.56
288.138	851.56
288.369	808.56
288.6	739.56
288.831	728.56
289.062	736.56
289.293	763.56
289.524	764.56
289.755	794.56
289.986	800.56
290.217	749.56
290.448	781.56
290.679	775.56
290.91	798.56
291.141	814.56
291.371	807.56
291.602	839.56
291.833	830.56
292.064	850.56
292.295	824.56
292.526	871.56
292.757	863.56
292.987	843.56
293.218	837.56
293.449	891.56
293.68	1000.56
293.91	1017.56
294.141	942.56
294.372	934.56
294.603	952.56
294.833	979.56
295.064	926.56
295.295	830.56
295.525	801.56
295.756	754.56
295.987	742.56
296.217	736.56
296.448	788.56
296.679	772.56
296.909	788.56
297.14	775.56
297.37	800.56
297.601	848.56
297.831	911.56
298.062	886.56
298.292	849.56
298.523	784.56
298.753	800.56
298.984	807.56
299.214	802.56
299.445	840.56
299.675	871.56
299.905	827.56
300.136	802.56
300.366	805.56
300.597	766.56
300.827	764.56
301.057	833.56
301.288	843.56
301.518	834.56
301.748	874.56
301.979	903.56
302.209	946.56
302.439	980.56
302.669	1019.56
302.9	932.56
303.13	855.56
303.36	877.56
303.59	888.56
303.82	860.56
304.051	898.56
304.281	889.56
304.511	908.56
304.741	948.56
304.971	1059.56
305.201	1074.56
305.431	960.56
305.661	825.56
305.891	754.56
306.121	774.56
306.352	790.56
306.582	847.56
306.812	914.56
307.042	982.56
307.272	962.56
307.502	978.56
307.731	1097.56
307.961	1115.56
308.191	992.56
308.421	885.56
308.651	843.56
308.881	835.56
309.111	834.56
309.341	830.56
309.571	840.56
309.8	827.56
310.03	829.56
310.26	834.56
310.49	844.56
310.72	866.56
310.949	883.56
311.179	902.56
311.409	843.56
311.639	819.56
311.868	825.56
312.098	859.56
312.328	857.56
312.557	851.56
312.787	864.56
313.017	881.56
313.246	868.56
313.476	890.56
313.706	900.56
313.935	864.56
314.165	898.56
314.394	934.56
314.624	990.56
314.853	1048.56
315.083	1056.56
315.312	1056.56
315.542	960.56
315.771	894.56
316.001	942.56
316.23	992.56
316.46	989.56
316.689	926.56
316.919	886.56
317.148	892.56
317.377	910.56
317.607	986.56
317.836	1066.56
318.065	1097.56
318.295	1027.56
318.524	1016.56
318.753	974.56
318.983	934.56
319.212	944.56
319.441	931.56
319.67	924.56
319.9	949.56
320.129	1023.56
320.358	1026.56
320.587	1022.56
320.816	1040.56
321.046	1047.56
321.275	971.56
321.504	968.56
321.733	1062.56
321.962	982.56
322.191	939.56
322.42	965.56
322.649	938.56
322.878	924.56
323.108	942.56
323.337	971.56
323.566	988.56
323.795	998.56
324.024	967.56
324.253	964.56
324.482	950.56
324.71	902.56
324.939	894.56
325.168	911.56
325.397	920.56
325.626	954.56
325.855	956.56
326.084	924.56
326.313	937.56
326.542	972.56
326.77	990.56
326.999	998.56
327.228	906.56
327.457	886.56
327.686	886.56
327.914	913.56
328.143	920.56
328.372	937.56
328.6	945.56
328.829	940.56
329.058	916.56
329.287	920.56
329.515	936.56
329.744	957.56
329.972	999.56
330.201	1033.56
330.43	993.56
330.658	991.56
330.887	1024.56
331.115	1015.56
331.344	1012.56
331.572	995.56
331.801	1004.56
332.03	984.56
332.258	1012.56
332.486	1023.56
332.715	1032.56
332.943	1006.56
333.172	983.56
333.4	1020.56
333.629	1032.56
333.857	1092.56
334.085	1239.56
334.314	1391.56
334.542	1435.56
334.771	1305.56
334.999	1152.56
335.227	1096.56
335.455	1056.56
335.684	1069.56
335.912	1106.56
336.14	1118.56
336.369	1106.56
336.597	1037.56
336.825	1000.56
337.053	1051.56
337.281	1134.56
337.51	1140.56
337.738	1171.56
337.966	1091.56
338.194	1004.56
338.422	968.56
338.65	1001.56
338.878	954.56
339.106	954.56
339.334	942.56
339.562	944.56
339.79	962.56
340.018	1064.56
340.246	1067.56
340.474	1074.56
340.702	1019.56
340.93	1024.56
341.158	993.56
341.386	1031.56
341.614	1011.56
341.842	1000.56
342.07	1004.56
342.298	994.56
342.526	993.56
342.754	1029.56
342.981	992.56
343.209	966.56
343.437	972.56
343.665	1012.56
343.893	1005.56
344.12	1066.56
344.348	1067.56
344.576	1004.56
344.804	957.56
345.031	1016.56
345.259	1022.56
345.487	950.56
345.714	932.56
345.942	907.56
346.17	953.56
346.397	927.56
346.625	953.56
346.853	904.56
347.08	882.56
347.308	931.56
347.535	938.56
347.763	930.56
347.99	948.56
348.218	919.56
348.445	937.56
348.673	942.56
348.9	976.56
349.128	970.56
349.355	996.56
349.583	1025.56
349.81	935.56
350.037	922.56
350.265	888.56
350.492	896.56
350.72	895.56
350.947	974.56
351.174	943.56
351.402	912.56
351.629	855.56
351.856	864.56
352.083	851.56
352.311	879.56
352.538	897.56
352.765	961.56
352.992	964.56
353.22	900.56
353.447	915.56
353.674	919.56
353.901	922.56
354.128	899.56
354.355	935.56
354.583	942.56
354.81	969.56
355.037	962.56
355.264	955.56
355.491	927.56
355.718	939.56
355.945	916.56
356.172	907.56
356.399	870.56
356.626	920.56
356.853	958.56
357.08	1065.56
357.307	1140.56
357.534	1091.56
357.761	1001.56
357.988	897.56
358.215	880.56
358.441	896.56
358.668	898.56
358.895	888.56
359.122	994.56
359.349	1054.56
359.576	991.56
359.802	914.56
360.029	915.56
360.256	890.56
360.483	896.56
360.709	946.56
360.936	987.56
361.163	994.56
361.39	1127.56
361.616	1164.56
361.843	1160.56
362.07	1063.56
362.296	937.56
362.523	926.56
362.749	942.56
362.976	948.56
363.203	987.56
363.429	938.56
363.656	925.56
363.882	964.56
364.109	1063.56
364.335	1095.56
364.562	997.56
364.788	992.56
365.015	921.56
365.241	927.56
365.468	957.56
365.694	960.56
365.92	1001.56
366.147	952.56
366.373	926.56
366.599	902.56
366.826	899.56
367.052	907.56
367.278	935.56
367.505	950.56
367.731	983.56
367.957	966.56
368.184	1007.56
368.41	1068.56
368.636	1083.56
368.862	1084.56
369.089	1097.56
369.315	1027.56
369.541	1013.56
369.767	940.56
369.993	925.56
370.219	945.56
370.445	1000.56
370.672	1030.56
370.898	1045.56
371.124	1031.56
371.35	980.56
371.576	1046.56
371.802	1081.56
372.028	1006.56
372.254	968.56
372.48	914.56
372.706	953.56
372.932	946.56
373.158	940.56
373.384	991.56
373.61	1007.56
373.835	1058.56
374.061	1035.56
374.287	991.56
374.513	1003.56
374.739	996.56
374.965	1000.56
375.191	1020.56
375.416	1025.56
375.642	1032.56
375.868	1094.56
376.094	1123.56
376.319	1059.56
376.545	1001.56
376.771	1048.56
376.997	1109.56
377.222	1058.56
377.448	1019.56
377.674	1040.56
377.899	1052.56
378.125	1139.56
378.35	1046.56
378.576	979.56
378.802	949.56
379.027	956.56
379.253	991.56
379.478	1006.56
379.704	980.56
379.929	1018.56
380.155	1003.56
380.38	1054.56
380.606	1026.56
380.831	1044.56
381.057	1093.56
381.282	1097.56
381.507	1048.56
381.733	1135.56
381.958	1158.56
382.184	1049.56
382.409	1026.56
382.634	1036.56
382.86	1044.56
383.085	1075.56
383.31	1073.56
383.535	1177.56
383.761	1254.56
383.986	1189.56
384.211	1138.56
384.436	1136.56
384.662	1183.56
384.887	1231.56
385.112	1147.56
385.337	1164.56
385.562	1137.56
385.787	1151.56
386.013	1168.56
386.238	1180.56
386.463	1219.56
386.688	1247.56
386.913	1299.56
387.138	1263.56
387.363	1200.56
387.588	1169.56
387.813	1174.56
388.038	1211.56
388.263	1243.56
388.488	1166.56
388.713	1110.56
388.938	1076.56
389.163	1106.56
389.387	1135.56
389.612	1100.56
389.837	1152.56
390.062	1155.56
390.287	1174.56
390.512	1144.56
390.736	1136.56
390.961	1110.56
391.186	1072.56
391.411	1130.56
391.636	1158.56
391.86	1145.56
392.085	1143.56
392.31	1110.56
392.534	1150.56
392.759	1141.56
392.984	1163.56
393.208	1150.56
393.433	1185.56
393.658	1241.56
393.882	1212.56
394.107	1146.56
394.331	1119.56
394.556	1160.56
394.78	1164.56
395.005	1202.56
395.229	1239.56
395.454	1323.56
395.678	1327.56
395.903	1217.56
396.127	1210.56
396.352	1248.56
396.576	1260.56
396.801	1247.56
397.025	1260.56
397.249	1232.56
397.474	1223.56
397.698	1232.56
397.922	1298.56
398.147	1351.56
398.371	1351.56
398.595	1374.56
398.82	1334.56
399.044	1329.56
399.268	1398.56
399.492	1458.56
399.717	1483.56
399.941	1512.56
400.165	1494.56
400.389	1457.56
400.613	1490.56
400.837	1665.56
401.062	1831.56
401.286	1538.56
401.51	1438.56
401.734	1462.56
401.958	1424.56
402.182	1338.56
402.406	1330.56
402.63	1292.56
402.854	1251.56
403.078	1318.56
403.302	1377.56
403.526	1353.56
403.75	1397.56
403.974	1394.56
404.198	1386.56
404.422	1420.56
404.645	1495.56
404.869	1443.56
405.093	1338.56
405.317	1302.56
405.541	1356.56
405.765	1372.56
405.988	1314.56
406.212	1399.56
406.436	1424.56
406.66	1454.56
406.883	1531.56
407.107	1670.56
407.331	1851.56
407.555	1912.56
407.778	1673.56
408.002	1440.56
408.226	1426.56
408.449	1430.56
408.673	1403.56
408.896	1402.56
409.12	1410.56
409.344	1390.56
409.567	1354.56
409.791	1382.56
410.014	1413.56
410.238	1493.56
410.461	1549.56
410.685	1407.56
410.908	1342.56
411.132	1385.56
411.355	1345.56
411.578	1356.56
411.802	1381.56
412.025	1388.56
412.249	1330.56
412.472	1317.56
412.695	1312.56
412.919	1353.56
413.142	1298.56
413.365	1346.56
413.589	1371.56
413.812	1453.56
414.035	1454.56
414.258	1365.56
414.482	1305.56
414.705	1304.56
414.928	1338.56
415.151	1314.56
415.374	1304.56
415.597	1331.56
415.821	1314.56
416.044	1394.56
416.267	1354.56
416.49	1300.56
416.713	1265.56
416.936	1326.56
417.159	1395.56
417.382	1375.56
417.605	1312.56
417.828	1332.56
418.051	1330.56
418.274	1330.56
418.497	1279.56
418.72	1306.56
418.943	1285.56
419.166	1316.56
419.389	1391.56
419.611	1310.56
419.834	1321.56
420.057	1306.56
420.28	1264.56
420.503	1304.56
420.726	1334.56
420.948	1330.56
421.171	1279.56
421.394	1287.56
421.617	1321.56
421.839	1354.56
422.062	1389.56
422.285	1312.56
422.507	1294.56
422.73	1271.56
422.953	1218.56
423.175	1247.56
423.398	1290.56
423.621	1273.56
423.843	1316.56
424.066	1357.56
424.288	1394.56
424.511	1430.56
424.733	1395.56
424.956	1234.56
425.178	1251.56
425.401	1257.56
425.623	1268.56
425.846	1272.56
426.068	1354.56
426.291	1359.56
426.513	1308.56
426.735	1346.56
426.958	1458.56
427.18	1508.56
427.402	1367.56
427.625	1448.56
427.847	1378.56
428.069	1285.56
428.292	1266.56
428.514	1227.56
428.736	1240.56
428.958	1242.56
429.181	1280.56
429.403	1505.56
429.625	1802.56
429.847	1491.56
430.069	1318.56
430.292	1461.56
430.514	1464.56
430.736	1369.56
430.958	1353.56
431.18	1324.56
431.402	1201.56
431.624	1207.56
431.846	1216.56
432.068	1171.56
432.29	1186.56
432.512	1205.56
432.734	1246.56
432.956	1283.56
433.178	1338.56
433.4	1322.56
433.622	1293.56
433.844	1278.56
434.066	1220.56
434.287	1210.56
434.509	1188.56
434.731	1301.56
434.953	1365.56
435.175	1333.56
435.397	1302.56
435.618	1255.56
435.84	1245.56
436.062	1244.56
436.284	1266.56
436.505	1304.56
436.727	1325.56
436.949	1292.56
437.17	1236.56
437.392	1248.56
437.614	1200.56
437.835	1195.56
438.057	1235.56
438.278	1232.56
438.5	1250.56
438.721	1248.56
438.943	1236.56
439.165	1259.56
439.386	1253.56
439.608	1292.56
439.829	1233.56
440.05	1265.56
440.272	1276.56
440.493	1241.56
440.715	1294.56
440.936	1344.56
441.158	1474.56
441.379	1391.56
441.6	1386.56
441.822	1357.56
442.043	1396.56
442.264	1330.56
442.486	1292.56
442.707	1241.56
442.928	1282.56
443.149	1274.56
443.371	1376.56
443.592	1412.56
443.813	1392.56
444.034	1362.56
444.255	1374.56
444.476	1390.56
444.698	1390.56
444.919	1420.56
445.14	1513.56
445.361	1503.56
445.582	1506.56
445.803	1420.56
446.024	1354.56
446.245	1403.56
446.466	1374.56
446.687	1376.56
446.908	1388.56
447.129	1307.56
447.35	1313.56
447.571	1275.56
447.792	1280.56
448.013	1243.56
448.234	1300.56
448.455	1319.56
448.675	1343.56
448.896	1235.56
449.117	1205.56
449.338	1243.56
449.559	1310.56
449.779	1328.56
450	1436.56
450.221	1503.56
450.442	1441.56
450.662	1340.56
450.883	1163.56
451.104	1191.56
451.324	1196.56
451.545	1230.56
451.766	1186.56
451.986	1161.56
452.207	1137.56
452.428	1098.56
452.648	1111.56
452.869	1135.56
453.089	1157.56
453.31	1147.56
453.53	1152.56
453.751	1112.56
453.971	1042.56
454.192	1090.56
454.412	1161.56
454.633	1119.56
454.853	1119.56
455.073	1081.56
455.294	1086.56
455.514	1067.56
455.734	1066.56
455.955	1088.56
456.175	1078.56
456.395	1085.56
456.616	1114.56
456.836	1102.56
457.056	1063.56
457.276	1085.56
457.497	1058.56
457.717	1055.56
457.937	1033.56
458.157	1079.56
458.377	1035.56
458.598	1027.56
458.818	1042.56
459.038	1147.56
459.258	1154.56
459.478	1184.56
459.698	1113.56
459.918	1175.56
460.138	1230.56
460.358	1272.56
460.578	1238.56
460.798	1281.56
461.018	1355.56
461.238	1344.56
461.458	1303.56
461.678	1245.56
461.898	1230.56
462.118	1225.56
462.338	1263.56
462.558	1270.56
462.777	1291.56
462.997	1334.56
463.217	1395.56
463.437	1379.56
463.657	1306.56
463.876	1293.56
464.096	1257.56
464.316	1239.56
464.536	1350.56
464.755	1338.56
464.975	1343.56
465.195	1259.56
465.414	1328.56
465.634	1314.56
465.854	1302.56
466.073	1383.56
466.293	1348.56
466.512	1220.56
466.732	1216.56
466.951	1291.56
467.171	1250.56
467.391	1192.56
467.61	1178.56
467.829	1221.56
468.049	1352.56
468.268	1458.56
468.488	1329.56
468.707	1248.56
468.927	1228.56
469.146	1200.56
469.365	1233.56
469.585	1292.56
469.804	1233.56
470.023	1250.56
470.243	1247.56
470.462	1240.56
470.681	1214.56
470.901	1258.56
471.12	1239.56
471.339	1237.56
471.558	1218.56
471.777	1181.56
471.997	1206.56
472.216	1191.56
472.435	1142.56
472.654	1140.56
472.873	1153.56
473.092	1204.56
473.311	1198.56
473.53	1135.56
473.749	1166.56
473.968	1218.56
474.187	1206.56
474.406	1226.56
474.625	1212.56
474.844	1231.56
475.063	1220.56
475.282	1242.56
475.501	1196.56
475.72	1227.56
475.939	1295.56
476.158	1257.56
476.377	1231.56
476.596	1219.56
476.814	1211.56
477.033	1229.56
477.252	1263.56
477.471	1308.56
477.69	1290.56
477.908	1305.56
478.127	1359.56
478.346	1425.56
478.564	1429.56
478.783	1391.56
479.002	1412.56
479.22	1415.56
479.439	1465.56
479.658	1582.56
479.876	1522.56
480.095	1370.56
480.313	1335.56
480.532	1330.56
480.751	1319.56
480.969	1328.56
481.188	1284.56
481.406	1235.56
481.624	1234.56
481.843	1282.56
482.061	1323.56
482.28	1353.56
482.498	1361.56
482.717	1286.56
482.935	1306.56
483.153	1363.56
483.372	1394.56
483.59	1358.56
483.808	1346.56
484.027	1388.56
484.245	1468.56
484.463	1763.56
484.681	1914.56
484.9	1442.56
485.118	1383.56
485.336	1355.56
485.554	1390.56
485.772	1379.56
485.99	1349.56
486.209	1392.56
486.427	1363.56
486.645	1392.56
486.863	1402.56
487.081	1457.56
487.299	1441.56
487.517	1474.56
487.735	1487.56
487.953	1506.56
488.171	1486.56
488.389	1475.56
488.607	1467.56
488.825	1600.56
489.043	1539.56
489.261	1420.56
489.479	1480.56
489.696	1451.56
489.914	1467.56
490.132	1454.56
490.35	1479.56
490.568	1542.56
490.786	1526.56
491.003	1482.56
491.221	1567.56
491.439	1602.56
491.657	1610.56
491.874	1653.56
492.092	1650.56
492.31	1737.56
492.527	1710.56
492.745	1600.56
492.963	1606.56
493.18	1652.56
493.398	1715.56
