Data from WStandard_LampEnergy8_LIBS07252019.E.O._I.C._HRD10591_15-59-42-929.txt Node
Date: Thu Jul 25 15:59:42 EDT 2019
User: cochatt
Spectrometer: HR+D1059
Trigger mode: 1
Integration Time (sec): 1.000000E-1
Scans to average: 1
Electric dark correction enabled: true
Nonlinearity correction enabled: false
Boxcar width: 0
XAxis mode: Wavelengths
Number of Pixels in Spectrum: 2048
>>>>>Begin Spectral Data<<<<<
223.165	-17.12
223.4	-17.12
223.635	-17.12
223.869	-19.12
224.104	-11.12
224.338	-10.12
224.573	-6.12
224.808	-18.12
225.042	-16.12
225.277	1.88
225.511	-3.12
225.746	11.88
225.98	9.88
226.215	-4.12
226.449	14.88
226.683	6.88
226.918	29.88
227.152	29.88
227.387	36.88
227.621	32.88
227.856	38.88
228.09	49.88
228.324	42.88
228.559	59.88
228.793	94.88
229.027	205.88
229.262	206.88
229.496	221.88
229.73	207.88
229.964	231.88
230.199	249.88
230.433	258.88
230.667	273.88
230.901	277.88
231.136	263.88
231.37	259.88
231.604	261.88
231.838	262.88
232.072	265.88
232.306	248.88
232.541	265.88
232.775	302.88
233.009	319.88
233.243	317.88
233.477	289.88
233.711	299.88
233.945	304.88
234.179	314.88
234.413	318.88
234.647	334.88
234.881	308.88
235.115	284.88
235.349	315.88
235.583	284.88
235.817	303.88
236.051	294.88
236.285	292.88
236.519	306.88
236.753	330.88
236.987	348.88
237.221	342.88
237.455	373.88
237.689	377.88
237.922	348.88
238.156	336.88
238.39	365.88
238.624	353.88
238.858	393.88
239.091	383.88
239.325	415.88
239.559	470.88
239.793	451.88
240.027	500.88
240.26	483.88
240.494	380.88
240.728	355.88
240.961	367.88
241.195	378.88
241.429	401.88
241.662	433.88
241.896	388.88
242.13	392.88
242.363	428.88
242.597	456.88
242.83	439.88
243.064	419.88
243.298	466.88
243.531	454.88
243.765	479.88
243.998	463.88
244.232	402.88
244.465	397.88
244.699	411.88
244.932	447.88
245.166	499.88
245.399	470.88
245.633	456.88
245.866	437.88
246.099	455.88
246.333	474.88
246.566	479.88
246.8	521.88
247.033	548.88
247.266	541.88
247.5	528.88
247.733	518.88
247.966	527.88
248.2	590.88
248.433	578.88
248.666	635.88
248.899	635.88
249.133	718.88
249.366	778.88
249.599	694.88
249.832	582.88
250.066	595.88
250.299	610.88
250.532	585.88
250.765	544.88
250.998	538.88
251.231	565.88
251.465	573.88
251.698	540.88
251.931	569.88
252.164	580.88
252.397	607.88
252.63	604.88
252.863	557.88
253.096	532.88
253.329	547.88
253.562	550.88
253.795	603.88
254.028	586.88
254.261	556.88
254.494	563.88
254.727	519.88
254.96	572.88
255.193	630.88
255.426	690.88
255.659	777.88
255.892	754.88
256.124	653.88
256.357	656.88
256.59	703.88
256.823	686.88
257.056	703.88
257.289	820.88
257.521	863.88
257.754	775.88
257.987	738.88
258.22	818.88
258.452	788.88
258.685	661.88
258.918	657.88
259.151	668.88
259.383	612.88
259.616	577.88
259.849	604.88
260.081	669.88
260.314	737.88
260.547	805.88
260.779	804.88
261.012	739.88
261.244	679.88
261.477	665.88
261.71	666.88
261.942	672.88
262.175	673.88
262.407	686.88
262.64	652.88
262.872	650.88
263.105	623.88
263.337	634.88
263.57	617.88
263.802	591.88
264.035	564.88
264.267	581.88
264.499	555.88
264.732	613.88
264.964	636.88
265.197	654.88
265.429	696.88
265.661	750.88
265.894	797.88
266.126	841.88
266.358	772.88
266.591	787.88
266.823	846.88
267.055	791.88
267.287	749.88
267.52	729.88
267.752	731.88
267.984	750.88
268.216	775.88
268.448	782.88
268.681	767.88
268.913	692.88
269.145	692.88
269.377	643.88
269.609	742.88
269.841	855.88
270.073	984.88
270.306	1039.88
270.538	1089.88
270.77	892.88
271.002	813.88
271.234	792.88
271.466	822.88
271.698	890.88
271.93	1051.88
272.162	986.88
272.394	936.88
272.626	874.88
272.858	788.88
273.09	695.88
273.322	663.88
273.553	689.88
273.785	668.88
274.017	696.88
274.249	748.88
274.481	749.88
274.713	671.88
274.945	670.88
275.176	668.88
275.408	661.88
275.64	683.88
275.872	683.88
276.104	738.88
276.335	805.88
276.567	885.88
276.799	878.88
277.031	813.88
277.262	772.88
277.494	828.88
277.726	883.88
277.957	863.88
278.189	794.88
278.421	737.88
278.652	709.88
278.884	700.88
279.115	717.88
279.347	730.88
279.579	713.88
279.81	731.88
280.042	787.88
280.273	841.88
280.505	840.88
280.736	839.88
280.968	805.88
281.199	734.88
281.431	689.88
281.662	711.88
281.894	747.88
282.125	737.88
282.356	770.88
282.588	778.88
282.819	749.88
283.051	816.88
283.282	881.88
283.513	849.88
283.745	753.88
283.976	701.88
284.207	723.88
284.439	734.88
284.67	746.88
284.901	715.88
285.132	805.88
285.364	759.88
285.595	753.88
285.826	737.88
286.057	735.88
286.288	715.88
286.52	769.88
286.751	833.88
286.982	827.88
287.213	791.88
287.444	713.88
287.675	726.88
287.906	787.88
288.138	821.88
288.369	787.88
288.6	733.88
288.831	721.88
289.062	747.88
289.293	767.88
289.524	750.88
289.755	783.88
289.986	762.88
290.217	739.88
290.448	726.88
290.679	753.88
290.91	774.88
291.141	806.88
291.371	801.88
291.602	814.88
291.833	803.88
292.064	820.88
292.295	842.88
292.526	823.88
292.757	849.88
292.987	807.88
293.218	789.88
293.449	844.88
293.68	932.88
293.91	989.88
294.141	930.88
294.372	887.88
294.603	929.88
294.833	932.88
295.064	890.88
295.295	835.88
295.525	802.88
295.756	738.88
295.987	719.88
296.217	753.88
296.448	782.88
296.679	749.88
296.909	780.88
297.14	745.88
297.37	767.88
297.601	827.88
297.831	862.88
298.062	852.88
298.292	796.88
298.523	779.88
298.753	774.88
298.984	807.88
299.214	787.88
299.445	829.88
299.675	815.88
299.905	823.88
300.136	813.88
300.366	774.88
300.597	770.88
300.827	746.88
301.057	774.88
301.288	837.88
301.518	817.88
301.748	853.88
301.979	923.88
302.209	917.88
302.439	947.88
302.669	1014.88
302.9	937.88
303.13	822.88
303.36	819.88
303.59	844.88
303.82	871.88
304.051	861.88
304.281	845.88
304.511	851.88
304.741	902.88
304.971	1029.88
305.201	1053.88
305.431	902.88
305.661	785.88
305.891	750.88
306.121	745.88
306.352	778.88
306.582	840.88
306.812	860.88
307.042	913.88
307.272	938.88
307.502	981.88
307.731	1024.88
307.961	1043.88
308.191	952.88
308.421	878.88
308.651	818.88
308.881	817.88
309.111	804.88
309.341	805.88
309.571	830.88
309.8	822.88
310.03	810.88
310.26	792.88
310.49	800.88
310.72	818.88
310.949	853.88
311.179	869.88
311.409	842.88
311.639	830.88
311.868	825.88
312.098	836.88
312.328	833.88
312.557	825.88
312.787	826.88
313.017	865.88
313.246	867.88
313.476	854.88
313.706	870.88
313.935	883.88
314.165	886.88
314.394	919.88
314.624	979.88
314.853	1006.88
315.083	1049.88
315.312	1048.88
315.542	940.88
315.771	894.88
316.001	909.88
316.23	961.88
316.46	959.88
316.689	889.88
316.919	849.88
317.148	851.88
317.377	874.88
317.607	948.88
317.836	1020.88
318.065	1032.88
318.295	1005.88
318.524	968.88
318.753	939.88
318.983	917.88
319.212	910.88
319.441	922.88
319.67	909.88
319.9	934.88
320.129	965.88
320.358	1023.88
320.587	998.88
320.816	1013.88
321.046	1013.88
321.275	927.88
321.504	986.88
321.733	1017.88
321.962	1002.88
322.191	935.88
322.42	894.88
322.649	904.88
322.878	909.88
323.108	940.88
323.337	931.88
323.566	933.88
323.795	942.88
324.024	931.88
324.253	955.88
324.482	921.88
324.71	901.88
324.939	847.88
325.168	874.88
325.397	914.88
325.626	924.88
325.855	942.88
326.084	906.88
326.313	958.88
326.542	918.88
326.77	929.88
326.999	933.88
327.228	909.88
327.457	862.88
327.686	857.88
327.914	909.88
328.143	900.88
328.372	907.88
328.6	911.88
328.829	932.88
329.058	901.88
329.287	914.88
329.515	940.88
329.744	969.88
329.972	1000.88
330.201	1031.88
330.43	1007.88
330.658	962.88
330.887	982.88
331.115	967.88
331.344	965.88
331.572	974.88
331.801	996.88
332.03	981.88
332.258	970.88
332.486	1010.88
332.715	1015.88
332.943	995.88
333.172	962.88
333.4	950.88
333.629	1029.88
333.857	1091.88
334.085	1171.88
334.314	1310.88
334.542	1391.88
334.771	1238.88
334.999	1146.88
335.227	1087.88
335.455	1051.88
335.684	1015.88
335.912	1069.88
336.14	1089.88
336.369	1027.88
336.597	994.88
336.825	961.88
337.053	1040.88
337.281	1069.88
337.51	1160.88
337.738	1167.88
337.966	1077.88
338.194	998.88
338.422	962.88
338.65	948.88
338.878	964.88
339.106	935.88
339.334	953.88
339.562	922.88
339.79	953.88
340.018	1013.88
340.246	1020.88
340.474	1011.88
340.702	1011.88
340.93	1006.88
341.158	1004.88
341.386	990.88
341.614	979.88
341.842	973.88
342.07	959.88
342.298	986.88
342.526	964.88
342.754	954.88
342.981	985.88
343.209	959.88
343.437	954.88
343.665	977.88
343.893	1005.88
344.12	1018.88
344.348	1047.88
344.576	998.88
344.804	966.88
345.031	987.88
345.259	945.88
345.487	953.88
345.714	921.88
345.942	902.88
346.17	921.88
346.397	936.88
346.625	924.88
346.853	885.88
347.08	895.88
347.308	899.88
347.535	925.88
347.763	918.88
347.99	912.88
348.218	901.88
348.445	901.88
348.673	904.88
348.9	935.88
349.128	953.88
349.355	974.88
349.583	950.88
349.81	904.88
350.037	865.88
350.265	845.88
350.492	871.88
350.72	899.88
350.947	935.88
351.174	920.88
351.402	872.88
351.629	843.88
351.856	837.88
352.083	866.88
352.311	852.88
352.538	902.88
352.765	953.88
352.992	937.88
353.22	890.88
353.447	900.88
353.674	936.88
353.901	886.88
354.128	884.88
354.355	899.88
354.583	940.88
354.81	959.88
355.037	925.88
355.264	930.88
355.491	926.88
355.718	919.88
355.945	911.88
356.172	891.88
356.399	875.88
356.626	845.88
356.853	947.88
357.08	995.88
357.307	1090.88
357.534	1054.88
357.761	939.88
357.988	875.88
358.215	896.88
358.441	874.88
358.668	877.88
358.895	937.88
359.122	979.88
359.349	1058.88
359.576	981.88
359.802	878.88
360.029	878.88
360.256	878.88
360.483	893.88
360.709	924.88
360.936	952.88
361.163	980.88
361.39	1078.88
361.616	1112.88
361.843	1109.88
362.07	1056.88
362.296	923.88
362.523	907.88
362.749	898.88
362.976	921.88
363.203	963.88
363.429	906.88
363.656	886.88
363.882	980.88
364.109	1035.88
364.335	1045.88
364.562	998.88
364.788	958.88
365.015	923.88
365.241	905.88
365.468	936.88
365.694	949.88
365.92	990.88
366.147	948.88
366.373	891.88
366.599	890.88
366.826	871.88
367.052	902.88
367.278	915.88
367.505	930.88
367.731	943.88
367.957	957.88
368.184	972.88
368.41	1018.88
368.636	1006.88
368.862	1038.88
369.089	1053.88
369.315	981.88
369.541	954.88
369.767	950.88
369.993	946.88
370.219	914.88
370.445	946.88
370.672	1001.88
370.898	1053.88
371.124	1018.88
371.35	949.88
371.576	1019.88
371.802	1027.88
372.028	1001.88
372.254	953.88
372.48	922.88
372.706	924.88
372.932	951.88
373.158	935.88
373.384	986.88
373.61	984.88
373.835	1026.88
374.061	970.88
374.287	980.88
374.513	957.88
374.739	964.88
374.965	989.88
375.191	976.88
375.416	992.88
375.642	1030.88
375.868	1079.88
376.094	1086.88
376.319	1034.88
376.545	996.88
376.771	1019.88
376.997	1082.88
377.222	1037.88
377.448	1029.88
377.674	1001.88
377.899	1053.88
378.125	1090.88
378.35	1054.88
378.576	978.88
378.802	948.88
379.027	949.88
379.253	964.88
379.478	998.88
379.704	966.88
379.929	977.88
380.155	972.88
380.38	985.88
380.606	1001.88
380.831	991.88
381.057	1087.88
381.282	1069.88
381.507	1015.88
381.733	1122.88
381.958	1125.88
382.184	1033.88
382.409	1015.88
382.634	1025.88
382.86	1019.88
383.085	1023.88
383.31	1073.88
383.535	1145.88
383.761	1211.88
383.986	1148.88
384.211	1084.88
384.436	1111.88
384.662	1157.88
384.887	1190.88
385.112	1131.88
385.337	1125.88
385.562	1099.88
385.787	1100.88
386.013	1121.88
386.238	1133.88
386.463	1146.88
386.688	1214.88
386.913	1267.88
387.138	1232.88
387.363	1180.88
387.588	1141.88
387.813	1149.88
388.038	1210.88
388.263	1186.88
388.488	1139.88
388.713	1078.88
388.938	1042.88
389.163	1073.88
389.387	1115.88
389.612	1098.88
389.837	1113.88
390.062	1113.88
390.287	1127.88
390.512	1138.88
390.736	1091.88
390.961	1102.88
391.186	1063.88
391.411	1069.88
391.636	1086.88
391.86	1110.88
392.085	1091.88
392.31	1150.88
392.534	1122.88
392.759	1137.88
392.984	1115.88
393.208	1145.88
393.433	1178.88
393.658	1195.88
393.882	1175.88
394.107	1134.88
394.331	1117.88
394.556	1130.88
394.78	1125.88
395.005	1147.88
395.229	1226.88
395.454	1281.88
395.678	1273.88
395.903	1213.88
396.127	1182.88
396.352	1190.88
396.576	1235.88
396.801	1242.88
397.025	1225.88
397.249	1183.88
397.474	1189.88
397.698	1223.88
397.922	1288.88
398.147	1282.88
398.371	1371.88
398.595	1313.88
398.82	1267.88
399.044	1308.88
399.268	1400.88
399.492	1421.88
399.717	1488.88
399.941	1461.88
400.165	1441.88
400.389	1414.88
400.613	1428.88
400.837	1636.88
401.062	1779.88
401.286	1529.88
401.51	1444.88
401.734	1447.88
401.958	1394.88
402.182	1338.88
402.406	1271.88
402.63	1215.88
402.854	1284.88
403.078	1296.88
403.302	1270.88
403.526	1307.88
403.75	1318.88
403.974	1356.88
404.198	1327.88
404.422	1411.88
404.645	1463.88
404.869	1417.88
405.093	1316.88
405.317	1306.88
405.541	1345.88
405.765	1351.88
405.988	1322.88
406.212	1364.88
406.436	1396.88
406.66	1447.88
406.883	1483.88
407.107	1661.88
407.331	1772.88
407.555	1908.88
407.778	1680.88
408.002	1429.88
408.226	1372.88
408.449	1382.88
408.673	1339.88
408.896	1357.88
409.12	1398.88
409.344	1333.88
409.567	1296.88
409.791	1343.88
410.014	1373.88
410.238	1459.88
410.461	1518.88
410.685	1368.88
410.908	1294.88
411.132	1334.88
411.355	1346.88
411.578	1309.88
411.802	1340.88
412.025	1340.88
412.249	1330.88
412.472	1261.88
412.695	1295.88
412.919	1301.88
413.142	1244.88
413.365	1315.88
413.589	1379.88
413.812	1380.88
414.035	1455.88
414.258	1313.88
414.482	1281.88
414.705	1295.88
414.928	1283.88
415.151	1293.88
415.374	1285.88
415.597	1325.88
415.821	1301.88
416.044	1344.88
416.267	1326.88
416.49	1264.88
416.713	1249.88
416.936	1313.88
417.159	1346.88
417.382	1319.88
417.605	1269.88
417.828	1298.88
418.051	1325.88
418.274	1295.88
418.497	1228.88
418.72	1257.88
418.943	1260.88
419.166	1334.88
419.389	1357.88
419.611	1285.88
419.834	1270.88
420.057	1301.88
420.28	1311.88
420.503	1272.88
420.726	1270.88
420.948	1254.88
421.171	1245.88
421.394	1268.88
421.617	1329.88
421.839	1299.88
422.062	1301.88
422.285	1286.88
422.507	1276.88
422.73	1224.88
422.953	1217.88
423.175	1206.88
423.398	1274.88
423.621	1265.88
423.843	1282.88
424.066	1314.88
424.288	1395.88
424.511	1434.88
424.733	1366.88
424.956	1227.88
425.178	1229.88
425.401	1243.88
425.623	1274.88
425.846	1282.88
426.068	1338.88
426.291	1337.88
426.513	1334.88
426.735	1325.88
426.958	1394.88
427.18	1448.88
427.402	1329.88
427.625	1401.88
427.847	1347.88
428.069	1278.88
428.292	1272.88
428.514	1196.88
428.736	1214.88
428.958	1237.88
429.181	1249.88
429.403	1467.88
429.625	1725.88
429.847	1425.88
430.069	1296.88
430.292	1454.88
430.514	1423.88
430.736	1295.88
430.958	1354.88
431.18	1290.88
431.402	1192.88
431.624	1182.88
431.846	1208.88
432.068	1112.88
432.29	1152.88
432.512	1191.88
432.734	1231.88
432.956	1284.88
433.178	1342.88
433.4	1297.88
433.622	1319.88
433.844	1247.88
434.066	1176.88
434.287	1192.88
434.509	1206.88
434.731	1239.88
434.953	1306.88
435.175	1295.88
435.397	1251.88
435.618	1255.88
435.84	1245.88
436.062	1224.88
436.284	1240.88
436.505	1269.88
436.727	1270.88
436.949	1259.88
437.17	1237.88
437.392	1225.88
437.614	1189.88
437.835	1143.88
438.057	1209.88
438.278	1234.88
438.5	1186.88
438.721	1214.88
438.943	1249.88
439.165	1212.88
439.386	1198.88
439.608	1212.88
439.829	1280.88
440.05	1241.88
440.272	1209.88
440.493	1229.88
440.715	1258.88
440.936	1357.88
441.158	1406.88
441.379	1390.88
441.6	1371.88
441.822	1327.88
442.043	1331.88
442.264	1290.88
442.486	1254.88
442.707	1271.88
442.928	1269.88
443.149	1292.88
443.371	1307.88
443.592	1363.88
443.813	1356.88
444.034	1344.88
444.255	1330.88
444.476	1366.88
444.698	1390.88
444.919	1374.88
445.14	1503.88
445.361	1407.88
445.582	1422.88
445.803	1381.88
446.024	1352.88
446.245	1383.88
446.466	1363.88
446.687	1286.88
446.908	1293.88
447.129	1289.88
447.35	1296.88
447.571	1268.88
447.792	1231.88
448.013	1213.88
448.234	1281.88
448.455	1304.88
448.675	1287.88
448.896	1197.88
449.117	1173.88
449.338	1224.88
449.559	1256.88
449.779	1305.88
450	1386.88
450.221	1469.88
450.442	1407.88
450.662	1287.88
450.883	1153.88
451.104	1150.88
451.324	1213.88
451.545	1198.88
451.766	1175.88
451.986	1140.88
452.207	1113.88
452.428	1077.88
452.648	1098.88
452.869	1089.88
453.089	1116.88
453.31	1124.88
453.53	1148.88
453.751	1061.88
453.971	1050.88
454.192	1081.88
454.412	1143.88
454.633	1148.88
454.853	1112.88
455.073	1059.88
455.294	1053.88
455.514	1045.88
455.734	1085.88
455.955	1097.88
456.175	1089.88
456.395	1035.88
456.616	1062.88
456.836	1082.88
457.056	1075.88
457.276	1017.88
457.497	1053.88
457.717	1019.88
457.937	1051.88
458.157	1035.88
458.377	1030.88
458.598	1006.88
458.818	1043.88
459.038	1082.88
459.258	1147.88
459.478	1099.88
459.698	1103.88
459.918	1117.88
460.138	1200.88
460.358	1223.88
460.578	1215.88
460.798	1250.88
461.018	1300.88
461.238	1269.88
461.458	1250.88
461.678	1221.88
461.898	1224.88
462.118	1205.88
462.338	1262.88
462.558	1250.88
462.777	1230.88
462.997	1319.88
463.217	1310.88
463.437	1307.88
463.657	1234.88
463.876	1245.88
464.096	1222.88
464.316	1247.88
464.536	1283.88
464.755	1266.88
464.975	1266.88
465.195	1232.88
465.414	1323.88
465.634	1279.88
465.854	1272.88
466.073	1378.88
466.293	1295.88
466.512	1171.88
466.732	1197.88
466.951	1265.88
467.171	1243.88
467.391	1185.88
467.61	1198.88
467.829	1213.88
468.049	1312.88
468.268	1421.88
468.488	1299.88
468.707	1238.88
468.927	1203.88
469.146	1188.88
469.365	1193.88
469.585	1242.88
469.804	1224.88
470.023	1229.88
470.243	1245.88
470.462	1217.88
470.681	1199.88
470.901	1201.88
471.12	1217.88
471.339	1223.88
471.558	1174.88
471.777	1184.88
471.997	1178.88
472.216	1142.88
472.435	1114.88
472.654	1086.88
472.873	1134.88
473.092	1221.88
473.311	1169.88
473.53	1145.88
473.749	1109.88
473.968	1179.88
474.187	1213.88
474.406	1215.88
474.625	1173.88
474.844	1163.88
475.063	1199.88
475.282	1224.88
475.501	1178.88
475.72	1187.88
475.939	1251.88
476.158	1218.88
476.377	1195.88
476.596	1179.88
476.814	1173.88
477.033	1211.88
477.252	1249.88
477.471	1261.88
477.69	1246.88
477.908	1307.88
478.127	1324.88
478.346	1441.88
478.564	1374.88
478.783	1377.88
479.002	1435.88
479.22	1417.88
479.439	1444.88
479.658	1555.88
479.876	1502.88
480.095	1362.88
480.313	1312.88
480.532	1310.88
480.751	1301.88
480.969	1271.88
481.188	1224.88
481.406	1225.88
481.624	1218.88
481.843	1229.88
482.061	1231.88
482.28	1316.88
482.498	1317.88
482.717	1275.88
482.935	1318.88
483.153	1328.88
483.372	1355.88
483.59	1369.88
483.808	1346.88
484.027	1358.88
484.245	1438.88
484.463	1673.88
484.681	1808.88
484.9	1435.88
485.118	1369.88
485.336	1309.88
485.554	1345.88
485.772	1371.88
485.99	1379.88
486.209	1368.88
486.427	1382.88
486.645	1393.88
486.863	1399.88
487.081	1411.88
487.299	1458.88
487.517	1429.88
487.735	1415.88
487.953	1463.88
488.171	1490.88
488.389	1419.88
488.607	1437.88
488.825	1564.88
489.043	1504.88
489.261	1380.88
489.479	1448.88
489.696	1411.88
489.914	1416.88
490.132	1414.88
490.35	1428.88
490.568	1515.88
490.786	1465.88
491.003	1477.88
491.221	1517.88
491.439	1566.88
491.657	1534.88
491.874	1581.88
492.092	1635.88
492.31	1682.88
492.527	1631.88
492.745	1604.88
492.963	1551.88
493.18	1614.88
493.398	1677.88
493.615	1644.88
493.833	1566.88
