Data from WStandard_LampEnergy10_LIBS07252019.E.O._I.C._HRD10591_15-55-52-928.txt Node
Date: Thu Jul 25 15:55:52 EDT 2019
User: cochatt
Spectrometer: HR+D1059
Trigger mode: 1
Integration Time (sec): 1.000000E-1
Scans to average: 1
Electric dark correction enabled: true
Nonlinearity correction enabled: false
Boxcar width: 0
XAxis mode: Wavelengths
Number of Pixels in Spectrum: 2048
>>>>>Begin Spectral Data<<<<<
223.165	-10.12
223.4	-10.12
223.635	-10.12
223.869	-8.12
224.104	-12.12
224.338	-5.12
224.573	-12.12
224.808	-10.12
225.042	-34.12
225.277	-8.12
225.511	-10.12
225.746	12.88
225.98	-2.12
226.215	17.88
226.449	14.88
226.683	13.88
226.918	22.88
227.152	29.88
227.387	33.88
227.621	37.88
227.856	38.88
228.09	41.88
228.324	50.88
228.559	42.88
228.793	86.88
229.027	129.88
229.262	148.88
229.496	133.88
229.73	134.88
229.964	151.88
230.199	172.88
230.433	174.88
230.667	165.88
230.901	191.88
231.136	175.88
231.37	165.88
231.604	167.88
231.838	177.88
232.072	187.88
232.306	149.88
232.541	187.88
232.775	211.88
233.009	190.88
233.243	207.88
233.477	192.88
233.711	205.88
233.945	194.88
234.179	187.88
234.413	209.88
234.647	211.88
234.881	203.88
235.115	193.88
235.349	183.88
235.583	194.88
235.817	195.88
236.051	178.88
236.285	210.88
236.519	214.88
236.753	247.88
236.987	248.88
237.221	214.88
237.455	239.88
237.689	235.88
237.922	207.88
238.156	227.88
238.39	221.88
238.624	242.88
238.858	243.88
239.091	248.88
239.325	264.88
239.559	261.88
239.793	301.88
240.027	318.88
240.26	301.88
240.494	250.88
240.728	231.88
240.961	233.88
241.195	242.88
241.429	246.88
241.662	258.88
241.896	237.88
242.13	257.88
242.363	277.88
242.597	286.88
242.83	265.88
243.064	257.88
243.298	281.88
243.531	297.88
243.765	292.88
243.998	280.88
244.232	264.88
244.465	246.88
244.699	265.88
244.932	292.88
245.166	314.88
245.399	295.88
245.633	281.88
245.866	279.88
246.099	290.88
246.333	297.88
246.566	311.88
246.8	334.88
247.033	359.88
247.266	315.88
247.5	329.88
247.733	307.88
247.966	328.88
248.2	350.88
248.433	342.88
248.666	355.88
248.899	392.88
249.133	419.88
249.366	458.88
249.599	392.88
249.832	355.88
250.066	364.88
250.299	345.88
250.532	331.88
250.765	309.88
250.998	339.88
251.231	340.88
251.465	339.88
251.698	352.88
251.931	334.88
252.164	337.88
252.397	358.88
252.63	375.88
252.863	314.88
253.096	344.88
253.329	355.88
253.562	348.88
253.795	358.88
254.028	351.88
254.261	345.88
254.494	357.88
254.727	329.88
254.96	357.88
255.193	379.88
255.426	412.88
255.659	465.88
255.892	446.88
256.124	405.88
256.357	365.88
256.59	421.88
256.823	409.88
257.056	419.88
257.289	481.88
257.521	526.88
257.754	463.88
257.987	444.88
258.22	476.88
258.452	456.88
258.685	393.88
258.918	385.88
259.151	386.88
259.383	363.88
259.616	347.88
259.849	356.88
260.081	408.88
260.314	441.88
260.547	469.88
260.779	467.88
261.012	441.88
261.244	404.88
261.477	387.88
261.71	398.88
261.942	390.88
262.175	392.88
262.407	401.88
262.64	413.88
262.872	358.88
263.105	369.88
263.337	369.88
263.57	374.88
263.802	378.88
264.035	353.88
264.267	352.88
264.499	347.88
264.732	364.88
264.964	387.88
265.197	422.88
265.429	414.88
265.661	454.88
265.894	494.88
266.126	497.88
266.358	462.88
266.591	458.88
266.823	484.88
267.055	457.88
267.287	444.88
267.52	441.88
267.752	439.88
267.984	445.88
268.216	462.88
268.448	461.88
268.681	437.88
268.913	429.88
269.145	396.88
269.377	404.88
269.609	448.88
269.841	520.88
270.073	571.88
270.306	627.88
270.538	605.88
270.77	541.88
271.002	502.88
271.234	458.88
271.466	485.88
271.698	542.88
271.93	613.88
272.162	595.88
272.394	544.88
272.626	509.88
272.858	453.88
273.09	443.88
273.322	395.88
273.553	399.88
273.785	415.88
274.017	420.88
274.249	449.88
274.481	456.88
274.713	425.88
274.945	414.88
275.176	413.88
275.408	408.88
275.64	371.88
275.872	426.88
276.104	428.88
276.335	475.88
276.567	522.88
276.799	517.88
277.031	486.88
277.262	494.88
277.494	492.88
277.726	525.88
277.957	512.88
278.189	486.88
278.421	419.88
278.652	433.88
278.884	432.88
279.115	449.88
279.347	433.88
279.579	430.88
279.81	437.88
280.042	480.88
280.273	526.88
280.505	499.88
280.736	499.88
280.968	484.88
281.199	445.88
281.431	437.88
281.662	418.88
281.894	409.88
282.125	441.88
282.356	440.88
282.588	447.88
282.819	452.88
283.051	486.88
283.282	523.88
283.513	479.88
283.745	442.88
283.976	419.88
284.207	441.88
284.439	421.88
284.67	438.88
284.901	458.88
285.132	461.88
285.364	424.88
285.595	460.88
285.826	450.88
286.057	452.88
286.288	437.88
286.52	462.88
286.751	503.88
286.982	488.88
287.213	459.88
287.444	444.88
287.675	451.88
287.906	460.88
288.138	502.88
288.369	462.88
288.6	458.88
288.831	435.88
289.062	449.88
289.293	443.88
289.524	442.88
289.755	463.88
289.986	456.88
290.217	439.88
290.448	443.88
290.679	452.88
290.91	459.88
291.141	479.88
291.371	505.88
291.602	478.88
291.833	491.88
292.064	481.88
292.295	502.88
292.526	489.88
292.757	502.88
292.987	511.88
293.218	498.88
293.449	545.88
293.68	569.88
293.91	583.88
294.141	554.88
294.372	541.88
294.603	565.88
294.833	571.88
295.064	542.88
295.295	507.88
295.525	486.88
295.756	449.88
295.987	452.88
296.217	442.88
296.448	456.88
296.679	462.88
296.909	462.88
297.14	484.88
297.37	499.88
297.601	524.88
297.831	556.88
298.062	514.88
298.292	470.88
298.523	472.88
298.753	452.88
298.984	485.88
299.214	472.88
299.445	514.88
299.675	502.88
299.905	515.88
300.136	492.88
300.366	484.88
300.597	453.88
300.827	476.88
301.057	499.88
301.288	513.88
301.518	517.88
301.748	541.88
301.979	556.88
302.209	565.88
302.439	591.88
302.669	601.88
302.9	549.88
303.13	524.88
303.36	526.88
303.59	535.88
303.82	513.88
304.051	526.88
304.281	500.88
304.511	544.88
304.741	581.88
304.971	610.88
305.201	630.88
305.431	557.88
305.661	477.88
305.891	457.88
306.121	497.88
306.352	460.88
306.582	502.88
306.812	542.88
307.042	561.88
307.272	576.88
307.502	600.88
307.731	627.88
307.961	637.88
308.191	578.88
308.421	528.88
308.651	499.88
308.881	491.88
309.111	485.88
309.341	515.88
309.571	499.88
309.8	495.88
310.03	501.88
310.26	481.88
310.49	519.88
310.72	500.88
310.949	533.88
311.179	540.88
311.409	508.88
311.639	499.88
311.868	516.88
312.098	530.88
312.328	503.88
312.557	494.88
312.787	535.88
313.017	532.88
313.246	518.88
313.476	541.88
313.706	549.88
313.935	525.88
314.165	540.88
314.394	549.88
314.624	559.88
314.853	619.88
315.083	634.88
315.312	619.88
315.542	575.88
315.771	527.88
316.001	555.88
316.23	599.88
316.46	547.88
316.689	547.88
316.919	529.88
317.148	538.88
317.377	547.88
317.607	590.88
317.836	666.88
318.065	655.88
318.295	625.88
318.524	591.88
318.753	593.88
318.983	573.88
319.212	561.88
319.441	546.88
319.67	580.88
319.9	564.88
320.129	609.88
320.358	591.88
320.587	613.88
320.816	609.88
321.046	614.88
321.275	589.88
321.504	600.88
321.733	635.88
321.962	612.88
322.191	569.88
322.42	577.88
322.649	563.88
322.878	559.88
323.108	554.88
323.337	567.88
323.566	584.88
323.795	575.88
324.024	595.88
324.253	530.88
324.482	560.88
324.71	561.88
324.939	540.88
325.168	550.88
325.397	567.88
325.626	582.88
325.855	549.88
326.084	557.88
326.313	564.88
326.542	584.88
326.77	594.88
326.999	548.88
327.228	547.88
327.457	539.88
327.686	536.88
327.914	541.88
328.143	569.88
328.372	565.88
328.6	558.88
328.829	562.88
329.058	554.88
329.287	581.88
329.515	567.88
329.744	601.88
329.972	615.88
330.201	647.88
330.43	637.88
330.658	612.88
330.887	604.88
331.115	580.88
331.344	622.88
331.572	581.88
331.801	590.88
332.03	601.88
332.258	615.88
332.486	622.88
332.715	618.88
332.943	612.88
333.172	609.88
333.4	632.88
333.629	638.88
333.857	685.88
334.085	750.88
334.314	813.88
334.542	820.88
334.771	759.88
334.999	697.88
335.227	660.88
335.455	638.88
335.684	634.88
335.912	681.88
336.14	649.88
336.369	618.88
336.597	617.88
336.825	614.88
337.053	635.88
337.281	661.88
337.51	699.88
337.738	714.88
337.966	672.88
338.194	619.88
338.422	608.88
338.65	616.88
338.878	602.88
339.106	575.88
339.334	589.88
339.562	558.88
339.79	576.88
340.018	597.88
340.246	645.88
340.474	646.88
340.702	628.88
340.93	633.88
341.158	627.88
341.386	625.88
341.614	601.88
341.842	610.88
342.07	598.88
342.298	608.88
342.526	630.88
342.754	588.88
342.981	610.88
343.209	588.88
343.437	597.88
343.665	584.88
343.893	606.88
344.12	648.88
344.348	631.88
344.576	587.88
344.804	606.88
345.031	611.88
345.259	595.88
345.487	575.88
345.714	562.88
345.942	535.88
346.17	553.88
346.397	569.88
346.625	543.88
346.853	545.88
347.08	522.88
347.308	577.88
347.535	574.88
347.763	581.88
347.99	561.88
348.218	547.88
348.445	578.88
348.673	576.88
348.9	595.88
349.128	609.88
349.355	618.88
349.583	599.88
349.81	570.88
350.037	539.88
350.265	535.88
350.492	549.88
350.72	562.88
350.947	589.88
351.174	573.88
351.402	561.88
351.629	517.88
351.856	531.88
352.083	547.88
352.311	525.88
352.538	565.88
352.765	588.88
352.992	580.88
353.22	564.88
353.447	533.88
353.674	556.88
353.901	563.88
354.128	565.88
354.355	571.88
354.583	601.88
354.81	609.88
355.037	588.88
355.264	585.88
355.491	579.88
355.718	562.88
355.945	554.88
356.172	563.88
356.399	531.88
356.626	535.88
356.853	581.88
357.08	643.88
357.307	683.88
357.534	639.88
357.761	583.88
357.988	545.88
358.215	539.88
358.441	534.88
358.668	555.88
358.895	566.88
359.122	622.88
359.349	639.88
359.576	623.88
359.802	576.88
360.029	575.88
360.256	552.88
360.483	567.88
360.709	588.88
360.936	614.88
361.163	659.88
361.39	703.88
361.616	712.88
361.843	679.88
362.07	643.88
362.296	590.88
362.523	567.88
362.749	583.88
362.976	575.88
363.203	572.88
363.429	540.88
363.656	547.88
363.882	593.88
364.109	677.88
364.335	678.88
364.562	629.88
364.788	617.88
365.015	575.88
365.241	595.88
365.468	595.88
365.694	606.88
365.92	626.88
366.147	595.88
366.373	593.88
366.599	552.88
366.826	566.88
367.052	563.88
367.278	575.88
367.505	589.88
367.731	606.88
367.957	612.88
368.184	634.88
368.41	663.88
368.636	659.88
368.862	681.88
369.089	675.88
369.315	643.88
369.541	597.88
369.767	591.88
369.993	587.88
370.219	606.88
370.445	629.88
370.672	659.88
370.898	680.88
371.124	674.88
371.35	622.88
371.576	655.88
371.802	673.88
372.028	636.88
372.254	601.88
372.48	594.88
372.706	595.88
372.932	596.88
373.158	627.88
373.384	611.88
373.61	639.88
373.835	649.88
374.061	629.88
374.287	627.88
374.513	632.88
374.739	634.88
374.965	659.88
375.191	659.88
375.416	660.88
375.642	653.88
375.868	685.88
376.094	732.88
376.319	653.88
376.545	653.88
376.771	678.88
376.997	723.88
377.222	691.88
377.448	677.88
377.674	679.88
377.899	686.88
378.125	731.88
378.35	683.88
378.576	646.88
378.802	633.88
379.027	616.88
379.253	640.88
379.478	656.88
379.704	647.88
379.929	636.88
380.155	667.88
380.38	654.88
380.606	657.88
380.831	654.88
381.057	691.88
381.282	683.88
381.507	693.88
381.733	732.88
381.958	743.88
382.184	690.88
382.409	665.88
382.634	680.88
382.86	675.88
383.085	682.88
383.31	716.88
383.535	781.88
383.761	776.88
383.986	768.88
384.211	702.88
384.436	728.88
384.662	788.88
384.887	763.88
385.112	723.88
385.337	716.88
385.562	739.88
385.787	743.88
386.013	759.88
386.238	762.88
386.463	773.88
386.688	847.88
386.913	874.88
387.138	827.88
387.363	782.88
387.588	770.88
387.813	755.88
388.038	777.88
388.263	797.88
388.488	755.88
388.713	724.88
388.938	710.88
389.163	726.88
389.387	754.88
389.612	750.88
389.837	757.88
390.062	777.88
390.287	753.88
390.512	766.88
390.736	730.88
390.961	724.88
391.186	731.88
391.411	750.88
391.636	745.88
391.86	748.88
392.085	748.88
392.31	743.88
392.534	779.88
392.759	791.88
392.984	788.88
393.208	781.88
393.433	825.88
393.658	813.88
393.882	815.88
394.107	789.88
394.331	755.88
394.556	762.88
394.78	751.88
395.005	818.88
395.229	844.88
395.454	874.88
395.678	860.88
395.903	825.88
396.127	785.88
396.352	821.88
396.576	856.88
396.801	842.88
397.025	811.88
397.249	822.88
397.474	838.88
397.698	827.88
397.922	845.88
398.147	899.88
398.371	927.88
398.595	892.88
398.82	868.88
399.044	890.88
399.268	929.88
399.492	963.88
399.717	995.88
399.941	999.88
400.165	966.88
400.389	959.88
400.613	988.88
400.837	1128.88
401.062	1203.88
401.286	1062.88
401.51	996.88
401.734	1017.88
401.958	906.88
402.182	871.88
402.406	858.88
402.63	870.88
402.854	887.88
403.078	898.88
403.302	887.88
403.526	912.88
403.75	927.88
403.974	927.88
404.198	941.88
404.422	971.88
404.645	988.88
404.869	952.88
405.093	907.88
405.317	893.88
405.541	919.88
405.765	957.88
405.988	930.88
406.212	938.88
406.436	965.88
406.66	980.88
406.883	1047.88
407.107	1134.88
407.331	1217.88
407.555	1255.88
407.778	1105.88
408.002	973.88
408.226	961.88
408.449	966.88
408.673	935.88
408.896	962.88
409.12	972.88
409.344	943.88
409.567	901.88
409.791	968.88
410.014	963.88
410.238	1033.88
410.461	1051.88
410.685	956.88
410.908	905.88
411.132	934.88
411.355	949.88
411.578	913.88
411.802	924.88
412.025	930.88
412.249	925.88
412.472	920.88
412.695	910.88
412.919	903.88
413.142	890.88
413.365	927.88
413.589	938.88
413.812	1003.88
414.035	1005.88
414.258	900.88
414.482	929.88
414.705	916.88
414.928	917.88
415.151	906.88
415.374	925.88
415.597	955.88
415.821	921.88
416.044	937.88
416.267	922.88
416.49	937.88
416.713	914.88
416.936	946.88
417.159	972.88
417.382	954.88
417.605	973.88
417.828	938.88
418.051	937.88
418.274	953.88
418.497	921.88
418.72	938.88
418.943	936.88
419.166	954.88
419.389	997.88
419.611	931.88
419.834	955.88
420.057	929.88
420.28	940.88
420.503	941.88
420.726	942.88
420.948	971.88
421.171	930.88
421.394	929.88
421.617	966.88
421.839	999.88
422.062	988.88
422.285	921.88
422.507	924.88
422.73	890.88
422.953	883.88
423.175	876.88
423.398	917.88
423.621	899.88
423.843	917.88
424.066	963.88
424.288	1053.88
424.511	1042.88
424.733	1004.88
424.956	946.88
425.178	929.88
425.401	942.88
425.623	965.88
425.846	933.88
426.068	961.88
426.291	998.88
426.513	961.88
426.735	964.88
426.958	1043.88
427.18	1077.88
427.402	982.88
427.625	1009.88
427.847	978.88
428.069	884.88
428.292	923.88
428.514	908.88
428.736	903.88
428.958	907.88
429.181	921.88
429.403	1073.88
429.625	1217.88
429.847	1052.88
430.069	963.88
430.292	1050.88
430.514	1002.88
430.736	976.88
430.958	981.88
431.18	930.88
431.402	905.88
431.624	841.88
431.846	812.88
432.068	734.88
432.29	730.88
432.512	807.88
432.734	878.88
432.956	902.88
433.178	953.88
433.4	954.88
433.622	932.88
433.844	915.88
434.066	847.88
434.287	801.88
434.509	792.88
434.731	833.88
434.953	942.88
435.175	946.88
435.397	896.88
435.618	896.88
435.84	853.88
436.062	860.88
436.284	887.88
436.505	925.88
436.727	957.88
436.949	924.88
437.17	891.88
437.392	882.88
437.614	853.88
437.835	804.88
438.057	835.88
438.278	856.88
438.5	877.88
438.721	902.88
438.943	907.88
439.165	907.88
439.386	933.88
439.608	967.88
439.829	974.88
440.05	973.88
440.272	938.88
440.493	949.88
440.715	978.88
440.936	1043.88
441.158	1073.88
441.379	1009.88
441.6	1034.88
441.822	1040.88
442.043	1035.88
442.264	987.88
442.486	933.88
442.707	950.88
442.928	953.88
443.149	1012.88
443.371	1034.88
443.592	1026.88
443.813	1027.88
444.034	1013.88
444.255	1038.88
444.476	1027.88
444.698	1031.88
444.919	1034.88
445.14	1116.88
445.361	1078.88
445.582	1060.88
445.803	1047.88
446.024	1053.88
446.245	1079.88
446.466	1063.88
446.687	1031.88
446.908	1064.88
447.129	1029.88
447.35	998.88
447.571	1010.88
447.792	967.88
448.013	947.88
448.234	967.88
448.455	1006.88
448.675	984.88
448.896	903.88
449.117	899.88
449.338	936.88
449.559	975.88
449.779	983.88
450	1021.88
450.221	1053.88
450.442	1007.88
450.662	926.88
450.883	874.88
451.104	867.88
451.324	884.88
451.545	881.88
451.766	854.88
451.986	838.88
452.207	803.88
452.428	803.88
452.648	768.88
452.869	792.88
453.089	805.88
453.31	775.88
453.53	781.88
453.751	724.88
453.971	711.88
454.192	744.88
454.412	789.88
454.633	793.88
454.853	756.88
455.073	738.88
455.294	769.88
455.514	778.88
455.734	757.88
455.955	774.88
456.175	734.88
456.395	742.88
456.616	742.88
456.836	729.88
457.056	721.88
457.276	732.88
457.497	674.88
457.717	694.88
457.937	709.88
458.157	725.88
458.377	678.88
458.598	664.88
458.818	684.88
459.038	727.88
459.258	704.88
459.478	701.88
459.698	701.88
459.918	761.88
460.138	806.88
460.358	832.88
460.578	842.88
460.798	859.88
461.018	893.88
461.238	873.88
461.458	866.88
461.678	848.88
461.898	827.88
462.118	803.88
462.338	854.88
462.558	867.88
462.777	856.88
462.997	859.88
463.217	900.88
463.437	865.88
463.657	875.88
463.876	837.88
464.096	837.88
464.316	861.88
464.536	863.88
464.755	885.88
464.975	887.88
465.195	861.88
465.414	883.88
465.634	878.88
465.854	899.88
466.073	988.88
466.293	949.88
466.512	878.88
466.732	890.88
466.951	900.88
467.171	923.88
467.391	862.88
467.61	878.88
467.829	918.88
468.049	999.88
468.268	1039.88
468.488	951.88
468.707	914.88
468.927	914.88
469.146	893.88
469.365	918.88
469.585	936.88
469.804	929.88
470.023	918.88
470.243	929.88
470.462	911.88
470.681	928.88
470.901	920.88
471.12	955.88
471.339	926.88
471.558	890.88
471.777	915.88
471.997	882.88
472.216	853.88
472.435	776.88
472.654	781.88
472.873	791.88
473.092	840.88
473.311	847.88
473.53	807.88
473.749	826.88
473.968	848.88
474.187	845.88
474.406	863.88
474.625	844.88
474.844	870.88
475.063	862.88
475.282	864.88
475.501	819.88
475.72	826.88
475.939	885.88
476.158	895.88
476.377	876.88
476.596	844.88
476.814	826.88
477.033	829.88
477.252	868.88
477.471	901.88
477.69	901.88
477.908	948.88
478.127	996.88
478.346	1005.88
478.564	1015.88
478.783	997.88
479.002	1023.88
479.22	1000.88
479.439	1031.88
479.658	1023.88
479.876	977.88
480.095	919.88
480.313	886.88
480.532	885.88
480.751	877.88
480.969	819.88
481.188	781.88
481.406	778.88
481.624	768.88
481.843	804.88
482.061	831.88
482.28	870.88
482.498	877.88
482.717	845.88
482.935	902.88
483.153	968.88
483.372	1005.88
483.59	999.88
483.808	958.88
484.027	964.88
484.245	1006.88
484.463	1228.88
484.681	1267.88
484.9	1041.88
485.118	960.88
485.336	941.88
485.554	905.88
485.772	887.88
485.99	891.88
486.209	925.88
486.427	923.88
486.645	956.88
486.863	1011.88
487.081	1029.88
487.299	1000.88
487.517	1006.88
487.735	1082.88
487.953	1187.88
488.171	1161.88
488.389	1145.88
488.607	1073.88
488.825	1155.88
489.043	1063.88
489.261	966.88
489.479	1079.88
489.696	1043.88
489.914	1053.88
490.132	1047.88
490.35	1087.88
490.568	1155.88
490.786	1186.88
491.003	1177.88
491.221	1214.88
491.439	1273.88
491.657	1330.88
491.874	1333.88
492.092	1459.88
492.31	1473.88
492.527	1455.88
492.745	1389.88
492.963	1323.88
493.18	1313.88
493.398	1351.88
493.615	1371.88
493.833	1274.88
494.05	1222.88
494.268	1233.88
494.485	1241.88
494.703	1235.88
494.92	1244.88
495.138	1242.88
495.355	1249.88
495.573	1231.88
495.79	1291.88
496.008	1293.88
496.225	1249.88
496.442	1226.88
496.66	1248.88
496.877	1196.88
497.094	1245.88
497.312	1206.88
497.529	1207.88
497.746	1173.88
497.963	1285.88
498.181	1301.88
498.398	1250.88
498.615	1223.88
498.832	1188.88
499.049	1167.88
499.267	1185.88
499.484	1246.88
499.701	1353.88
499.918	1382.88
500.135	1486.88
500.352	1566.88
