Data from WStandard_LampEnergy8_LIBS07252019.E.O._I.C._HRD10591_16-00-10-935.txt Node
Date: Thu Jul 25 16:00:10 EDT 2019
User: cochatt
Spectrometer: HR+D1059
Trigger mode: 1
Integration Time (sec): 1.000000E-1
Scans to average: 1
Electric dark correction enabled: true
Nonlinearity correction enabled: false
Boxcar width: 0
XAxis mode: Wavelengths
Number of Pixels in Spectrum: 2048
>>>>>Begin Spectral Data<<<<<
223.165	-16.38
223.4	-16.38
223.635	-16.38
223.869	-21.38
224.104	-16.38
224.338	-27.38
224.573	-23.38
224.808	-21.38
225.042	9.62
225.277	-9.38
225.511	5.62
225.746	0.62
225.98	-1.38
226.215	6.62
226.449	22.62
226.683	27.62
226.918	31.62
227.152	32.62
227.387	36.62
227.621	35.62
227.856	42.62
228.09	42.62
228.324	43.62
228.559	52.62
228.793	105.62
229.027	191.62
229.262	188.62
229.496	218.62
229.73	208.62
229.964	231.62
230.199	246.62
230.433	274.62
230.667	279.62
230.901	278.62
231.136	264.62
231.37	266.62
231.604	258.62
231.838	268.62
232.072	244.62
232.306	235.62
232.541	270.62
232.775	276.62
233.009	335.62
233.243	304.62
233.477	291.62
233.711	323.62
233.945	301.62
234.179	279.62
234.413	316.62
234.647	336.62
234.881	313.62
235.115	308.62
235.349	284.62
235.583	294.62
235.817	297.62
236.051	296.62
236.285	311.62
236.519	337.62
236.753	360.62
236.987	378.62
237.221	372.62
237.455	391.62
237.689	383.62
237.922	368.62
238.156	350.62
238.39	355.62
238.624	382.62
238.858	388.62
239.091	384.62
239.325	413.62
239.559	470.62
239.793	503.62
240.027	496.62
240.26	478.62
240.494	386.62
240.728	377.62
240.961	383.62
241.195	373.62
241.429	396.62
241.662	418.62
241.896	373.62
242.13	394.62
242.363	443.62
242.597	472.62
242.83	433.62
243.064	446.62
243.298	473.62
243.531	450.62
243.765	464.62
243.998	434.62
244.232	395.62
244.465	400.62
244.699	408.62
244.932	461.62
245.166	506.62
245.399	483.62
245.633	454.62
245.866	442.62
246.099	472.62
246.333	488.62
246.566	491.62
246.8	532.62
247.033	590.62
247.266	527.62
247.5	517.62
247.733	518.62
247.966	554.62
248.2	598.62
248.433	587.62
248.666	595.62
248.899	656.62
249.133	729.62
249.366	818.62
249.599	694.62
249.832	599.62
250.066	618.62
250.299	612.62
250.532	597.62
250.765	539.62
250.998	562.62
251.231	599.62
251.465	586.62
251.698	573.62
251.931	558.62
252.164	607.62
252.397	607.62
252.63	593.62
252.863	541.62
253.096	563.62
253.329	572.62
253.562	591.62
253.795	633.62
254.028	598.62
254.261	572.62
254.494	570.62
254.727	540.62
254.96	578.62
255.193	615.62
255.426	718.62
255.659	765.62
255.892	791.62
256.124	659.62
256.357	649.62
256.59	705.62
256.823	691.62
257.056	717.62
257.289	840.62
257.521	863.62
257.754	811.62
257.987	811.62
258.22	828.62
258.452	806.62
258.685	660.62
258.918	659.62
259.151	669.62
259.383	642.62
259.616	582.62
259.849	615.62
260.081	697.62
260.314	752.62
260.547	798.62
260.779	802.62
261.012	772.62
261.244	684.62
261.477	658.62
261.71	677.62
261.942	690.62
262.175	659.62
262.407	695.62
262.64	651.62
262.872	609.62
263.105	616.62
263.337	622.62
263.57	650.62
263.802	620.62
264.035	619.62
264.267	578.62
264.499	581.62
264.732	608.62
264.964	640.62
265.197	686.62
265.429	703.62
265.661	773.62
265.894	842.62
266.126	828.62
266.358	774.62
266.591	794.62
266.823	859.62
267.055	789.62
267.287	753.62
267.52	756.62
267.752	746.62
267.984	746.62
268.216	790.62
268.448	817.62
268.681	798.62
268.913	730.62
269.145	705.62
269.377	681.62
269.609	755.62
269.841	865.62
270.073	987.62
270.306	1042.62
270.538	1110.62
270.77	936.62
271.002	802.62
271.234	812.62
271.466	805.62
271.698	891.62
271.93	1061.62
272.162	1030.62
272.394	962.62
272.626	897.62
272.858	789.62
273.09	705.62
273.322	690.62
273.553	671.62
273.785	683.62
274.017	721.62
274.249	764.62
274.481	764.62
274.713	713.62
274.945	703.62
275.176	686.62
275.408	670.62
275.64	688.62
275.872	678.62
276.104	727.62
276.335	825.62
276.567	914.62
276.799	919.62
277.031	813.62
277.262	820.62
277.494	831.62
277.726	892.62
277.957	883.62
278.189	806.62
278.421	754.62
278.652	716.62
278.884	731.62
279.115	734.62
279.347	748.62
279.579	719.62
279.81	715.62
280.042	794.62
280.273	904.62
280.505	882.62
280.736	869.62
280.968	826.62
281.199	743.62
281.431	712.62
281.662	692.62
281.894	719.62
282.125	747.62
282.356	761.62
282.588	766.62
282.819	764.62
283.051	844.62
283.282	892.62
283.513	859.62
283.745	747.62
283.976	711.62
284.207	703.62
284.439	727.62
284.67	754.62
284.901	774.62
285.132	786.62
285.364	760.62
285.595	795.62
285.826	750.62
286.057	745.62
286.288	754.62
286.52	758.62
286.751	847.62
286.982	855.62
287.213	780.62
287.444	716.62
287.675	708.62
287.906	775.62
288.138	837.62
288.369	797.62
288.6	738.62
288.831	733.62
289.062	738.62
289.293	736.62
289.524	745.62
289.755	789.62
289.986	803.62
290.217	708.62
290.448	730.62
290.679	779.62
290.91	759.62
291.141	817.62
291.371	827.62
291.602	838.62
291.833	793.62
292.064	841.62
292.295	820.62
292.526	864.62
292.757	878.62
292.987	826.62
293.218	807.62
293.449	886.62
293.68	984.62
293.91	1011.62
294.141	928.62
294.372	930.62
294.603	969.62
294.833	974.62
295.064	912.62
295.295	837.62
295.525	804.62
295.756	746.62
295.987	704.62
296.217	749.62
296.448	743.62
296.679	778.62
296.909	776.62
297.14	745.62
297.37	778.62
297.601	842.62
297.831	891.62
298.062	847.62
298.292	802.62
298.523	773.62
298.753	760.62
298.984	747.62
299.214	785.62
299.445	812.62
299.675	809.62
299.905	804.62
300.136	830.62
300.366	762.62
300.597	756.62
300.827	765.62
301.057	787.62
301.288	835.62
301.518	859.62
301.748	878.62
301.979	923.62
302.209	927.62
302.439	985.62
302.669	984.62
302.9	893.62
303.13	847.62
303.36	845.62
303.59	853.62
303.82	859.62
304.051	857.62
304.281	857.62
304.511	879.62
304.741	945.62
304.971	1010.62
305.201	1072.62
305.431	971.62
305.661	801.62
305.891	753.62
306.121	745.62
306.352	777.62
306.582	840.62
306.812	900.62
307.042	955.62
307.272	951.62
307.502	965.62
307.731	1033.62
307.961	1078.62
308.191	964.62
308.421	870.62
308.651	832.62
308.881	802.62
309.111	818.62
309.341	809.62
309.571	826.62
309.8	827.62
310.03	820.62
310.26	819.62
310.49	801.62
310.72	843.62
310.949	860.62
311.179	882.62
311.409	875.62
311.639	871.62
311.868	858.62
312.098	822.62
312.328	844.62
312.557	850.62
312.787	839.62
313.017	847.62
313.246	870.62
313.476	857.62
313.706	892.62
313.935	898.62
314.165	890.62
314.394	929.62
314.624	968.62
314.853	1011.62
315.083	1058.62
315.312	1082.62
315.542	991.62
315.771	878.62
316.001	896.62
316.23	949.62
316.46	923.62
316.689	927.62
316.919	886.62
317.148	839.62
317.377	903.62
317.607	969.62
317.836	1071.62
318.065	1045.62
318.295	1019.62
318.524	962.62
318.753	934.62
318.983	922.62
319.212	914.62
319.441	885.62
319.67	918.62
319.9	954.62
320.129	975.62
320.358	991.62
320.587	1011.62
320.816	1028.62
321.046	987.62
321.275	962.62
321.504	999.62
321.733	1043.62
321.962	1022.62
322.191	926.62
322.42	907.62
322.649	912.62
322.878	899.62
323.108	905.62
323.337	965.62
323.566	939.62
323.795	956.62
324.024	922.62
324.253	927.62
324.482	927.62
324.71	888.62
324.939	855.62
325.168	898.62
325.397	922.62
325.626	932.62
325.855	943.62
326.084	904.62
326.313	919.62
326.542	943.62
326.77	957.62
326.999	957.62
327.228	894.62
327.457	845.62
327.686	874.62
327.914	901.62
328.143	922.62
328.372	903.62
328.6	909.62
328.829	888.62
329.058	897.62
329.287	901.62
329.515	939.62
329.744	949.62
329.972	972.62
330.201	1043.62
330.43	1001.62
330.658	992.62
330.887	996.62
331.115	978.62
331.344	985.62
331.572	953.62
331.801	969.62
332.03	987.62
332.258	1014.62
332.486	997.62
332.715	968.62
332.943	1006.62
333.172	988.62
333.4	988.62
333.629	1020.62
333.857	1096.62
334.085	1198.62
334.314	1370.62
334.542	1410.62
334.771	1317.62
334.999	1148.62
335.227	1099.62
335.455	1018.62
335.684	1056.62
335.912	1058.62
336.14	1059.62
336.369	1011.62
336.597	986.62
336.825	971.62
337.053	1024.62
337.281	1096.62
337.51	1152.62
337.738	1155.62
337.966	1085.62
338.194	1013.62
338.422	983.62
338.65	995.62
338.878	944.62
339.106	924.62
339.334	943.62
339.562	908.62
339.79	895.62
340.018	1001.62
340.246	1024.62
340.474	988.62
340.702	1011.62
340.93	1010.62
341.158	1010.62
341.386	979.62
341.614	973.62
341.842	981.62
342.07	977.62
342.298	961.62
342.526	988.62
342.754	974.62
342.981	993.62
343.209	968.62
343.437	972.62
343.665	961.62
343.893	1024.62
344.12	1046.62
344.348	1032.62
344.576	987.62
344.804	968.62
345.031	980.62
345.259	946.62
345.487	940.62
345.714	900.62
345.942	911.62
346.17	908.62
346.397	933.62
346.625	935.62
346.853	892.62
347.08	891.62
347.308	917.62
347.535	923.62
347.763	950.62
347.99	931.62
348.218	889.62
348.445	903.62
348.673	926.62
348.9	964.62
349.128	994.62
349.355	1010.62
349.583	959.62
349.81	921.62
350.037	864.62
350.265	848.62
350.492	882.62
350.72	914.62
350.947	946.62
351.174	948.62
351.402	908.62
351.629	861.62
351.856	849.62
352.083	868.62
352.311	861.62
352.538	890.62
352.765	920.62
352.992	909.62
353.22	894.62
353.447	858.62
353.674	886.62
353.901	930.62
354.128	903.62
354.355	897.62
354.583	924.62
354.81	962.62
355.037	906.62
355.264	950.62
355.491	934.62
355.718	922.62
355.945	920.62
356.172	886.62
356.399	888.62
356.626	890.62
356.853	939.62
357.08	1006.62
357.307	1100.62
357.534	1030.62
357.761	947.62
357.988	876.62
358.215	880.62
358.441	867.62
358.668	875.62
358.895	914.62
359.122	959.62
359.349	1030.62
359.576	1002.62
359.802	917.62
360.029	881.62
360.256	851.62
360.483	908.62
360.709	946.62
360.936	970.62
361.163	1004.62
361.39	1105.62
361.616	1186.62
361.843	1164.62
362.07	1059.62
362.296	937.62
362.523	921.62
362.749	908.62
362.976	934.62
363.203	937.62
363.429	913.62
363.656	908.62
363.882	964.62
364.109	1052.62
364.335	1098.62
364.562	1018.62
364.788	973.62
365.015	927.62
365.241	902.62
365.468	917.62
365.694	939.62
365.92	956.62
366.147	942.62
366.373	885.62
366.599	894.62
366.826	904.62
367.052	907.62
367.278	910.62
367.505	950.62
367.731	939.62
367.957	962.62
368.184	976.62
368.41	1032.62
368.636	1045.62
368.862	1058.62
369.089	1041.62
369.315	986.62
369.541	970.62
369.767	926.62
369.993	919.62
370.219	933.62
370.445	946.62
370.672	1011.62
370.898	1074.62
371.124	1025.62
371.35	983.62
371.576	1040.62
371.802	1043.62
372.028	985.62
372.254	947.62
372.48	920.62
372.706	931.62
372.932	947.62
373.158	930.62
373.384	966.62
373.61	985.62
373.835	1030.62
374.061	974.62
374.287	995.62
374.513	980.62
374.739	1000.62
374.965	996.62
375.191	998.62
375.416	1014.62
375.642	1039.62
375.868	1086.62
376.094	1083.62
376.319	1030.62
376.545	990.62
376.771	1030.62
376.997	1074.62
377.222	1037.62
377.448	994.62
377.674	1038.62
377.899	1048.62
378.125	1114.62
378.35	1046.62
378.576	965.62
378.802	939.62
379.027	954.62
379.253	976.62
379.478	960.62
379.704	977.62
379.929	966.62
380.155	994.62
380.38	966.62
380.606	998.62
380.831	1019.62
381.057	1059.62
381.282	1075.62
381.507	1042.62
381.733	1111.62
381.958	1141.62
382.184	1043.62
382.409	1016.62
382.634	1021.62
382.86	1034.62
383.085	1020.62
383.31	1095.62
383.535	1187.62
383.761	1225.62
383.986	1164.62
384.211	1099.62
384.436	1114.62
384.662	1162.62
384.887	1187.62
385.112	1131.62
385.337	1131.62
385.562	1094.62
385.787	1113.62
386.013	1104.62
386.238	1156.62
386.463	1146.62
386.688	1243.62
386.913	1307.62
387.138	1249.62
387.363	1148.62
387.588	1146.62
387.813	1164.62
388.038	1167.62
388.263	1214.62
388.488	1141.62
388.713	1093.62
388.938	1080.62
389.163	1059.62
389.387	1108.62
389.612	1129.62
389.837	1155.62
390.062	1137.62
390.287	1129.62
390.512	1095.62
390.736	1091.62
390.961	1079.62
391.186	1051.62
391.411	1102.62
391.636	1103.62
391.86	1112.62
392.085	1104.62
392.31	1122.62
392.534	1107.62
392.759	1183.62
392.984	1138.62
393.208	1141.62
393.433	1150.62
393.658	1201.62
393.882	1195.62
394.107	1136.62
394.331	1091.62
394.556	1119.62
394.78	1148.62
395.005	1192.62
395.229	1213.62
395.454	1311.62
395.678	1307.62
395.903	1238.62
396.127	1174.62
396.352	1187.62
396.576	1257.62
396.801	1214.62
397.025	1199.62
397.249	1225.62
397.474	1187.62
397.698	1223.62
397.922	1248.62
398.147	1296.62
398.371	1330.62
398.595	1307.62
398.82	1314.62
399.044	1316.62
399.268	1377.62
399.492	1442.62
399.717	1486.62
399.941	1466.62
400.165	1448.62
400.389	1438.62
400.613	1419.62
400.837	1622.62
401.062	1801.62
401.286	1532.62
401.51	1433.62
401.734	1460.62
401.958	1393.62
402.182	1312.62
402.406	1289.62
402.63	1246.62
402.854	1269.62
403.078	1284.62
403.302	1320.62
403.526	1311.62
403.75	1331.62
403.974	1372.62
404.198	1362.62
404.422	1408.62
404.645	1472.62
404.869	1401.62
405.093	1274.62
405.317	1274.62
405.541	1329.62
405.765	1322.62
405.988	1346.62
406.212	1379.62
406.436	1387.62
406.66	1437.62
406.883	1454.62
407.107	1657.62
407.331	1774.62
407.555	1922.62
407.778	1692.62
408.002	1434.62
408.226	1417.62
408.449	1418.62
408.673	1348.62
408.896	1333.62
409.12	1398.62
409.344	1365.62
409.567	1315.62
409.791	1364.62
410.014	1386.62
410.238	1481.62
410.461	1505.62
410.685	1361.62
410.908	1332.62
411.132	1354.62
411.355	1321.62
411.578	1344.62
411.802	1323.62
412.025	1337.62
412.249	1279.62
412.472	1311.62
412.695	1300.62
412.919	1257.62
413.142	1284.62
413.365	1319.62
413.589	1348.62
413.812	1392.62
414.035	1405.62
414.258	1316.62
414.482	1306.62
414.705	1312.62
414.928	1311.62
415.151	1293.62
415.374	1293.62
415.597	1343.62
415.821	1330.62
416.044	1323.62
416.267	1334.62
416.49	1240.62
416.713	1248.62
416.936	1322.62
417.159	1368.62
417.382	1362.62
417.605	1297.62
417.828	1310.62
418.051	1343.62
418.274	1300.62
418.497	1279.62
418.72	1305.62
418.943	1258.62
419.166	1308.62
419.389	1379.62
419.611	1274.62
419.834	1288.62
420.057	1300.62
420.28	1299.62
420.503	1273.62
420.726	1292.62
420.948	1332.62
421.171	1253.62
421.394	1255.62
421.617	1331.62
421.839	1346.62
422.062	1273.62
422.285	1263.62
422.507	1236.62
422.73	1210.62
422.953	1221.62
423.175	1209.62
423.398	1291.62
423.621	1243.62
423.843	1271.62
424.066	1306.62
424.288	1359.62
424.511	1399.62
424.733	1364.62
424.956	1227.62
425.178	1240.62
425.401	1229.62
425.623	1242.62
425.846	1256.62
426.068	1298.62
426.291	1334.62
426.513	1308.62
426.735	1320.62
426.958	1374.62
427.18	1476.62
427.402	1360.62
427.625	1387.62
427.847	1390.62
428.069	1292.62
428.292	1208.62
428.514	1243.62
428.736	1221.62
428.958	1233.62
429.181	1305.62
429.403	1491.62
429.625	1752.62
429.847	1429.62
430.069	1303.62
430.292	1448.62
430.514	1451.62
430.736	1342.62
430.958	1373.62
431.18	1280.62
431.402	1203.62
431.624	1210.62
431.846	1168.62
432.068	1139.62
432.29	1132.62
432.512	1187.62
432.734	1227.62
432.956	1284.62
433.178	1321.62
433.4	1334.62
433.622	1310.62
433.844	1249.62
434.066	1193.62
434.287	1203.62
434.509	1223.62
434.731	1225.62
434.953	1346.62
435.175	1293.62
435.397	1262.62
435.618	1248.62
435.84	1237.62
436.062	1250.62
436.284	1270.62
436.505	1305.62
436.727	1291.62
436.949	1225.62
437.17	1210.62
437.392	1211.62
437.614	1209.62
437.835	1157.62
438.057	1220.62
438.278	1286.62
438.5	1199.62
438.721	1214.62
438.943	1248.62
439.165	1195.62
439.386	1225.62
439.608	1193.62
439.829	1250.62
440.05	1220.62
440.272	1236.62
440.493	1217.62
440.715	1251.62
440.936	1321.62
441.158	1420.62
441.379	1365.62
441.6	1360.62
441.822	1328.62
442.043	1348.62
442.264	1297.62
442.486	1219.62
442.707	1230.62
442.928	1263.62
443.149	1312.62
443.371	1302.62
443.592	1382.62
443.813	1360.62
444.034	1342.62
444.255	1335.62
444.476	1398.62
444.698	1396.62
444.919	1401.62
445.14	1459.62
445.361	1420.62
445.582	1438.62
445.803	1390.62
446.024	1364.62
446.245	1349.62
446.466	1374.62
446.687	1320.62
446.908	1384.62
447.129	1298.62
447.35	1313.62
447.571	1279.62
447.792	1226.62
448.013	1214.62
448.234	1257.62
448.455	1314.62
448.675	1330.62
448.896	1239.62
449.117	1186.62
449.338	1225.62
449.559	1251.62
449.779	1330.62
450	1368.62
450.221	1458.62
450.442	1406.62
450.662	1279.62
450.883	1174.62
451.104	1155.62
451.324	1202.62
451.545	1225.62
451.766	1169.62
451.986	1114.62
452.207	1134.62
452.428	1120.62
452.648	1095.62
452.869	1091.62
453.089	1144.62
453.31	1095.62
453.53	1146.62
453.751	1117.62
453.971	1058.62
454.192	1063.62
454.412	1161.62
454.633	1167.62
454.853	1114.62
455.073	1029.62
455.294	1023.62
455.514	1053.62
455.734	1053.62
455.955	1087.62
456.175	1048.62
456.395	1035.62
456.616	1076.62
456.836	1083.62
457.056	1048.62
457.276	1075.62
457.497	1040.62
457.717	1013.62
457.937	1050.62
458.157	1035.62
458.377	1046.62
458.598	1032.62
458.818	1043.62
459.038	1102.62
459.258	1144.62
459.478	1152.62
459.698	1106.62
459.918	1158.62
460.138	1216.62
460.358	1219.62
460.578	1228.62
460.798	1253.62
461.018	1353.62
461.238	1274.62
461.458	1261.62
461.678	1249.62
461.898	1154.62
462.118	1204.62
462.338	1234.62
462.558	1242.62
462.777	1251.62
462.997	1281.62
463.217	1328.62
463.437	1331.62
463.657	1245.62
463.876	1227.62
464.096	1242.62
464.316	1247.62
464.536	1299.62
464.755	1299.62
464.975	1271.62
465.195	1256.62
465.414	1302.62
465.634	1249.62
465.854	1284.62
466.073	1359.62
466.293	1328.62
466.512	1216.62
466.732	1212.62
466.951	1224.62
467.171	1190.62
467.391	1196.62
467.61	1164.62
467.829	1235.62
468.049	1333.62
468.268	1458.62
468.488	1354.62
468.707	1258.62
468.927	1229.62
469.146	1215.62
469.365	1222.62
469.585	1220.62
469.804	1216.62
470.023	1193.62
470.243	1230.62
470.462	1230.62
470.681	1234.62
470.901	1228.62
471.12	1215.62
471.339	1235.62
471.558	1209.62
471.777	1182.62
471.997	1198.62
472.216	1161.62
472.435	1123.62
472.654	1122.62
472.873	1167.62
473.092	1242.62
473.311	1165.62
473.53	1127.62
473.749	1145.62
473.968	1165.62
474.187	1217.62
474.406	1196.62
474.625	1191.62
474.844	1210.62
475.063	1206.62
475.282	1205.62
475.501	1221.62
475.72	1193.62
475.939	1272.62
476.158	1212.62
476.377	1211.62
476.596	1182.62
476.814	1203.62
477.033	1203.62
477.252	1268.62
477.471	1301.62
477.69	1259.62
477.908	1239.62
478.127	1343.62
478.346	1404.62
478.564	1420.62
478.783	1401.62
479.002	1426.62
479.22	1403.62
479.439	1448.62
479.658	1544.62
479.876	1501.62
480.095	1350.62
480.313	1288.62
480.532	1260.62
480.751	1297.62
480.969	1302.62
481.188	1276.62
481.406	1252.62
481.624	1210.62
481.843	1261.62
482.061	1290.62
482.28	1338.62
482.498	1315.62
482.717	1316.62
482.935	1304.62
483.153	1337.62
483.372	1368.62
483.59	1384.62
483.808	1348.62
484.027	1367.62
484.245	1428.62
484.463	1720.62
484.681	1848.62
484.9	1476.62
485.118	1374.62
485.336	1316.62
485.554	1362.62
485.772	1394.62
485.99	1352.62
486.209	1367.62
486.427	1337.62
486.645	1372.62
486.863	1404.62
487.081	1434.62
487.299	1433.62
487.517	1435.62
487.735	1463.62
487.953	1525.62
488.171	1469.62
488.389	1458.62
488.607	1449.62
488.825	1605.62
489.043	1551.62
489.261	1403.62
489.479	1476.62
489.696	1455.62
489.914	1467.62
490.132	1412.62
490.35	1423.62
490.568	1536.62
490.786	1490.62
491.003	1451.62
491.221	1557.62
491.439	1599.62
491.657	1572.62
491.874	1590.62
492.092	1622.62
492.31	1677.62
492.527	1627.62
492.745	1577.62
492.963	1548.62
493.18	1610.62
493.398	1706.62
493.615	1696.62
493.833	1584.62
