Data from WStandard_LampEnergy5.5LIBS07252019.E.O._I.C._HRD10591_16-08-44-920.txt Node
Date: Thu Jul 25 16:08:44 EDT 2019
User: cochatt
Spectrometer: HR+D1059
Trigger mode: 1
Integration Time (sec): 1.000000E-1
Scans to average: 1
Electric dark correction enabled: true
Nonlinearity correction enabled: false
Boxcar width: 0
XAxis mode: Wavelengths
Number of Pixels in Spectrum: 2048
>>>>>Begin Spectral Data<<<<<
223.165	-6.31
223.4	-6.31
223.635	-6.31
223.869	-12.31
224.104	-18.31
224.338	-3.31
224.573	-3.31
224.808	-34.31
225.042	-25.31
225.277	-10.31
225.511	-6.31
225.746	9.69
225.98	6.69
226.215	9.69
226.449	9.69
226.683	26.69
226.918	25.69
227.152	31.69
227.387	37.69
227.621	38.69
227.856	35.69
228.09	53.69
228.324	37.69
228.559	56.69
228.793	144.69
229.027	385.69
229.262	367.69
229.496	383.69
229.73	388.69
229.964	435.69
230.199	461.69
230.433	463.69
230.667	494.69
230.901	513.69
231.136	463.69
231.37	452.69
231.604	441.69
231.838	448.69
232.072	474.69
232.306	440.69
232.541	450.69
232.775	558.69
233.009	567.69
233.243	562.69
233.477	524.69
233.711	537.69
233.945	534.69
234.179	485.69
234.413	554.69
234.647	614.69
234.881	571.69
235.115	528.69
235.349	552.69
235.583	541.69
235.817	563.69
236.051	530.69
236.285	537.69
236.519	567.69
236.753	651.69
236.987	669.69
237.221	664.69
237.455	713.69
237.689	701.69
237.922	666.69
238.156	642.69
238.39	647.69
238.624	690.69
238.858	743.69
239.091	743.69
239.325	753.69
239.559	881.69
239.793	954.69
240.027	980.69
240.26	1001.69
240.494	751.69
240.728	693.69
240.961	704.69
241.195	711.69
241.429	805.69
241.662	829.69
241.896	745.69
242.13	733.69
242.363	821.69
242.597	883.69
242.83	849.69
243.064	883.69
243.298	957.69
243.531	905.69
243.765	915.69
243.998	911.69
244.232	795.69
244.465	746.69
244.699	774.69
244.932	881.69
245.166	1039.69
245.399	961.69
245.633	886.69
245.866	870.69
246.099	925.69
246.333	943.69
246.566	934.69
246.8	1021.69
247.033	1171.69
247.266	1061.69
247.5	1011.69
247.733	1043.69
247.966	1070.69
248.2	1234.69
248.433	1152.69
248.666	1169.69
248.899	1293.69
249.133	1503.69
249.366	1743.69
249.599	1385.69
249.832	1188.69
250.066	1225.69
250.299	1284.69
250.532	1198.69
250.765	1054.69
250.998	1124.69
251.231	1195.69
251.465	1237.69
251.698	1152.69
251.931	1178.69
252.164	1175.69
252.397	1224.69
252.63	1201.69
252.863	1075.69
253.096	1076.69
253.329	1156.69
253.562	1174.69
253.795	1273.69
254.028	1241.69
254.261	1184.69
254.494	1146.69
254.727	1102.69
254.96	1131.69
255.193	1241.69
255.426	1375.69
255.659	1593.69
255.892	1605.69
256.124	1338.69
256.357	1298.69
256.59	1382.69
256.823	1416.69
257.056	1411.69
257.289	1687.69
257.521	1879.69
257.754	1647.69
257.987	1580.69
258.22	1745.69
258.452	1705.69
258.685	1411.69
258.918	1373.69
259.151	1327.69
259.383	1306.69
259.616	1149.69
259.849	1173.69
260.081	1383.69
260.314	1527.69
260.547	1654.69
260.779	1689.69
261.012	1563.69
261.244	1402.69
261.477	1339.69
261.71	1408.69
261.942	1399.69
262.175	1356.69
262.407	1433.69
262.64	1351.69
262.872	1252.69
263.105	1204.69
263.337	1243.69
263.57	1257.69
263.802	1277.69
264.035	1213.69
264.267	1144.69
264.499	1107.69
264.732	1191.69
264.964	1259.69
265.197	1320.69
265.429	1342.69
265.661	1537.69
265.894	1700.69
266.126	1782.69
266.358	1574.69
266.591	1595.69
266.823	1763.69
267.055	1557.69
267.287	1541.69
267.52	1533.69
267.752	1514.69
267.984	1517.69
268.216	1595.69
268.448	1626.69
268.681	1632.69
268.913	1488.69
269.145	1373.69
269.377	1339.69
269.609	1463.69
269.841	1671.69
270.073	1986.69
270.306	2207.69
270.538	2388.69
270.77	2002.69
271.002	1673.69
271.234	1600.69
271.466	1617.69
271.698	1807.69
271.93	2134.69
272.162	2169.69
272.394	1913.69
272.626	1870.69
272.858	1650.69
273.09	1452.69
273.322	1406.69
273.553	1327.69
273.785	1370.69
274.017	1411.69
274.249	1530.69
274.481	1533.69
274.713	1429.69
274.945	1354.69
275.176	1407.69
275.408	1374.69
275.64	1365.69
275.872	1331.69
276.104	1421.69
276.335	1630.69
276.567	1876.69
276.799	1861.69
277.031	1683.69
277.262	1547.69
277.494	1650.69
277.726	1813.69
277.957	1832.69
278.189	1648.69
278.421	1464.69
278.652	1486.69
278.884	1455.69
279.115	1478.69
279.347	1487.69
279.579	1444.69
279.81	1401.69
280.042	1583.69
280.273	1744.69
280.505	1745.69
280.736	1768.69
280.968	1727.69
281.199	1453.69
281.431	1428.69
281.662	1424.69
281.894	1435.69
282.125	1453.69
282.356	1517.69
282.588	1564.69
282.819	1530.69
283.051	1653.69
283.282	1781.69
283.513	1682.69
283.745	1517.69
283.976	1384.69
284.207	1403.69
284.439	1419.69
284.67	1470.69
284.901	1497.69
285.132	1494.69
285.364	1488.69
285.595	1501.69
285.826	1486.69
286.057	1464.69
286.288	1445.69
286.52	1503.69
286.751	1660.69
286.982	1713.69
287.213	1579.69
287.444	1421.69
287.675	1425.69
287.906	1482.69
288.138	1620.69
288.369	1568.69
288.6	1472.69
288.831	1438.69
289.062	1451.69
289.293	1495.69
289.524	1499.69
289.755	1506.69
289.986	1560.69
290.217	1433.69
290.448	1437.69
290.679	1499.69
290.91	1514.69
291.141	1518.69
291.371	1611.69
291.602	1583.69
291.833	1575.69
292.064	1617.69
292.295	1593.69
292.526	1617.69
292.757	1729.69
292.987	1613.69
293.218	1509.69
293.449	1628.69
293.68	1841.69
293.91	1960.69
294.141	1869.69
294.372	1747.69
294.603	1798.69
294.833	1911.69
295.064	1799.69
295.295	1624.69
295.525	1575.69
295.756	1446.69
295.987	1419.69
296.217	1416.69
296.448	1466.69
296.679	1462.69
296.909	1454.69
297.14	1456.69
297.37	1481.69
297.601	1544.69
297.831	1699.69
298.062	1729.69
298.292	1540.69
298.523	1492.69
298.753	1466.69
298.984	1575.69
299.214	1521.69
299.445	1546.69
299.675	1585.69
299.905	1611.69
300.136	1565.69
300.366	1496.69
300.597	1451.69
300.827	1443.69
301.057	1486.69
301.288	1570.69
301.518	1574.69
301.748	1606.69
301.979	1683.69
302.209	1702.69
302.439	1789.69
302.669	1925.69
302.9	1821.69
303.13	1604.69
303.36	1579.69
303.59	1651.69
303.82	1589.69
304.051	1584.69
304.281	1597.69
304.511	1598.69
304.741	1725.69
304.971	1834.69
305.201	2050.69
305.431	1875.69
305.661	1563.69
305.891	1420.69
306.121	1427.69
306.352	1456.69
306.582	1535.69
306.812	1671.69
307.042	1781.69
307.272	1761.69
307.502	1817.69
307.731	1936.69
307.961	2121.69
308.191	1919.69
308.421	1659.69
308.651	1566.69
308.881	1561.69
309.111	1562.69
309.341	1548.69
309.571	1527.69
309.8	1538.69
310.03	1499.69
310.26	1522.69
310.49	1539.69
310.72	1586.69
310.949	1678.69
311.179	1695.69
311.409	1609.69
311.639	1585.69
311.868	1543.69
312.098	1569.69
312.328	1509.69
312.557	1587.69
312.787	1583.69
313.017	1628.69
313.246	1619.69
313.476	1628.69
313.706	1672.69
313.935	1657.69
314.165	1661.69
314.394	1675.69
314.624	1815.69
314.853	1906.69
315.083	1984.69
315.312	2045.69
315.542	1898.69
315.771	1681.69
316.001	1652.69
316.23	1764.69
316.46	1765.69
316.689	1757.69
316.919	1634.69
317.148	1558.69
317.377	1536.69
317.607	1697.69
317.836	1894.69
318.065	1989.69
318.295	1928.69
318.524	1833.69
318.753	1754.69
318.983	1774.69
319.212	1685.69
319.441	1703.69
319.67	1688.69
319.9	1704.69
320.129	1798.69
320.358	1818.69
320.587	1928.69
320.816	1874.69
321.046	1864.69
321.275	1737.69
321.504	1754.69
321.733	1932.69
321.962	1877.69
322.191	1705.69
322.42	1732.69
322.649	1709.69
322.878	1683.69
323.108	1677.69
323.337	1787.69
323.566	1755.69
323.795	1779.69
324.024	1730.69
324.253	1697.69
324.482	1742.69
324.71	1681.69
324.939	1609.69
325.168	1627.69
325.397	1637.69
325.626	1737.69
325.855	1803.69
326.084	1678.69
326.313	1694.69
326.542	1720.69
326.77	1765.69
326.999	1777.69
327.228	1727.69
327.457	1665.69
327.686	1569.69
327.914	1670.69
328.143	1734.69
328.372	1694.69
328.6	1698.69
328.829	1680.69
329.058	1649.69
329.287	1659.69
329.515	1661.69
329.744	1745.69
329.972	1819.69
330.201	1897.69
330.43	1887.69
330.658	1748.69
330.887	1822.69
331.115	1780.69
331.344	1831.69
331.572	1799.69
331.801	1766.69
332.03	1773.69
332.258	1809.69
332.486	1809.69
332.715	1864.69
332.943	1863.69
333.172	1786.69
333.4	1817.69
333.629	1853.69
333.857	1943.69
334.085	2177.69
334.314	2423.69
334.542	2719.69
334.771	2497.69
334.999	2131.69
335.227	2055.69
335.455	1899.69
335.684	1897.69
335.912	1982.69
336.14	2058.69
336.369	1981.69
336.597	1870.69
336.825	1841.69
337.053	1869.69
337.281	1961.69
337.51	2057.69
337.738	2136.69
337.966	2053.69
338.194	1896.69
338.422	1809.69
338.65	1785.69
338.878	1746.69
339.106	1722.69
339.334	1698.69
339.562	1673.69
339.79	1735.69
340.018	1808.69
340.246	1905.69
340.474	1921.69
340.702	1887.69
340.93	1854.69
341.158	1818.69
341.386	1753.69
341.614	1779.69
341.842	1761.69
342.07	1782.69
342.298	1783.69
342.526	1778.69
342.754	1771.69
342.981	1754.69
343.209	1753.69
343.437	1722.69
343.665	1771.69
343.893	1803.69
344.12	1896.69
344.348	1951.69
344.576	1825.69
344.804	1743.69
345.031	1722.69
345.259	1792.69
345.487	1713.69
345.714	1674.69
345.942	1643.69
346.17	1648.69
346.397	1707.69
346.625	1678.69
346.853	1612.69
347.08	1591.69
347.308	1576.69
347.535	1643.69
347.763	1706.69
347.99	1675.69
348.218	1585.69
348.445	1585.69
348.673	1629.69
348.9	1691.69
349.128	1709.69
349.355	1756.69
349.583	1761.69
349.81	1664.69
350.037	1526.69
350.265	1529.69
350.492	1581.69
350.72	1572.69
350.947	1628.69
351.174	1693.69
351.402	1623.69
351.629	1566.69
351.856	1562.69
352.083	1518.69
352.311	1534.69
352.538	1571.69
352.765	1600.69
352.992	1677.69
353.22	1637.69
353.447	1592.69
353.674	1585.69
353.901	1610.69
354.128	1586.69
354.355	1583.69
354.583	1655.69
354.81	1716.69
355.037	1659.69
355.264	1669.69
355.491	1657.69
355.718	1664.69
355.945	1615.69
356.172	1602.69
356.399	1593.69
356.626	1552.69
356.853	1621.69
357.08	1777.69
357.307	1979.69
357.534	1917.69
357.761	1703.69
357.988	1601.69
358.215	1525.69
358.441	1561.69
358.668	1551.69
358.895	1595.69
359.122	1669.69
359.349	1793.69
359.576	1853.69
359.802	1619.69
360.029	1562.69
360.256	1588.69
360.483	1588.69
360.709	1602.69
360.936	1705.69
361.163	1723.69
361.39	1872.69
361.616	2027.69
361.843	2013.69
362.07	1864.69
362.296	1645.69
362.523	1566.69
362.749	1629.69
362.976	1642.69
363.203	1689.69
363.429	1625.69
363.656	1568.69
363.882	1637.69
364.109	1750.69
364.335	1903.69
364.562	1795.69
364.788	1740.69
365.015	1663.69
365.241	1584.69
365.468	1601.69
365.694	1709.69
365.92	1784.69
366.147	1707.69
366.373	1560.69
366.599	1546.69
366.826	1530.69
367.052	1562.69
367.278	1621.69
367.505	1646.69
367.731	1671.69
367.957	1633.69
368.184	1691.69
368.41	1746.69
368.636	1802.69
368.862	1818.69
369.089	1871.69
369.315	1784.69
369.541	1690.69
369.767	1647.69
369.993	1609.69
370.219	1629.69
370.445	1647.69
370.672	1728.69
370.898	1848.69
371.124	1813.69
371.35	1723.69
371.576	1774.69
371.802	1813.69
372.028	1778.69
372.254	1697.69
372.48	1673.69
372.706	1637.69
372.932	1649.69
373.158	1661.69
373.384	1681.69
373.61	1734.69
373.835	1828.69
374.061	1760.69
374.287	1672.69
374.513	1713.69
374.739	1745.69
374.965	1735.69
375.191	1760.69
375.416	1709.69
375.642	1761.69
375.868	1822.69
376.094	1893.69
376.319	1814.69
376.545	1698.69
376.771	1760.69
376.997	1857.69
377.222	1812.69
377.448	1735.69
377.674	1760.69
377.899	1740.69
378.125	1841.69
378.35	1897.69
378.576	1697.69
378.802	1649.69
379.027	1631.69
379.253	1653.69
379.478	1685.69
379.704	1686.69
379.929	1642.69
380.155	1719.69
380.38	1721.69
380.606	1722.69
380.831	1698.69
381.057	1745.69
381.282	1823.69
381.507	1809.69
381.733	1835.69
381.958	1976.69
382.184	1832.69
382.409	1735.69
382.634	1786.69
382.86	1729.69
383.085	1764.69
383.31	1810.69
383.535	1933.69
383.761	2045.69
383.986	2023.69
384.211	1924.69
384.436	1913.69
384.662	1963.69
384.887	2069.69
385.112	1981.69
385.337	1999.69
385.562	1909.69
385.787	1925.69
386.013	2002.69
386.238	2015.69
386.463	2014.69
386.688	2083.69
386.913	2226.69
387.138	2214.69
387.363	2037.69
387.588	2010.69
387.813	1991.69
388.038	2026.69
388.263	2081.69
388.488	2004.69
388.713	1887.69
388.938	1858.69
389.163	1844.69
389.387	1882.69
389.612	1931.69
389.837	1965.69
390.062	1991.69
390.287	1935.69
390.512	1927.69
390.736	1930.69
390.961	1870.69
391.186	1898.69
391.411	1913.69
391.636	1957.69
391.86	1957.69
392.085	1962.69
392.31	1886.69
392.534	1929.69
392.759	1981.69
392.984	1945.69
393.208	1945.69
393.433	1984.69
393.658	2055.69
393.882	2095.69
394.107	2011.69
394.331	1948.69
394.556	1895.69
394.78	1950.69
395.005	1973.69
395.229	2053.69
395.454	2235.69
395.678	2257.69
395.903	2162.69
396.127	2055.69
396.352	2065.69
396.576	2143.69
396.801	2126.69
397.025	2144.69
397.249	2145.69
397.474	2106.69
397.698	2067.69
397.922	2178.69
398.147	2290.69
398.371	2331.69
398.595	2322.69
398.82	2229.69
399.044	2263.69
399.268	2391.69
399.492	2532.69
399.717	2577.69
399.941	2669.69
400.165	2597.69
400.389	2516.69
400.613	2452.69
400.837	2724.69
401.062	3114.69
401.286	2694.69
401.51	2364.69
401.734	2521.69
401.958	2461.69
402.182	2311.69
402.406	2178.69
402.63	2187.69
402.854	2215.69
403.078	2282.69
403.302	2261.69
403.526	2305.69
403.75	2313.69
403.974	2363.69
404.198	2314.69
404.422	2387.69
404.645	2442.69
404.869	2477.69
405.093	2305.69
405.317	2248.69
405.541	2324.69
405.765	2374.69
405.988	2334.69
406.212	2366.69
406.436	2382.69
406.66	2466.69
406.883	2456.69
407.107	2774.69
407.331	2960.69
407.555	3229.69
407.778	3036.69
408.002	2525.69
408.226	2434.69
408.449	2480.69
408.673	2398.69
408.896	2408.69
409.12	2374.69
409.344	2344.69
409.567	2294.69
409.791	2349.69
410.014	2367.69
410.238	2494.69
410.461	2659.69
410.685	2397.69
410.908	2264.69
411.132	2312.69
411.355	2245.69
411.578	2271.69
411.802	2279.69
412.025	2307.69
412.249	2237.69
412.472	2202.69
412.695	2165.69
412.919	2154.69
413.142	2177.69
413.365	2201.69
413.589	2280.69
413.812	2323.69
414.035	2434.69
414.258	2249.69
414.482	2201.69
414.705	2257.69
414.928	2211.69
415.151	2187.69
415.374	2229.69
415.597	2281.69
415.821	2257.69
416.044	2301.69
416.267	2392.69
416.49	2164.69
416.713	2122.69
416.936	2191.69
417.159	2273.69
417.382	2320.69
417.605	2177.69
417.828	2271.69
418.051	2234.69
418.274	2241.69
418.497	2132.69
418.72	2101.69
418.943	2141.69
419.166	2270.69
419.389	2342.69
419.611	2221.69
419.834	2175.69
420.057	2246.69
420.28	2180.69
420.503	2163.69
420.726	2209.69
420.948	2163.69
421.171	2083.69
421.394	2112.69
421.617	2178.69
421.839	2170.69
422.062	2121.69
422.285	2108.69
422.507	2098.69
422.73	2049.69
422.953	2035.69
423.175	2039.69
423.398	2100.69
423.621	2130.69
423.843	2149.69
424.066	2161.69
424.288	2243.69
424.511	2274.69
424.733	2218.69
424.956	2003.69
425.178	2022.69
425.401	2057.69
425.623	2103.69
425.846	2042.69
426.068	2210.69
426.291	2217.69
426.513	2181.69
426.735	2150.69
426.958	2295.69
427.18	2441.69
427.402	2234.69
427.625	2255.69
427.847	2320.69
428.069	2141.69
428.292	2133.69
428.514	2013.69
428.736	2044.69
428.958	2012.69
429.181	2045.69
429.403	2330.69
429.625	2881.69
429.847	2551.69
430.069	2153.69
430.292	2286.69
430.514	2401.69
430.736	2227.69
430.958	2374.69
431.18	2235.69
431.402	2074.69
431.624	2057.69
431.846	2066.69
432.068	1957.69
432.29	2022.69
432.512	2040.69
432.734	2095.69
432.956	2165.69
433.178	2219.69
433.4	2246.69
433.622	2244.69
433.844	2108.69
434.066	2088.69
434.287	2050.69
434.509	2126.69
434.731	2226.69
434.953	2353.69
435.175	2303.69
435.397	2214.69
435.618	2154.69
435.84	2181.69
436.062	2141.69
436.284	2148.69
436.505	2150.69
436.727	2217.69
436.949	2126.69
437.17	2089.69
437.392	2064.69
437.614	2081.69
437.835	2008.69
438.057	2119.69
438.278	2239.69
438.5	2067.69
438.721	2035.69
438.943	2126.69
439.165	2054.69
439.386	2000.69
439.608	2008.69
439.829	2011.69
440.05	2034.69
440.272	2023.69
440.493	1985.69
440.715	2087.69
440.936	2189.69
441.158	2392.69
441.379	2336.69
441.6	2291.69
441.822	2223.69
442.043	2197.69
442.264	2188.69
442.486	2099.69
442.707	2064.69
442.928	2014.69
443.149	2123.69
443.371	2229.69
443.592	2325.69
443.813	2251.69
444.034	2258.69
444.255	2291.69
444.476	2318.69
444.698	2324.69
444.919	2329.69
445.14	2394.69
445.361	2399.69
445.582	2462.69
445.803	2344.69
446.024	2251.69
446.245	2333.69
446.466	2297.69
446.687	2141.69
446.908	2177.69
447.129	2118.69
447.35	2154.69
447.571	2109.69
447.792	2041.69
448.013	2039.69
448.234	2034.69
448.455	2171.69
448.675	2126.69
448.896	1945.69
449.117	1961.69
449.338	2024.69
449.559	2085.69
449.779	2208.69
450	2422.69
450.221	2609.69
450.442	2540.69
450.662	2221.69
450.883	2011.69
451.104	1921.69
451.324	1963.69
451.545	1995.69
451.766	1988.69
451.986	1922.69
452.207	1926.69
452.428	1820.69
452.648	1826.69
452.869	1870.69
453.089	1975.69
453.31	2035.69
453.53	2062.69
453.751	2007.69
453.971	1891.69
454.192	1934.69
454.412	2067.69
454.633	1961.69
454.853	1892.69
455.073	1807.69
455.294	1790.69
455.514	1822.69
455.734	1827.69
455.955	1878.69
456.175	1855.69
456.395	1816.69
456.616	1906.69
456.836	1912.69
457.056	1887.69
457.276	1911.69
457.497	1856.69
457.717	1757.69
457.937	1815.69
458.157	1865.69
458.377	1834.69
458.598	1809.69
458.818	1881.69
459.038	1943.69
459.258	2093.69
459.478	2114.69
459.698	2001.69
459.918	2033.69
460.138	2155.69
460.358	2192.69
460.578	2212.69
460.798	2283.69
461.018	2417.69
461.238	2289.69
461.458	2185.69
461.678	2237.69
461.898	2207.69
462.118	2129.69
462.338	2168.69
462.558	2188.69
462.777	2206.69
462.997	2295.69
463.217	2512.69
463.437	2429.69
463.657	2227.69
463.876	2231.69
464.096	2192.69
464.316	2165.69
464.536	2269.69
464.755	2315.69
464.975	2321.69
465.195	2226.69
465.414	2351.69
465.634	2290.69
465.854	2182.69
466.073	2312.69
466.293	2279.69
466.512	2043.69
466.732	1996.69
466.951	2052.69
467.171	2078.69
467.391	2016.69
467.61	1973.69
467.829	1994.69
468.049	2123.69
468.268	2393.69
468.488	2246.69
468.707	2096.69
468.927	2073.69
469.146	2032.69
469.365	1940.69
469.585	2034.69
469.804	1954.69
470.023	2021.69
470.243	2051.69
470.462	2013.69
470.681	1937.69
470.901	2024.69
471.12	2048.69
471.339	2007.69
471.558	1938.69
471.777	1955.69
471.997	1957.69
472.216	1972.69
472.435	1886.69
472.654	1966.69
472.873	2013.69
473.092	2144.69
473.311	2069.69
473.53	1918.69
473.749	1918.69
473.968	1986.69
474.187	2070.69
474.406	2170.69
474.625	2057.69
474.844	2033.69
475.063	1995.69
475.282	2082.69
475.501	2002.69
475.72	2022.69
475.939	2136.69
476.158	2079.69
476.377	2026.69
476.596	2043.69
476.814	2148.69
477.033	2096.69
477.252	2228.69
477.471	2252.69
477.69	2127.69
477.908	2146.69
478.127	2280.69
478.346	2455.69
478.564	2374.69
478.783	2369.69
479.002	2480.69
479.22	2407.69
479.439	2522.69
479.658	2829.69
479.876	2787.69
480.095	2466.69
480.313	2347.69
480.532	2210.69
480.751	2253.69
480.969	2287.69
481.188	2271.69
481.406	2285.69
481.624	2163.69
481.843	2221.69
482.061	2256.69
482.28	2276.69
482.498	2318.69
482.717	2290.69
482.935	2233.69
483.153	2213.69
483.372	2248.69
483.59	2247.69
483.808	2254.69
484.027	2282.69
484.245	2431.69
484.463	2757.69
484.681	3222.69
484.9	2518.69
485.118	2320.69
485.336	2245.69
485.554	2383.69
485.772	2492.69
485.99	2497.69
486.209	2450.69
486.427	2453.69
486.645	2434.69
486.863	2402.69
487.081	2396.69
487.299	2500.69
487.517	2452.69
