Data from WStandard_LampEnergy8_LIBS07252019.E.O._I.C._HRD10591_15-57-47-929.txt Node
Date: Thu Jul 25 15:57:47 EDT 2019
User: cochatt
Spectrometer: HR+D1059
Trigger mode: 1
Integration Time (sec): 1.000000E-1
Scans to average: 1
Electric dark correction enabled: true
Nonlinearity correction enabled: false
Boxcar width: 0
XAxis mode: Wavelengths
Number of Pixels in Spectrum: 2048
>>>>>Begin Spectral Data<<<<<
223.165	-11.56
223.4	-11.56
223.635	-11.56
223.869	-14.56
224.104	-20.56
224.338	-29.56
224.573	-15.56
224.808	1.44
225.042	-6.56
225.277	-10.56
225.511	-2.56
225.746	-0.56
225.98	3.44
226.215	-0.56
226.449	31.44
226.683	19.44
226.918	20.44
227.152	36.44
227.387	41.44
227.621	32.44
227.856	52.44
228.09	53.44
228.324	58.44
228.559	57.44
228.793	96.44
229.027	203.44
229.262	208.44
229.496	231.44
229.73	224.44
229.964	247.44
230.199	273.44
230.433	263.44
230.667	296.44
230.901	318.44
231.136	279.44
231.37	273.44
231.604	264.44
231.838	268.44
232.072	273.44
232.306	272.44
232.541	295.44
232.775	323.44
233.009	341.44
233.243	316.44
233.477	321.44
233.711	318.44
233.945	337.44
234.179	319.44
234.413	339.44
234.647	352.44
234.881	339.44
235.115	304.44
235.349	309.44
235.583	321.44
235.817	316.44
236.051	310.44
236.285	307.44
236.519	332.44
236.753	365.44
236.987	368.44
237.221	378.44
237.455	425.44
237.689	377.44
237.922	378.44
238.156	368.44
238.39	371.44
238.624	382.44
238.858	412.44
239.091	421.44
239.325	466.44
239.559	496.44
239.793	520.44
240.027	542.44
240.26	530.44
240.494	417.44
240.728	395.44
240.961	404.44
241.195	426.44
241.429	433.44
241.662	442.44
241.896	420.44
242.13	416.44
242.363	443.44
242.597	489.44
242.83	480.44
243.064	474.44
243.298	513.44
243.531	521.44
243.765	507.44
243.998	529.44
244.232	443.44
244.465	428.44
244.699	441.44
244.932	486.44
245.166	557.44
245.399	525.44
245.633	483.44
245.866	485.44
246.099	485.44
246.333	499.44
246.566	527.44
246.8	546.44
247.033	606.44
247.266	555.44
247.5	565.44
247.733	564.44
247.966	607.44
248.2	639.44
248.433	625.44
248.666	671.44
248.899	711.44
249.133	800.44
249.366	873.44
249.599	718.44
249.832	647.44
250.066	647.44
250.299	648.44
250.532	617.44
250.765	575.44
250.998	607.44
251.231	652.44
251.465	631.44
251.698	621.44
251.931	618.44
252.164	646.44
252.397	642.44
252.63	638.44
252.863	575.44
253.096	588.44
253.329	618.44
253.562	625.44
253.795	675.44
254.028	662.44
254.261	601.44
254.494	586.44
254.727	560.44
254.96	613.44
255.193	673.44
255.426	740.44
255.659	861.44
255.892	840.44
256.124	735.44
256.357	715.44
256.59	769.44
256.823	749.44
257.056	767.44
257.289	900.44
257.521	945.44
257.754	875.44
257.987	836.44
258.22	880.44
258.452	860.44
258.685	738.44
258.918	727.44
259.151	723.44
259.383	691.44
259.616	621.44
259.849	663.44
260.081	756.44
260.314	805.44
260.547	859.44
260.779	857.44
261.012	836.44
261.244	763.44
261.477	700.44
261.71	737.44
261.942	745.44
262.175	737.44
262.407	765.44
262.64	707.44
262.872	643.44
263.105	637.44
263.337	671.44
263.57	665.44
263.802	670.44
264.035	610.44
264.267	613.44
264.499	604.44
264.732	646.44
264.964	705.44
265.197	730.44
265.429	771.44
265.661	841.44
265.894	914.44
266.126	929.44
266.358	865.44
266.591	863.44
266.823	907.44
267.055	840.44
267.287	831.44
267.52	788.44
267.752	804.44
267.984	837.44
268.216	879.44
268.448	876.44
268.681	855.44
268.913	786.44
269.145	744.44
269.377	736.44
269.609	802.44
269.841	944.44
270.073	1087.44
270.306	1183.44
270.538	1201.44
270.77	1032.44
271.002	903.44
271.234	851.44
271.466	894.44
271.698	972.44
271.93	1105.44
272.162	1122.44
272.394	1023.44
272.626	962.44
272.858	844.44
273.09	753.44
273.322	718.44
273.553	707.44
273.785	723.44
274.017	767.44
274.249	800.44
274.481	790.44
274.713	757.44
274.945	733.44
275.176	741.44
275.408	727.44
275.64	721.44
275.872	732.44
276.104	793.44
276.335	868.44
276.567	984.44
276.799	970.44
277.031	883.44
277.262	876.44
277.494	904.44
277.726	956.44
277.957	953.44
278.189	880.44
278.421	821.44
278.652	798.44
278.884	733.44
279.115	780.44
279.347	781.44
279.579	778.44
279.81	826.44
280.042	884.44
280.273	943.44
280.505	902.44
280.736	909.44
280.968	897.44
281.199	781.44
281.431	746.44
281.662	753.44
281.894	786.44
282.125	781.44
282.356	839.44
282.588	843.44
282.819	826.44
283.051	894.44
283.282	941.44
283.513	907.44
283.745	793.44
283.976	762.44
284.207	752.44
284.439	771.44
284.67	803.44
284.901	822.44
285.132	824.44
285.364	811.44
285.595	823.44
285.826	808.44
286.057	801.44
286.288	791.44
286.52	842.44
286.751	869.44
286.982	905.44
287.213	815.44
287.444	770.44
287.675	756.44
287.906	831.44
288.138	861.44
288.369	848.44
288.6	799.44
288.831	791.44
289.062	753.44
289.293	787.44
289.524	799.44
289.755	850.44
289.986	818.44
290.217	760.44
290.448	791.44
290.679	811.44
290.91	843.44
291.141	851.44
291.371	862.44
291.602	861.44
291.833	868.44
292.064	868.44
292.295	869.44
292.526	880.44
292.757	909.44
292.987	853.44
293.218	847.44
293.449	928.44
293.68	991.44
293.91	1078.44
294.141	986.44
294.372	973.44
294.603	983.44
294.833	1045.44
295.064	957.44
295.295	858.44
295.525	842.44
295.756	771.44
295.987	762.44
296.217	785.44
296.448	811.44
296.679	802.44
296.909	807.44
297.14	816.44
297.37	844.44
297.601	893.44
297.831	949.44
298.062	931.44
298.292	862.44
298.523	825.44
298.753	840.44
298.984	819.44
299.214	836.44
299.445	875.44
299.675	907.44
299.905	857.44
300.136	857.44
300.366	811.44
300.597	823.44
300.827	808.44
301.057	857.44
301.288	893.44
301.518	887.44
301.748	898.44
301.979	978.44
302.209	975.44
302.439	1009.44
302.669	1031.44
302.9	1003.44
303.13	886.44
303.36	869.44
303.59	923.44
303.82	899.44
304.051	897.44
304.281	919.44
304.511	921.44
304.741	996.44
304.971	1089.44
305.201	1127.44
305.431	1010.44
305.661	843.44
305.891	777.44
306.121	763.44
306.352	835.44
306.582	879.44
306.812	959.44
307.042	1014.44
307.272	988.44
307.502	1048.44
307.731	1085.44
307.961	1157.44
308.191	1080.44
308.421	922.44
308.651	900.44
308.881	870.44
309.111	868.44
309.341	872.44
309.571	844.44
309.8	873.44
310.03	871.44
310.26	858.44
310.49	866.44
310.72	893.44
310.949	921.44
311.179	938.44
311.409	926.44
311.639	892.44
311.868	880.44
312.098	876.44
312.328	875.44
312.557	884.44
312.787	878.44
313.017	932.44
313.246	892.44
313.476	887.44
313.706	918.44
313.935	895.44
314.165	930.44
314.394	979.44
314.624	1035.44
314.853	1068.44
315.083	1139.44
315.312	1126.44
315.542	1033.44
315.771	955.44
316.001	976.44
316.23	985.44
316.46	970.44
316.689	965.44
316.919	922.44
317.148	904.44
317.377	938.44
317.607	1027.44
317.836	1129.44
318.065	1138.44
318.295	1063.44
318.524	1018.44
318.753	1010.44
318.983	977.44
319.212	966.44
319.441	932.44
319.67	932.44
319.9	987.44
320.129	1079.44
320.358	1055.44
320.587	1078.44
320.816	1066.44
321.046	1069.44
321.275	989.44
321.504	1039.44
321.733	1106.44
321.962	1079.44
322.191	972.44
322.42	951.44
322.649	953.44
322.878	980.44
323.108	952.44
323.337	1012.44
323.566	1009.44
323.795	990.44
324.024	969.44
324.253	966.44
324.482	996.44
324.71	921.44
324.939	906.44
325.168	935.44
325.397	972.44
325.626	1021.44
325.855	952.44
326.084	934.44
326.313	988.44
326.542	973.44
326.77	992.44
326.999	1027.44
327.228	974.44
327.457	903.44
327.686	899.44
327.914	919.44
328.143	970.44
328.372	970.44
328.6	968.44
328.829	948.44
329.058	956.44
329.287	954.44
329.515	976.44
329.744	1004.44
329.972	1041.44
330.201	1095.44
330.43	1062.44
330.658	1019.44
330.887	1044.44
331.115	1025.44
331.344	1050.44
331.572	1023.44
331.801	1014.44
332.03	1013.44
332.258	1035.44
332.486	1030.44
332.715	1053.44
332.943	1046.44
333.172	1016.44
333.4	1050.44
333.629	1079.44
333.857	1145.44
334.085	1289.44
334.314	1475.44
334.542	1520.44
334.771	1376.44
334.999	1221.44
335.227	1148.44
335.455	1098.44
335.684	1074.44
335.912	1124.44
336.14	1133.44
336.369	1079.44
336.597	1027.44
336.825	1036.44
337.053	1121.44
337.281	1180.44
337.51	1195.44
337.738	1255.44
337.966	1147.44
338.194	1043.44
338.422	1014.44
338.65	1006.44
338.878	986.44
339.106	997.44
339.334	959.44
339.562	951.44
339.79	996.44
340.018	1052.44
340.246	1092.44
340.474	1117.44
340.702	1055.44
340.93	1083.44
341.158	1063.44
341.386	1051.44
341.614	1017.44
341.842	1019.44
342.07	1045.44
342.298	1062.44
342.526	1016.44
342.754	981.44
342.981	1028.44
343.209	984.44
343.437	987.44
343.665	987.44
343.893	1048.44
344.12	1077.44
344.348	1077.44
344.576	1039.44
344.804	1010.44
345.031	1036.44
345.259	1005.44
345.487	1005.44
345.714	917.44
345.942	931.44
346.17	945.44
346.397	971.44
346.625	969.44
346.853	929.44
347.08	913.44
347.308	924.44
347.535	948.44
347.763	979.44
347.99	947.44
348.218	925.44
348.445	953.44
348.673	937.44
348.9	962.44
349.128	1013.44
349.355	1042.44
349.583	1004.44
349.81	953.44
350.037	883.44
350.265	893.44
350.492	936.44
350.72	936.44
350.947	966.44
351.174	948.44
351.402	924.44
351.629	879.44
351.856	850.44
352.083	891.44
352.311	874.44
352.538	919.44
352.765	961.44
352.992	961.44
353.22	954.44
353.447	922.44
353.674	933.44
353.901	943.44
354.128	908.44
354.355	947.44
354.583	974.44
354.81	1002.44
355.037	991.44
355.264	974.44
355.491	956.44
355.718	972.44
355.945	945.44
356.172	930.44
356.399	903.44
356.626	921.44
356.853	968.44
357.08	1058.44
357.307	1151.44
357.534	1081.44
357.761	978.44
357.988	923.44
358.215	895.44
358.441	890.44
358.668	876.44
358.895	937.44
359.122	996.44
359.349	1071.44
359.576	1033.44
359.802	963.44
360.029	917.44
360.256	889.44
360.483	946.44
360.709	977.44
360.936	1053.44
361.163	1051.44
361.39	1162.44
361.616	1241.44
361.843	1194.44
362.07	1068.44
362.296	961.44
362.523	952.44
362.749	946.44
362.976	963.44
363.203	980.44
363.429	947.44
363.656	944.44
363.882	994.44
364.109	1115.44
364.335	1154.44
364.562	1057.44
364.788	1019.44
365.015	961.44
365.241	938.44
365.468	998.44
365.694	978.44
365.92	1017.44
366.147	995.44
366.373	933.44
366.599	921.44
366.826	952.44
367.052	934.44
367.278	917.44
367.505	951.44
367.731	989.44
367.957	967.44
368.184	1020.44
368.41	1116.44
368.636	1125.44
368.862	1148.44
369.089	1095.44
369.315	1050.44
369.541	1000.44
369.767	955.44
369.993	927.44
370.219	949.44
370.445	1009.44
370.672	1079.44
370.898	1111.44
371.124	1091.44
371.35	1029.44
371.576	1054.44
371.802	1123.44
372.028	1032.44
372.254	970.44
372.48	959.44
372.706	964.44
372.932	962.44
373.158	963.44
373.384	1019.44
373.61	1053.44
373.835	1066.44
374.061	1045.44
374.287	1021.44
374.513	1018.44
374.739	1043.44
374.965	1007.44
375.191	1034.44
375.416	1033.44
375.642	1064.44
375.868	1128.44
376.094	1133.44
376.319	1082.44
376.545	1037.44
376.771	1045.44
376.997	1136.44
377.222	1079.44
377.448	1087.44
377.674	1057.44
377.899	1067.44
378.125	1140.44
378.35	1135.44
378.576	1027.44
378.802	988.44
379.027	959.44
379.253	1002.44
379.478	1035.44
379.704	1019.44
379.929	1003.44
380.155	1007.44
380.38	1020.44
380.606	1043.44
380.831	1063.44
381.057	1111.44
381.282	1084.44
381.507	1072.44
381.733	1191.44
381.958	1191.44
382.184	1112.44
382.409	1041.44
382.634	1073.44
382.86	1060.44
383.085	1048.44
383.31	1101.44
383.535	1240.44
383.761	1285.44
383.986	1193.44
384.211	1135.44
384.436	1172.44
384.662	1200.44
384.887	1223.44
385.112	1183.44
385.337	1189.44
385.562	1144.44
385.787	1169.44
386.013	1201.44
386.238	1175.44
386.463	1201.44
386.688	1309.44
386.913	1334.44
387.138	1290.44
387.363	1194.44
387.588	1208.44
387.813	1171.44
388.038	1206.44
388.263	1259.44
388.488	1213.44
388.713	1090.44
388.938	1087.44
389.163	1140.44
389.387	1139.44
389.612	1171.44
389.837	1157.44
390.062	1163.44
390.287	1152.44
390.512	1141.44
390.736	1099.44
390.961	1109.44
391.186	1092.44
391.411	1123.44
391.636	1135.44
391.86	1173.44
392.085	1164.44
392.31	1134.44
392.534	1151.44
392.759	1167.44
392.984	1178.44
393.208	1172.44
393.433	1215.44
393.658	1259.44
393.882	1255.44
394.107	1190.44
394.331	1179.44
394.556	1167.44
394.78	1175.44
395.005	1230.44
395.229	1277.44
395.454	1358.44
395.678	1331.44
395.903	1274.44
396.127	1236.44
396.352	1230.44
396.576	1281.44
396.801	1317.44
397.025	1266.44
397.249	1273.44
397.474	1257.44
397.698	1228.44
397.922	1288.44
398.147	1361.44
398.371	1386.44
398.595	1365.44
398.82	1355.44
399.044	1370.44
399.268	1412.44
399.492	1464.44
399.717	1509.44
399.941	1515.44
400.165	1509.44
400.389	1475.44
400.613	1486.44
400.837	1697.44
401.062	1864.44
401.286	1595.44
401.51	1452.44
401.734	1494.44
401.958	1429.44
402.182	1359.44
402.406	1285.44
402.63	1289.44
402.854	1314.44
403.078	1346.44
403.302	1401.44
403.526	1389.44
403.75	1358.44
403.974	1399.44
404.198	1385.44
404.422	1460.44
404.645	1523.44
404.869	1476.44
405.093	1354.44
405.317	1297.44
405.541	1366.44
405.765	1348.44
405.988	1379.44
406.212	1407.44
406.436	1444.44
406.66	1499.44
406.883	1542.44
407.107	1718.44
407.331	1844.44
407.555	1942.44
407.778	1719.44
408.002	1456.44
408.226	1412.44
408.449	1429.44
408.673	1402.44
408.896	1435.44
409.12	1403.44
409.344	1414.44
409.567	1322.44
409.791	1368.44
410.014	1429.44
410.238	1524.44
410.461	1592.44
410.685	1411.44
410.908	1372.44
411.132	1409.44
411.355	1391.44
411.578	1362.44
411.802	1327.44
412.025	1399.44
412.249	1355.44
412.472	1314.44
412.695	1335.44
412.919	1339.44
413.142	1304.44
413.365	1353.44
413.589	1385.44
413.812	1486.44
414.035	1467.44
414.258	1368.44
414.482	1337.44
414.705	1350.44
414.928	1334.44
415.151	1332.44
415.374	1346.44
415.597	1380.44
415.821	1362.44
416.044	1386.44
416.267	1382.44
416.49	1287.44
416.713	1280.44
416.936	1356.44
417.159	1402.44
417.382	1379.44
417.605	1299.44
417.828	1391.44
418.051	1350.44
418.274	1339.44
418.497	1276.44
418.72	1296.44
418.943	1275.44
419.166	1351.44
419.389	1376.44
419.611	1306.44
419.834	1315.44
420.057	1373.44
420.28	1293.44
420.503	1320.44
420.726	1339.44
420.948	1339.44
421.171	1285.44
421.394	1318.44
421.617	1348.44
421.839	1384.44
422.062	1327.44
422.285	1273.44
422.507	1324.44
422.73	1253.44
422.953	1239.44
423.175	1266.44
423.398	1259.44
423.621	1279.44
423.843	1273.44
424.066	1343.44
424.288	1398.44
424.511	1461.44
424.733	1402.44
424.956	1255.44
425.178	1240.44
425.401	1255.44
425.623	1299.44
425.846	1317.44
426.068	1363.44
426.291	1380.44
426.513	1360.44
426.735	1370.44
426.958	1497.44
427.18	1527.44
427.402	1397.44
427.625	1450.44
427.847	1420.44
428.069	1309.44
428.292	1291.44
428.514	1244.44
428.736	1257.44
428.958	1249.44
429.181	1280.44
429.403	1525.44
429.625	1818.44
429.847	1545.44
430.069	1329.44
430.292	1484.44
430.514	1481.44
430.736	1392.44
430.958	1393.44
431.18	1352.44
431.402	1251.44
431.624	1222.44
431.846	1196.44
432.068	1155.44
432.29	1153.44
432.512	1193.44
432.734	1277.44
432.956	1337.44
433.178	1364.44
433.4	1356.44
433.622	1352.44
433.844	1290.44
434.066	1212.44
434.287	1245.44
434.509	1210.44
434.731	1305.44
434.953	1404.44
435.175	1343.44
435.397	1306.44
435.618	1286.44
435.84	1263.44
436.062	1255.44
436.284	1291.44
436.505	1338.44
436.727	1347.44
436.949	1302.44
437.17	1293.44
437.392	1251.44
437.614	1235.44
437.835	1215.44
438.057	1241.44
438.278	1303.44
438.5	1264.44
438.721	1224.44
438.943	1243.44
439.165	1293.44
439.386	1240.44
439.608	1276.44
439.829	1274.44
440.05	1311.44
440.272	1257.44
440.493	1247.44
440.715	1314.44
440.936	1415.44
441.158	1496.44
441.379	1431.44
441.6	1397.44
441.822	1398.44
442.043	1360.44
442.264	1350.44
442.486	1281.44
442.707	1290.44
442.928	1268.44
443.149	1303.44
443.371	1387.44
443.592	1446.44
443.813	1433.44
444.034	1409.44
444.255	1405.44
444.476	1433.44
444.698	1433.44
444.919	1424.44
445.14	1506.44
445.361	1457.44
445.582	1501.44
445.803	1453.44
446.024	1376.44
446.245	1459.44
446.466	1439.44
446.687	1384.44
446.908	1379.44
447.129	1365.44
447.35	1365.44
447.571	1329.44
447.792	1257.44
448.013	1238.44
448.234	1303.44
448.455	1351.44
448.675	1350.44
448.896	1225.44
449.117	1228.44
449.338	1271.44
449.559	1311.44
449.779	1367.44
450	1490.44
450.221	1539.44
450.442	1469.44
450.662	1323.44
450.883	1202.44
451.104	1209.44
451.324	1216.44
451.545	1235.44
451.766	1213.44
451.986	1177.44
452.207	1137.44
452.428	1106.44
452.648	1114.44
452.869	1145.44
453.089	1148.44
453.31	1206.44
453.53	1203.44
453.751	1158.44
453.971	1113.44
454.192	1121.44
454.412	1195.44
454.633	1163.44
454.853	1137.44
455.073	1123.44
455.294	1095.44
455.514	1110.44
455.734	1114.44
455.955	1090.44
456.175	1080.44
456.395	1101.44
456.616	1143.44
456.836	1136.44
457.056	1120.44
457.276	1093.44
457.497	1095.44
457.717	1044.44
457.937	1053.44
458.157	1123.44
458.377	1083.44
458.598	1049.44
458.818	1093.44
459.038	1120.44
459.258	1180.44
459.478	1171.44
459.698	1128.44
459.918	1173.44
460.138	1259.44
460.358	1297.44
460.578	1299.44
460.798	1317.44
461.018	1364.44
461.238	1345.44
461.458	1309.44
461.678	1301.44
461.898	1267.44
462.118	1224.44
462.338	1286.44
462.558	1271.44
462.777	1302.44
462.997	1335.44
463.217	1352.44
463.437	1369.44
463.657	1311.44
463.876	1257.44
464.096	1260.44
464.316	1302.44
464.536	1363.44
464.755	1338.44
464.975	1347.44
465.195	1309.44
465.414	1321.44
465.634	1331.44
465.854	1317.44
466.073	1442.44
466.293	1400.44
466.512	1276.44
466.732	1229.44
466.951	1244.44
467.171	1289.44
467.391	1252.44
467.61	1211.44
467.829	1287.44
468.049	1383.44
468.268	1497.44
468.488	1375.44
468.707	1308.44
468.927	1279.44
469.146	1234.44
469.365	1242.44
469.585	1277.44
469.804	1236.44
470.023	1269.44
470.243	1227.44
470.462	1247.44
470.681	1249.44
470.901	1259.44
471.12	1254.44
471.339	1259.44
471.558	1216.44
471.777	1217.44
471.997	1211.44
472.216	1210.44
472.435	1131.44
472.654	1161.44
472.873	1214.44
473.092	1297.44
473.311	1217.44
473.53	1145.44
473.749	1160.44
473.968	1177.44
474.187	1227.44
474.406	1285.44
474.625	1248.44
474.844	1233.44
475.063	1250.44
475.282	1258.44
475.501	1192.44
475.72	1215.44
475.939	1363.44
476.158	1254.44
476.377	1257.44
476.596	1224.44
476.814	1237.44
477.033	1236.44
477.252	1288.44
477.471	1338.44
477.69	1273.44
477.908	1313.44
478.127	1414.44
478.346	1455.44
478.564	1470.44
478.783	1460.44
479.002	1490.44
479.22	1448.44
479.439	1504.44
479.658	1650.44
479.876	1577.44
480.095	1411.44
480.313	1379.44
480.532	1293.44
480.751	1330.44
480.969	1341.44
481.188	1301.44
481.406	1259.44
481.624	1255.44
481.843	1254.44
482.061	1331.44
482.28	1341.44
482.498	1381.44
482.717	1353.44
482.935	1337.44
483.153	1340.44
483.372	1452.44
483.59	1399.44
483.808	1385.44
484.027	1401.44
484.245	1481.44
484.463	1771.44
484.681	1963.44
484.9	1473.44
485.118	1434.44
485.336	1404.44
485.554	1426.44
485.772	1409.44
485.99	1405.44
486.209	1397.44
486.427	1427.44
486.645	1407.44
486.863	1452.44
487.081	1495.44
487.299	1504.44
487.517	1491.44
487.735	1513.44
487.953	1529.44
488.171	1515.44
488.389	1483.44
488.607	1458.44
488.825	1622.44
489.043	1591.44
489.261	1434.44
489.479	1503.44
489.696	1531.44
489.914	1497.44
490.132	1447.44
490.35	1509.44
490.568	1582.44
490.786	1521.44
491.003	1524.44
491.221	1565.44
491.439	1608.44
491.657	1586.44
491.874	1643.44
492.092	1677.44
492.31	1772.44
492.527	1715.44
492.745	1645.44
