Data from WStandard_LampEnergy10_LIBS07252019.E.O._I.C._HRD10591_15-53-08-928.txt Node
Date: Thu Jul 25 15:53:08 EDT 2019
User: cochatt
Spectrometer: HR+D1059
Trigger mode: 1
Integration Time (sec): 1.000000E-1
Scans to average: 1
Electric dark correction enabled: true
Nonlinearity correction enabled: false
Boxcar width: 0
XAxis mode: Wavelengths
Number of Pixels in Spectrum: 2048
>>>>>Begin Spectral Data<<<<<
223.165	-16.75
223.4	-16.75
223.635	-16.75
223.869	-17.75
224.104	-8.75
224.338	-12.75
224.573	-6.75
224.808	-17.75
225.042	-14.75
225.277	-6.75
225.511	-2.75
225.746	-7.75
225.98	5.25
226.215	17.25
226.449	19.25
226.683	15.25
226.918	19.25
227.152	36.25
227.387	27.25
227.621	47.25
227.856	51.25
228.09	35.25
228.324	47.25
228.559	54.25
228.793	86.25
229.027	133.25
229.262	139.25
229.496	154.25
229.73	164.25
229.964	158.25
230.199	188.25
230.433	183.25
230.667	184.25
230.901	193.25
231.136	197.25
231.37	181.25
231.604	172.25
231.838	188.25
232.072	177.25
232.306	181.25
232.541	186.25
232.775	193.25
233.009	201.25
233.243	204.25
233.477	198.25
233.711	201.25
233.945	202.25
234.179	215.25
234.413	211.25
234.647	225.25
234.881	217.25
235.115	218.25
235.349	200.25
235.583	197.25
235.817	205.25
236.051	193.25
236.285	198.25
236.519	227.25
236.753	214.25
236.987	229.25
237.221	218.25
237.455	241.25
237.689	238.25
237.922	253.25
238.156	234.25
238.39	227.25
238.624	221.25
238.858	248.25
239.091	275.25
239.325	284.25
239.559	289.25
239.793	309.25
240.027	298.25
240.26	294.25
240.494	238.25
240.728	228.25
240.961	236.25
241.195	246.25
241.429	257.25
241.662	254.25
241.896	261.25
242.13	259.25
242.363	266.25
242.597	288.25
242.83	293.25
243.064	281.25
243.298	287.25
243.531	299.25
243.765	288.25
243.998	292.25
244.232	265.25
244.465	243.25
244.699	262.25
244.932	288.25
245.166	323.25
245.399	295.25
245.633	294.25
245.866	267.25
246.099	291.25
246.333	301.25
246.566	299.25
246.8	343.25
247.033	365.25
247.266	325.25
247.5	343.25
247.733	324.25
247.966	344.25
248.2	377.25
248.433	367.25
248.666	394.25
248.899	393.25
249.133	424.25
249.366	457.25
249.599	405.25
249.832	369.25
250.066	390.25
250.299	382.25
250.532	345.25
250.765	327.25
250.998	344.25
251.231	356.25
251.465	365.25
251.698	348.25
251.931	359.25
252.164	357.25
252.397	369.25
252.63	347.25
252.863	329.25
253.096	328.25
253.329	346.25
253.562	355.25
253.795	383.25
254.028	371.25
254.261	352.25
254.494	360.25
254.727	359.25
254.96	345.25
255.193	403.25
255.426	434.25
255.659	439.25
255.892	444.25
256.124	400.25
256.357	381.25
256.59	417.25
256.823	417.25
257.056	450.25
257.289	484.25
257.521	518.25
257.754	453.25
257.987	460.25
258.22	491.25
258.452	470.25
258.685	389.25
258.918	380.25
259.151	413.25
259.383	391.25
259.616	364.25
259.849	375.25
260.081	403.25
260.314	458.25
260.547	500.25
260.779	484.25
261.012	449.25
261.244	429.25
261.477	420.25
261.71	412.25
261.942	433.25
262.175	414.25
262.407	412.25
262.64	382.25
262.872	391.25
263.105	369.25
263.337	373.25
263.57	378.25
263.802	356.25
264.035	377.25
264.267	348.25
264.499	344.25
264.732	373.25
264.964	390.25
265.197	428.25
265.429	429.25
265.661	449.25
265.894	494.25
266.126	501.25
266.358	471.25
266.591	482.25
266.823	501.25
267.055	449.25
267.287	442.25
267.52	461.25
267.752	441.25
267.984	459.25
268.216	481.25
268.448	486.25
268.681	475.25
268.913	443.25
269.145	429.25
269.377	441.25
269.609	477.25
269.841	535.25
270.073	611.25
270.306	635.25
270.538	637.25
270.77	555.25
271.002	492.25
271.234	496.25
271.466	486.25
271.698	558.25
271.93	630.25
272.162	615.25
272.394	558.25
272.626	524.25
272.858	474.25
273.09	427.25
273.322	425.25
273.553	401.25
273.785	425.25
274.017	429.25
274.249	447.25
274.481	447.25
274.713	419.25
274.945	420.25
275.176	443.25
275.408	414.25
275.64	431.25
275.872	386.25
276.104	441.25
276.335	494.25
276.567	553.25
276.799	543.25
277.031	511.25
277.262	493.25
277.494	500.25
277.726	529.25
277.957	525.25
278.189	469.25
278.421	461.25
278.652	452.25
278.884	437.25
279.115	429.25
279.347	452.25
279.579	445.25
279.81	454.25
280.042	487.25
280.273	564.25
280.505	551.25
280.736	536.25
280.968	499.25
281.199	433.25
281.431	430.25
281.662	433.25
281.894	433.25
282.125	449.25
282.356	462.25
282.588	446.25
282.819	475.25
283.051	530.25
283.282	526.25
283.513	502.25
283.745	453.25
283.976	435.25
284.207	424.25
284.439	457.25
284.67	468.25
284.901	463.25
285.132	481.25
285.364	467.25
285.595	467.25
285.826	449.25
286.057	443.25
286.288	442.25
286.52	487.25
286.751	510.25
286.982	483.25
287.213	489.25
287.444	456.25
287.675	462.25
287.906	466.25
288.138	503.25
288.369	456.25
288.6	446.25
288.831	455.25
289.062	457.25
289.293	451.25
289.524	466.25
289.755	476.25
289.986	485.25
290.217	461.25
290.448	442.25
290.679	443.25
290.91	471.25
291.141	481.25
291.371	491.25
291.602	494.25
291.833	491.25
292.064	497.25
292.295	497.25
292.526	499.25
292.757	507.25
292.987	509.25
293.218	484.25
293.449	551.25
293.68	593.25
293.91	601.25
294.141	559.25
294.372	548.25
294.603	574.25
294.833	571.25
295.064	554.25
295.295	505.25
295.525	502.25
295.756	467.25
295.987	445.25
296.217	467.25
296.448	471.25
296.679	487.25
296.909	449.25
297.14	467.25
297.37	486.25
297.601	502.25
297.831	543.25
298.062	538.25
298.292	499.25
298.523	461.25
298.753	489.25
298.984	482.25
299.214	482.25
299.445	503.25
299.675	497.25
299.905	503.25
300.136	492.25
300.366	472.25
300.597	479.25
300.827	467.25
301.057	496.25
301.288	511.25
301.518	521.25
301.748	538.25
301.979	544.25
302.209	563.25
302.439	596.25
302.669	575.25
302.9	548.25
303.13	513.25
303.36	500.25
303.59	537.25
303.82	525.25
304.051	520.25
304.281	528.25
304.511	550.25
304.741	589.25
304.971	627.25
305.201	645.25
305.431	571.25
305.661	498.25
305.891	468.25
306.121	471.25
306.352	487.25
306.582	499.25
306.812	527.25
307.042	571.25
307.272	596.25
307.502	607.25
307.731	653.25
307.961	643.25
308.191	568.25
308.421	539.25
308.651	494.25
308.881	496.25
309.111	515.25
309.341	480.25
309.571	504.25
309.8	501.25
310.03	499.25
310.26	502.25
310.49	497.25
310.72	519.25
310.949	538.25
311.179	533.25
311.409	535.25
311.639	525.25
311.868	540.25
312.098	549.25
312.328	519.25
312.557	521.25
312.787	527.25
313.017	513.25
313.246	532.25
313.476	537.25
313.706	552.25
313.935	541.25
314.165	570.25
314.394	562.25
314.624	603.25
314.853	625.25
315.083	635.25
315.312	643.25
315.542	599.25
315.771	558.25
316.001	567.25
316.23	592.25
316.46	590.25
316.689	545.25
316.919	525.25
317.148	500.25
317.377	543.25
317.607	607.25
317.836	672.25
318.065	638.25
318.295	625.25
318.524	597.25
318.753	552.25
318.983	576.25
319.212	543.25
319.441	549.25
319.67	553.25
319.9	580.25
320.129	611.25
320.358	616.25
320.587	626.25
320.816	615.25
321.046	621.25
321.275	577.25
321.504	603.25
321.733	637.25
321.962	606.25
322.191	582.25
322.42	555.25
322.649	580.25
322.878	546.25
323.108	567.25
323.337	604.25
323.566	609.25
323.795	575.25
324.024	597.25
324.253	577.25
324.482	585.25
324.71	548.25
324.939	540.25
325.168	555.25
325.397	588.25
325.626	586.25
325.855	589.25
326.084	559.25
326.313	568.25
326.542	594.25
326.77	611.25
326.999	589.25
327.228	570.25
327.457	556.25
327.686	534.25
327.914	572.25
328.143	588.25
328.372	585.25
328.6	573.25
328.829	559.25
329.058	560.25
329.287	563.25
329.515	577.25
329.744	609.25
329.972	628.25
330.201	645.25
330.43	612.25
330.658	600.25
330.887	599.25
331.115	606.25
331.344	604.25
331.572	618.25
331.801	609.25
332.03	591.25
332.258	614.25
332.486	637.25
332.715	627.25
332.943	613.25
333.172	615.25
333.4	597.25
333.629	630.25
333.857	684.25
334.085	747.25
334.314	844.25
334.542	867.25
334.771	776.25
334.999	715.25
335.227	649.25
335.455	662.25
335.684	655.25
335.912	677.25
336.14	682.25
336.369	651.25
336.597	632.25
336.825	619.25
337.053	618.25
337.281	666.25
337.51	718.25
337.738	705.25
337.966	659.25
338.194	621.25
338.422	606.25
338.65	610.25
338.878	595.25
339.106	598.25
339.334	559.25
339.562	586.25
339.79	607.25
340.018	626.25
340.246	660.25
340.474	647.25
340.702	646.25
340.93	624.25
341.158	636.25
341.386	616.25
341.614	604.25
341.842	615.25
342.07	618.25
342.298	601.25
342.526	615.25
342.754	587.25
342.981	607.25
343.209	594.25
343.437	591.25
343.665	621.25
343.893	622.25
344.12	648.25
344.348	633.25
344.576	605.25
344.804	596.25
345.031	597.25
345.259	607.25
345.487	592.25
345.714	571.25
345.942	571.25
346.17	566.25
346.397	572.25
346.625	571.25
346.853	559.25
347.08	538.25
347.308	532.25
347.535	575.25
347.763	591.25
347.99	581.25
348.218	571.25
348.445	571.25
348.673	578.25
348.9	598.25
349.128	618.25
349.355	631.25
349.583	598.25
349.81	571.25
350.037	551.25
350.265	513.25
350.492	530.25
350.72	569.25
350.947	608.25
351.174	598.25
351.402	559.25
351.629	535.25
351.856	560.25
352.083	533.25
352.311	534.25
352.538	556.25
352.765	563.25
352.992	573.25
353.22	565.25
353.447	562.25
353.674	582.25
353.901	576.25
354.128	572.25
354.355	558.25
354.583	587.25
354.81	611.25
355.037	580.25
355.264	577.25
355.491	580.25
355.718	584.25
355.945	570.25
356.172	551.25
356.399	525.25
356.626	551.25
356.853	620.25
357.08	645.25
357.307	693.25
357.534	650.25
357.761	598.25
357.988	539.25
358.215	555.25
358.441	546.25
358.668	541.25
358.895	583.25
359.122	605.25
359.349	656.25
359.576	624.25
359.802	582.25
360.029	539.25
360.256	558.25
360.483	571.25
360.709	593.25
360.936	614.25
361.163	651.25
361.39	695.25
361.616	709.25
361.843	697.25
362.07	650.25
362.296	593.25
362.523	565.25
362.749	582.25
362.976	590.25
363.203	604.25
363.429	593.25
363.656	563.25
363.882	614.25
364.109	673.25
364.335	675.25
364.562	656.25
364.788	613.25
365.015	581.25
365.241	567.25
365.468	602.25
365.694	622.25
365.92	621.25
366.147	589.25
366.373	562.25
366.599	568.25
366.826	565.25
367.052	571.25
367.278	606.25
367.505	604.25
367.731	581.25
367.957	616.25
368.184	627.25
368.41	649.25
368.636	668.25
368.862	686.25
369.089	656.25
369.315	616.25
369.541	637.25
369.767	598.25
369.993	593.25
370.219	587.25
370.445	637.25
370.672	669.25
370.898	690.25
371.124	667.25
371.35	663.25
371.576	665.25
371.802	682.25
372.028	635.25
372.254	617.25
372.48	607.25
372.706	625.25
372.932	619.25
373.158	616.25
373.384	645.25
373.61	661.25
373.835	668.25
374.061	628.25
374.287	651.25
374.513	651.25
374.739	638.25
374.965	642.25
375.191	646.25
375.416	668.25
375.642	680.25
375.868	738.25
376.094	749.25
376.319	676.25
376.545	641.25
376.771	703.25
376.997	695.25
377.222	685.25
377.448	683.25
377.674	709.25
377.899	705.25
378.125	707.25
378.35	713.25
378.576	649.25
378.802	626.25
379.027	631.25
379.253	639.25
379.478	635.25
379.704	658.25
379.929	660.25
380.155	647.25
380.38	667.25
380.606	667.25
380.831	694.25
381.057	695.25
381.282	679.25
381.507	712.25
381.733	747.25
381.958	758.25
382.184	692.25
382.409	706.25
382.634	694.25
382.86	697.25
383.085	702.25
383.31	742.25
383.535	776.25
383.761	802.25
383.986	766.25
384.211	741.25
384.436	750.25
384.662	798.25
384.887	793.25
385.112	739.25
385.337	744.25
385.562	739.25
385.787	747.25
386.013	791.25
386.238	769.25
386.463	776.25
386.688	813.25
386.913	857.25
387.138	836.25
387.363	773.25
387.588	794.25
387.813	763.25
388.038	769.25
388.263	823.25
388.488	793.25
388.713	738.25
388.938	733.25
389.163	725.25
389.387	756.25
389.612	752.25
389.837	769.25
390.062	782.25
390.287	777.25
390.512	773.25
390.736	762.25
390.961	738.25
391.186	718.25
391.411	728.25
391.636	770.25
391.86	781.25
392.085	763.25
392.31	775.25
392.534	769.25
392.759	772.25
392.984	750.25
393.208	806.25
393.433	794.25
393.658	833.25
393.882	839.25
394.107	788.25
394.331	809.25
394.556	771.25
394.78	775.25
395.005	831.25
395.229	873.25
395.454	896.25
395.678	860.25
395.903	822.25
396.127	820.25
396.352	838.25
396.576	882.25
396.801	847.25
397.025	866.25
397.249	855.25
397.474	833.25
397.698	867.25
397.922	873.25
398.147	904.25
398.371	937.25
398.595	906.25
398.82	885.25
399.044	912.25
399.268	942.25
399.492	1006.25
399.717	1000.25
399.941	1036.25
400.165	1004.25
400.389	981.25
400.613	1002.25
400.837	1133.25
401.062	1233.25
401.286	1021.25
401.51	999.25
401.734	1021.25
401.958	964.25
402.182	918.25
402.406	873.25
402.63	875.25
402.854	896.25
403.078	917.25
403.302	924.25
403.526	956.25
403.75	938.25
403.974	959.25
404.198	930.25
404.422	1006.25
404.645	1038.25
404.869	1006.25
405.093	907.25
405.317	935.25
405.541	949.25
405.765	916.25
405.988	923.25
406.212	946.25
406.436	974.25
406.66	1033.25
406.883	1036.25
407.107	1183.25
407.331	1197.25
407.555	1288.25
407.778	1155.25
408.002	1015.25
408.226	986.25
408.449	969.25
408.673	956.25
408.896	949.25
409.12	979.25
409.344	934.25
409.567	931.25
409.791	941.25
410.014	965.25
410.238	1020.25
410.461	1070.25
410.685	978.25
410.908	963.25
411.132	1000.25
411.355	963.25
411.578	941.25
411.802	947.25
412.025	943.25
412.249	957.25
412.472	919.25
412.695	956.25
412.919	927.25
413.142	905.25
413.365	942.25
413.589	958.25
413.812	1014.25
414.035	1030.25
414.258	963.25
414.482	921.25
414.705	926.25
414.928	929.25
415.151	929.25
415.374	932.25
415.597	973.25
415.821	969.25
416.044	939.25
416.267	935.25
416.49	921.25
416.713	939.25
416.936	983.25
417.159	1010.25
417.382	992.25
417.605	955.25
417.828	952.25
418.051	945.25
418.274	969.25
418.497	918.25
418.72	945.25
418.943	915.25
419.166	957.25
419.389	972.25
419.611	957.25
419.834	948.25
420.057	955.25
420.28	921.25
420.503	938.25
420.726	961.25
420.948	959.25
421.171	949.25
421.394	952.25
421.617	989.25
421.839	1025.25
422.062	1004.25
422.285	953.25
422.507	964.25
422.73	926.25
422.953	891.25
423.175	893.25
423.398	916.25
423.621	945.25
423.843	923.25
424.066	999.25
424.288	1011.25
424.511	1078.25
424.733	1036.25
424.956	949.25
425.178	961.25
425.401	969.25
425.623	989.25
425.846	965.25
426.068	963.25
426.291	989.25
426.513	967.25
426.735	972.25
426.958	1072.25
427.18	1112.25
427.402	1031.25
427.625	1071.25
427.847	1014.25
428.069	963.25
428.292	954.25
428.514	918.25
428.736	914.25
428.958	937.25
429.181	959.25
429.403	1074.25
429.625	1227.25
429.847	1069.25
430.069	979.25
430.292	1050.25
430.514	1053.25
430.736	990.25
430.958	989.25
431.18	922.25
431.402	884.25
431.624	862.25
431.846	825.25
432.068	753.25
432.29	733.25
432.512	803.25
432.734	908.25
432.956	953.25
433.178	995.25
433.4	997.25
433.622	949.25
433.844	922.25
434.066	883.25
434.287	816.25
434.509	787.25
434.731	818.25
434.953	920.25
435.175	961.25
435.397	929.25
435.618	873.25
435.84	847.25
436.062	853.25
436.284	918.25
436.505	943.25
436.727	951.25
436.949	957.25
437.17	923.25
437.392	909.25
437.614	866.25
437.835	821.25
438.057	822.25
438.278	854.25
438.5	876.25
438.721	939.25
438.943	940.25
439.165	965.25
439.386	949.25
439.608	958.25
439.829	965.25
440.05	987.25
440.272	958.25
440.493	990.25
440.715	1005.25
440.936	1023.25
441.158	1071.25
441.379	1051.25
441.6	1066.25
441.822	1018.25
442.043	987.25
442.264	1011.25
442.486	970.25
442.707	980.25
442.928	978.25
443.149	981.25
443.371	1040.25
443.592	1069.25
443.813	1043.25
444.034	1038.25
444.255	1043.25
444.476	1024.25
444.698	1076.25
444.919	1045.25
445.14	1165.25
445.361	1119.25
445.582	1071.25
445.803	1082.25
446.024	1035.25
446.245	1098.25
446.466	1086.25
446.687	1056.25
446.908	1079.25
447.129	1034.25
447.35	1033.25
447.571	1019.25
447.792	975.25
448.013	969.25
448.234	964.25
448.455	990.25
448.675	993.25
448.896	940.25
449.117	930.25
449.338	929.25
449.559	994.25
449.779	1040.25
450	1030.25
450.221	1073.25
450.442	1022.25
450.662	935.25
450.883	891.25
451.104	892.25
451.324	912.25
451.545	910.25
451.766	907.25
451.986	844.25
452.207	832.25
452.428	813.25
452.648	795.25
452.869	793.25
453.089	811.25
453.31	779.25
453.53	772.25
453.751	756.25
453.971	727.25
454.192	760.25
454.412	753.25
454.633	779.25
454.853	787.25
455.073	787.25
455.294	802.25
455.514	777.25
455.734	802.25
455.955	766.25
456.175	751.25
456.395	729.25
456.616	754.25
456.836	744.25
457.056	735.25
457.276	739.25
457.497	701.25
457.717	697.25
457.937	725.25
458.157	737.25
458.377	698.25
458.598	666.25
458.818	688.25
459.038	726.25
459.258	726.25
459.478	730.25
459.698	702.25
459.918	768.25
460.138	813.25
460.358	835.25
460.578	844.25
460.798	868.25
461.018	905.25
461.238	887.25
461.458	888.25
461.678	850.25
461.898	837.25
462.118	826.25
462.338	861.25
462.558	861.25
462.777	870.25
462.997	889.25
463.217	903.25
463.437	898.25
463.657	860.25
463.876	856.25
464.096	856.25
464.316	856.25
464.536	891.25
464.755	898.25
464.975	885.25
465.195	875.25
465.414	911.25
465.634	911.25
465.854	897.25
466.073	966.25
466.293	966.25
466.512	904.25
466.732	895.25
466.951	912.25
467.171	949.25
467.391	906.25
467.61	887.25
467.829	939.25
468.049	983.25
468.268	1086.25
468.488	972.25
468.707	961.25
468.927	948.25
469.146	909.25
469.365	930.25
469.585	941.25
469.804	958.25
470.023	956.25
470.243	970.25
470.462	960.25
470.681	923.25
470.901	947.25
471.12	946.25
471.339	972.25
471.558	949.25
471.777	947.25
471.997	913.25
472.216	858.25
472.435	812.25
472.654	767.25
472.873	821.25
473.092	839.25
473.311	833.25
473.53	828.25
473.749	831.25
473.968	852.25
474.187	857.25
474.406	866.25
474.625	878.25
474.844	862.25
475.063	884.25
475.282	883.25
475.501	842.25
475.72	847.25
475.939	930.25
476.158	902.25
476.377	858.25
476.596	844.25
476.814	827.25
477.033	832.25
477.252	863.25
477.471	912.25
477.69	961.25
477.908	941.25
478.127	1007.25
478.346	1005.25
478.564	1023.25
478.783	1032.25
479.002	1056.25
479.22	1034.25
479.439	1043.25
479.658	1080.25
479.876	986.25
480.095	920.25
480.313	915.25
480.532	895.25
480.751	887.25
480.969	832.25
481.188	819.25
481.406	798.25
481.624	788.25
481.843	823.25
482.061	851.25
482.28	909.25
482.498	899.25
482.717	880.25
482.935	918.25
483.153	1011.25
483.372	1055.25
483.59	1039.25
483.808	954.25
484.027	940.25
484.245	1022.25
484.463	1239.25
484.681	1315.25
484.9	1043.25
485.118	1002.25
485.336	959.25
485.554	903.25
485.772	895.25
485.99	877.25
486.209	910.25
486.427	884.25
486.645	960.25
486.863	1029.25
487.081	1059.25
487.299	1040.25
487.517	1066.25
487.735	1114.25
487.953	1228.25
488.171	1213.25
488.389	1159.25
488.607	1098.25
488.825	1153.25
489.043	1068.25
489.261	1017.25
489.479	1051.25
489.696	1078.25
489.914	1044.25
490.132	1057.25
490.35	1135.25
490.568	1169.25
490.786	1183.25
491.003	1211.25
491.221	1273.25
491.439	1322.25
491.657	1323.25
491.874	1382.25
492.092	1454.25
492.31	1488.25
492.527	1501.25
492.745	1394.25
492.963	1329.25
493.18	1338.25
493.398	1369.25
493.615	1371.25
493.833	1280.25
494.05	1253.25
494.268	1234.25
494.485	1255.25
494.703	1250.25
494.92	1232.25
495.138	1276.25
495.355	1256.25
495.573	1261.25
495.79	1317.25
496.008	1311.25
496.225	1242.25
496.442	1223.25
496.66	1244.25
496.877	1230.25
497.094	1269.25
497.312	1245.25
497.529	1206.25
497.746	1218.25
497.963	1281.25
498.181	1287.25
498.398	1291.25
498.615	1213.25
498.832	1166.25
499.049	1161.25
499.267	1185.25
499.484	1260.25
499.701	1352.25
499.918	1410.25
