Data from WStandard_LampEnergy8_LIBS07252019.E.O._I.C._HRD10591_15-59-28-929.txt Node
Date: Thu Jul 25 15:59:28 EDT 2019
User: cochatt
Spectrometer: HR+D1059
Trigger mode: 1
Integration Time (sec): 1.000000E-1
Scans to average: 1
Electric dark correction enabled: true
Nonlinearity correction enabled: false
Boxcar width: 0
XAxis mode: Wavelengths
Number of Pixels in Spectrum: 2048
>>>>>Begin Spectral Data<<<<<
223.165	-3.56
223.4	-3.56
223.635	-3.56
223.869	-20.56
224.104	-12.56
224.338	-6.56
224.573	-9.56
224.808	-20.56
225.042	-19.56
225.277	-16.56
225.511	4.44
225.746	5.44
225.98	5.44
226.215	11.44
226.449	17.44
226.683	8.44
226.918	33.44
227.152	23.44
227.387	37.44
227.621	51.44
227.856	49.44
228.09	55.44
228.324	62.44
228.559	54.44
228.793	86.44
229.027	197.44
229.262	205.44
229.496	221.44
229.73	218.44
229.964	228.44
230.199	257.44
230.433	263.44
230.667	287.44
230.901	295.44
231.136	265.44
231.37	255.44
231.604	262.44
231.838	267.44
232.072	265.44
232.306	260.44
232.541	275.44
232.775	311.44
233.009	325.44
233.243	309.44
233.477	296.44
233.711	299.44
233.945	317.44
234.179	312.44
234.413	336.44
234.647	341.44
234.881	306.44
235.115	293.44
235.349	305.44
235.583	312.44
235.817	300.44
236.051	291.44
236.285	301.44
236.519	331.44
236.753	343.44
236.987	373.44
237.221	363.44
237.455	372.44
237.689	373.44
237.922	379.44
238.156	345.44
238.39	343.44
238.624	351.44
238.858	404.44
239.091	413.44
239.325	420.44
239.559	472.44
239.793	491.44
240.027	510.44
240.26	504.44
240.494	385.44
240.728	362.44
240.961	391.44
241.195	388.44
241.429	419.44
241.662	424.44
241.896	412.44
242.13	398.44
242.363	444.44
242.597	466.44
242.83	459.44
243.064	443.44
243.298	475.44
243.531	467.44
243.765	455.44
243.998	463.44
244.232	409.44
244.465	403.44
244.699	419.44
244.932	466.44
245.166	504.44
245.399	475.44
245.633	453.44
245.866	465.44
246.099	476.44
246.333	501.44
246.566	517.44
246.8	568.44
247.033	589.44
247.266	540.44
247.5	510.44
247.733	541.44
247.966	567.44
248.2	630.44
248.433	618.44
248.666	611.44
248.899	682.44
249.133	751.44
249.366	773.44
249.599	683.44
249.832	616.44
250.066	623.44
250.299	620.44
250.532	589.44
250.765	554.44
250.998	554.44
251.231	589.44
251.465	586.44
251.698	575.44
251.931	574.44
252.164	588.44
252.397	642.44
252.63	622.44
252.863	574.44
253.096	572.44
253.329	571.44
253.562	581.44
253.795	620.44
254.028	624.44
254.261	595.44
254.494	585.44
254.727	552.44
254.96	590.44
255.193	663.44
255.426	705.44
255.659	786.44
255.892	805.44
256.124	695.44
256.357	661.44
256.59	686.44
256.823	705.44
257.056	715.44
257.289	850.44
257.521	888.44
257.754	801.44
257.987	759.44
258.22	833.44
258.452	806.44
258.685	683.44
258.918	667.44
259.151	656.44
259.383	631.44
259.616	585.44
259.849	647.44
260.081	689.44
260.314	766.44
260.547	823.44
260.779	815.44
261.012	766.44
261.244	680.44
261.477	666.44
261.71	698.44
261.942	664.44
262.175	652.44
262.407	723.44
262.64	671.44
262.872	649.44
263.105	638.44
263.337	673.44
263.57	659.44
263.802	637.44
264.035	567.44
264.267	590.44
264.499	579.44
264.732	612.44
264.964	655.44
265.197	679.44
265.429	695.44
265.661	774.44
265.894	867.44
266.126	853.44
266.358	771.44
266.591	823.44
266.823	842.44
267.055	782.44
267.287	765.44
267.52	741.44
267.752	764.44
267.984	776.44
268.216	782.44
268.448	813.44
268.681	794.44
268.913	745.44
269.145	691.44
269.377	724.44
269.609	765.44
269.841	879.44
270.073	1016.44
270.306	1099.44
270.538	1114.44
270.77	964.44
271.002	833.44
271.234	775.44
271.466	825.44
271.698	922.44
271.93	1037.44
272.162	1061.44
272.394	975.44
272.626	909.44
272.858	821.44
273.09	700.44
273.322	693.44
273.553	682.44
273.785	687.44
274.017	718.44
274.249	776.44
274.481	761.44
274.713	711.44
274.945	727.44
275.176	717.44
275.408	690.44
275.64	681.44
275.872	681.44
276.104	751.44
276.335	843.44
276.567	935.44
276.799	934.44
277.031	821.44
277.262	803.44
277.494	857.44
277.726	908.44
277.957	907.44
278.189	818.44
278.421	778.44
278.652	745.44
278.884	735.44
279.115	747.44
279.347	761.44
279.579	759.44
279.81	732.44
280.042	811.44
280.273	869.44
280.505	878.44
280.736	901.44
280.968	834.44
281.199	754.44
281.431	706.44
281.662	745.44
281.894	715.44
282.125	725.44
282.356	751.44
282.588	767.44
282.819	770.44
283.051	835.44
283.282	857.44
283.513	842.44
283.745	778.44
283.976	719.44
284.207	738.44
284.439	761.44
284.67	765.44
284.901	771.44
285.132	799.44
285.364	766.44
285.595	767.44
285.826	762.44
286.057	778.44
286.288	746.44
286.52	807.44
286.751	876.44
286.982	879.44
287.213	780.44
287.444	733.44
287.675	747.44
287.906	769.44
288.138	855.44
288.369	773.44
288.6	773.44
288.831	743.44
289.062	740.44
289.293	751.44
289.524	778.44
289.755	803.44
289.986	796.44
290.217	736.44
290.448	739.44
290.679	793.44
290.91	779.44
291.141	802.44
291.371	845.44
291.602	819.44
291.833	830.44
292.064	831.44
292.295	837.44
292.526	828.44
292.757	867.44
292.987	824.44
293.218	814.44
293.449	870.44
293.68	970.44
293.91	1027.44
294.141	959.44
294.372	929.44
294.603	981.44
294.833	985.44
295.064	922.44
295.295	825.44
295.525	785.44
295.756	750.44
295.987	746.44
296.217	771.44
296.448	764.44
296.679	786.44
296.909	801.44
297.14	787.44
297.37	808.44
297.601	844.44
297.831	899.44
298.062	893.44
298.292	833.44
298.523	791.44
298.753	825.44
298.984	830.44
299.214	834.44
299.445	837.44
299.675	854.44
299.905	858.44
300.136	822.44
300.366	781.44
300.597	774.44
300.827	771.44
301.057	841.44
301.288	824.44
301.518	845.44
301.748	863.44
301.979	909.44
302.209	945.44
302.439	994.44
302.669	1011.44
302.9	965.44
303.13	849.44
303.36	851.44
303.59	910.44
303.82	879.44
304.051	853.44
304.281	876.44
304.511	887.44
304.741	955.44
304.971	1040.44
305.201	1079.44
305.431	960.44
305.661	818.44
305.891	774.44
306.121	789.44
306.352	815.44
306.582	858.44
306.812	910.44
307.042	927.44
307.272	963.44
307.502	998.44
307.731	1077.44
307.961	1123.44
308.191	1039.44
308.421	890.44
308.651	856.44
308.881	811.44
309.111	823.44
309.341	822.44
309.571	822.44
309.8	843.44
310.03	824.44
310.26	831.44
310.49	835.44
310.72	873.44
310.949	891.44
311.179	886.44
311.409	873.44
311.639	833.44
311.868	851.44
312.098	869.44
312.328	830.44
312.557	854.44
312.787	883.44
313.017	873.44
313.246	887.44
313.476	873.44
313.706	891.44
313.935	917.44
314.165	902.44
314.394	956.44
314.624	1011.44
314.853	1039.44
315.083	1066.44
315.312	1083.44
315.542	996.44
315.771	908.44
316.001	902.44
316.23	968.44
316.46	951.44
316.689	930.44
316.919	891.44
317.148	841.44
317.377	924.44
317.607	956.44
317.836	1050.44
318.065	1118.44
318.295	1026.44
318.524	996.44
318.753	966.44
318.983	959.44
319.212	932.44
319.441	899.44
319.67	904.44
319.9	957.44
320.129	972.44
320.358	989.44
320.587	1039.44
320.816	1035.44
321.046	993.44
321.275	990.44
321.504	986.44
321.733	1082.44
321.962	1016.44
322.191	927.44
322.42	957.44
322.649	912.44
322.878	923.44
323.108	948.44
323.337	968.44
323.566	973.44
323.795	948.44
324.024	968.44
324.253	930.44
324.482	932.44
324.71	916.44
324.939	899.44
325.168	902.44
325.397	917.44
325.626	958.44
325.855	945.44
326.084	957.44
326.313	962.44
326.542	980.44
326.77	1015.44
326.999	951.44
327.228	925.44
327.457	890.44
327.686	891.44
327.914	905.44
328.143	947.44
328.372	957.44
328.6	938.44
328.829	931.44
329.058	934.44
329.287	902.44
329.515	963.44
329.744	983.44
329.972	1019.44
330.201	1044.44
330.43	1011.44
330.658	992.44
330.887	967.44
331.115	1036.44
331.344	1001.44
331.572	999.44
331.801	959.44
332.03	966.44
332.258	1002.44
332.486	998.44
332.715	1033.44
332.943	1035.44
333.172	1018.44
333.4	983.44
333.629	1047.44
333.857	1091.44
334.085	1256.44
334.314	1377.44
334.542	1430.44
334.771	1291.44
334.999	1174.44
335.227	1085.44
335.455	1085.44
335.684	1088.44
335.912	1092.44
336.14	1141.44
336.369	1066.44
336.597	1021.44
336.825	1049.44
337.053	1073.44
337.281	1119.44
337.51	1189.44
337.738	1199.44
337.966	1143.44
338.194	1010.44
338.422	993.44
338.65	1004.44
338.878	984.44
339.106	953.44
339.334	987.44
339.562	946.44
339.79	997.44
340.018	1030.44
340.246	1051.44
340.474	1042.44
340.702	1042.44
340.93	1038.44
341.158	1000.44
341.386	991.44
341.614	1025.44
341.842	982.44
342.07	980.44
342.298	984.44
342.526	994.44
342.754	993.44
342.981	989.44
343.209	977.44
343.437	970.44
343.665	990.44
343.893	1057.44
344.12	1096.44
344.348	1076.44
344.576	1008.44
344.804	991.44
345.031	1002.44
345.259	1015.44
345.487	969.44
345.714	921.44
345.942	926.44
346.17	923.44
346.397	968.44
346.625	949.44
346.853	945.44
347.08	889.44
347.308	902.44
347.535	949.44
347.763	939.44
347.99	940.44
348.218	908.44
348.445	913.44
348.673	956.44
348.9	955.44
349.128	996.44
349.355	993.44
349.583	998.44
349.81	937.44
350.037	870.44
350.265	857.44
350.492	897.44
350.72	905.44
350.947	954.44
351.174	955.44
351.402	924.44
351.629	882.44
351.856	872.44
352.083	874.44
352.311	906.44
352.538	918.44
352.765	966.44
352.992	968.44
353.22	932.44
353.447	890.44
353.674	903.44
353.901	937.44
354.128	909.44
354.355	926.44
354.583	961.44
354.81	977.44
355.037	972.44
355.264	970.44
355.491	931.44
355.718	929.44
355.945	929.44
356.172	914.44
356.399	917.44
356.626	908.44
356.853	965.44
357.08	1036.44
357.307	1141.44
357.534	1115.44
357.761	965.44
357.988	921.44
358.215	882.44
358.441	913.44
358.668	885.44
358.895	910.44
359.122	1011.44
359.349	1049.44
359.576	1031.44
359.802	922.44
360.029	910.44
360.256	907.44
360.483	916.44
360.709	970.44
360.936	990.44
361.163	1038.44
361.39	1106.44
361.616	1175.44
361.843	1173.44
362.07	1091.44
362.296	931.44
362.523	909.44
362.749	942.44
362.976	958.44
363.203	957.44
363.429	934.44
363.656	934.44
363.882	990.44
364.109	1066.44
364.335	1118.44
364.562	1025.44
364.788	981.44
365.015	948.44
365.241	902.44
365.468	966.44
365.694	992.44
365.92	1014.44
366.147	988.44
366.373	915.44
366.599	911.44
366.826	920.44
367.052	932.44
367.278	914.44
367.505	953.44
367.731	957.44
367.957	971.44
368.184	1013.44
368.41	1056.44
368.636	1070.44
368.862	1073.44
369.089	1079.44
369.315	1000.44
369.541	965.44
369.767	964.44
369.993	930.44
370.219	953.44
370.445	979.44
370.672	1045.44
370.898	1073.44
371.124	1057.44
371.35	1013.44
371.576	1039.44
371.802	1090.44
372.028	1028.44
372.254	985.44
372.48	945.44
372.706	952.44
372.932	956.44
373.158	991.44
373.384	986.44
373.61	980.44
373.835	1047.44
374.061	1004.44
374.287	998.44
374.513	995.44
374.739	1000.44
374.965	1005.44
375.191	1017.44
375.416	1034.44
375.642	1007.44
375.868	1111.44
376.094	1122.44
376.319	1080.44
376.545	1019.44
376.771	1080.44
376.997	1069.44
377.222	1078.44
377.448	1040.44
377.674	1060.44
377.899	1050.44
378.125	1148.44
378.35	1101.44
378.576	984.44
378.802	958.44
379.027	976.44
379.253	995.44
379.478	1004.44
379.704	999.44
379.929	1005.44
380.155	1028.44
380.38	984.44
380.606	1013.44
380.831	1035.44
381.057	1077.44
381.282	1060.44
381.507	1038.44
381.733	1145.44
381.958	1143.44
382.184	1060.44
382.409	1029.44
382.634	1054.44
382.86	1049.44
383.085	1063.44
383.31	1067.44
383.535	1206.44
383.761	1237.44
383.986	1178.44
384.211	1120.44
384.436	1123.44
384.662	1195.44
384.887	1198.44
385.112	1151.44
385.337	1161.44
385.562	1129.44
385.787	1157.44
386.013	1172.44
386.238	1179.44
386.463	1167.44
386.688	1269.44
386.913	1364.44
387.138	1271.44
387.363	1185.44
387.588	1178.44
387.813	1180.44
388.038	1210.44
388.263	1242.44
388.488	1172.44
388.713	1114.44
388.938	1069.44
389.163	1114.44
389.387	1118.44
389.612	1128.44
389.837	1164.44
390.062	1149.44
390.287	1150.44
390.512	1138.44
390.736	1133.44
390.961	1088.44
391.186	1131.44
391.411	1100.44
391.636	1130.44
391.86	1126.44
392.085	1162.44
392.31	1117.44
392.534	1126.44
392.759	1146.44
392.984	1155.44
393.208	1145.44
393.433	1177.44
393.658	1259.44
393.882	1236.44
394.107	1154.44
394.331	1147.44
394.556	1135.44
394.78	1149.44
395.005	1200.44
395.229	1274.44
395.454	1361.44
395.678	1311.44
395.903	1263.44
396.127	1197.44
396.352	1228.44
396.576	1258.44
396.801	1277.44
397.025	1231.44
397.249	1245.44
397.474	1193.44
397.698	1209.44
397.922	1286.44
398.147	1356.44
398.371	1354.44
398.595	1357.44
398.82	1293.44
399.044	1330.44
399.268	1377.44
399.492	1481.44
399.717	1505.44
399.941	1518.44
400.165	1482.44
400.389	1466.44
400.613	1493.44
400.837	1676.44
401.062	1853.44
401.286	1524.44
401.51	1442.44
401.734	1515.44
401.958	1401.44
402.182	1357.44
402.406	1315.44
402.63	1285.44
402.854	1315.44
403.078	1337.44
403.302	1351.44
403.526	1372.44
403.75	1363.44
403.974	1375.44
404.198	1354.44
404.422	1443.44
404.645	1514.44
404.869	1423.44
405.093	1363.44
405.317	1333.44
405.541	1356.44
405.765	1364.44
405.988	1384.44
406.212	1412.44
406.436	1420.44
406.66	1472.44
406.883	1515.44
407.107	1682.44
407.331	1844.44
407.555	1945.44
407.778	1721.44
408.002	1459.44
408.226	1410.44
408.449	1426.44
408.673	1395.44
408.896	1402.44
409.12	1387.44
409.344	1387.44
409.567	1342.44
409.791	1374.44
410.014	1429.44
410.238	1507.44
410.461	1574.44
410.685	1405.44
410.908	1315.44
411.132	1352.44
411.355	1336.44
411.578	1370.44
411.802	1364.44
412.025	1364.44
412.249	1346.44
412.472	1333.44
412.695	1283.44
412.919	1335.44
413.142	1311.44
413.365	1355.44
413.589	1359.44
413.812	1409.44
414.035	1451.44
414.258	1341.44
414.482	1346.44
414.705	1347.44
414.928	1321.44
415.151	1306.44
415.374	1340.44
415.597	1331.44
415.821	1379.44
416.044	1357.44
416.267	1355.44
416.49	1273.44
416.713	1291.44
416.936	1347.44
417.159	1397.44
417.382	1377.44
417.605	1341.44
417.828	1342.44
418.051	1309.44
418.274	1348.44
418.497	1305.44
418.72	1309.44
418.943	1290.44
419.166	1327.44
419.389	1417.44
419.611	1307.44
419.834	1299.44
420.057	1356.44
420.28	1315.44
420.503	1315.44
420.726	1374.44
420.948	1311.44
421.171	1284.44
421.394	1289.44
421.617	1396.44
421.839	1324.44
422.062	1325.44
422.285	1324.44
422.507	1316.44
422.73	1273.44
422.953	1250.44
423.175	1235.44
423.398	1277.44
423.621	1294.44
423.843	1301.44
424.066	1323.44
424.288	1454.44
424.511	1397.44
424.733	1408.44
424.956	1236.44
425.178	1284.44
425.401	1287.44
425.623	1251.44
425.846	1259.44
426.068	1335.44
426.291	1368.44
426.513	1310.44
426.735	1329.44
426.958	1453.44
427.18	1512.44
427.402	1389.44
427.625	1401.44
427.847	1379.44
428.069	1299.44
428.292	1266.44
428.514	1261.44
428.736	1236.44
428.958	1287.44
429.181	1302.44
429.403	1469.44
429.625	1765.44
429.847	1451.44
430.069	1322.44
430.292	1484.44
430.514	1483.44
430.736	1389.44
430.958	1383.44
431.18	1336.44
431.402	1228.44
431.624	1215.44
431.846	1215.44
432.068	1142.44
432.29	1156.44
432.512	1211.44
432.734	1241.44
432.956	1318.44
433.178	1358.44
433.4	1330.44
433.622	1329.44
433.844	1251.44
434.066	1251.44
434.287	1204.44
434.509	1196.44
434.731	1251.44
434.953	1350.44
435.175	1343.44
435.397	1310.44
435.618	1314.44
435.84	1247.44
436.062	1248.44
436.284	1292.44
436.505	1299.44
436.727	1317.44
436.949	1252.44
437.17	1259.44
437.392	1233.44
437.614	1202.44
437.835	1174.44
438.057	1241.44
438.278	1261.44
438.5	1198.44
438.721	1246.44
438.943	1259.44
439.165	1201.44
439.386	1219.44
439.608	1301.44
439.829	1258.44
440.05	1253.44
440.272	1260.44
440.493	1265.44
440.715	1265.44
440.936	1349.44
441.158	1433.44
441.379	1387.44
441.6	1371.44
441.822	1343.44
442.043	1375.44
442.264	1345.44
442.486	1266.44
442.707	1281.44
442.928	1257.44
443.149	1289.44
443.371	1365.44
443.592	1409.44
443.813	1396.44
444.034	1386.44
444.255	1377.44
444.476	1385.44
444.698	1450.44
444.919	1410.44
445.14	1541.44
445.361	1467.44
445.582	1487.44
445.803	1418.44
446.024	1398.44
446.245	1436.44
446.466	1419.44
446.687	1368.44
446.908	1343.44
447.129	1318.44
447.35	1313.44
447.571	1314.44
447.792	1280.44
448.013	1285.44
448.234	1314.44
448.455	1354.44
448.675	1326.44
448.896	1214.44
449.117	1199.44
449.338	1242.44
449.559	1287.44
449.779	1359.44
450	1422.44
450.221	1486.44
450.442	1427.44
450.662	1326.44
450.883	1196.44
451.104	1194.44
451.324	1210.44
451.545	1252.44
451.766	1205.44
451.986	1160.44
452.207	1143.44
452.428	1141.44
452.648	1092.44
452.869	1132.44
453.089	1166.44
453.31	1173.44
453.53	1167.44
453.751	1103.44
453.971	1072.44
454.192	1130.44
454.412	1152.44
454.633	1149.44
454.853	1125.44
455.073	1081.44
455.294	1036.44
455.514	1071.44
455.734	1080.44
455.955	1074.44
456.175	1094.44
456.395	1071.44
456.616	1084.44
456.836	1093.44
457.056	1122.44
457.276	1071.44
457.497	1092.44
457.717	1025.44
457.937	1030.44
458.157	1046.44
458.377	1069.44
458.598	1037.44
458.818	1064.44
459.038	1114.44
459.258	1166.44
459.478	1161.44
459.698	1117.44
459.918	1165.44
460.138	1228.44
460.358	1265.44
460.578	1285.44
460.798	1309.44
461.018	1339.44
461.238	1291.44
461.458	1294.44
461.678	1292.44
461.898	1240.44
462.118	1219.44
462.338	1282.44
462.558	1270.44
462.777	1283.44
462.997	1314.44
463.217	1389.44
463.437	1361.44
463.657	1289.44
463.876	1285.44
464.096	1281.44
464.316	1272.44
464.536	1334.44
464.755	1321.44
464.975	1323.44
465.195	1271.44
465.414	1336.44
465.634	1322.44
465.854	1329.44
466.073	1396.44
466.293	1364.44
466.512	1218.44
466.732	1213.44
466.951	1260.44
467.171	1227.44
467.391	1245.44
467.61	1190.44
467.829	1235.44
468.049	1320.44
468.268	1465.44
468.488	1367.44
468.707	1292.44
468.927	1262.44
469.146	1242.44
469.365	1207.44
469.585	1241.44
469.804	1228.44
470.023	1260.44
470.243	1257.44
470.462	1219.44
470.681	1244.44
470.901	1246.44
471.12	1285.44
471.339	1255.44
471.558	1175.44
471.777	1215.44
471.997	1222.44
472.216	1189.44
472.435	1142.44
472.654	1141.44
472.873	1181.44
473.092	1208.44
473.311	1200.44
473.53	1165.44
473.749	1183.44
473.968	1206.44
474.187	1220.44
474.406	1232.44
474.625	1223.44
474.844	1186.44
475.063	1206.44
475.282	1244.44
475.501	1215.44
475.72	1233.44
475.939	1299.44
476.158	1263.44
476.377	1244.44
476.596	1213.44
476.814	1255.44
477.033	1235.44
477.252	1290.44
477.471	1299.44
477.69	1296.44
477.908	1295.44
478.127	1363.44
478.346	1426.44
478.564	1417.44
478.783	1381.44
479.002	1469.44
479.22	1427.44
479.439	1486.44
479.658	1574.44
479.876	1532.44
480.095	1397.44
480.313	1327.44
480.532	1277.44
480.751	1342.44
480.969	1323.44
481.188	1289.44
481.406	1250.44
481.624	1240.44
481.843	1258.44
482.061	1275.44
482.28	1343.44
482.498	1378.44
482.717	1331.44
482.935	1307.44
483.153	1351.44
483.372	1393.44
483.59	1370.44
483.808	1350.44
484.027	1365.44
484.245	1456.44
484.463	1734.44
484.681	1893.44
484.9	1480.44
485.118	1399.44
485.336	1357.44
485.554	1369.44
485.772	1430.44
485.99	1364.44
486.209	1388.44
486.427	1402.44
486.645	1401.44
486.863	1409.44
487.081	1426.44
487.299	1496.44
487.517	1430.44
487.735	1458.44
487.953	1514.44
488.171	1505.44
488.389	1478.44
488.607	1482.44
488.825	1612.44
489.043	1560.44
489.261	1408.44
489.479	1447.44
489.696	1488.44
489.914	1461.44
490.132	1468.44
490.35	1442.44
490.568	1555.44
490.786	1520.44
491.003	1480.44
491.221	1537.44
491.439	1582.44
491.657	1585.44
491.874	1645.44
492.092	1639.44
492.31	1735.44
492.527	1690.44
492.745	1618.44
492.963	1591.44
493.18	1608.44
493.398	1734.44
493.615	1709.44
