Data from WStandard_LampEnergy5.5LIBS07252019.E.O._I.C._HRD10591_16-08-25-920.txt Node
Date: Thu Jul 25 16:08:25 EDT 2019
User: cochatt
Spectrometer: HR+D1059
Trigger mode: 1
Integration Time (sec): 1.000000E-1
Scans to average: 1
Electric dark correction enabled: true
Nonlinearity correction enabled: false
Boxcar width: 0
XAxis mode: Wavelengths
Number of Pixels in Spectrum: 2048
>>>>>Begin Spectral Data<<<<<
223.165	-19.44
223.4	-19.44
223.635	-19.44
223.869	-24.44
224.104	-21.44
224.338	-10.44
224.573	-18.44
224.808	1.56
225.042	-11.44
225.277	-19.44
225.511	-3.44
225.746	-5.44
225.98	-9.44
226.215	24.56
226.449	42.56
226.683	26.56
226.918	17.56
227.152	30.56
227.387	27.56
227.621	45.56
227.856	44.56
228.09	41.56
228.324	60.56
228.559	63.56
228.793	149.56
229.027	364.56
229.262	380.56
229.496	358.56
229.73	396.56
229.964	425.56
230.199	450.56
230.433	478.56
230.667	485.56
230.901	518.56
231.136	465.56
231.37	478.56
231.604	477.56
231.838	456.56
232.072	454.56
232.306	438.56
232.541	475.56
232.775	542.56
233.009	606.56
233.243	606.56
233.477	507.56
233.711	540.56
233.945	564.56
234.179	534.56
234.413	558.56
234.647	600.56
234.881	591.56
235.115	516.56
235.349	551.56
235.583	539.56
235.817	550.56
236.051	510.56
236.285	542.56
236.519	569.56
236.753	664.56
236.987	682.56
237.221	654.56
237.455	756.56
237.689	697.56
237.922	641.56
238.156	624.56
238.39	647.56
238.624	698.56
238.858	738.56
239.091	757.56
239.325	798.56
239.559	877.56
239.793	936.56
240.027	1018.56
240.26	1042.56
240.494	759.56
240.728	686.56
240.961	702.56
241.195	726.56
241.429	795.56
241.662	810.56
241.896	747.56
242.13	735.56
242.363	825.56
242.597	892.56
242.83	865.56
243.064	865.56
243.298	923.56
243.531	890.56
243.765	903.56
243.998	894.56
244.232	791.56
244.465	736.56
244.699	755.56
244.932	880.56
245.166	987.56
245.399	983.56
245.633	900.56
245.866	888.56
246.099	915.56
246.333	925.56
246.566	957.56
246.8	1029.56
247.033	1126.56
247.266	1051.56
247.5	1044.56
247.733	1040.56
247.966	1096.56
248.2	1183.56
248.433	1132.56
248.666	1172.56
248.899	1269.56
249.133	1476.56
249.366	1695.56
249.599	1401.56
249.832	1193.56
250.066	1265.56
250.299	1251.56
250.532	1170.56
250.765	1058.56
250.998	1108.56
251.231	1159.56
251.465	1228.56
251.698	1152.56
251.931	1137.56
252.164	1175.56
252.397	1220.56
252.63	1193.56
252.863	1074.56
253.096	1061.56
253.329	1115.56
253.562	1166.56
253.795	1245.56
254.028	1250.56
254.261	1159.56
254.494	1166.56
254.727	1055.56
254.96	1126.56
255.193	1250.56
255.426	1403.56
255.659	1574.56
255.892	1665.56
256.124	1326.56
256.357	1313.56
256.59	1385.56
256.823	1412.56
257.056	1375.56
257.289	1694.56
257.521	1903.56
257.754	1650.56
257.987	1547.56
258.22	1738.56
258.452	1709.56
258.685	1359.56
258.918	1352.56
259.151	1342.56
259.383	1299.56
259.616	1111.56
259.849	1194.56
260.081	1346.56
260.314	1548.56
260.547	1652.56
260.779	1680.56
261.012	1572.56
261.244	1402.56
261.477	1349.56
261.71	1392.56
261.942	1353.56
262.175	1321.56
262.407	1442.56
262.64	1334.56
262.872	1267.56
263.105	1193.56
263.337	1214.56
263.57	1255.56
263.802	1270.56
264.035	1183.56
264.267	1112.56
264.499	1100.56
264.732	1184.56
264.964	1255.56
265.197	1311.56
265.429	1361.56
265.661	1543.56
265.894	1672.56
266.126	1766.56
266.358	1538.56
266.591	1583.56
266.823	1765.56
267.055	1571.56
267.287	1551.56
267.52	1566.56
267.752	1511.56
267.984	1522.56
268.216	1603.56
268.448	1620.56
268.681	1613.56
268.913	1488.56
269.145	1396.56
269.377	1342.56
269.609	1478.56
269.841	1696.56
270.073	1977.56
270.306	2230.56
270.538	2357.56
270.77	2021.56
271.002	1673.56
271.234	1600.56
271.466	1578.56
271.698	1737.56
271.93	2163.56
272.162	2150.56
272.394	1922.56
272.626	1898.56
272.858	1620.56
273.09	1387.56
273.322	1442.56
273.553	1326.56
273.785	1356.56
274.017	1455.56
274.249	1504.56
274.481	1536.56
274.713	1383.56
274.945	1348.56
275.176	1374.56
275.408	1376.56
275.64	1333.56
275.872	1323.56
276.104	1396.56
276.335	1652.56
276.567	1811.56
276.799	1863.56
277.031	1660.56
277.262	1524.56
277.494	1578.56
277.726	1796.56
277.957	1789.56
278.189	1627.56
278.421	1516.56
278.652	1430.56
278.884	1400.56
279.115	1443.56
279.347	1472.56
279.579	1422.56
279.81	1427.56
280.042	1552.56
280.273	1722.56
280.505	1697.56
280.736	1751.56
280.968	1688.56
281.199	1483.56
281.431	1364.56
281.662	1402.56
281.894	1418.56
282.125	1444.56
282.356	1487.56
282.588	1502.56
282.819	1506.56
283.051	1574.56
283.282	1725.56
283.513	1746.56
283.745	1471.56
283.976	1355.56
284.207	1384.56
284.439	1443.56
284.67	1450.56
284.901	1482.56
285.132	1495.56
285.364	1464.56
285.595	1461.56
285.826	1476.56
286.057	1424.56
286.288	1466.56
286.52	1510.56
286.751	1598.56
286.982	1689.56
287.213	1517.56
287.444	1386.56
287.675	1418.56
287.906	1470.56
288.138	1590.56
288.369	1574.56
288.6	1445.56
288.831	1406.56
289.062	1433.56
289.293	1451.56
289.524	1470.56
289.755	1541.56
289.986	1579.56
290.217	1410.56
290.448	1400.56
290.679	1494.56
290.91	1494.56
291.141	1546.56
291.371	1594.56
291.602	1606.56
291.833	1528.56
292.064	1586.56
292.295	1527.56
292.526	1600.56
292.757	1731.56
292.987	1588.56
293.218	1485.56
293.449	1606.56
293.68	1785.56
293.91	1960.56
294.141	1835.56
294.372	1718.56
294.603	1831.56
294.833	1883.56
295.064	1767.56
295.295	1612.56
295.525	1556.56
295.756	1418.56
295.987	1334.56
296.217	1403.56
296.448	1436.56
296.679	1433.56
296.909	1449.56
297.14	1417.56
297.37	1434.56
297.601	1520.56
297.831	1663.56
298.062	1701.56
298.292	1522.56
298.523	1480.56
298.753	1475.56
298.984	1476.56
299.214	1502.56
299.445	1508.56
299.675	1550.56
299.905	1556.56
300.136	1522.56
300.366	1483.56
300.597	1441.56
300.827	1430.56
301.057	1510.56
301.288	1603.56
301.518	1586.56
301.748	1551.56
301.979	1671.56
302.209	1696.56
302.439	1831.56
302.669	1883.56
302.9	1771.56
303.13	1539.56
303.36	1583.56
303.59	1630.56
303.82	1630.56
304.051	1573.56
304.281	1568.56
304.511	1581.56
304.741	1653.56
304.971	1882.56
305.201	2006.56
305.431	1880.56
305.661	1544.56
305.891	1387.56
306.121	1354.56
306.352	1458.56
306.582	1500.56
306.812	1602.56
307.042	1778.56
307.272	1782.56
307.502	1807.56
307.731	1923.56
307.961	2092.56
308.191	1934.56
308.421	1661.56
308.651	1577.56
308.881	1499.56
309.111	1537.56
309.341	1489.56
309.571	1501.56
309.8	1533.56
310.03	1546.56
310.26	1511.56
310.49	1494.56
310.72	1517.56
310.949	1626.56
311.179	1652.56
311.409	1596.56
311.639	1538.56
311.868	1532.56
312.098	1566.56
312.328	1591.56
312.557	1548.56
312.787	1533.56
313.017	1558.56
313.246	1611.56
313.476	1574.56
313.706	1628.56
313.935	1608.56
314.165	1634.56
314.394	1695.56
314.624	1736.56
314.853	1852.56
315.083	1936.56
315.312	1981.56
315.542	1882.56
315.771	1678.56
316.001	1649.56
316.23	1718.56
316.46	1721.56
316.689	1690.56
316.919	1602.56
317.148	1580.56
317.377	1588.56
317.607	1676.56
317.836	1925.56
318.065	1952.56
318.295	1896.56
318.524	1824.56
318.753	1710.56
318.983	1712.56
319.212	1727.56
319.441	1662.56
319.67	1624.56
319.9	1641.56
320.129	1750.56
320.358	1835.56
320.587	1873.56
320.816	1827.56
321.046	1820.56
321.275	1721.56
321.504	1702.56
321.733	1864.56
321.962	1870.56
322.191	1652.56
322.42	1679.56
322.649	1623.56
322.878	1660.56
323.108	1676.56
323.337	1721.56
323.566	1736.56
323.795	1764.56
324.024	1715.56
324.253	1702.56
324.482	1684.56
324.71	1624.56
324.939	1568.56
325.168	1586.56
325.397	1629.56
325.626	1687.56
325.855	1726.56
326.084	1678.56
326.313	1663.56
326.542	1678.56
326.77	1770.56
326.999	1749.56
327.228	1706.56
327.457	1566.56
327.686	1578.56
327.914	1630.56
328.143	1678.56
328.372	1676.56
328.6	1678.56
328.829	1643.56
329.058	1660.56
329.287	1587.56
329.515	1665.56
329.744	1692.56
329.972	1819.56
330.201	1866.56
330.43	1835.56
330.658	1755.56
330.887	1744.56
331.115	1762.56
331.344	1814.56
331.572	1712.56
331.801	1768.56
332.03	1725.56
332.258	1740.56
332.486	1714.56
332.715	1753.56
332.943	1817.56
333.172	1714.56
333.4	1804.56
333.629	1830.56
333.857	1938.56
334.085	2112.56
334.314	2338.56
334.542	2620.56
334.771	2403.56
334.999	2116.56
335.227	2030.56
335.455	1884.56
335.684	1834.56
335.912	1934.56
336.14	1991.56
336.369	1953.56
336.597	1785.56
336.825	1774.56
337.053	1854.56
337.281	1906.56
337.51	2031.56
337.738	2106.56
337.966	2032.56
338.194	1804.56
338.422	1721.56
338.65	1720.56
338.878	1732.56
339.106	1696.56
339.334	1658.56
339.562	1628.56
339.79	1669.56
340.018	1807.56
340.246	1869.56
340.474	1882.56
340.702	1749.56
340.93	1832.56
341.158	1776.56
341.386	1725.56
341.614	1750.56
341.842	1733.56
342.07	1759.56
342.298	1751.56
342.526	1750.56
342.754	1715.56
342.981	1746.56
343.209	1707.56
343.437	1716.56
343.665	1722.56
343.893	1793.56
344.12	1843.56
344.348	1863.56
344.576	1813.56
344.804	1739.56
345.031	1722.56
345.259	1729.56
345.487	1683.56
345.714	1614.56
345.942	1572.56
346.17	1613.56
346.397	1652.56
346.625	1682.56
346.853	1593.56
347.08	1540.56
347.308	1559.56
347.535	1596.56
347.763	1676.56
347.99	1608.56
348.218	1576.56
348.445	1559.56
348.673	1616.56
348.9	1653.56
349.128	1716.56
349.355	1736.56
349.583	1714.56
349.81	1662.56
350.037	1504.56
350.265	1520.56
350.492	1520.56
350.72	1579.56
350.947	1610.56
351.174	1638.56
351.402	1613.56
351.629	1496.56
351.856	1505.56
352.083	1501.56
352.311	1502.56
352.538	1548.56
352.765	1624.56
352.992	1699.56
353.22	1566.56
353.447	1537.56
353.674	1587.56
353.901	1605.56
354.128	1568.56
354.355	1544.56
354.583	1633.56
354.81	1650.56
355.037	1658.56
355.264	1677.56
355.491	1625.56
355.718	1661.56
355.945	1589.56
356.172	1594.56
356.399	1550.56
356.626	1531.56
356.853	1584.56
357.08	1718.56
357.307	1880.56
357.534	1898.56
357.761	1686.56
357.988	1573.56
358.215	1517.56
358.441	1531.56
358.668	1500.56
358.895	1510.56
359.122	1606.56
359.349	1739.56
359.576	1788.56
359.802	1591.56
360.029	1524.56
360.256	1525.56
360.483	1540.56
360.709	1579.56
360.936	1646.56
361.163	1693.56
361.39	1863.56
361.616	2007.56
361.843	1939.56
362.07	1794.56
362.296	1569.56
362.523	1581.56
362.749	1562.56
362.976	1572.56
363.203	1645.56
363.429	1603.56
363.656	1542.56
363.882	1563.56
364.109	1708.56
364.335	1907.56
364.562	1757.56
364.788	1714.56
365.015	1666.56
365.241	1559.56
365.468	1619.56
365.694	1680.56
365.92	1770.56
366.147	1645.56
366.373	1571.56
366.599	1543.56
366.826	1508.56
367.052	1538.56
367.278	1582.56
367.505	1597.56
367.731	1606.56
367.957	1628.56
368.184	1676.56
368.41	1786.56
368.636	1767.56
368.862	1798.56
369.089	1789.56
369.315	1774.56
369.541	1660.56
369.767	1644.56
369.993	1553.56
370.219	1613.56
370.445	1625.56
370.672	1700.56
370.898	1772.56
371.124	1775.56
371.35	1655.56
371.576	1727.56
371.802	1786.56
372.028	1704.56
372.254	1620.56
372.48	1620.56
372.706	1586.56
372.932	1627.56
373.158	1591.56
373.384	1660.56
373.61	1680.56
373.835	1762.56
374.061	1684.56
374.287	1650.56
374.513	1674.56
374.739	1709.56
374.965	1710.56
375.191	1725.56
375.416	1707.56
375.642	1734.56
375.868	1794.56
376.094	1881.56
376.319	1780.56
376.545	1658.56
376.771	1707.56
376.997	1822.56
377.222	1774.56
377.448	1687.56
377.674	1766.56
377.899	1732.56
378.125	1833.56
378.35	1788.56
378.576	1719.56
378.802	1611.56
379.027	1612.56
379.253	1614.56
379.478	1637.56
379.704	1662.56
379.929	1666.56
380.155	1618.56
380.38	1650.56
380.606	1670.56
380.831	1693.56
381.057	1717.56
381.282	1760.56
381.507	1718.56
381.733	1842.56
381.958	1908.56
382.184	1781.56
382.409	1716.56
382.634	1707.56
382.86	1737.56
383.085	1743.56
383.31	1729.56
383.535	1910.56
383.761	2041.56
383.986	1928.56
384.211	1858.56
384.436	1836.56
384.662	1911.56
384.887	2016.56
385.112	1918.56
385.337	1949.56
385.562	1858.56
385.787	1896.56
386.013	1976.56
386.238	1952.56
386.463	1911.56
386.688	2021.56
386.913	2196.56
387.138	2150.56
387.363	1927.56
387.588	1984.56
387.813	1954.56
388.038	1935.56
388.263	2015.56
388.488	1990.56
388.713	1858.56
388.938	1799.56
389.163	1816.56
389.387	1871.56
389.612	1866.56
389.837	1910.56
390.062	1970.56
390.287	1951.56
390.512	1911.56
390.736	1882.56
390.961	1844.56
391.186	1761.56
391.411	1837.56
391.636	1885.56
391.86	1911.56
392.085	1921.56
392.31	1870.56
392.534	1894.56
392.759	1882.56
392.984	1851.56
393.208	1903.56
393.433	1920.56
393.658	2024.56
393.882	2044.56
394.107	1957.56
394.331	1880.56
394.556	1899.56
394.78	1894.56
395.005	1934.56
395.229	2037.56
395.454	2173.56
395.678	2230.56
395.903	2110.56
396.127	1988.56
396.352	1990.56
396.576	2059.56
396.801	2045.56
397.025	2071.56
397.249	2067.56
397.474	2060.56
397.698	2003.56
397.922	2102.56
398.147	2178.56
398.371	2274.56
398.595	2251.56
398.82	2192.56
399.044	2215.56
399.268	2318.56
399.492	2461.56
399.717	2515.56
399.941	2571.56
400.165	2498.56
400.389	2447.56
400.613	2391.56
400.837	2642.56
401.062	2990.56
401.286	2641.56
401.51	2360.56
401.734	2490.56
401.958	2374.56
402.182	2233.56
402.406	2191.56
402.63	2122.56
402.854	2122.56
403.078	2167.56
403.302	2216.56
403.526	2246.56
403.75	2217.56
403.974	2308.56
404.198	2235.56
404.422	2345.56
404.645	2454.56
404.869	2434.56
405.093	2222.56
405.317	2182.56
405.541	2236.56
405.765	2262.56
405.988	2269.56
406.212	2287.56
406.436	2371.56
406.66	2413.56
406.883	2418.56
407.107	2671.56
407.331	2916.56
407.555	3159.56
407.778	2939.56
408.002	2470.56
408.226	2386.56
408.449	2370.56
408.673	2303.56
408.896	2336.56
409.12	2371.56
409.344	2310.56
409.567	2232.56
409.791	2319.56
410.014	2322.56
410.238	2432.56
410.461	2534.56
410.685	2368.56
410.908	2225.56
411.132	2274.56
411.355	2237.56
411.578	2165.56
411.802	2219.56
412.025	2246.56
412.249	2200.56
412.472	2178.56
412.695	2130.56
412.919	2157.56
413.142	2133.56
413.365	2175.56
413.589	2208.56
413.812	2284.56
414.035	2398.56
414.258	2229.56
414.482	2156.56
414.705	2190.56
414.928	2140.56
415.151	2107.56
415.374	2134.56
415.597	2225.56
415.821	2189.56
416.044	2261.56
416.267	2307.56
416.49	2096.56
416.713	2059.56
416.936	2110.56
417.159	2228.56
417.382	2179.56
417.605	2093.56
417.828	2161.56
418.051	2224.56
418.274	2117.56
418.497	2094.56
418.72	2078.56
418.943	2065.56
419.166	2190.56
419.389	2359.56
419.611	2178.56
419.834	2127.56
420.057	2164.56
420.28	2082.56
420.503	2037.56
420.726	2111.56
420.948	2129.56
421.171	2021.56
421.394	2069.56
421.617	2150.56
421.839	2142.56
422.062	2087.56
422.285	2021.56
422.507	2073.56
422.73	2035.56
422.953	1994.56
423.175	2016.56
423.398	2032.56
423.621	2035.56
423.843	2070.56
424.066	2105.56
424.288	2147.56
424.511	2199.56
424.733	2155.56
424.956	1991.56
425.178	1959.56
425.401	2019.56
425.623	2002.56
425.846	1979.56
426.068	2101.56
426.291	2174.56
426.513	2137.56
426.735	2128.56
426.958	2210.56
427.18	2390.56
427.402	2188.56
427.625	2239.56
427.847	2294.56
428.069	2114.56
428.292	2035.56
428.514	1989.56
428.736	1990.56
428.958	1990.56
429.181	1997.56
429.403	2305.56
429.625	2842.56
429.847	2444.56
430.069	2077.56
430.292	2292.56
430.514	2390.56
430.736	2199.56
430.958	2268.56
431.18	2192.56
431.402	2046.56
431.624	2039.56
431.846	2027.56
432.068	1958.56
432.29	1999.56
432.512	2006.56
432.734	2088.56
432.956	2119.56
433.178	2204.56
433.4	2141.56
433.622	2144.56
433.844	2052.56
434.066	1989.56
434.287	1994.56
434.509	2080.56
434.731	2119.56
434.953	2287.56
435.175	2198.56
435.397	2165.56
435.618	2115.56
435.84	2139.56
436.062	2142.56
436.284	2132.56
436.505	2122.56
436.727	2142.56
436.949	2116.56
437.17	2064.56
437.392	2011.56
437.614	2069.56
437.835	2009.56
438.057	2073.56
438.278	2221.56
438.5	2080.56
438.721	2010.56
438.943	2002.56
439.165	1979.56
439.386	1933.56
439.608	1963.56
439.829	2003.56
440.05	2019.56
440.272	1964.56
440.493	1935.56
440.715	1972.56
440.936	2114.56
441.158	2347.56
441.379	2298.56
441.6	2192.56
441.822	2153.56
442.043	2152.56
442.264	2109.56
442.486	2011.56
442.707	2007.56
442.928	1983.56
443.149	2096.56
443.371	2224.56
443.592	2271.56
443.813	2190.56
444.034	2179.56
444.255	2176.56
444.476	2226.56
444.698	2291.56
444.919	2294.56
445.14	2330.56
445.361	2344.56
445.582	2422.56
445.803	2303.56
446.024	2242.56
446.245	2295.56
446.466	2210.56
446.687	2162.56
446.908	2111.56
447.129	2014.56
447.35	2062.56
447.571	2070.56
447.792	1985.56
448.013	1964.56
448.234	2007.56
448.455	2094.56
448.675	2125.56
448.896	1947.56
449.117	1904.56
449.338	1943.56
449.559	2040.56
449.779	2143.56
450	2377.56
450.221	2564.56
450.442	2512.56
450.662	2151.56
450.883	1919.56
451.104	1853.56
451.324	1883.56
451.545	1984.56
451.766	1977.56
451.986	1890.56
452.207	1870.56
452.428	1824.56
452.648	1756.56
452.869	1844.56
453.089	1942.56
453.31	1967.56
453.53	2028.56
453.751	1958.56
453.971	1833.56
454.192	1856.56
454.412	2020.56
454.633	1908.56
454.853	1866.56
455.073	1765.56
455.294	1708.56
455.514	1757.56
455.734	1800.56
455.955	1826.56
456.175	1814.56
456.395	1839.56
456.616	1884.56
456.836	1891.56
457.056	1860.56
457.276	1844.56
457.497	1783.56
457.717	1686.56
457.937	1758.56
458.157	1811.56
458.377	1846.56
458.598	1788.56
458.818	1782.56
459.038	1994.56
459.258	2007.56
459.478	2033.56
459.698	1949.56
459.918	1994.56
460.138	2052.56
460.358	2106.56
460.578	2116.56
460.798	2227.56
461.018	2375.56
461.238	2280.56
461.458	2112.56
461.678	2184.56
461.898	2102.56
462.118	2078.56
462.338	2139.56
462.558	2139.56
462.777	2146.56
462.997	2255.56
463.217	2383.56
463.437	2299.56
463.657	2220.56
463.876	2157.56
464.096	2153.56
464.316	2163.56
464.536	2251.56
464.755	2241.56
464.975	2286.56
465.195	2179.56
465.414	2292.56
465.634	2279.56
465.854	2154.56
466.073	2245.56
466.293	2226.56
466.512	2008.56
466.732	1977.56
466.951	2059.56
467.171	2070.56
467.391	1922.56
467.61	1923.56
467.829	1953.56
468.049	2068.56
468.268	2360.56
468.488	2166.56
468.707	2045.56
468.927	2027.56
469.146	2000.56
469.365	1915.56
469.585	1944.56
469.804	1952.56
470.023	1977.56
470.243	2010.56
470.462	1919.56
470.681	1896.56
470.901	1959.56
471.12	2006.56
471.339	1914.56
471.558	1891.56
471.777	1887.56
471.997	1915.56
472.216	1903.56
472.435	1888.56
472.654	1878.56
472.873	1987.56
473.092	2101.56
473.311	2027.56
473.53	1920.56
473.749	1837.56
473.968	1919.56
474.187	1997.56
474.406	2139.56
474.625	1992.56
474.844	1996.56
475.063	1932.56
475.282	2025.56
475.501	2001.56
475.72	1982.56
475.939	2128.56
476.158	2074.56
476.377	2017.56
476.596	1996.56
476.814	2079.56
477.033	2106.56
477.252	2173.56
477.471	2208.56
477.69	2125.56
477.908	2066.56
478.127	2177.56
478.346	2366.56
478.564	2366.56
478.783	2340.56
479.002	2418.56
479.22	2325.56
479.439	2466.56
479.658	2772.56
479.876	2774.56
480.095	2367.56
480.313	2314.56
480.532	2198.56
480.751	2210.56
480.969	2277.56
481.188	2217.56
481.406	2188.56
481.624	2123.56
481.843	2150.56
482.061	2241.56
482.28	2269.56
482.498	2310.56
482.717	2327.56
482.935	2222.56
483.153	2191.56
483.372	2194.56
483.59	2166.56
483.808	2182.56
484.027	2263.56
484.245	2433.56
484.463	2747.56
484.681	3190.56
484.9	2400.56
485.118	2268.56
485.336	2203.56
485.554	2344.56
485.772	2433.56
485.99	2377.56
486.209	2316.56
486.427	2367.56
486.645	2366.56
486.863	2300.56
487.081	2388.56
487.299	2446.56
