Data from WStandard_LampEnergy10_LIBS07252019.E.O._I.C._HRD10591_15-53-49-928.txt Node
Date: Thu Jul 25 15:53:49 EDT 2019
User: cochatt
Spectrometer: HR+D1059
Trigger mode: 1
Integration Time (sec): 1.000000E-1
Scans to average: 1
Electric dark correction enabled: true
Nonlinearity correction enabled: false
Boxcar width: 0
XAxis mode: Wavelengths
Number of Pixels in Spectrum: 2048
>>>>>Begin Spectral Data<<<<<
223.165	-9.31
223.4	-9.31
223.635	-9.31
223.869	-23.31
224.104	-20.31
224.338	-20.31
224.573	-9.31
224.808	-18.31
225.042	-2.31
225.277	-10.31
225.511	-2.31
225.746	5.69
225.98	3.69
226.215	0.69
226.449	8.69
226.683	20.69
226.918	39.69
227.152	36.69
227.387	29.69
227.621	34.69
227.856	56.69
228.09	54.69
228.324	51.69
228.559	51.69
228.793	62.69
229.027	133.69
229.262	130.69
229.496	136.69
229.73	151.69
229.964	170.69
230.199	176.69
230.433	169.69
230.667	176.69
230.901	178.69
231.136	182.69
231.37	177.69
231.604	172.69
231.838	168.69
232.072	169.69
232.306	165.69
232.541	193.69
232.775	194.69
233.009	217.69
233.243	203.69
233.477	197.69
233.711	196.69
233.945	205.69
234.179	199.69
234.413	193.69
234.647	220.69
234.881	201.69
235.115	177.69
235.349	196.69
235.583	187.69
235.817	197.69
236.051	205.69
236.285	177.69
236.519	203.69
236.753	248.69
236.987	226.69
237.221	225.69
237.455	220.69
237.689	231.69
237.922	218.69
238.156	209.69
238.39	219.69
238.624	227.69
238.858	229.69
239.091	240.69
239.325	266.69
239.559	299.69
239.793	298.69
240.027	306.69
240.26	288.69
240.494	232.69
240.728	229.69
240.961	227.69
241.195	250.69
241.429	247.69
241.662	258.69
241.896	253.69
242.13	244.69
242.363	272.69
242.597	283.69
242.83	261.69
243.064	286.69
243.298	298.69
243.531	283.69
243.765	285.69
243.998	282.69
244.232	259.69
244.465	252.69
244.699	264.69
244.932	272.69
245.166	312.69
245.399	300.69
245.633	264.69
245.866	262.69
246.099	297.69
246.333	288.69
246.566	305.69
246.8	306.69
247.033	324.69
247.266	306.69
247.5	308.69
247.733	310.69
247.966	332.69
248.2	368.69
248.433	354.69
248.666	384.69
248.899	377.69
249.133	417.69
249.366	481.69
249.599	402.69
249.832	360.69
250.066	369.69
250.299	347.69
250.532	330.69
250.765	316.69
250.998	341.69
251.231	335.69
251.465	374.69
251.698	325.69
251.931	345.69
252.164	344.69
252.397	368.69
252.63	353.69
252.863	307.69
253.096	314.69
253.329	329.69
253.562	338.69
253.795	364.69
254.028	369.69
254.261	358.69
254.494	336.69
254.727	323.69
254.96	340.69
255.193	385.69
255.426	412.69
255.659	445.69
255.892	454.69
256.124	386.69
256.357	377.69
256.59	396.69
256.823	413.69
257.056	407.69
257.289	468.69
257.521	481.69
257.754	445.69
257.987	440.69
258.22	475.69
258.452	460.69
258.685	394.69
258.918	380.69
259.151	382.69
259.383	358.69
259.616	346.69
259.849	363.69
260.081	407.69
260.314	414.69
260.547	454.69
260.779	453.69
261.012	429.69
261.244	404.69
261.477	380.69
261.71	404.69
261.942	418.69
262.175	379.69
262.407	404.69
262.64	394.69
262.872	359.69
263.105	357.69
263.337	362.69
263.57	376.69
263.802	362.69
264.035	353.69
264.267	341.69
264.499	320.69
264.732	344.69
264.964	380.69
265.197	395.69
265.429	427.69
265.661	458.69
265.894	491.69
266.126	490.69
266.358	465.69
266.591	469.69
266.823	473.69
267.055	451.69
267.287	442.69
267.52	430.69
267.752	443.69
267.984	448.69
268.216	475.69
268.448	459.69
268.681	457.69
268.913	424.69
269.145	406.69
269.377	402.69
269.609	437.69
269.841	514.69
270.073	585.69
270.306	616.69
270.538	626.69
270.77	550.69
271.002	473.69
271.234	461.69
271.466	465.69
271.698	535.69
271.93	607.69
272.162	576.69
272.394	533.69
272.626	506.69
272.858	465.69
273.09	398.69
273.322	406.69
273.553	399.69
273.785	417.69
274.017	423.69
274.249	425.69
274.481	438.69
274.713	438.69
274.945	388.69
275.176	426.69
275.408	418.69
275.64	411.69
275.872	406.69
276.104	449.69
276.335	482.69
276.567	517.69
276.799	513.69
277.031	482.69
277.262	470.69
277.494	493.69
277.726	512.69
277.957	516.69
278.189	470.69
278.421	450.69
278.652	440.69
278.884	443.69
279.115	420.69
279.347	428.69
279.579	422.69
279.81	418.69
280.042	464.69
280.273	496.69
280.505	490.69
280.736	504.69
280.968	449.69
281.199	432.69
281.431	426.69
281.662	398.69
281.894	424.69
282.125	438.69
282.356	435.69
282.588	451.69
282.819	458.69
283.051	490.69
283.282	509.69
283.513	495.69
283.745	436.69
283.976	400.69
284.207	435.69
284.439	437.69
284.67	438.69
284.901	449.69
285.132	445.69
285.364	455.69
285.595	446.69
285.826	458.69
286.057	436.69
286.288	440.69
286.52	460.69
286.751	509.69
286.982	490.69
287.213	448.69
287.444	425.69
287.675	433.69
287.906	462.69
288.138	491.69
288.369	458.69
288.6	445.69
288.831	417.69
289.062	437.69
289.293	427.69
289.524	454.69
289.755	446.69
289.986	458.69
290.217	426.69
290.448	438.69
290.679	458.69
290.91	472.69
291.141	483.69
291.371	458.69
291.602	482.69
291.833	473.69
292.064	486.69
292.295	498.69
292.526	478.69
292.757	487.69
292.987	469.69
293.218	486.69
293.449	519.69
293.68	560.69
293.91	566.69
294.141	554.69
294.372	516.69
294.603	543.69
294.833	526.69
295.064	508.69
295.295	485.69
295.525	461.69
295.756	445.69
295.987	426.69
296.217	429.69
296.448	467.69
296.679	476.69
296.909	459.69
297.14	448.69
297.37	458.69
297.601	513.69
297.831	533.69
298.062	505.69
298.292	481.69
298.523	452.69
298.753	462.69
298.984	469.69
299.214	466.69
299.445	479.69
299.675	486.69
299.905	476.69
300.136	477.69
300.366	471.69
300.597	470.69
300.827	459.69
301.057	456.69
301.288	477.69
301.518	514.69
301.748	504.69
301.979	530.69
302.209	575.69
302.439	568.69
302.669	585.69
302.9	548.69
303.13	514.69
303.36	507.69
303.59	508.69
303.82	497.69
304.051	496.69
304.281	514.69
304.511	538.69
304.741	571.69
304.971	592.69
305.201	594.69
305.431	543.69
305.661	474.69
305.891	427.69
306.121	449.69
306.352	464.69
306.582	490.69
306.812	521.69
307.042	539.69
307.272	582.69
307.502	592.69
307.731	629.69
307.961	622.69
308.191	572.69
308.421	506.69
308.651	489.69
308.881	502.69
309.111	493.69
309.341	481.69
309.571	508.69
309.8	481.69
310.03	466.69
310.26	478.69
310.49	493.69
310.72	505.69
310.949	524.69
311.179	544.69
311.409	505.69
311.639	509.69
311.868	510.69
312.098	511.69
312.328	488.69
312.557	499.69
312.787	508.69
313.017	511.69
313.246	521.69
313.476	536.69
313.706	529.69
313.935	531.69
314.165	551.69
314.394	549.69
314.624	576.69
314.853	617.69
315.083	626.69
315.312	616.69
315.542	597.69
315.771	518.69
316.001	541.69
316.23	582.69
316.46	561.69
316.689	523.69
316.919	518.69
317.148	510.69
317.377	513.69
317.607	588.69
317.836	623.69
318.065	638.69
318.295	587.69
318.524	584.69
318.753	584.69
318.983	570.69
319.212	561.69
319.441	547.69
319.67	550.69
319.9	553.69
320.129	575.69
320.358	605.69
320.587	587.69
320.816	615.69
321.046	593.69
321.275	585.69
321.504	587.69
321.733	624.69
321.962	577.69
322.191	566.69
322.42	544.69
322.649	541.69
322.878	554.69
323.108	550.69
323.337	576.69
323.566	579.69
323.795	563.69
324.024	561.69
324.253	571.69
324.482	557.69
324.71	545.69
324.939	520.69
325.168	518.69
325.397	564.69
325.626	589.69
325.855	564.69
326.084	545.69
326.313	550.69
326.542	563.69
326.77	589.69
326.999	583.69
327.228	551.69
327.457	527.69
327.686	518.69
327.914	526.69
328.143	565.69
328.372	573.69
328.6	546.69
328.829	561.69
329.058	559.69
329.287	566.69
329.515	577.69
329.744	583.69
329.972	600.69
330.201	635.69
330.43	600.69
330.658	561.69
330.887	568.69
331.115	584.69
331.344	586.69
331.572	598.69
331.801	573.69
332.03	587.69
332.258	606.69
332.486	612.69
332.715	619.69
332.943	584.69
333.172	584.69
333.4	605.69
333.629	618.69
333.857	667.69
334.085	718.69
334.314	816.69
334.542	822.69
334.771	782.69
334.999	694.69
335.227	645.69
335.455	623.69
335.684	630.69
335.912	634.69
336.14	665.69
336.369	613.69
336.597	609.69
336.825	608.69
337.053	629.69
337.281	675.69
337.51	692.69
337.738	692.69
337.966	650.69
338.194	602.69
338.422	564.69
338.65	574.69
338.878	601.69
339.106	551.69
339.334	565.69
339.562	570.69
339.79	576.69
340.018	617.69
340.246	606.69
340.474	620.69
340.702	619.69
340.93	585.69
341.158	612.69
341.386	602.69
341.614	600.69
341.842	572.69
342.07	608.69
342.298	608.69
342.526	582.69
342.754	595.69
342.981	596.69
343.209	580.69
343.437	569.69
343.665	573.69
343.893	610.69
344.12	622.69
344.348	646.69
344.576	590.69
344.804	571.69
345.031	587.69
345.259	570.69
345.487	564.69
345.714	557.69
345.942	544.69
346.17	564.69
346.397	584.69
346.625	583.69
346.853	527.69
347.08	538.69
347.308	537.69
347.535	566.69
347.763	573.69
347.99	549.69
348.218	548.69
348.445	549.69
348.673	560.69
348.9	582.69
349.128	613.69
349.355	589.69
349.583	573.69
349.81	563.69
350.037	549.69
350.265	520.69
350.492	533.69
350.72	530.69
350.947	576.69
351.174	566.69
351.402	530.69
351.629	523.69
351.856	528.69
352.083	517.69
352.311	525.69
352.538	581.69
352.765	561.69
352.992	546.69
353.22	556.69
353.447	539.69
353.674	537.69
353.901	583.69
354.128	557.69
354.355	555.69
354.583	575.69
354.81	589.69
355.037	582.69
355.264	564.69
355.491	554.69
355.718	576.69
355.945	531.69
356.172	525.69
356.399	558.69
356.626	562.69
356.853	589.69
357.08	614.69
357.307	664.69
357.534	645.69
357.761	565.69
357.988	518.69
358.215	548.69
358.441	546.69
358.668	548.69
358.895	547.69
359.122	599.69
359.349	634.69
359.576	608.69
359.802	554.69
360.029	557.69
360.256	547.69
360.483	542.69
360.709	596.69
360.936	585.69
361.163	629.69
361.39	692.69
361.616	728.69
361.843	699.69
362.07	646.69
362.296	555.69
362.523	550.69
362.749	548.69
362.976	573.69
363.203	578.69
363.429	539.69
363.656	566.69
363.882	587.69
364.109	654.69
364.335	634.69
364.562	628.69
364.788	604.69
365.015	584.69
365.241	546.69
365.468	569.69
365.694	603.69
365.92	620.69
366.147	590.69
366.373	551.69
366.599	564.69
366.826	559.69
367.052	564.69
367.278	575.69
367.505	564.69
367.731	586.69
367.957	601.69
368.184	634.69
368.41	662.69
368.636	653.69
368.862	651.69
369.089	646.69
369.315	617.69
369.541	609.69
369.767	596.69
369.993	578.69
370.219	608.69
370.445	612.69
370.672	670.69
370.898	683.69
371.124	640.69
371.35	630.69
371.576	652.69
371.802	636.69
372.028	614.69
372.254	598.69
372.48	608.69
372.706	581.69
372.932	595.69
373.158	598.69
373.384	606.69
373.61	662.69
373.835	661.69
374.061	625.69
374.287	635.69
374.513	644.69
374.739	633.69
374.965	642.69
375.191	630.69
375.416	648.69
375.642	664.69
375.868	694.69
376.094	686.69
376.319	654.69
376.545	630.69
376.771	664.69
376.997	683.69
377.222	677.69
377.448	643.69
377.674	661.69
377.899	673.69
378.125	730.69
378.35	680.69
378.576	632.69
378.802	624.69
379.027	625.69
379.253	654.69
379.478	649.69
379.704	644.69
379.929	631.69
380.155	646.69
380.38	640.69
380.606	664.69
380.831	665.69
381.057	696.69
381.282	722.69
381.507	696.69
381.733	738.69
381.958	730.69
382.184	659.69
382.409	676.69
382.634	669.69
382.86	643.69
383.085	685.69
383.31	713.69
383.535	764.69
383.761	774.69
383.986	748.69
384.211	718.69
384.436	728.69
384.662	775.69
384.887	794.69
385.112	737.69
385.337	713.69
385.562	729.69
385.787	754.69
386.013	762.69
386.238	749.69
386.463	737.69
386.688	830.69
386.913	843.69
387.138	817.69
387.363	757.69
387.588	765.69
387.813	757.69
388.038	792.69
388.263	780.69
388.488	745.69
388.713	714.69
388.938	701.69
389.163	729.69
389.387	718.69
389.612	740.69
389.837	779.69
390.062	738.69
390.287	764.69
390.512	744.69
390.736	740.69
390.961	720.69
391.186	712.69
391.411	744.69
391.636	750.69
391.86	739.69
392.085	736.69
392.31	713.69
392.534	754.69
392.759	746.69
392.984	748.69
393.208	761.69
393.433	822.69
393.658	826.69
393.882	809.69
394.107	788.69
394.331	737.69
394.556	712.69
394.78	799.69
395.005	806.69
395.229	854.69
395.454	885.69
395.678	858.69
395.903	823.69
396.127	782.69
396.352	794.69
396.576	841.69
396.801	854.69
397.025	824.69
397.249	832.69
397.474	831.69
397.698	801.69
397.922	841.69
398.147	888.69
398.371	932.69
398.595	901.69
398.82	846.69
399.044	901.69
399.268	920.69
399.492	944.69
399.717	977.69
399.941	989.69
400.165	965.69
400.389	963.69
400.613	964.69
400.837	1099.69
401.062	1174.69
401.286	1034.69
401.51	946.69
401.734	965.69
401.958	934.69
402.182	888.69
402.406	849.69
402.63	878.69
402.854	865.69
403.078	891.69
403.302	873.69
403.526	916.69
403.75	938.69
403.974	934.69
404.198	930.69
404.422	956.69
404.645	1012.69
404.869	979.69
405.093	918.69
405.317	873.69
405.541	910.69
405.765	912.69
405.988	924.69
406.212	956.69
406.436	955.69
406.66	982.69
406.883	1005.69
407.107	1126.69
407.331	1221.69
407.555	1257.69
407.778	1102.69
408.002	963.69
408.226	955.69
408.449	983.69
408.673	964.69
408.896	948.69
409.12	973.69
409.344	941.69
409.567	941.69
409.791	944.69
410.014	957.69
410.238	1024.69
410.461	1052.69
410.685	963.69
410.908	933.69
411.132	939.69
411.355	933.69
411.578	916.69
411.802	916.69
412.025	981.69
412.249	922.69
412.472	919.69
412.695	908.69
412.919	907.69
413.142	900.69
413.365	926.69
413.589	957.69
413.812	989.69
414.035	996.69
414.258	916.69
414.482	920.69
414.705	921.69
414.928	920.69
415.151	923.69
415.374	916.69
415.597	916.69
415.821	918.69
416.044	924.69
416.267	916.69
416.49	906.69
416.713	920.69
416.936	939.69
417.159	972.69
417.382	962.69
417.605	927.69
417.828	963.69
418.051	953.69
418.274	942.69
418.497	925.69
418.72	900.69
418.943	902.69
419.166	957.69
419.389	956.69
419.611	945.69
419.834	919.69
420.057	921.69
420.28	939.69
420.503	924.69
420.726	931.69
420.948	915.69
421.171	907.69
421.394	930.69
421.617	966.69
421.839	976.69
422.062	957.69
422.285	932.69
422.507	948.69
422.73	906.69
422.953	904.69
423.175	859.69
423.398	910.69
423.621	916.69
423.843	919.69
424.066	1000.69
424.288	1011.69
424.511	1032.69
424.733	980.69
424.956	934.69
425.178	916.69
425.401	924.69
425.623	949.69
425.846	935.69
426.068	977.69
426.291	975.69
426.513	940.69
426.735	965.69
426.958	1008.69
427.18	1034.69
427.402	974.69
427.625	1049.69
427.847	997.69
428.069	930.69
428.292	910.69
428.514	898.69
428.736	898.69
428.958	908.69
429.181	905.69
429.403	1051.69
429.625	1182.69
429.847	1068.69
430.069	925.69
430.292	1049.69
430.514	1003.69
430.736	996.69
430.958	964.69
431.18	933.69
431.402	890.69
431.624	860.69
431.846	779.69
432.068	708.69
432.29	722.69
432.512	788.69
432.734	858.69
432.956	915.69
433.178	952.69
433.4	933.69
433.622	965.69
433.844	922.69
434.066	851.69
434.287	816.69
434.509	776.69
434.731	806.69
434.953	888.69
435.175	916.69
435.397	896.69
435.618	881.69
435.84	851.69
436.062	844.69
436.284	897.69
436.505	946.69
436.727	902.69
436.949	925.69
437.17	887.69
437.392	876.69
437.614	833.69
437.835	806.69
438.057	807.69
438.278	824.69
438.5	864.69
438.721	882.69
438.943	914.69
439.165	913.69
439.386	915.69
439.608	946.69
439.829	958.69
440.05	974.69
440.272	963.69
440.493	930.69
440.715	966.69
440.936	1000.69
441.158	1037.69
441.379	1038.69
441.6	1041.69
441.822	992.69
442.043	1012.69
442.264	973.69
442.486	952.69
442.707	958.69
442.928	948.69
443.149	964.69
443.371	975.69
443.592	1021.69
443.813	1021.69
444.034	1004.69
444.255	1022.69
444.476	1028.69
444.698	1028.69
444.919	1019.69
445.14	1139.69
445.361	1092.69
445.582	1070.69
445.803	1061.69
446.024	1010.69
446.245	1063.69
446.466	1050.69
446.687	1030.69
446.908	1064.69
447.129	1019.69
447.35	994.69
447.571	1012.69
447.792	983.69
448.013	948.69
448.234	949.69
448.455	975.69
448.675	983.69
448.896	911.69
449.117	906.69
449.338	920.69
449.559	938.69
449.779	962.69
450	1008.69
450.221	1031.69
450.442	992.69
450.662	934.69
450.883	922.69
451.104	869.69
451.324	854.69
451.545	880.69
451.766	855.69
451.986	827.69
452.207	829.69
452.428	789.69
452.648	778.69
452.869	786.69
453.089	796.69
453.31	793.69
453.53	745.69
453.751	728.69
453.971	690.69
454.192	725.69
454.412	773.69
454.633	790.69
454.853	778.69
455.073	750.69
455.294	796.69
455.514	766.69
455.734	762.69
455.955	752.69
456.175	698.69
456.395	725.69
456.616	725.69
456.836	739.69
457.056	724.69
457.276	739.69
457.497	706.69
457.717	712.69
457.937	711.69
458.157	721.69
458.377	704.69
458.598	683.69
458.818	672.69
459.038	691.69
459.258	689.69
459.478	700.69
459.698	699.69
459.918	718.69
460.138	777.69
460.358	822.69
460.578	829.69
460.798	867.69
461.018	880.69
461.238	891.69
461.458	857.69
461.678	823.69
461.898	840.69
462.118	841.69
462.338	833.69
462.558	831.69
462.777	839.69
462.997	841.69
463.217	873.69
463.437	869.69
463.657	822.69
463.876	818.69
464.096	798.69
464.316	802.69
464.536	843.69
464.755	894.69
464.975	873.69
465.195	860.69
465.414	885.69
465.634	874.69
465.854	876.69
466.073	944.69
466.293	936.69
466.512	867.69
466.732	894.69
466.951	886.69
467.171	892.69
467.391	877.69
467.61	875.69
467.829	900.69
468.049	968.69
468.268	1040.69
468.488	965.69
468.707	905.69
468.927	926.69
469.146	893.69
469.365	891.69
469.585	922.69
469.804	935.69
470.023	929.69
470.243	949.69
470.462	933.69
470.681	904.69
470.901	916.69
471.12	906.69
471.339	920.69
471.558	896.69
471.777	906.69
471.997	887.69
472.216	854.69
472.435	767.69
472.654	729.69
472.873	790.69
473.092	837.69
473.311	837.69
473.53	817.69
473.749	787.69
473.968	835.69
474.187	845.69
474.406	817.69
474.625	860.69
474.844	881.69
475.063	878.69
475.282	841.69
475.501	832.69
475.72	832.69
475.939	909.69
476.158	905.69
476.377	878.69
476.596	865.69
476.814	835.69
477.033	826.69
477.252	834.69
477.471	890.69
477.69	929.69
477.908	923.69
478.127	975.69
478.346	993.69
478.564	956.69
478.783	999.69
479.002	1015.69
479.22	996.69
479.439	1026.69
479.658	1011.69
479.876	973.69
480.095	900.69
480.313	881.69
480.532	894.69
480.751	850.69
480.969	824.69
481.188	773.69
481.406	769.69
481.624	764.69
481.843	785.69
482.061	808.69
482.28	859.69
482.498	885.69
482.717	852.69
482.935	893.69
483.153	967.69
483.372	1001.69
483.59	1004.69
483.808	959.69
484.027	946.69
484.245	993.69
484.463	1214.69
484.681	1308.69
484.9	1026.69
485.118	937.69
485.336	928.69
485.554	900.69
485.772	896.69
485.99	853.69
486.209	886.69
486.427	900.69
486.645	948.69
486.863	993.69
487.081	1033.69
487.299	1008.69
487.517	976.69
487.735	1112.69
487.953	1205.69
488.171	1186.69
488.389	1132.69
488.607	1088.69
488.825	1131.69
489.043	1058.69
489.261	984.69
489.479	1009.69
489.696	1056.69
489.914	1055.69
490.132	1026.69
490.35	1050.69
490.568	1142.69
490.786	1158.69
491.003	1194.69
491.221	1275.69
491.439	1295.69
491.657	1322.69
491.874	1346.69
492.092	1449.69
492.31	1516.69
492.527	1469.69
492.745	1369.69
492.963	1307.69
493.18	1291.69
493.398	1335.69
493.615	1337.69
493.833	1257.69
494.05	1234.69
494.268	1213.69
494.485	1233.69
494.703	1239.69
494.92	1240.69
495.138	1217.69
495.355	1231.69
495.573	1261.69
495.79	1297.69
496.008	1299.69
496.225	1221.69
496.442	1234.69
496.66	1224.69
496.877	1186.69
497.094	1211.69
497.312	1234.69
497.529	1217.69
497.746	1203.69
497.963	1267.69
498.181	1310.69
498.398	1254.69
498.615	1205.69
498.832	1145.69
499.049	1142.69
499.267	1144.69
499.484	1248.69
499.701	1322.69
499.918	1362.69
500.135	1492.69
500.352	1549.69
500.569	1594.69
