Data from WStandard_LampEnergy10_LIBS07252019.E.O._I.C._HRD10591_15-54-36-928.txt Node
Date: Thu Jul 25 15:54:36 EDT 2019
User: cochatt
Spectrometer: HR+D1059
Trigger mode: 1
Integration Time (sec): 1.000000E-1
Scans to average: 1
Electric dark correction enabled: true
Nonlinearity correction enabled: false
Boxcar width: 0
XAxis mode: Wavelengths
Number of Pixels in Spectrum: 2048
>>>>>Begin Spectral Data<<<<<
223.165	-20.69
223.4	-20.69
223.635	-20.69
223.869	-19.69
224.104	-8.69
224.338	-9.69
224.573	-19.69
224.808	-9.69
225.042	-12.69
225.277	-0.69
225.511	-6.69
225.746	3.31
225.98	17.31
226.215	0.31
226.449	-3.69
226.683	35.31
226.918	34.31
227.152	21.31
227.387	28.31
227.621	24.31
227.856	44.31
228.09	47.31
228.324	57.31
228.559	50.31
228.793	83.31
229.027	128.31
229.262	137.31
229.496	144.31
229.73	151.31
229.964	151.31
230.199	165.31
230.433	173.31
230.667	180.31
230.901	177.31
231.136	178.31
231.37	162.31
231.604	186.31
231.838	161.31
232.072	177.31
232.306	163.31
232.541	188.31
232.775	194.31
233.009	206.31
233.243	207.31
233.477	177.31
233.711	177.31
233.945	191.31
234.179	196.31
234.413	204.31
234.647	228.31
234.881	207.31
235.115	203.31
235.349	201.31
235.583	184.31
235.817	200.31
236.051	183.31
236.285	196.31
236.519	207.31
236.753	224.31
236.987	228.31
237.221	229.31
237.455	217.31
237.689	225.31
237.922	241.31
238.156	252.31
238.39	215.31
238.624	236.31
238.858	240.31
239.091	246.31
239.325	256.31
239.559	295.31
239.793	273.31
240.027	304.31
240.26	287.31
240.494	226.31
240.728	236.31
240.961	221.31
241.195	247.31
241.429	267.31
241.662	251.31
241.896	248.31
242.13	235.31
242.363	271.31
242.597	260.31
242.83	267.31
243.064	268.31
243.298	285.31
243.531	278.31
243.765	273.31
243.998	267.31
244.232	247.31
244.465	236.31
244.699	251.31
244.932	283.31
245.166	299.31
245.399	304.31
245.633	284.31
245.866	286.31
246.099	290.31
246.333	285.31
246.566	295.31
246.8	321.31
247.033	328.31
247.266	304.31
247.5	287.31
247.733	315.31
247.966	327.31
248.2	334.31
248.433	340.31
248.666	359.31
248.899	395.31
249.133	421.31
249.366	440.31
249.599	369.31
249.832	351.31
250.066	360.31
250.299	355.31
250.532	324.31
250.765	316.31
250.998	336.31
251.231	351.31
251.465	355.31
251.698	322.31
251.931	328.31
252.164	331.31
252.397	347.31
252.63	351.31
252.863	336.31
253.096	321.31
253.329	325.31
253.562	364.31
253.795	341.31
254.028	350.31
254.261	336.31
254.494	334.31
254.727	309.31
254.96	327.31
255.193	380.31
255.426	406.31
255.659	434.31
255.892	441.31
256.124	382.31
256.357	360.31
256.59	377.31
256.823	396.31
257.056	420.31
257.289	474.31
257.521	491.31
257.754	439.31
257.987	439.31
258.22	472.31
258.452	453.31
258.685	404.31
258.918	373.31
259.151	377.31
259.383	375.31
259.616	352.31
259.849	365.31
260.081	396.31
260.314	412.31
260.547	441.31
260.779	441.31
261.012	432.31
261.244	372.31
261.477	401.31
261.71	406.31
261.942	404.31
262.175	388.31
262.407	382.31
262.64	357.31
262.872	360.31
263.105	359.31
263.337	359.31
263.57	363.31
263.802	360.31
264.035	332.31
264.267	340.31
264.499	331.31
264.732	364.31
264.964	398.31
265.197	385.31
265.429	404.31
265.661	452.31
265.894	479.31
266.126	472.31
266.358	443.31
266.591	475.31
266.823	492.31
267.055	443.31
267.287	434.31
267.52	442.31
267.752	448.31
267.984	441.31
268.216	450.31
268.448	449.31
268.681	457.31
268.913	405.31
269.145	413.31
269.377	409.31
269.609	428.31
269.841	512.31
270.073	572.31
270.306	583.31
270.538	617.31
270.77	525.31
271.002	467.31
271.234	467.31
271.466	464.31
271.698	525.31
271.93	576.31
272.162	564.31
272.394	521.31
272.626	493.31
272.858	431.31
273.09	423.31
273.322	394.31
273.553	390.31
273.785	404.31
274.017	409.31
274.249	433.31
274.481	418.31
274.713	377.31
274.945	414.31
275.176	392.31
275.408	403.31
275.64	395.31
275.872	397.31
276.104	438.31
276.335	476.31
276.567	520.31
276.799	507.31
277.031	459.31
277.262	473.31
277.494	469.31
277.726	501.31
277.957	488.31
278.189	437.31
278.421	439.31
278.652	437.31
278.884	417.31
279.115	436.31
279.347	449.31
279.579	434.31
279.81	448.31
280.042	464.31
280.273	496.31
280.505	515.31
280.736	500.31
280.968	468.31
281.199	413.31
281.431	421.31
281.662	417.31
281.894	439.31
282.125	431.31
282.356	464.31
282.588	449.31
282.819	423.31
283.051	483.31
283.282	478.31
283.513	493.31
283.745	432.31
283.976	411.31
284.207	421.31
284.439	425.31
284.67	420.31
284.901	443.31
285.132	456.31
285.364	420.31
285.595	457.31
285.826	440.31
286.057	428.31
286.288	431.31
286.52	465.31
286.751	485.31
286.982	499.31
287.213	437.31
287.444	418.31
287.675	421.31
287.906	458.31
288.138	481.31
288.369	450.31
288.6	428.31
288.831	441.31
289.062	431.31
289.293	445.31
289.524	450.31
289.755	465.31
289.986	469.31
290.217	445.31
290.448	453.31
290.679	439.31
290.91	455.31
291.141	471.31
291.371	468.31
291.602	440.31
291.833	478.31
292.064	461.31
292.295	492.31
292.526	491.31
292.757	501.31
292.987	475.31
293.218	477.31
293.449	538.31
293.68	546.31
293.91	562.31
294.141	560.31
294.372	509.31
294.603	533.31
294.833	551.31
295.064	517.31
295.295	488.31
295.525	470.31
295.756	439.31
295.987	439.31
296.217	438.31
296.448	422.31
296.679	456.31
296.909	442.31
297.14	441.31
297.37	493.31
297.601	495.31
297.831	513.31
298.062	508.31
298.292	483.31
298.523	470.31
298.753	453.31
298.984	439.31
299.214	475.31
299.445	487.31
299.675	474.31
299.905	480.31
300.136	487.31
300.366	455.31
300.597	449.31
300.827	455.31
301.057	464.31
301.288	490.31
301.518	488.31
301.748	491.31
301.979	537.31
302.209	561.31
302.439	567.31
302.669	575.31
302.9	552.31
303.13	511.31
303.36	496.31
303.59	507.31
303.82	486.31
304.051	506.31
304.281	515.31
304.511	509.31
304.741	577.31
304.971	588.31
305.201	609.31
305.431	548.31
305.661	451.31
305.891	445.31
306.121	437.31
306.352	475.31
306.582	524.31
306.812	543.31
307.042	561.31
307.272	553.31
307.502	591.31
307.731	614.31
307.961	617.31
308.191	574.31
308.421	528.31
308.651	495.31
308.881	495.31
309.111	491.31
309.341	490.31
309.571	489.31
309.8	484.31
310.03	469.31
310.26	464.31
310.49	490.31
310.72	498.31
310.949	505.31
311.179	508.31
311.409	494.31
311.639	492.31
311.868	490.31
312.098	498.31
312.328	500.31
312.557	483.31
312.787	507.31
313.017	506.31
313.246	539.31
313.476	512.31
313.706	524.31
313.935	524.31
314.165	508.31
314.394	551.31
314.624	576.31
314.853	613.31
315.083	611.31
315.312	616.31
315.542	587.31
315.771	546.31
316.001	529.31
316.23	554.31
316.46	547.31
316.689	538.31
316.919	527.31
317.148	529.31
317.377	556.31
317.607	562.31
317.836	633.31
318.065	613.31
318.295	584.31
318.524	592.31
318.753	550.31
318.983	553.31
319.212	571.31
319.441	547.31
319.67	535.31
319.9	544.31
320.129	604.31
320.358	573.31
320.587	602.31
320.816	600.31
321.046	577.31
321.275	570.31
321.504	589.31
321.733	603.31
321.962	592.31
322.191	562.31
322.42	548.31
322.649	529.31
322.878	553.31
323.108	556.31
323.337	588.31
323.566	582.31
323.795	594.31
324.024	561.31
324.253	571.31
324.482	561.31
324.71	539.31
324.939	529.31
325.168	575.31
325.397	553.31
325.626	557.31
325.855	556.31
326.084	533.31
326.313	569.31
326.542	575.31
326.77	571.31
326.999	566.31
327.228	529.31
327.457	536.31
327.686	525.31
327.914	538.31
328.143	553.31
328.372	548.31
328.6	565.31
328.829	513.31
329.058	545.31
329.287	552.31
329.515	563.31
329.744	588.31
329.972	626.31
330.201	607.31
330.43	573.31
330.658	601.31
330.887	586.31
331.115	577.31
331.344	581.31
331.572	571.31
331.801	571.31
332.03	568.31
332.258	589.31
332.486	605.31
332.715	613.31
332.943	611.31
333.172	598.31
333.4	603.31
333.629	618.31
333.857	664.31
334.085	713.31
334.314	810.31
334.542	844.31
334.771	749.31
334.999	657.31
335.227	634.31
335.455	641.31
335.684	645.31
335.912	646.31
336.14	652.31
336.369	621.31
336.597	590.31
336.825	603.31
337.053	626.31
337.281	646.31
337.51	690.31
337.738	671.31
337.966	621.31
338.194	582.31
338.422	597.31
338.65	597.31
338.878	576.31
339.106	561.31
339.334	574.31
339.562	559.31
339.79	589.31
340.018	619.31
340.246	634.31
340.474	605.31
340.702	612.31
340.93	619.31
341.158	595.31
341.386	587.31
341.614	607.31
341.842	572.31
342.07	589.31
342.298	613.31
342.526	606.31
342.754	599.31
342.981	573.31
343.209	584.31
343.437	588.31
343.665	583.31
343.893	593.31
344.12	625.31
344.348	617.31
344.576	601.31
344.804	597.31
345.031	589.31
345.259	587.31
345.487	554.31
345.714	519.31
345.942	521.31
346.17	548.31
346.397	559.31
346.625	562.31
346.853	529.31
347.08	523.31
347.308	560.31
347.535	553.31
347.763	579.31
347.99	532.31
348.218	542.31
348.445	552.31
348.673	580.31
348.9	599.31
349.128	596.31
349.355	629.31
349.583	578.31
349.81	535.31
350.037	517.31
350.265	537.31
350.492	530.31
350.72	551.31
350.947	579.31
351.174	556.31
351.402	536.31
351.629	521.31
351.856	543.31
352.083	544.31
352.311	524.31
352.538	551.31
352.765	587.31
352.992	566.31
353.22	546.31
353.447	526.31
353.674	567.31
353.901	561.31
354.128	573.31
354.355	557.31
354.583	561.31
354.81	574.31
355.037	584.31
355.264	556.31
355.491	570.31
355.718	565.31
355.945	552.31
356.172	539.31
356.399	545.31
356.626	558.31
356.853	571.31
357.08	645.31
357.307	647.31
357.534	620.31
357.761	570.31
357.988	545.31
358.215	534.31
358.441	547.31
358.668	533.31
358.895	556.31
359.122	613.31
359.349	655.31
359.576	621.31
359.802	563.31
360.029	535.31
360.256	517.31
360.483	551.31
360.709	587.31
360.936	595.31
361.163	614.31
361.39	671.31
361.616	689.31
361.843	677.31
362.07	625.31
362.296	554.31
362.523	550.31
362.749	572.31
362.976	581.31
363.203	566.31
363.429	570.31
363.656	548.31
363.882	608.31
364.109	646.31
364.335	673.31
364.562	616.31
364.788	593.31
365.015	552.31
365.241	549.31
365.468	579.31
365.694	584.31
365.92	613.31
366.147	580.31
366.373	562.31
366.599	568.31
366.826	544.31
367.052	560.31
367.278	536.31
367.505	581.31
367.731	602.31
367.957	587.31
368.184	629.31
368.41	661.31
368.636	651.31
368.862	646.31
369.089	648.31
369.315	626.31
369.541	623.31
369.767	609.31
369.993	577.31
370.219	576.31
370.445	632.31
370.672	649.31
370.898	641.31
371.124	651.31
371.35	629.31
371.576	628.31
371.802	647.31
372.028	641.31
372.254	590.31
372.48	604.31
372.706	594.31
372.932	597.31
373.158	618.31
373.384	606.31
373.61	651.31
373.835	619.31
374.061	604.31
374.287	637.31
374.513	629.31
374.739	646.31
374.965	643.31
375.191	612.31
375.416	651.31
375.642	665.31
375.868	692.31
376.094	693.31
376.319	682.31
376.545	623.31
376.771	650.31
376.997	710.31
377.222	675.31
377.448	663.31
377.674	657.31
377.899	680.31
378.125	696.31
378.35	687.31
378.576	634.31
378.802	620.31
379.027	628.31
379.253	623.31
379.478	616.31
379.704	611.31
379.929	636.31
380.155	637.31
380.38	632.31
380.606	661.31
380.831	651.31
381.057	697.31
381.282	697.31
381.507	691.31
381.733	736.31
381.958	728.31
382.184	667.31
382.409	667.31
382.634	681.31
382.86	696.31
383.085	679.31
383.31	708.31
383.535	738.31
383.761	819.31
383.986	785.31
384.211	738.31
384.436	749.31
384.662	775.31
384.887	780.31
385.112	706.31
385.337	729.31
385.562	740.31
385.787	739.31
386.013	736.31
386.238	752.31
386.463	745.31
386.688	801.31
386.913	857.31
387.138	789.31
387.363	786.31
387.588	752.31
387.813	761.31
388.038	787.31
388.263	776.31
388.488	760.31
388.713	723.31
388.938	717.31
389.163	702.31
389.387	719.31
389.612	752.31
389.837	763.31
390.062	741.31
390.287	760.31
390.512	751.31
390.736	729.31
390.961	729.31
391.186	712.31
391.411	761.31
391.636	737.31
391.86	739.31
392.085	752.31
392.31	723.31
392.534	760.31
392.759	748.31
392.984	760.31
393.208	767.31
393.433	784.31
393.658	808.31
393.882	803.31
394.107	755.31
394.331	743.31
394.556	770.31
394.78	791.31
395.005	805.31
395.229	828.31
395.454	867.31
395.678	867.31
395.903	799.31
396.127	793.31
396.352	808.31
396.576	850.31
396.801	827.31
397.025	844.31
397.249	836.31
397.474	805.31
397.698	817.31
397.922	841.31
398.147	899.31
398.371	911.31
398.595	892.31
398.82	849.31
399.044	889.31
399.268	919.31
399.492	940.31
399.717	965.31
399.941	1008.31
400.165	947.31
400.389	943.31
400.613	972.31
400.837	1077.31
401.062	1159.31
401.286	1010.31
401.51	949.31
401.734	972.31
401.958	927.31
402.182	884.31
402.406	907.31
402.63	897.31
402.854	882.31
403.078	885.31
403.302	899.31
403.526	932.31
403.75	905.31
403.974	935.31
404.198	931.31
404.422	973.31
404.645	1024.31
404.869	948.31
405.093	886.31
405.317	878.31
405.541	917.31
405.765	938.31
405.988	939.31
406.212	929.31
406.436	961.31
406.66	998.31
406.883	1007.31
407.107	1155.31
407.331	1187.31
407.555	1277.31
407.778	1127.31
408.002	961.31
408.226	944.31
408.449	969.31
408.673	903.31
408.896	943.31
409.12	960.31
409.344	953.31
409.567	927.31
409.791	948.31
410.014	983.31
410.238	1019.31
410.461	1052.31
410.685	953.31
410.908	925.31
411.132	938.31
411.355	921.31
411.578	909.31
411.802	928.31
412.025	919.31
412.249	940.31
412.472	892.31
412.695	895.31
412.919	902.31
413.142	894.31
413.365	922.31
413.589	975.31
413.812	969.31
414.035	981.31
414.258	920.31
414.482	913.31
414.705	933.31
414.928	912.31
415.151	909.31
415.374	900.31
415.597	914.31
415.821	925.31
416.044	921.31
416.267	937.31
416.49	918.31
416.713	875.31
416.936	947.31
417.159	942.31
417.382	949.31
417.605	921.31
417.828	928.31
418.051	948.31
418.274	937.31
418.497	930.31
418.72	915.31
418.943	938.31
419.166	952.31
419.389	991.31
419.611	960.31
419.834	924.31
420.057	936.31
420.28	940.31
420.503	931.31
420.726	943.31
420.948	944.31
421.171	928.31
421.394	937.31
421.617	964.31
421.839	976.31
422.062	964.31
422.285	926.31
422.507	899.31
422.73	895.31
422.953	895.31
423.175	904.31
423.398	890.31
423.621	920.31
423.843	942.31
424.066	981.31
424.288	1015.31
424.511	1030.31
424.733	994.31
424.956	924.31
425.178	947.31
425.401	941.31
425.623	900.31
425.846	928.31
426.068	976.31
426.291	980.31
426.513	930.31
426.735	947.31
426.958	1031.31
427.18	1067.31
427.402	994.31
427.625	1006.31
427.847	986.31
428.069	918.31
428.292	909.31
428.514	890.31
428.736	876.31
428.958	875.31
429.181	924.31
429.403	1066.31
429.625	1195.31
429.847	1039.31
430.069	973.31
430.292	1028.31
430.514	1035.31
430.736	927.31
430.958	958.31
431.18	952.31
431.402	863.31
431.624	843.31
431.846	787.31
432.068	711.31
432.29	738.31
432.512	810.31
432.734	902.31
432.956	911.31
433.178	925.31
433.4	956.31
433.622	969.31
433.844	907.31
434.066	840.31
434.287	813.31
434.509	729.31
434.731	805.31
434.953	881.31
435.175	917.31
435.397	895.31
435.618	832.31
435.84	822.31
436.062	854.31
436.284	906.31
436.505	951.31
436.727	951.31
436.949	916.31
437.17	872.31
437.392	882.31
437.614	859.31
437.835	797.31
438.057	797.31
438.278	827.31
438.5	845.31
438.721	893.31
438.943	947.31
439.165	929.31
439.386	907.31
439.608	932.31
439.829	927.31
440.05	951.31
440.272	929.31
440.493	940.31
440.715	949.31
440.936	986.31
441.158	1039.31
441.379	1027.31
441.6	1048.31
441.822	1039.31
442.043	999.31
442.264	967.31
442.486	928.31
442.707	931.31
442.928	973.31
443.149	977.31
443.371	1010.31
443.592	1004.31
443.813	1033.31
444.034	990.31
444.255	1023.31
444.476	1014.31
444.698	1015.31
444.919	1033.31
445.14	1164.31
445.361	1099.31
445.582	1068.31
445.803	1043.31
446.024	1036.31
446.245	1047.31
446.466	1019.31
446.687	1034.31
446.908	1039.31
447.129	1032.31
447.35	1009.31
447.571	985.31
447.792	979.31
448.013	927.31
448.234	966.31
448.455	945.31
448.675	991.31
448.896	909.31
449.117	866.31
449.338	923.31
449.559	934.31
449.779	952.31
450	975.31
450.221	1043.31
450.442	1006.31
450.662	932.31
450.883	872.31
451.104	861.31
451.324	865.31
451.545	887.31
451.766	868.31
451.986	854.31
452.207	832.31
452.428	805.31
452.648	762.31
452.869	761.31
453.089	772.31
453.31	776.31
453.53	758.31
453.751	721.31
453.971	708.31
454.192	720.31
454.412	757.31
454.633	784.31
454.853	776.31
455.073	753.31
455.294	757.31
455.514	761.31
455.734	766.31
455.955	775.31
456.175	753.31
456.395	703.31
456.616	742.31
456.836	722.31
457.056	735.31
457.276	708.31
457.497	722.31
457.717	674.31
457.937	709.31
458.157	725.31
458.377	684.31
458.598	658.31
458.818	677.31
459.038	720.31
459.258	709.31
459.478	722.31
459.698	681.31
459.918	731.31
460.138	805.31
460.358	795.31
460.578	827.31
460.798	858.31
461.018	884.31
461.238	851.31
461.458	855.31
461.678	856.31
461.898	828.31
462.118	779.31
462.338	834.31
462.558	856.31
462.777	809.31
462.997	866.31
463.217	870.31
463.437	884.31
463.657	850.31
463.876	837.31
464.096	824.31
464.316	831.31
464.536	876.31
464.755	861.31
464.975	866.31
465.195	860.31
465.414	869.31
465.634	879.31
465.854	888.31
466.073	955.31
466.293	953.31
466.512	843.31
466.732	879.31
466.951	891.31
467.171	884.31
467.391	875.31
467.61	876.31
467.829	894.31
468.049	959.31
468.268	1040.31
468.488	959.31
468.707	906.31
468.927	915.31
469.146	913.31
469.365	919.31
469.585	919.31
469.804	907.31
470.023	935.31
470.243	918.31
470.462	938.31
470.681	913.31
470.901	914.31
471.12	900.31
471.339	929.31
471.558	906.31
471.777	905.31
471.997	897.31
472.216	848.31
472.435	768.31
472.654	782.31
472.873	780.31
473.092	845.31
473.311	845.31
473.53	805.31
473.749	807.31
473.968	844.31
474.187	828.31
474.406	852.31
474.625	845.31
474.844	863.31
475.063	865.31
475.282	863.31
475.501	823.31
475.72	812.31
475.939	897.31
476.158	897.31
476.377	890.31
476.596	838.31
476.814	802.31
477.033	803.31
477.252	827.31
477.471	879.31
477.69	921.31
477.908	915.31
478.127	943.31
478.346	993.31
478.564	990.31
478.783	974.31
479.002	1037.31
479.22	992.31
479.439	1011.31
479.658	1035.31
479.876	981.31
480.095	884.31
480.313	906.31
480.532	864.31
480.751	866.31
480.969	826.31
481.188	786.31
481.406	775.31
481.624	748.31
481.843	764.31
482.061	802.31
482.28	856.31
482.498	903.31
482.717	841.31
482.935	881.31
483.153	953.31
483.372	1005.31
483.59	1015.31
483.808	961.31
484.027	936.31
484.245	961.31
484.463	1162.31
484.681	1270.31
484.9	1040.31
485.118	965.31
485.336	920.31
485.554	893.31
485.772	861.31
485.99	864.31
486.209	889.31
486.427	913.31
486.645	933.31
486.863	1003.31
487.081	1009.31
487.299	985.31
487.517	1001.31
487.735	1051.31
487.953	1164.31
488.171	1153.31
488.389	1141.31
488.607	1068.31
488.825	1101.31
489.043	1017.31
489.261	998.31
489.479	1016.31
489.696	1073.31
489.914	1039.31
490.132	999.31
490.35	1114.31
490.568	1157.31
490.786	1158.31
491.003	1185.31
491.221	1265.31
491.439	1283.31
491.657	1288.31
491.874	1367.31
492.092	1419.31
492.31	1473.31
492.527	1439.31
492.745	1342.31
492.963	1316.31
493.18	1337.31
493.398	1364.31
493.615	1299.31
493.833	1254.31
494.05	1213.31
494.268	1221.31
494.485	1213.31
494.703	1195.31
494.92	1232.31
495.138	1205.31
495.355	1220.31
495.573	1251.31
495.79	1273.31
496.008	1273.31
496.225	1206.31
496.442	1236.31
496.66	1192.31
496.877	1217.31
497.094	1240.31
497.312	1229.31
497.529	1177.31
497.746	1194.31
497.963	1256.31
498.181	1259.31
498.398	1263.31
498.615	1207.31
498.832	1138.31
499.049	1153.31
499.267	1145.31
499.484	1239.31
499.701	1355.31
499.918	1370.31
500.135	1498.31
500.352	1550.31
500.569	1559.31
