Data from WStandard_LampEnergy10_LIBS07252019.E.O._I.C._HRD10591_15-55-26-928.txt Node
Date: Thu Jul 25 15:55:26 EDT 2019
User: cochatt
Spectrometer: HR+D1059
Trigger mode: 1
Integration Time (sec): 1.000000E-1
Scans to average: 1
Electric dark correction enabled: true
Nonlinearity correction enabled: false
Boxcar width: 0
XAxis mode: Wavelengths
Number of Pixels in Spectrum: 2048
>>>>>Begin Spectral Data<<<<<
223.165	-15.56
223.4	-15.56
223.635	-15.56
223.869	-26.56
224.104	-31.56
224.338	-9.56
224.573	-2.56
224.808	-10.56
225.042	-13.56
225.277	-5.56
225.511	-11.56
225.746	7.44
225.98	17.44
226.215	12.44
226.449	26.44
226.683	13.44
226.918	21.44
227.152	28.44
227.387	31.44
227.621	36.44
227.856	49.44
228.09	39.44
228.324	38.44
228.559	54.44
228.793	81.44
229.027	131.44
229.262	141.44
229.496	149.44
229.73	155.44
229.964	164.44
230.199	154.44
230.433	158.44
230.667	187.44
230.901	189.44
231.136	183.44
231.37	174.44
231.604	179.44
231.838	161.44
232.072	170.44
232.306	166.44
232.541	193.44
232.775	186.44
233.009	212.44
233.243	196.44
233.477	200.44
233.711	211.44
233.945	178.44
234.179	192.44
234.413	213.44
234.647	201.44
234.881	209.44
235.115	184.44
235.349	203.44
235.583	205.44
235.817	184.44
236.051	204.44
236.285	198.44
236.519	203.44
236.753	214.44
236.987	225.44
237.221	228.44
237.455	241.44
237.689	226.44
237.922	225.44
238.156	222.44
238.39	227.44
238.624	232.44
238.858	222.44
239.091	244.44
239.325	252.44
239.559	264.44
239.793	301.44
240.027	287.44
240.26	279.44
240.494	221.44
240.728	229.44
240.961	229.44
241.195	231.44
241.429	254.44
241.662	269.44
241.896	249.44
242.13	249.44
242.363	249.44
242.597	261.44
242.83	272.44
243.064	277.44
243.298	277.44
243.531	287.44
243.765	276.44
243.998	297.44
244.232	242.44
244.465	251.44
244.699	253.44
244.932	288.44
245.166	320.44
245.399	289.44
245.633	269.44
245.866	277.44
246.099	305.44
246.333	283.44
246.566	286.44
246.8	322.44
247.033	352.44
247.266	305.44
247.5	314.44
247.733	312.44
247.966	337.44
248.2	352.44
248.433	336.44
248.666	376.44
248.899	381.44
249.133	420.44
249.366	453.44
249.599	391.44
249.832	357.44
250.066	357.44
250.299	376.44
250.532	333.44
250.765	299.44
250.998	344.44
251.231	342.44
251.465	341.44
251.698	338.44
251.931	359.44
252.164	360.44
252.397	357.44
252.63	352.44
252.863	337.44
253.096	322.44
253.329	348.44
253.562	350.44
253.795	376.44
254.028	355.44
254.261	326.44
254.494	334.44
254.727	336.44
254.96	340.44
255.193	390.44
255.426	416.44
255.659	426.44
255.892	436.44
256.124	401.44
256.357	410.44
256.59	401.44
256.823	387.44
257.056	415.44
257.289	449.44
257.521	507.44
257.754	453.44
257.987	449.44
258.22	474.44
258.452	470.44
258.685	399.44
258.918	393.44
259.151	394.44
259.383	393.44
259.616	356.44
259.849	363.44
260.081	385.44
260.314	456.44
260.547	448.44
260.779	466.44
261.012	417.44
261.244	409.44
261.477	402.44
261.71	401.44
261.942	395.44
262.175	381.44
262.407	389.44
262.64	398.44
262.872	372.44
263.105	354.44
263.337	371.44
263.57	373.44
263.802	371.44
264.035	351.44
264.267	314.44
264.499	334.44
264.732	355.44
264.964	365.44
265.197	385.44
265.429	410.44
265.661	435.44
265.894	483.44
266.126	504.44
266.358	447.44
266.591	459.44
266.823	467.44
267.055	466.44
267.287	449.44
267.52	437.44
267.752	444.44
267.984	455.44
268.216	456.44
268.448	458.44
268.681	456.44
268.913	417.44
269.145	402.44
269.377	404.44
269.609	439.44
269.841	507.44
270.073	581.44
270.306	624.44
270.538	602.44
270.77	549.44
271.002	469.44
271.234	457.44
271.466	471.44
271.698	527.44
271.93	594.44
272.162	586.44
272.394	553.44
272.626	490.44
272.858	452.44
273.09	398.44
273.322	409.44
273.553	406.44
273.785	418.44
274.017	421.44
274.249	432.44
274.481	431.44
274.713	393.44
274.945	377.44
275.176	411.44
275.408	409.44
275.64	390.44
275.872	395.44
276.104	438.44
276.335	493.44
276.567	521.44
276.799	505.44
277.031	484.44
277.262	468.44
277.494	500.44
277.726	523.44
277.957	515.44
278.189	462.44
278.421	435.44
278.652	424.44
278.884	435.44
279.115	427.44
279.347	434.44
279.579	422.44
279.81	445.44
280.042	473.44
280.273	513.44
280.505	490.44
280.736	475.44
280.968	463.44
281.199	417.44
281.431	436.44
281.662	403.44
281.894	431.44
282.125	432.44
282.356	440.44
282.588	460.44
282.819	450.44
283.051	465.44
283.282	499.44
283.513	489.44
283.745	433.44
283.976	417.44
284.207	431.44
284.439	423.44
284.67	444.44
284.901	435.44
285.132	459.44
285.364	449.44
285.595	447.44
285.826	438.44
286.057	434.44
286.288	452.44
286.52	459.44
286.751	513.44
286.982	464.44
287.213	438.44
287.444	446.44
287.675	447.44
287.906	466.44
288.138	471.44
288.369	447.44
288.6	451.44
288.831	425.44
289.062	418.44
289.293	450.44
289.524	461.44
289.755	452.44
289.986	468.44
290.217	429.44
290.448	420.44
290.679	444.44
290.91	446.44
291.141	466.44
291.371	467.44
291.602	490.44
291.833	462.44
292.064	484.44
292.295	488.44
292.526	504.44
292.757	497.44
292.987	457.44
293.218	471.44
293.449	510.44
293.68	578.44
293.91	582.44
294.141	564.44
294.372	541.44
294.603	558.44
294.833	559.44
295.064	531.44
295.295	503.44
295.525	462.44
295.756	447.44
295.987	432.44
296.217	443.44
296.448	457.44
296.679	465.44
296.909	450.44
297.14	445.44
297.37	460.44
297.601	506.44
297.831	531.44
298.062	528.44
298.292	465.44
298.523	468.44
298.753	480.44
298.984	489.44
299.214	480.44
299.445	499.44
299.675	493.44
299.905	473.44
300.136	465.44
300.366	466.44
300.597	452.44
300.827	469.44
301.057	486.44
301.288	497.44
301.518	517.44
301.748	522.44
301.979	536.44
302.209	548.44
302.439	556.44
302.669	574.44
302.9	538.44
303.13	488.44
303.36	494.44
303.59	511.44
303.82	511.44
304.051	501.44
304.281	527.44
304.511	541.44
304.741	560.44
304.971	617.44
305.201	617.44
305.431	569.44
305.661	460.44
305.891	448.44
306.121	462.44
306.352	469.44
306.582	496.44
306.812	526.44
307.042	582.44
307.272	548.44
307.502	591.44
307.731	627.44
307.961	629.44
308.191	567.44
308.421	509.44
308.651	491.44
308.881	501.44
309.111	501.44
309.341	474.44
309.571	478.44
309.8	482.44
310.03	493.44
310.26	486.44
310.49	493.44
310.72	517.44
310.949	521.44
311.179	516.44
311.409	523.44
311.639	512.44
311.868	489.44
312.098	512.44
312.328	514.44
312.557	524.44
312.787	520.44
313.017	521.44
313.246	514.44
313.476	520.44
313.706	520.44
313.935	516.44
314.165	528.44
314.394	539.44
314.624	602.44
314.853	632.44
315.083	612.44
315.312	609.44
315.542	551.44
315.771	538.44
316.001	527.44
316.23	573.44
316.46	549.44
316.689	550.44
316.919	522.44
317.148	534.44
317.377	530.44
317.607	582.44
317.836	626.44
318.065	617.44
318.295	610.44
318.524	589.44
318.753	569.44
318.983	561.44
319.212	536.44
319.441	532.44
319.67	545.44
319.9	557.44
320.129	569.44
320.358	594.44
320.587	621.44
320.816	616.44
321.046	620.44
321.275	593.44
321.504	583.44
321.733	611.44
321.962	610.44
322.191	564.44
322.42	549.44
322.649	557.44
322.878	555.44
323.108	550.44
323.337	578.44
323.566	551.44
323.795	578.44
324.024	581.44
324.253	564.44
324.482	560.44
324.71	542.44
324.939	523.44
325.168	531.44
325.397	546.44
325.626	576.44
325.855	551.44
326.084	562.44
326.313	563.44
326.542	579.44
326.77	596.44
326.999	557.44
327.228	550.44
327.457	510.44
327.686	500.44
327.914	511.44
328.143	536.44
328.372	559.44
328.6	529.44
328.829	545.44
329.058	538.44
329.287	531.44
329.515	579.44
329.744	555.44
329.972	615.44
330.201	639.44
330.43	603.44
330.658	611.44
330.887	587.44
331.115	563.44
331.344	582.44
331.572	587.44
331.801	561.44
332.03	592.44
332.258	589.44
332.486	593.44
332.715	597.44
332.943	614.44
333.172	602.44
333.4	586.44
333.629	602.44
333.857	634.44
334.085	737.44
334.314	801.44
334.542	821.44
334.771	742.44
334.999	682.44
335.227	636.44
335.455	637.44
335.684	598.44
335.912	635.44
336.14	657.44
336.369	602.44
336.597	605.44
336.825	574.44
337.053	598.44
337.281	643.44
337.51	669.44
337.738	689.44
337.966	642.44
338.194	583.44
338.422	595.44
338.65	582.44
338.878	591.44
339.106	580.44
339.334	567.44
339.562	557.44
339.79	589.44
340.018	599.44
340.246	601.44
340.474	619.44
340.702	586.44
340.93	611.44
341.158	606.44
341.386	615.44
341.614	598.44
341.842	607.44
342.07	615.44
342.298	589.44
342.526	571.44
342.754	577.44
342.981	581.44
343.209	571.44
343.437	583.44
343.665	585.44
343.893	597.44
344.12	609.44
344.348	648.44
344.576	575.44
344.804	588.44
345.031	591.44
345.259	617.44
345.487	578.44
345.714	546.44
345.942	531.44
346.17	551.44
346.397	546.44
346.625	546.44
346.853	554.44
347.08	533.44
347.308	551.44
347.535	557.44
347.763	586.44
347.99	547.44
348.218	527.44
348.445	536.44
348.673	568.44
348.9	570.44
349.128	588.44
349.355	621.44
349.583	594.44
349.81	555.44
350.037	523.44
350.265	522.44
350.492	541.44
350.72	561.44
350.947	572.44
351.174	573.44
351.402	521.44
351.629	534.44
351.856	515.44
352.083	527.44
352.311	549.44
352.538	554.44
352.765	565.44
352.992	573.44
353.22	554.44
353.447	527.44
353.674	544.44
353.901	550.44
354.128	550.44
354.355	565.44
354.583	593.44
354.81	617.44
355.037	575.44
355.264	567.44
355.491	569.44
355.718	569.44
355.945	543.44
356.172	549.44
356.399	556.44
356.626	538.44
356.853	557.44
357.08	631.44
357.307	641.44
357.534	644.44
357.761	564.44
357.988	535.44
358.215	536.44
358.441	546.44
358.668	531.44
358.895	584.44
359.122	593.44
359.349	630.44
359.576	610.44
359.802	563.44
360.029	550.44
360.256	523.44
360.483	561.44
360.709	571.44
360.936	602.44
361.163	613.44
361.39	657.44
361.616	691.44
361.843	682.44
362.07	644.44
362.296	577.44
362.523	561.44
362.749	559.44
362.976	592.44
363.203	593.44
363.429	565.44
363.656	556.44
363.882	599.44
364.109	648.44
364.335	679.44
364.562	608.44
364.788	589.44
365.015	573.44
365.241	557.44
365.468	594.44
365.694	587.44
365.92	611.44
366.147	595.44
366.373	560.44
366.599	560.44
366.826	558.44
367.052	567.44
367.278	585.44
367.505	589.44
367.731	607.44
367.957	616.44
368.184	611.44
368.41	657.44
368.636	681.44
368.862	650.44
369.089	642.44
369.315	641.44
369.541	606.44
369.767	565.44
369.993	564.44
370.219	589.44
370.445	600.44
370.672	652.44
370.898	658.44
371.124	639.44
371.35	637.44
371.576	664.44
371.802	651.44
372.028	634.44
372.254	599.44
372.48	592.44
372.706	607.44
372.932	609.44
373.158	607.44
373.384	635.44
373.61	646.44
373.835	675.44
374.061	622.44
374.287	623.44
374.513	637.44
374.739	631.44
374.965	634.44
375.191	633.44
375.416	690.44
375.642	667.44
375.868	729.44
376.094	722.44
376.319	678.44
376.545	633.44
376.771	666.44
376.997	678.44
377.222	651.44
377.448	648.44
377.674	673.44
377.899	693.44
378.125	697.44
378.35	673.44
378.576	627.44
378.802	621.44
379.027	603.44
379.253	629.44
379.478	632.44
379.704	625.44
379.929	648.44
380.155	650.44
380.38	663.44
380.606	653.44
380.831	657.44
381.057	715.44
381.282	690.44
381.507	685.44
381.733	730.44
381.958	751.44
382.184	661.44
382.409	674.44
382.634	665.44
382.86	675.44
383.085	686.44
383.31	708.44
383.535	752.44
383.761	796.44
383.986	746.44
384.211	716.44
384.436	723.44
384.662	772.44
384.887	735.44
385.112	712.44
385.337	719.44
385.562	720.44
385.787	737.44
386.013	771.44
386.238	749.44
386.463	753.44
386.688	802.44
386.913	861.44
387.138	829.44
387.363	805.44
387.588	749.44
387.813	746.44
388.038	758.44
388.263	809.44
388.488	749.44
388.713	695.44
388.938	715.44
389.163	705.44
389.387	738.44
389.612	737.44
389.837	747.44
390.062	762.44
390.287	740.44
390.512	727.44
390.736	744.44
390.961	733.44
391.186	710.44
391.411	711.44
391.636	750.44
391.86	728.44
392.085	751.44
392.31	744.44
392.534	767.44
392.759	761.44
392.984	763.44
393.208	772.44
393.433	805.44
393.658	825.44
393.882	816.44
394.107	763.44
394.331	765.44
394.556	740.44
394.78	778.44
395.005	805.44
395.229	826.44
395.454	872.44
395.678	876.44
395.903	825.44
396.127	815.44
396.352	792.44
396.576	824.44
396.801	835.44
397.025	836.44
397.249	836.44
397.474	825.44
397.698	827.44
397.922	849.44
398.147	863.44
398.371	917.44
398.595	919.44
398.82	855.44
399.044	879.44
399.268	915.44
399.492	952.44
399.717	960.44
399.941	985.44
400.165	954.44
400.389	941.44
400.613	987.44
400.837	1135.44
401.062	1182.44
401.286	1025.44
401.51	971.44
401.734	955.44
401.958	922.44
402.182	877.44
402.406	853.44
402.63	873.44
402.854	862.44
403.078	881.44
403.302	901.44
403.526	913.44
403.75	914.44
403.974	895.44
404.198	913.44
404.422	949.44
404.645	993.44
404.869	966.44
405.093	888.44
405.317	900.44
405.541	912.44
405.765	911.44
405.988	889.44
406.212	934.44
406.436	958.44
406.66	1009.44
406.883	1057.44
407.107	1115.44
407.331	1229.44
407.555	1259.44
407.778	1142.44
408.002	967.44
408.226	970.44
408.449	963.44
408.673	919.44
408.896	931.44
409.12	915.44
409.344	945.44
409.567	929.44
409.791	941.44
410.014	930.44
410.238	1020.44
410.461	1029.44
410.685	947.44
410.908	921.44
411.132	954.44
411.355	933.44
411.578	918.44
411.802	927.44
412.025	945.44
412.249	913.44
412.472	912.44
412.695	902.44
412.919	886.44
413.142	916.44
413.365	901.44
413.589	959.44
413.812	987.44
414.035	988.44
414.258	931.44
414.482	900.44
414.705	919.44
414.928	902.44
415.151	893.44
415.374	898.44
415.597	916.44
415.821	936.44
416.044	927.44
416.267	917.44
416.49	889.44
416.713	908.44
416.936	953.44
417.159	965.44
417.382	930.44
417.605	909.44
417.828	943.44
418.051	952.44
418.274	933.44
418.497	939.44
418.72	926.44
418.943	909.44
419.166	939.44
419.389	971.44
419.611	945.44
419.834	944.44
420.057	951.44
420.28	923.44
420.503	938.44
420.726	959.44
420.948	950.44
421.171	921.44
421.394	922.44
421.617	1011.44
421.839	990.44
422.062	966.44
422.285	945.44
422.507	911.44
422.73	898.44
422.953	872.44
423.175	866.44
423.398	917.44
423.621	936.44
423.843	913.44
424.066	978.44
424.288	999.44
424.511	1039.44
424.733	1009.44
424.956	921.44
425.178	913.44
425.401	912.44
425.623	950.44
425.846	946.44
426.068	955.44
426.291	934.44
426.513	969.44
426.735	954.44
426.958	1008.44
427.18	1025.44
427.402	992.44
427.625	994.44
427.847	995.44
428.069	908.44
428.292	901.44
428.514	865.44
428.736	887.44
428.958	893.44
429.181	931.44
429.403	1060.44
429.625	1233.44
429.847	1018.44
430.069	929.44
430.292	1037.44
430.514	1033.44
430.736	965.44
430.958	936.44
431.18	926.44
431.402	870.44
431.624	836.44
431.846	809.44
432.068	733.44
432.29	728.44
432.512	770.44
432.734	857.44
432.956	895.44
433.178	945.44
433.4	943.44
433.622	959.44
433.844	885.44
434.066	822.44
434.287	785.44
434.509	776.44
434.731	825.44
434.953	879.44
435.175	922.44
435.397	902.44
435.618	889.44
435.84	818.44
436.062	812.44
436.284	899.44
436.505	919.44
436.727	936.44
436.949	913.44
437.17	891.44
437.392	861.44
437.614	851.44
437.835	815.44
438.057	834.44
438.278	858.44
438.5	843.44
438.721	886.44
438.943	927.44
439.165	891.44
439.386	932.44
439.608	923.44
439.829	912.44
440.05	958.44
440.272	940.44
440.493	929.44
440.715	960.44
440.936	957.44
441.158	1028.44
441.379	1026.44
441.6	1043.44
441.822	985.44
442.043	1015.44
442.264	1000.44
442.486	941.44
442.707	911.44
442.928	954.44
443.149	981.44
443.371	978.44
443.592	999.44
443.813	1031.44
444.034	994.44
444.255	1000.44
444.476	1003.44
444.698	1031.44
444.919	1012.44
445.14	1119.44
445.361	1090.44
445.582	1069.44
445.803	1047.44
446.024	1020.44
446.245	1057.44
446.466	1036.44
446.687	1045.44
446.908	1038.44
447.129	1011.44
447.35	1036.44
447.571	978.44
447.792	936.44
448.013	929.44
448.234	938.44
448.455	991.44
448.675	1000.44
448.896	929.44
449.117	885.44
449.338	941.44
449.559	947.44
449.779	973.44
450	1015.44
450.221	1015.44
450.442	999.44
450.662	925.44
450.883	866.44
451.104	891.44
451.324	872.44
451.545	885.44
451.766	853.44
451.986	820.44
452.207	821.44
452.428	826.44
452.648	785.44
452.869	749.44
453.089	773.44
453.31	793.44
453.53	753.44
453.751	754.44
453.971	713.44
454.192	715.44
454.412	774.44
454.633	767.44
454.853	786.44
455.073	733.44
455.294	746.44
455.514	767.44
455.734	749.44
455.955	744.44
456.175	725.44
456.395	745.44
456.616	746.44
456.836	765.44
457.056	741.44
457.276	717.44
457.497	715.44
457.717	679.44
457.937	692.44
458.157	709.44
458.377	701.44
458.598	671.44
458.818	667.44
459.038	704.44
459.258	726.44
459.478	704.44
459.698	704.44
459.918	723.44
460.138	772.44
460.358	823.44
460.578	833.44
460.798	869.44
461.018	861.44
461.238	875.44
461.458	862.44
461.678	825.44
461.898	823.44
462.118	816.44
462.338	826.44
462.558	861.44
462.777	827.44
462.997	896.44
463.217	872.44
463.437	870.44
463.657	829.44
463.876	825.44
464.096	843.44
464.316	843.44
464.536	865.44
464.755	858.44
464.975	862.44
465.195	867.44
465.414	855.44
465.634	869.44
465.854	902.44
466.073	927.44
466.293	936.44
466.512	859.44
466.732	866.44
466.951	897.44
467.171	895.44
467.391	839.44
467.61	874.44
467.829	875.44
468.049	959.44
468.268	1049.44
468.488	981.44
468.707	916.44
468.927	892.44
469.146	887.44
469.365	931.44
469.585	926.44
469.804	914.44
470.023	940.44
470.243	921.44
470.462	922.44
470.681	920.44
470.901	917.44
471.12	904.44
471.339	913.44
471.558	902.44
471.777	905.44
471.997	879.44
472.216	864.44
472.435	771.44
472.654	769.44
472.873	777.44
473.092	838.44
473.311	819.44
473.53	822.44
473.749	815.44
473.968	821.44
474.187	834.44
474.406	872.44
474.625	871.44
474.844	863.44
475.063	873.44
475.282	886.44
475.501	824.44
475.72	837.44
475.939	905.44
476.158	859.44
476.377	862.44
476.596	848.44
476.814	799.44
477.033	799.44
477.252	837.44
477.471	907.44
477.69	874.44
477.908	914.44
478.127	982.44
478.346	1000.44
478.564	973.44
478.783	1008.44
479.002	1004.44
479.22	1022.44
479.439	1006.44
479.658	1052.44
479.876	998.44
480.095	927.44
480.313	882.44
480.532	864.44
480.751	854.44
480.969	805.44
481.188	775.44
481.406	766.44
481.624	763.44
481.843	790.44
482.061	835.44
482.28	869.44
482.498	872.44
482.717	867.44
482.935	910.44
483.153	985.44
483.372	1027.44
483.59	1000.44
483.808	964.44
484.027	924.44
484.245	1031.44
484.463	1201.44
484.681	1265.44
484.9	1009.44
485.118	971.44
485.336	906.44
485.554	895.44
485.772	898.44
485.99	875.44
486.209	884.44
486.427	920.44
486.645	939.44
486.863	974.44
487.081	1024.44
487.299	979.44
487.517	1009.44
487.735	1080.44
487.953	1158.44
488.171	1156.44
488.389	1130.44
488.607	1080.44
488.825	1124.44
489.043	1054.44
489.261	1005.44
489.479	1028.44
489.696	1033.44
489.914	1041.44
490.132	1035.44
490.35	1082.44
490.568	1184.44
490.786	1179.44
491.003	1206.44
491.221	1223.44
491.439	1289.44
491.657	1322.44
491.874	1340.44
492.092	1443.44
492.31	1489.44
492.527	1456.44
492.745	1360.44
492.963	1312.44
493.18	1283.44
493.398	1337.44
493.615	1294.44
493.833	1226.44
494.05	1226.44
494.268	1227.44
494.485	1239.44
494.703	1209.44
494.92	1186.44
495.138	1236.44
495.355	1233.44
495.573	1233.44
495.79	1280.44
496.008	1249.44
496.225	1206.44
496.442	1245.44
496.66	1250.44
496.877	1219.44
497.094	1255.44
497.312	1219.44
497.529	1167.44
497.746	1191.44
497.963	1295.44
498.181	1266.44
498.398	1276.44
498.615	1180.44
498.832	1153.44
499.049	1163.44
499.267	1163.44
499.484	1247.44
499.701	1328.44
499.918	1338.44
500.135	1442.44
500.352	1562.44
