Data from WStandard_LampEnergy8_LIBS07252019.E.O._I.C._HRD10591_15-59-23-929.txt Node
Date: Thu Jul 25 15:59:23 EDT 2019
User: cochatt
Spectrometer: HR+D1059
Trigger mode: 1
Integration Time (sec): 1.000000E-1
Scans to average: 1
Electric dark correction enabled: true
Nonlinearity correction enabled: false
Boxcar width: 0
XAxis mode: Wavelengths
Number of Pixels in Spectrum: 2048
>>>>>Begin Spectral Data<<<<<
223.165	-22.56
223.4	-22.56
223.635	-22.56
223.869	-19.56
224.104	-23.56
224.338	-20.56
224.573	-7.56
224.808	-21.56
225.042	-3.56
225.277	-1.56
225.511	4.44
225.746	8.44
225.98	1.44
226.215	14.44
226.449	18.44
226.683	29.44
226.918	24.44
227.152	19.44
227.387	43.44
227.621	45.44
227.856	51.44
228.09	54.44
228.324	74.44
228.559	64.44
228.793	103.44
229.027	223.44
229.262	205.44
229.496	232.44
229.73	226.44
229.964	258.44
230.199	259.44
230.433	281.44
230.667	269.44
230.901	276.44
231.136	292.44
231.37	248.44
231.604	252.44
231.838	277.44
232.072	255.44
232.306	262.44
232.541	283.44
232.775	308.44
233.009	338.44
233.243	317.44
233.477	294.44
233.711	316.44
233.945	308.44
234.179	324.44
234.413	309.44
234.647	342.44
234.881	326.44
235.115	295.44
235.349	314.44
235.583	308.44
235.817	292.44
236.051	286.44
236.285	282.44
236.519	331.44
236.753	376.44
236.987	348.44
237.221	355.44
237.455	391.44
237.689	374.44
237.922	347.44
238.156	334.44
238.39	345.44
238.624	360.44
238.858	394.44
239.091	392.44
239.325	453.44
239.559	477.44
239.793	487.44
240.027	518.44
240.26	512.44
240.494	402.44
240.728	376.44
240.961	373.44
241.195	386.44
241.429	427.44
241.662	401.44
241.896	406.44
242.13	404.44
242.363	438.44
242.597	471.44
242.83	467.44
243.064	448.44
243.298	482.44
243.531	478.44
243.765	460.44
243.998	440.44
244.232	415.44
244.465	394.44
244.699	440.44
244.932	470.44
245.166	506.44
245.399	500.44
245.633	440.44
245.866	445.44
246.099	458.44
246.333	480.44
246.566	495.44
246.8	513.44
247.033	558.44
247.266	545.44
247.5	521.44
247.733	546.44
247.966	572.44
248.2	626.44
248.433	592.44
248.666	636.44
248.899	676.44
249.133	752.44
249.366	816.44
249.599	677.44
249.832	603.44
250.066	622.44
250.299	640.44
250.532	603.44
250.765	540.44
250.998	570.44
251.231	604.44
251.465	588.44
251.698	588.44
251.931	583.44
252.164	593.44
252.397	604.44
252.63	629.44
252.863	555.44
253.096	548.44
253.329	575.44
253.562	579.44
253.795	629.44
254.028	611.44
254.261	586.44
254.494	577.44
254.727	557.44
254.96	585.44
255.193	644.44
255.426	733.44
255.659	796.44
255.892	776.44
256.124	671.44
256.357	673.44
256.59	699.44
256.823	709.44
257.056	704.44
257.289	809.44
257.521	901.44
257.754	813.44
257.987	782.44
258.22	836.44
258.452	814.44
258.685	674.44
258.918	660.44
259.151	659.44
259.383	646.44
259.616	593.44
259.849	617.44
260.081	708.44
260.314	790.44
260.547	824.44
260.779	821.44
261.012	766.44
261.244	713.44
261.477	666.44
261.71	699.44
261.942	681.44
262.175	686.44
262.407	715.44
262.64	656.44
262.872	627.44
263.105	630.44
263.337	644.44
263.57	652.44
263.802	647.44
264.035	619.44
264.267	572.44
264.499	565.44
264.732	643.44
264.964	662.44
265.197	681.44
265.429	718.44
265.661	800.44
265.894	845.44
266.126	851.44
266.358	784.44
266.591	804.44
266.823	847.44
267.055	786.44
267.287	783.44
267.52	785.44
267.752	772.44
267.984	775.44
268.216	797.44
268.448	811.44
268.681	804.44
268.913	729.44
269.145	728.44
269.377	722.44
269.609	791.44
269.841	869.44
270.073	1008.44
270.306	1103.44
270.538	1128.44
270.77	935.44
271.002	865.44
271.234	805.44
271.466	818.44
271.698	932.44
271.93	1061.44
272.162	1055.44
272.394	950.44
272.626	903.44
272.858	803.44
273.09	717.44
273.322	719.44
273.553	677.44
273.785	709.44
274.017	739.44
274.249	746.44
274.481	756.44
274.713	745.44
274.945	717.44
275.176	726.44
275.408	693.44
275.64	696.44
275.872	709.44
276.104	752.44
276.335	826.44
276.567	924.44
276.799	920.44
277.031	823.44
277.262	816.44
277.494	834.44
277.726	916.44
277.957	866.44
278.189	803.44
278.421	758.44
278.652	747.44
278.884	735.44
279.115	729.44
279.347	735.44
279.579	733.44
279.81	718.44
280.042	797.44
280.273	875.44
280.505	894.44
280.736	884.44
280.968	814.44
281.199	738.44
281.431	715.44
281.662	726.44
281.894	725.44
282.125	769.44
282.356	782.44
282.588	764.44
282.819	784.44
283.051	840.44
283.282	905.44
283.513	843.44
283.745	772.44
283.976	680.44
284.207	736.44
284.439	760.44
284.67	753.44
284.901	782.44
285.132	769.44
285.364	758.44
285.595	757.44
285.826	775.44
286.057	778.44
286.288	750.44
286.52	794.44
286.751	838.44
286.982	870.44
287.213	804.44
287.444	744.44
287.675	729.44
287.906	796.44
288.138	841.44
288.369	805.44
288.6	759.44
288.831	751.44
289.062	740.44
289.293	773.44
289.524	764.44
289.755	754.44
289.986	761.44
290.217	730.44
290.448	753.44
290.679	778.44
290.91	811.44
291.141	830.44
291.371	814.44
291.602	811.44
291.833	808.44
292.064	820.44
292.295	843.44
292.526	856.44
292.757	867.44
292.987	836.44
293.218	806.44
293.449	890.44
293.68	937.44
293.91	1017.44
294.141	960.44
294.372	893.44
294.603	940.44
294.833	951.44
295.064	920.44
295.295	838.44
295.525	816.44
295.756	776.44
295.987	761.44
296.217	764.44
296.448	747.44
296.679	791.44
296.909	796.44
297.14	804.44
297.37	784.44
297.601	845.44
297.831	876.44
298.062	847.44
298.292	822.44
298.523	766.44
298.753	794.44
298.984	802.44
299.214	840.44
299.445	832.44
299.675	840.44
299.905	825.44
300.136	797.44
300.366	805.44
300.597	774.44
300.827	801.44
301.057	834.44
301.288	879.44
301.518	861.44
301.748	882.44
301.979	928.44
302.209	931.44
302.439	1002.44
302.669	1011.44
302.9	936.44
303.13	842.44
303.36	873.44
303.59	902.44
303.82	851.44
304.051	869.44
304.281	894.44
304.511	848.44
304.741	910.44
304.971	1003.44
305.201	1074.44
305.431	967.44
305.661	801.44
305.891	747.44
306.121	766.44
306.352	832.44
306.582	854.44
306.812	889.44
307.042	948.44
307.272	955.44
307.502	981.44
307.731	1080.44
307.961	1077.44
308.191	980.44
308.421	876.44
308.651	851.44
308.881	819.44
309.111	824.44
309.341	843.44
309.571	839.44
309.8	833.44
310.03	812.44
310.26	828.44
310.49	838.44
310.72	846.44
310.949	885.44
311.179	892.44
311.409	849.44
311.639	844.44
311.868	845.44
312.098	841.44
312.328	865.44
312.557	853.44
312.787	852.44
313.017	894.44
313.246	870.44
313.476	854.44
313.706	887.44
313.935	906.44
314.165	925.44
314.394	926.44
314.624	993.44
314.853	1034.44
315.083	1045.44
315.312	1052.44
315.542	980.44
315.771	902.44
316.001	909.44
316.23	965.44
316.46	978.44
316.689	950.44
316.919	889.44
317.148	851.44
317.377	898.44
317.607	968.44
317.836	1056.44
318.065	1090.44
318.295	1046.44
318.524	1016.44
318.753	977.44
318.983	941.44
319.212	964.44
319.441	925.44
319.67	920.44
319.9	947.44
320.129	968.44
320.358	1033.44
320.587	1065.44
320.816	1026.44
321.046	998.44
321.275	972.44
321.504	1014.44
321.733	1056.44
321.962	982.44
322.191	966.44
322.42	916.44
322.649	909.44
322.878	908.44
323.108	921.44
323.337	960.44
323.566	968.44
323.795	978.44
324.024	946.44
324.253	925.44
324.482	970.44
324.71	906.44
324.939	883.44
325.168	916.44
325.397	956.44
325.626	986.44
325.855	964.44
326.084	936.44
326.313	926.44
326.542	933.44
326.77	968.44
326.999	983.44
327.228	912.44
327.457	889.44
327.686	894.44
327.914	932.44
328.143	948.44
328.372	933.44
328.6	924.44
328.829	915.44
329.058	925.44
329.287	918.44
329.515	966.44
329.744	963.44
329.972	1009.44
330.201	1070.44
330.43	1017.44
330.658	969.44
330.887	1002.44
331.115	1012.44
331.344	992.44
331.572	994.44
331.801	994.44
332.03	982.44
332.258	1017.44
332.486	1029.44
332.715	1035.44
332.943	1000.44
333.172	993.44
333.4	1018.44
333.629	1050.44
333.857	1121.44
334.085	1255.44
334.314	1403.44
334.542	1419.44
334.771	1321.44
334.999	1182.44
335.227	1102.44
335.455	1064.44
335.684	1019.44
335.912	1092.44
336.14	1114.44
336.369	1060.44
336.597	989.44
336.825	1004.44
337.053	1042.44
337.281	1109.44
337.51	1161.44
337.738	1191.44
337.966	1100.44
338.194	1009.44
338.422	990.44
338.65	984.44
338.878	951.44
339.106	954.44
339.334	955.44
339.562	940.44
339.79	967.44
340.018	1010.44
340.246	1044.44
340.474	1036.44
340.702	1042.44
340.93	1041.44
341.158	1007.44
341.386	1008.44
341.614	986.44
341.842	983.44
342.07	977.44
342.298	991.44
342.526	979.44
342.754	961.44
342.981	974.44
343.209	962.44
343.437	993.44
343.665	990.44
343.893	999.44
344.12	1058.44
344.348	1048.44
344.576	1013.44
344.804	995.44
345.031	976.44
345.259	968.44
345.487	947.44
345.714	898.44
345.942	908.44
346.17	925.44
346.397	935.44
346.625	966.44
346.853	890.44
347.08	902.44
347.308	901.44
347.535	926.44
347.763	924.44
347.99	909.44
348.218	891.44
348.445	905.44
348.673	902.44
348.9	926.44
349.128	960.44
349.355	1004.44
349.583	1009.44
349.81	939.44
350.037	849.44
350.265	877.44
350.492	918.44
350.72	906.44
350.947	949.44
351.174	955.44
351.402	908.44
351.629	889.44
351.856	856.44
352.083	873.44
352.311	866.44
352.538	897.44
352.765	929.44
352.992	973.44
353.22	925.44
353.447	899.44
353.674	917.44
353.901	951.44
354.128	887.44
354.355	910.44
354.583	989.44
354.81	969.44
355.037	938.44
355.264	953.44
355.491	945.44
355.718	922.44
355.945	911.44
356.172	905.44
356.399	884.44
356.626	922.44
356.853	987.44
357.08	1021.44
357.307	1103.44
357.534	1046.44
357.761	945.44
357.988	892.44
358.215	861.44
358.441	904.44
358.668	886.44
358.895	916.44
359.122	988.44
359.349	1057.44
359.576	980.44
359.802	918.44
360.029	877.44
360.256	891.44
360.483	930.44
360.709	934.44
360.936	969.44
361.163	1020.44
361.39	1095.44
361.616	1176.44
361.843	1156.44
362.07	1102.44
362.296	912.44
362.523	920.44
362.749	949.44
362.976	952.44
363.203	957.44
363.429	917.44
363.656	920.44
363.882	957.44
364.109	1068.44
364.335	1116.44
364.562	1041.44
364.788	946.44
365.015	920.44
365.241	901.44
365.468	950.44
365.694	971.44
365.92	1001.44
366.147	978.44
366.373	893.44
366.599	904.44
366.826	888.44
367.052	922.44
367.278	911.44
367.505	957.44
367.731	939.44
367.957	967.44
368.184	996.44
368.41	1087.44
368.636	1049.44
368.862	1038.44
369.089	1054.44
369.315	988.44
369.541	969.44
369.767	944.44
369.993	926.44
370.219	922.44
370.445	950.44
370.672	1027.44
370.898	1093.44
371.124	1065.44
371.35	993.44
371.576	1042.44
371.802	1021.44
372.028	1037.44
372.254	959.44
372.48	920.44
372.706	909.44
372.932	956.44
373.158	940.44
373.384	988.44
373.61	1002.44
373.835	1052.44
374.061	990.44
374.287	1000.44
374.513	1001.44
374.739	1016.44
374.965	1022.44
375.191	1033.44
375.416	1021.44
375.642	1010.44
375.868	1128.44
376.094	1114.44
376.319	1054.44
376.545	1050.44
376.771	1060.44
376.997	1096.44
377.222	1061.44
377.448	1009.44
377.674	1084.44
377.899	1068.44
378.125	1126.44
378.35	1083.44
378.576	990.44
378.802	970.44
379.027	966.44
379.253	1004.44
379.478	989.44
379.704	971.44
379.929	1035.44
380.155	1042.44
380.38	1019.44
380.606	1006.44
380.831	990.44
381.057	1039.44
381.282	1076.44
381.507	1060.44
381.733	1132.44
381.958	1146.44
382.184	1046.44
382.409	1032.44
382.634	1056.44
382.86	1067.44
383.085	1011.44
383.31	1088.44
383.535	1168.44
383.761	1236.44
383.986	1171.44
384.211	1109.44
384.436	1107.44
384.662	1176.44
384.887	1180.44
385.112	1140.44
385.337	1159.44
385.562	1152.44
385.787	1133.44
386.013	1166.44
386.238	1141.44
386.463	1158.44
386.688	1274.44
386.913	1328.44
387.138	1225.44
387.363	1183.44
387.588	1173.44
387.813	1131.44
388.038	1181.44
388.263	1225.44
388.488	1170.44
388.713	1097.44
388.938	1094.44
389.163	1084.44
389.387	1121.44
389.612	1114.44
389.837	1155.44
390.062	1138.44
390.287	1130.44
390.512	1141.44
390.736	1124.44
390.961	1107.44
391.186	1083.44
391.411	1096.44
391.636	1097.44
391.86	1133.44
392.085	1109.44
392.31	1142.44
392.534	1108.44
392.759	1172.44
392.984	1155.44
393.208	1151.44
393.433	1210.44
393.658	1184.44
393.882	1201.44
394.107	1142.44
394.331	1131.44
394.556	1147.44
394.78	1159.44
395.005	1191.44
395.229	1228.44
395.454	1326.44
395.678	1291.44
395.903	1236.44
396.127	1180.44
396.352	1224.44
396.576	1244.44
396.801	1246.44
397.025	1245.44
397.249	1225.44
397.474	1245.44
397.698	1217.44
397.922	1291.44
398.147	1361.44
398.371	1362.44
398.595	1365.44
398.82	1295.44
399.044	1356.44
399.268	1386.44
399.492	1442.44
399.717	1508.44
399.941	1511.44
400.165	1451.44
400.389	1448.44
400.613	1435.44
400.837	1652.44
401.062	1830.44
401.286	1552.44
401.51	1458.44
401.734	1500.44
401.958	1432.44
402.182	1338.44
402.406	1308.44
402.63	1278.44
402.854	1288.44
403.078	1338.44
403.302	1342.44
403.526	1373.44
403.75	1354.44
403.974	1376.44
404.198	1351.44
404.422	1432.44
404.645	1478.44
404.869	1452.44
405.093	1344.44
405.317	1296.44
405.541	1344.44
405.765	1359.44
405.988	1368.44
406.212	1365.44
406.436	1380.44
406.66	1446.44
406.883	1492.44
407.107	1727.44
407.331	1804.44
407.555	1893.44
407.778	1725.44
408.002	1460.44
408.226	1408.44
408.449	1398.44
408.673	1379.44
408.896	1417.44
409.12	1400.44
409.344	1383.44
409.567	1354.44
409.791	1371.44
410.014	1354.44
410.238	1489.44
410.461	1536.44
410.685	1410.44
410.908	1329.44
411.132	1339.44
411.355	1358.44
411.578	1314.44
411.802	1366.44
412.025	1334.44
412.249	1329.44
412.472	1307.44
412.695	1300.44
412.919	1309.44
413.142	1306.44
413.365	1354.44
413.589	1361.44
413.812	1410.44
414.035	1436.44
414.258	1330.44
414.482	1286.44
414.705	1334.44
414.928	1300.44
415.151	1329.44
415.374	1292.44
415.597	1340.44
415.821	1329.44
416.044	1374.44
416.267	1371.44
416.49	1286.44
416.713	1265.44
416.936	1331.44
417.159	1358.44
417.382	1381.44
417.605	1320.44
417.828	1365.44
418.051	1364.44
418.274	1306.44
418.497	1292.44
418.72	1267.44
418.943	1282.44
419.166	1334.44
419.389	1403.44
419.611	1286.44
419.834	1312.44
420.057	1324.44
420.28	1290.44
420.503	1315.44
420.726	1351.44
420.948	1322.44
421.171	1255.44
421.394	1275.44
421.617	1338.44
421.839	1285.44
422.062	1306.44
422.285	1259.44
422.507	1292.44
422.73	1275.44
422.953	1219.44
423.175	1218.44
423.398	1264.44
423.621	1249.44
423.843	1280.44
424.066	1329.44
424.288	1419.44
424.511	1388.44
424.733	1389.44
424.956	1261.44
425.178	1206.44
425.401	1261.44
425.623	1280.44
425.846	1268.44
426.068	1336.44
426.291	1353.44
426.513	1305.44
426.735	1329.44
426.958	1443.44
427.18	1480.44
427.402	1367.44
427.625	1445.44
427.847	1384.44
428.069	1282.44
428.292	1269.44
428.514	1234.44
428.736	1211.44
428.958	1236.44
429.181	1293.44
429.403	1515.44
429.625	1714.44
429.847	1457.44
430.069	1304.44
430.292	1466.44
430.514	1453.44
430.736	1376.44
430.958	1360.44
431.18	1283.44
431.402	1261.44
431.624	1200.44
431.846	1185.44
432.068	1108.44
432.29	1166.44
432.512	1206.44
432.734	1250.44
432.956	1292.44
433.178	1345.44
433.4	1320.44
433.622	1304.44
433.844	1253.44
434.066	1183.44
434.287	1195.44
434.509	1201.44
434.731	1288.44
434.953	1362.44
435.175	1336.44
435.397	1275.44
435.618	1264.44
435.84	1235.44
436.062	1225.44
436.284	1286.44
436.505	1285.44
436.727	1316.44
436.949	1275.44
437.17	1252.44
437.392	1229.44
437.614	1198.44
437.835	1192.44
438.057	1245.44
438.278	1251.44
438.5	1228.44
438.721	1228.44
438.943	1265.44
439.165	1253.44
439.386	1236.44
439.608	1231.44
439.829	1260.44
440.05	1276.44
440.272	1264.44
440.493	1270.44
440.715	1266.44
440.936	1334.44
441.158	1429.44
441.379	1408.44
441.6	1374.44
441.822	1382.44
442.043	1368.44
442.264	1305.44
442.486	1269.44
442.707	1273.44
442.928	1247.44
443.149	1282.44
443.371	1361.44
443.592	1410.44
443.813	1381.44
444.034	1382.44
444.255	1363.44
444.476	1375.44
444.698	1452.44
444.919	1409.44
445.14	1480.44
445.361	1445.44
445.582	1441.44
445.803	1413.44
446.024	1367.44
446.245	1444.44
446.466	1360.44
446.687	1326.44
446.908	1351.44
447.129	1269.44
447.35	1316.44
447.571	1312.44
447.792	1279.44
448.013	1245.44
448.234	1273.44
448.455	1314.44
448.675	1317.44
448.896	1208.44
449.117	1196.44
449.338	1247.44
449.559	1266.44
449.779	1339.44
450	1443.44
450.221	1498.44
450.442	1433.44
450.662	1264.44
450.883	1206.44
451.104	1168.44
451.324	1193.44
451.545	1204.44
451.766	1210.44
451.986	1132.44
452.207	1130.44
452.428	1087.44
452.648	1091.44
452.869	1109.44
453.089	1174.44
453.31	1138.44
453.53	1166.44
453.751	1143.44
453.971	1056.44
454.192	1102.44
454.412	1139.44
454.633	1158.44
454.853	1129.44
455.073	1062.44
455.294	1092.44
455.514	1082.44
455.734	1090.44
455.955	1091.44
456.175	1072.44
456.395	1084.44
456.616	1094.44
456.836	1114.44
457.056	1088.44
457.276	1096.44
457.497	1063.44
457.717	1029.44
457.937	1058.44
458.157	1047.44
458.377	1054.44
458.598	1024.44
458.818	1052.44
459.038	1126.44
459.258	1154.44
459.478	1150.44
459.698	1094.44
459.918	1159.44
460.138	1197.44
460.358	1264.44
460.578	1259.44
460.798	1290.44
461.018	1370.44
461.238	1305.44
461.458	1242.44
461.678	1232.44
461.898	1204.44
462.118	1210.44
462.338	1277.44
462.558	1277.44
462.777	1269.44
462.997	1331.44
463.217	1396.44
463.437	1358.44
463.657	1260.44
463.876	1266.44
464.096	1256.44
464.316	1257.44
464.536	1310.44
464.755	1309.44
464.975	1345.44
465.195	1300.44
465.414	1322.44
465.634	1324.44
465.854	1288.44
466.073	1404.44
466.293	1381.44
466.512	1232.44
466.732	1216.44
466.951	1257.44
467.171	1235.44
467.391	1213.44
467.61	1221.44
467.829	1209.44
468.049	1323.44
468.268	1442.44
468.488	1351.44
468.707	1290.44
468.927	1259.44
469.146	1206.44
469.365	1205.44
469.585	1225.44
469.804	1225.44
470.023	1230.44
470.243	1286.44
470.462	1259.44
470.681	1210.44
470.901	1246.44
471.12	1233.44
471.339	1240.44
471.558	1206.44
471.777	1200.44
471.997	1204.44
472.216	1161.44
472.435	1136.44
472.654	1137.44
472.873	1153.44
473.092	1232.44
473.311	1182.44
473.53	1139.44
473.749	1157.44
473.968	1180.44
474.187	1224.44
474.406	1237.44
474.625	1221.44
474.844	1213.44
475.063	1212.44
475.282	1222.44
475.501	1190.44
475.72	1207.44
475.939	1307.44
476.158	1238.44
476.377	1224.44
476.596	1246.44
476.814	1195.44
477.033	1227.44
477.252	1260.44
477.471	1324.44
477.69	1293.44
477.908	1304.44
478.127	1302.44
478.346	1409.44
478.564	1404.44
478.783	1383.44
479.002	1451.44
479.22	1423.44
479.439	1485.44
479.658	1614.44
479.876	1550.44
480.095	1381.44
480.313	1353.44
480.532	1285.44
480.751	1311.44
480.969	1292.44
481.188	1260.44
481.406	1240.44
481.624	1228.44
481.843	1260.44
482.061	1302.44
482.28	1349.44
482.498	1358.44
482.717	1299.44
482.935	1278.44
483.153	1355.44
483.372	1365.44
483.59	1388.44
483.808	1348.44
484.027	1397.44
484.245	1472.44
484.463	1735.44
484.681	1936.44
484.9	1473.44
485.118	1388.44
485.336	1346.44
485.554	1402.44
485.772	1404.44
485.99	1351.44
486.209	1367.44
486.427	1363.44
486.645	1413.44
486.863	1434.44
487.081	1442.44
487.299	1473.44
487.517	1419.44
487.735	1447.44
487.953	1520.44
488.171	1492.44
488.389	1484.44
488.607	1472.44
488.825	1642.44
489.043	1546.44
489.261	1395.44
489.479	1462.44
489.696	1508.44
489.914	1474.44
490.132	1454.44
490.35	1473.44
490.568	1538.44
490.786	1505.44
491.003	1505.44
491.221	1560.44
491.439	1563.44
491.657	1557.44
491.874	1612.44
492.092	1658.44
492.31	1689.44
492.527	1673.44
492.745	1590.44
492.963	1593.44
493.18	1609.44
493.398	1717.44
493.615	1693.44
