Data from WStandard_LampEnergy10_LIBS07252019.E.O._I.C._HRD10591_15-52-53-928.txt Node
Date: Thu Jul 25 15:52:53 EDT 2019
User: cochatt
Spectrometer: HR+D1059
Trigger mode: 1
Integration Time (sec): 1.000000E-1
Scans to average: 1
Electric dark correction enabled: true
Nonlinearity correction enabled: false
Boxcar width: 0
XAxis mode: Wavelengths
Number of Pixels in Spectrum: 2048
>>>>>Begin Spectral Data<<<<<
223.165	-4.25
223.4	-4.25
223.635	-4.25
223.869	-22.25
224.104	-22.25
224.338	-18.25
224.573	-18.25
224.808	-19.25
225.042	-6.25
225.277	-9.25
225.511	1.75
225.746	-1.25
225.98	7.75
226.215	9.75
226.449	10.75
226.683	29.75
226.918	36.75
227.152	24.75
227.387	45.75
227.621	47.75
227.856	33.75
228.09	35.75
228.324	50.75
228.559	59.75
228.793	78.75
229.027	133.75
229.262	158.75
229.496	156.75
229.73	173.75
229.964	181.75
230.199	195.75
230.433	181.75
230.667	197.75
230.901	189.75
231.136	169.75
231.37	185.75
231.604	183.75
231.838	189.75
232.072	193.75
232.306	183.75
232.541	195.75
232.775	200.75
233.009	226.75
233.243	221.75
233.477	218.75
233.711	215.75
233.945	222.75
234.179	211.75
234.413	216.75
234.647	233.75
234.881	214.75
235.115	204.75
235.349	223.75
235.583	206.75
235.817	212.75
236.051	206.75
236.285	211.75
236.519	228.75
236.753	239.75
236.987	234.75
237.221	236.75
237.455	263.75
237.689	275.75
237.922	220.75
238.156	229.75
238.39	240.75
238.624	233.75
238.858	278.75
239.091	291.75
239.325	289.75
239.559	311.75
239.793	328.75
240.027	341.75
240.26	333.75
240.494	254.75
240.728	233.75
240.961	283.75
241.195	264.75
241.429	296.75
241.662	278.75
241.896	273.75
242.13	286.75
242.363	287.75
242.597	306.75
242.83	309.75
243.064	313.75
243.298	331.75
243.531	323.75
243.765	322.75
243.998	297.75
244.232	277.75
244.465	274.75
244.699	304.75
244.932	330.75
245.166	347.75
245.399	325.75
245.633	325.75
245.866	311.75
246.099	326.75
246.333	326.75
246.566	340.75
246.8	345.75
247.033	387.75
247.266	364.75
247.5	351.75
247.733	352.75
247.966	375.75
248.2	403.75
248.433	410.75
248.666	416.75
248.899	439.75
249.133	489.75
249.366	539.75
249.599	450.75
249.832	380.75
250.066	403.75
250.299	406.75
250.532	390.75
250.765	349.75
250.998	383.75
251.231	388.75
251.465	401.75
251.698	382.75
251.931	387.75
252.164	389.75
252.397	383.75
252.63	387.75
252.863	362.75
253.096	356.75
253.329	383.75
253.562	402.75
253.795	417.75
254.028	397.75
254.261	395.75
254.494	375.75
254.727	381.75
254.96	386.75
255.193	405.75
255.426	469.75
255.659	501.75
255.892	534.75
256.124	444.75
256.357	437.75
256.59	463.75
256.823	465.75
257.056	475.75
257.289	546.75
257.521	578.75
257.754	517.75
257.987	497.75
258.22	526.75
258.452	517.75
258.685	449.75
258.918	437.75
259.151	440.75
259.383	430.75
259.616	380.75
259.849	413.75
260.081	465.75
260.314	507.75
260.547	528.75
260.779	526.75
261.012	520.75
261.244	459.75
261.477	439.75
261.71	455.75
261.942	449.75
262.175	433.75
262.407	477.75
262.64	436.75
262.872	428.75
263.105	401.75
263.337	414.75
263.57	409.75
263.802	421.75
264.035	397.75
264.267	376.75
264.499	378.75
264.732	408.75
264.964	454.75
265.197	466.75
265.429	471.75
265.661	527.75
265.894	553.75
266.126	574.75
266.358	525.75
266.591	529.75
266.823	561.75
267.055	514.75
267.287	500.75
267.52	502.75
267.752	486.75
267.984	490.75
268.216	537.75
268.448	540.75
268.681	492.75
268.913	475.75
269.145	475.75
269.377	469.75
269.609	515.75
269.841	581.75
270.073	660.75
270.306	697.75
270.538	695.75
270.77	588.75
271.002	538.75
271.234	523.75
271.466	549.75
271.698	614.75
271.93	682.75
272.162	650.75
272.394	617.75
272.626	577.75
272.858	518.75
273.09	467.75
273.322	466.75
273.553	455.75
273.785	453.75
274.017	454.75
274.249	525.75
274.481	477.75
274.713	447.75
274.945	457.75
275.176	458.75
275.408	484.75
275.64	457.75
275.872	451.75
276.104	510.75
276.335	532.75
276.567	593.75
276.799	606.75
277.031	545.75
277.262	540.75
277.494	548.75
277.726	587.75
277.957	567.75
278.189	510.75
278.421	516.75
278.652	464.75
278.884	483.75
279.115	483.75
279.347	512.75
279.579	479.75
279.81	479.75
280.042	567.75
280.273	574.75
280.505	578.75
280.736	569.75
280.968	550.75
281.199	483.75
281.431	478.75
281.662	482.75
281.894	486.75
282.125	488.75
282.356	506.75
282.588	517.75
282.819	524.75
283.051	548.75
283.282	545.75
283.513	569.75
283.745	480.75
283.976	458.75
284.207	497.75
284.439	481.75
284.67	488.75
284.901	497.75
285.132	503.75
285.364	509.75
285.595	498.75
285.826	516.75
286.057	500.75
286.288	511.75
286.52	538.75
286.751	545.75
286.982	561.75
287.213	503.75
287.444	487.75
287.675	490.75
287.906	521.75
288.138	547.75
288.369	514.75
288.6	491.75
288.831	471.75
289.062	504.75
289.293	492.75
289.524	526.75
289.755	535.75
289.986	497.75
290.217	489.75
290.448	484.75
290.679	514.75
290.91	509.75
291.141	529.75
291.371	526.75
291.602	554.75
291.833	557.75
292.064	547.75
292.295	573.75
292.526	566.75
292.757	562.75
292.987	548.75
293.218	521.75
293.449	583.75
293.68	647.75
293.91	663.75
294.141	637.75
294.372	607.75
294.603	619.75
294.833	631.75
295.064	591.75
295.295	563.75
295.525	517.75
295.756	495.75
295.987	487.75
296.217	480.75
296.448	498.75
296.679	516.75
296.909	550.75
297.14	512.75
297.37	532.75
297.601	553.75
297.831	595.75
298.062	573.75
298.292	517.75
298.523	535.75
298.753	533.75
298.984	531.75
299.214	553.75
299.445	542.75
299.675	532.75
299.905	551.75
300.136	540.75
300.366	527.75
300.597	497.75
300.827	518.75
301.057	540.75
301.288	577.75
301.518	562.75
301.748	557.75
301.979	600.75
302.209	620.75
302.439	665.75
302.669	673.75
302.9	620.75
303.13	553.75
303.36	561.75
303.59	571.75
303.82	565.75
304.051	550.75
304.281	581.75
304.511	603.75
304.741	639.75
304.971	683.75
305.201	717.75
305.431	631.75
305.661	528.75
305.891	537.75
306.121	517.75
306.352	539.75
306.582	581.75
306.812	584.75
307.042	610.75
307.272	648.75
307.502	669.75
307.731	713.75
307.961	696.75
308.191	644.75
308.421	579.75
308.651	547.75
308.881	546.75
309.111	574.75
309.341	556.75
309.571	537.75
309.8	553.75
310.03	554.75
310.26	550.75
310.49	562.75
310.72	572.75
310.949	611.75
311.179	573.75
311.409	574.75
311.639	557.75
311.868	563.75
312.098	581.75
312.328	566.75
312.557	572.75
312.787	573.75
313.017	582.75
313.246	597.75
313.476	573.75
313.706	612.75
313.935	577.75
314.165	607.75
314.394	615.75
314.624	652.75
314.853	681.75
315.083	698.75
315.312	703.75
315.542	651.75
315.771	610.75
316.001	623.75
316.23	631.75
316.46	634.75
316.689	593.75
316.919	573.75
317.148	558.75
317.377	601.75
317.607	677.75
317.836	718.75
318.065	724.75
318.295	694.75
318.524	630.75
318.753	641.75
318.983	638.75
319.212	609.75
319.441	617.75
319.67	602.75
319.9	626.75
320.129	679.75
320.358	684.75
320.587	689.75
320.816	668.75
321.046	682.75
321.275	639.75
321.504	691.75
321.733	707.75
321.962	673.75
322.191	654.75
322.42	635.75
322.649	632.75
322.878	609.75
323.108	638.75
323.337	635.75
323.566	661.75
323.795	629.75
324.024	659.75
324.253	632.75
324.482	620.75
324.71	599.75
324.939	587.75
325.168	640.75
325.397	641.75
325.626	671.75
325.855	644.75
326.084	609.75
326.313	605.75
326.542	653.75
326.77	648.75
326.999	637.75
327.228	611.75
327.457	607.75
327.686	607.75
327.914	610.75
328.143	627.75
328.372	616.75
328.6	649.75
328.829	605.75
329.058	614.75
329.287	614.75
329.515	655.75
329.744	638.75
329.972	699.75
330.201	690.75
330.43	662.75
330.658	655.75
330.887	666.75
331.115	672.75
331.344	660.75
331.572	662.75
331.801	662.75
332.03	658.75
332.258	666.75
332.486	671.75
332.715	660.75
332.943	672.75
333.172	653.75
333.4	678.75
333.629	693.75
333.857	730.75
334.085	844.75
334.314	927.75
334.542	945.75
334.771	870.75
334.999	761.75
335.227	718.75
335.455	697.75
335.684	732.75
335.912	731.75
336.14	722.75
336.369	686.75
336.597	655.75
336.825	679.75
337.053	728.75
337.281	745.75
337.51	787.75
337.738	777.75
337.966	715.75
338.194	677.75
338.422	673.75
338.65	676.75
338.878	635.75
339.106	631.75
339.334	637.75
339.562	620.75
339.79	659.75
340.018	701.75
340.246	714.75
340.474	695.75
340.702	681.75
340.93	673.75
341.158	705.75
341.386	679.75
341.614	671.75
341.842	662.75
342.07	685.75
342.298	677.75
342.526	661.75
342.754	661.75
342.981	656.75
343.209	668.75
343.437	662.75
343.665	665.75
343.893	689.75
344.12	724.75
344.348	720.75
344.576	684.75
344.804	652.75
345.031	663.75
345.259	662.75
345.487	626.75
345.714	613.75
345.942	613.75
346.17	632.75
346.397	623.75
346.625	647.75
346.853	595.75
347.08	619.75
347.308	603.75
347.535	631.75
347.763	659.75
347.99	645.75
348.218	607.75
348.445	635.75
348.673	638.75
348.9	663.75
349.128	686.75
349.355	685.75
349.583	670.75
349.81	599.75
350.037	563.75
350.265	604.75
350.492	607.75
350.72	610.75
350.947	641.75
351.174	648.75
351.402	599.75
351.629	571.75
351.856	565.75
352.083	562.75
352.311	581.75
352.538	611.75
352.765	635.75
352.992	647.75
353.22	622.75
353.447	610.75
353.674	623.75
353.901	630.75
354.128	604.75
354.355	643.75
354.583	655.75
354.81	683.75
355.037	639.75
355.264	618.75
355.491	618.75
355.718	644.75
355.945	603.75
356.172	613.75
356.399	571.75
356.626	597.75
356.853	670.75
357.08	709.75
357.307	753.75
357.534	705.75
357.761	629.75
357.988	597.75
358.215	593.75
358.441	588.75
358.668	582.75
358.895	636.75
359.122	667.75
359.349	715.75
359.576	682.75
359.802	635.75
360.029	627.75
360.256	591.75
360.483	619.75
360.709	649.75
360.936	669.75
361.163	699.75
361.39	773.75
361.616	780.75
361.843	778.75
362.07	694.75
362.296	633.75
362.523	622.75
362.749	609.75
362.976	636.75
363.203	647.75
363.429	626.75
363.656	626.75
363.882	680.75
364.109	725.75
364.335	748.75
364.562	686.75
364.788	667.75
365.015	646.75
365.241	625.75
365.468	651.75
365.694	678.75
365.92	669.75
366.147	659.75
366.373	610.75
366.599	622.75
366.826	650.75
367.052	638.75
367.278	645.75
367.505	652.75
367.731	698.75
367.957	681.75
368.184	708.75
368.41	714.75
368.636	737.75
368.862	760.75
369.089	736.75
369.315	703.75
369.541	698.75
369.767	656.75
369.993	649.75
370.219	654.75
370.445	683.75
370.672	724.75
370.898	746.75
371.124	721.75
371.35	687.75
371.576	721.75
371.802	726.75
372.028	672.75
372.254	655.75
372.48	695.75
372.706	650.75
372.932	671.75
373.158	667.75
373.384	674.75
373.61	726.75
373.835	698.75
374.061	675.75
374.287	689.75
374.513	713.75
374.739	699.75
374.965	698.75
375.191	715.75
375.416	706.75
375.642	725.75
375.868	783.75
376.094	795.75
376.319	738.75
376.545	727.75
376.771	724.75
376.997	739.75
377.222	751.75
377.448	737.75
377.674	753.75
377.899	745.75
378.125	760.75
378.35	755.75
378.576	707.75
378.802	698.75
379.027	690.75
379.253	683.75
379.478	723.75
379.704	701.75
379.929	708.75
380.155	719.75
380.38	728.75
380.606	723.75
380.831	725.75
381.057	794.75
381.282	773.75
381.507	773.75
381.733	807.75
381.958	815.75
382.184	745.75
382.409	740.75
382.634	762.75
382.86	753.75
383.085	757.75
383.31	759.75
383.535	868.75
383.761	861.75
383.986	826.75
384.211	812.75
384.436	787.75
384.662	844.75
384.887	843.75
385.112	823.75
385.337	814.75
385.562	803.75
385.787	802.75
386.013	830.75
386.238	838.75
386.463	837.75
386.688	877.75
386.913	914.75
387.138	913.75
387.363	861.75
387.588	844.75
387.813	831.75
388.038	853.75
388.263	890.75
388.488	853.75
388.713	787.75
388.938	781.75
389.163	797.75
389.387	817.75
389.612	815.75
389.837	847.75
390.062	830.75
390.287	823.75
390.512	821.75
390.736	823.75
390.961	801.75
391.186	809.75
391.411	786.75
391.636	807.75
391.86	829.75
392.085	819.75
392.31	829.75
392.534	874.75
392.759	815.75
392.984	821.75
393.208	854.75
393.433	858.75
393.658	875.75
393.882	897.75
394.107	853.75
394.331	846.75
394.556	837.75
394.78	861.75
395.005	883.75
395.229	926.75
395.454	938.75
395.678	959.75
395.903	920.75
396.127	895.75
396.352	908.75
396.576	921.75
396.801	933.75
397.025	907.75
397.249	911.75
397.474	910.75
397.698	892.75
397.922	957.75
398.147	989.75
398.371	1009.75
398.595	979.75
398.82	949.75
399.044	962.75
399.268	992.75
399.492	1060.75
399.717	1070.75
399.941	1064.75
400.165	1079.75
400.389	1037.75
400.613	1073.75
400.837	1203.75
401.062	1287.75
401.286	1103.75
401.51	1076.75
401.734	1050.75
401.958	1026.75
402.182	983.75
402.406	930.75
402.63	991.75
402.854	977.75
403.078	975.75
403.302	984.75
403.526	987.75
403.75	991.75
403.974	1015.75
404.198	1031.75
404.422	1081.75
404.645	1101.75
404.869	1034.75
405.093	1016.75
405.317	979.75
405.541	1028.75
405.765	1013.75
405.988	1021.75
406.212	1007.75
406.436	1081.75
406.66	1069.75
406.883	1123.75
407.107	1239.75
407.331	1335.75
407.555	1390.75
407.778	1202.75
408.002	1060.75
408.226	1068.75
408.449	1028.75
408.673	1034.75
408.896	1066.75
409.12	1068.75
409.344	1001.75
409.567	1003.75
409.791	1047.75
410.014	1054.75
410.238	1134.75
410.461	1170.75
410.685	1038.75
410.908	1037.75
411.132	1036.75
411.355	1015.75
411.578	1016.75
411.802	1015.75
412.025	1027.75
412.249	1001.75
412.472	1001.75
412.695	971.75
412.919	969.75
413.142	988.75
413.365	1001.75
413.589	1041.75
413.812	1071.75
414.035	1074.75
414.258	1004.75
414.482	996.75
414.705	1039.75
414.928	998.75
415.151	1006.75
415.374	1025.75
415.597	1006.75
415.821	1022.75
416.044	995.75
416.267	1019.75
416.49	1009.75
416.713	1024.75
416.936	1029.75
417.159	1052.75
417.382	1070.75
417.605	987.75
417.828	1010.75
418.051	1047.75
418.274	1044.75
418.497	992.75
418.72	1014.75
418.943	1026.75
419.166	1024.75
419.389	1064.75
419.611	1029.75
419.834	1028.75
420.057	1032.75
420.28	1022.75
420.503	999.75
420.726	1044.75
420.948	1030.75
421.171	986.75
421.394	1014.75
421.617	1071.75
421.839	1066.75
422.062	1067.75
422.285	1012.75
422.507	1015.75
422.73	956.75
422.953	935.75
423.175	969.75
423.398	989.75
423.621	987.75
423.843	1026.75
424.066	1047.75
424.288	1067.75
424.511	1109.75
424.733	1075.75
424.956	1001.75
425.178	1014.75
425.401	980.75
425.623	1009.75
425.846	1010.75
426.068	1057.75
426.291	1058.75
426.513	1040.75
426.735	1055.75
426.958	1163.75
427.18	1161.75
427.402	1055.75
427.625	1135.75
427.847	1050.75
428.069	1011.75
428.292	989.75
428.514	997.75
428.736	973.75
428.958	997.75
429.181	994.75
429.403	1158.75
429.625	1330.75
429.847	1142.75
430.069	1038.75
430.292	1127.75
430.514	1124.75
430.736	1068.75
430.958	1060.75
431.18	996.75
431.402	974.75
431.624	913.75
431.846	881.75
432.068	819.75
432.29	809.75
432.512	880.75
432.734	957.75
432.956	1017.75
433.178	1057.75
433.4	1051.75
433.622	1016.75
433.844	997.75
434.066	901.75
434.287	849.75
434.509	863.75
434.731	917.75
434.953	996.75
435.175	1025.75
435.397	973.75
435.618	973.75
435.84	933.75
436.062	934.75
436.284	947.75
436.505	1000.75
436.727	1014.75
436.949	1009.75
437.17	971.75
437.392	957.75
437.614	918.75
437.835	892.75
438.057	895.75
438.278	927.75
438.5	948.75
438.721	969.75
438.943	1014.75
439.165	1004.75
439.386	1011.75
439.608	1033.75
439.829	1055.75
440.05	1050.75
440.272	1036.75
440.493	1003.75
440.715	1047.75
440.936	1100.75
441.158	1139.75
441.379	1144.75
441.6	1127.75
441.822	1094.75
442.043	1099.75
442.264	1096.75
442.486	1049.75
442.707	1063.75
442.928	1029.75
443.149	1052.75
443.371	1077.75
443.592	1094.75
443.813	1101.75
444.034	1112.75
444.255	1075.75
444.476	1092.75
444.698	1121.75
444.919	1119.75
445.14	1229.75
445.361	1165.75
445.582	1162.75
445.803	1138.75
446.024	1110.75
446.245	1167.75
446.466	1173.75
446.687	1118.75
446.908	1120.75
447.129	1094.75
447.35	1122.75
447.571	1064.75
447.792	1042.75
448.013	1039.75
448.234	1033.75
448.455	1066.75
448.675	1076.75
448.896	1013.75
449.117	1010.75
449.338	1025.75
449.559	1059.75
449.779	1051.75
450	1114.75
450.221	1129.75
450.442	1093.75
450.662	1009.75
450.883	959.75
451.104	933.75
451.324	974.75
451.545	975.75
451.766	947.75
451.986	909.75
452.207	917.75
452.428	889.75
452.648	867.75
452.869	875.75
453.089	871.75
453.31	867.75
453.53	854.75
453.751	822.75
453.971	787.75
454.192	812.75
454.412	854.75
454.633	878.75
454.853	858.75
455.073	822.75
455.294	845.75
455.514	824.75
455.734	821.75
455.955	838.75
456.175	823.75
456.395	813.75
456.616	817.75
456.836	805.75
457.056	791.75
457.276	788.75
457.497	763.75
457.717	727.75
457.937	789.75
458.157	775.75
458.377	769.75
458.598	726.75
458.818	739.75
459.038	749.75
459.258	775.75
459.478	793.75
459.698	787.75
459.918	830.75
460.138	881.75
460.358	899.75
460.578	920.75
460.798	930.75
461.018	975.75
461.238	972.75
461.458	939.75
461.678	919.75
461.898	893.75
462.118	868.75
462.338	913.75
462.558	924.75
462.777	921.75
462.997	945.75
463.217	985.75
463.437	998.75
463.657	899.75
463.876	903.75
464.096	910.75
464.316	905.75
464.536	965.75
464.755	952.75
464.975	970.75
465.195	951.75
465.414	951.75
465.634	953.75
465.854	975.75
466.073	1063.75
466.293	971.75
466.512	945.75
466.732	951.75
466.951	976.75
467.171	984.75
467.391	945.75
467.61	935.75
467.829	957.75
468.049	1098.75
468.268	1146.75
468.488	1037.75
468.707	1041.75
468.927	983.75
469.146	967.75
469.365	993.75
469.585	1018.75
469.804	1046.75
470.023	1023.75
470.243	1029.75
470.462	995.75
470.681	982.75
470.901	995.75
471.12	1003.75
471.339	994.75
471.558	1000.75
471.777	979.75
471.997	977.75
472.216	917.75
472.435	830.75
472.654	822.75
472.873	866.75
473.092	909.75
473.311	899.75
473.53	868.75
473.749	893.75
473.968	893.75
474.187	924.75
474.406	925.75
474.625	939.75
474.844	951.75
475.063	960.75
475.282	943.75
475.501	905.75
475.72	926.75
475.939	979.75
476.158	947.75
476.377	963.75
476.596	918.75
476.814	905.75
477.033	873.75
477.252	931.75
477.471	998.75
477.69	996.75
477.908	1034.75
478.127	1071.75
478.346	1117.75
478.564	1092.75
478.783	1092.75
479.002	1083.75
479.22	1081.75
479.439	1127.75
479.658	1113.75
479.876	1058.75
480.095	1015.75
480.313	974.75
480.532	953.75
480.751	932.75
480.969	901.75
481.188	870.75
481.406	842.75
481.624	811.75
481.843	890.75
482.061	919.75
482.28	972.75
482.498	971.75
482.717	958.75
482.935	957.75
483.153	1064.75
483.372	1112.75
483.59	1086.75
483.808	1039.75
484.027	1028.75
484.245	1082.75
484.463	1334.75
484.681	1435.75
484.9	1096.75
485.118	1021.75
485.336	991.75
485.554	1005.75
485.772	980.75
485.99	965.75
486.209	984.75
486.427	985.75
486.645	1014.75
486.863	1082.75
487.081	1124.75
487.299	1095.75
487.517	1087.75
487.735	1183.75
487.953	1274.75
488.171	1281.75
488.389	1236.75
488.607	1125.75
488.825	1224.75
489.043	1171.75
489.261	1094.75
489.479	1111.75
489.696	1124.75
489.914	1140.75
490.132	1115.75
490.35	1173.75
490.568	1275.75
490.786	1291.75
491.003	1281.75
491.221	1331.75
491.439	1384.75
491.657	1369.75
491.874	1476.75
492.092	1529.75
492.31	1601.75
492.527	1551.75
492.745	1476.75
492.963	1410.75
493.18	1450.75
493.398	1464.75
493.615	1445.75
493.833	1367.75
494.05	1303.75
494.268	1329.75
494.485	1361.75
494.703	1342.75
494.92	1342.75
495.138	1327.75
495.355	1335.75
495.573	1333.75
495.79	1423.75
496.008	1413.75
496.225	1329.75
496.442	1341.75
496.66	1333.75
496.877	1324.75
497.094	1325.75
497.312	1317.75
497.529	1322.75
497.746	1291.75
497.963	1409.75
498.181	1420.75
498.398	1408.75
