Data from WStandard_LampEnergy5.5LIBS07252019.E.O._I.C._HRD10591_16-07-48-928.txt Node
Date: Thu Jul 25 16:07:48 EDT 2019
User: cochatt
Spectrometer: HR+D1059
Trigger mode: 1
Integration Time (sec): 1.000000E-1
Scans to average: 1
Electric dark correction enabled: true
Nonlinearity correction enabled: false
Boxcar width: 0
XAxis mode: Wavelengths
Number of Pixels in Spectrum: 2048
>>>>>Begin Spectral Data<<<<<
223.165	-11.94
223.4	-11.94
223.635	-11.94
223.869	-28.94
224.104	-14.94
224.338	-9.94
224.573	-17.94
224.808	-9.94
225.042	-17.94
225.277	-12.94
225.511	-0.94
225.746	10.06
225.98	10.06
226.215	15.06
226.449	10.06
226.683	19.06
226.918	35.06
227.152	26.06
227.387	39.06
227.621	37.06
227.856	47.06
228.09	49.06
228.324	37.06
228.559	56.06
228.793	137.06
229.027	382.06
229.262	381.06
229.496	381.06
229.73	412.06
229.964	445.06
230.199	462.06
230.433	464.06
230.667	501.06
230.901	561.06
231.136	511.06
231.37	483.06
231.604	478.06
231.838	475.06
232.072	494.06
232.306	461.06
232.541	486.06
232.775	577.06
233.009	634.06
233.243	624.06
233.477	554.06
233.711	554.06
233.945	585.06
234.179	562.06
234.413	599.06
234.647	644.06
234.881	633.06
235.115	566.06
235.349	572.06
235.583	585.06
235.817	571.06
236.051	566.06
236.285	584.06
236.519	607.06
236.753	697.06
236.987	724.06
237.221	688.06
237.455	756.06
237.689	749.06
237.922	681.06
238.156	686.06
238.39	697.06
238.624	719.06
238.858	800.06
239.091	814.06
239.325	824.06
239.559	940.06
239.793	985.06
240.027	1095.06
240.26	1081.06
240.494	774.06
240.728	745.06
240.961	755.06
241.195	775.06
241.429	833.06
241.662	860.06
241.896	771.06
242.13	823.06
242.363	883.06
242.597	959.06
242.83	904.06
243.064	934.06
243.298	979.06
243.531	989.06
243.765	939.06
243.998	988.06
244.232	832.06
244.465	816.06
244.699	803.06
244.932	925.06
245.166	1076.06
245.399	1048.06
245.633	922.06
245.866	902.06
246.099	979.06
246.333	972.06
246.566	1006.06
246.8	1094.06
247.033	1207.06
247.266	1140.06
247.5	1123.06
247.733	1064.06
247.966	1138.06
248.2	1288.06
248.433	1223.06
248.666	1268.06
248.899	1400.06
249.133	1561.06
249.366	1829.06
249.599	1475.06
249.832	1270.06
250.066	1312.06
250.299	1316.06
250.532	1248.06
250.765	1105.06
250.998	1185.06
251.231	1251.06
251.465	1302.06
251.698	1208.06
251.931	1194.06
252.164	1274.06
252.397	1323.06
252.63	1296.06
252.863	1160.06
253.096	1123.06
253.329	1186.06
253.562	1227.06
253.795	1338.06
254.028	1299.06
254.261	1191.06
254.494	1234.06
254.727	1138.06
254.96	1174.06
255.193	1314.06
255.426	1466.06
255.659	1728.06
255.892	1743.06
256.124	1404.06
256.357	1348.06
256.59	1450.06
256.823	1484.06
257.056	1482.06
257.289	1759.06
257.521	1968.06
257.754	1759.06
257.987	1651.06
258.22	1884.06
258.452	1810.06
258.685	1428.06
258.918	1406.06
259.151	1440.06
259.383	1358.06
259.616	1206.06
259.849	1263.06
260.081	1466.06
260.314	1612.06
260.547	1739.06
260.779	1781.06
261.012	1670.06
261.244	1481.06
261.477	1426.06
261.71	1462.06
261.942	1530.06
262.175	1394.06
262.407	1509.06
262.64	1427.06
262.872	1355.06
263.105	1278.06
263.337	1336.06
263.57	1311.06
263.802	1351.06
264.035	1264.06
264.267	1198.06
264.499	1162.06
264.732	1242.06
264.964	1348.06
265.197	1403.06
265.429	1478.06
265.661	1635.06
265.894	1803.06
266.126	1889.06
266.358	1653.06
266.591	1682.06
266.823	1867.06
267.055	1654.06
267.287	1666.06
267.52	1629.06
267.752	1613.06
267.984	1574.06
268.216	1659.06
268.448	1720.06
268.681	1725.06
268.913	1566.06
269.145	1487.06
269.377	1480.06
269.609	1559.06
269.841	1827.06
270.073	2138.06
270.306	2367.06
270.538	2532.06
270.77	2128.06
271.002	1791.06
271.234	1714.06
271.466	1689.06
271.698	1894.06
271.93	2336.06
272.162	2316.06
272.394	2031.06
272.626	1939.06
272.858	1783.06
273.09	1490.06
273.322	1489.06
273.553	1425.06
273.785	1431.06
274.017	1493.06
274.249	1617.06
274.481	1609.06
274.713	1487.06
274.945	1456.06
275.176	1448.06
275.408	1482.06
275.64	1424.06
275.872	1412.06
276.104	1498.06
276.335	1690.06
276.567	1952.06
276.799	2009.06
277.031	1737.06
277.262	1676.06
277.494	1706.06
277.726	1892.06
277.957	1904.06
278.189	1748.06
278.421	1579.06
278.652	1568.06
278.884	1519.06
279.115	1521.06
279.347	1568.06
279.579	1493.06
279.81	1518.06
280.042	1674.06
280.273	1817.06
280.505	1844.06
280.736	1894.06
280.968	1803.06
281.199	1586.06
281.431	1488.06
281.662	1502.06
281.894	1482.06
282.125	1535.06
282.356	1604.06
282.588	1610.06
282.819	1580.06
283.051	1707.06
283.282	1821.06
283.513	1834.06
283.745	1593.06
283.976	1473.06
284.207	1459.06
284.439	1491.06
284.67	1517.06
284.901	1556.06
285.132	1624.06
285.364	1568.06
285.595	1636.06
285.826	1589.06
286.057	1528.06
286.288	1510.06
286.52	1634.06
286.751	1761.06
286.982	1768.06
287.213	1639.06
287.444	1491.06
287.675	1525.06
287.906	1569.06
288.138	1672.06
288.369	1687.06
288.6	1544.06
288.831	1488.06
289.062	1530.06
289.293	1540.06
289.524	1575.06
289.755	1656.06
289.986	1621.06
290.217	1495.06
290.448	1531.06
290.679	1569.06
290.91	1593.06
291.141	1637.06
291.371	1687.06
291.602	1669.06
291.833	1677.06
292.064	1702.06
292.295	1652.06
292.526	1690.06
292.757	1820.06
292.987	1695.06
293.218	1609.06
293.449	1715.06
293.68	1953.06
293.91	2136.06
294.141	2018.06
294.372	1802.06
294.603	1840.06
294.833	1982.06
295.064	1875.06
295.295	1708.06
295.525	1656.06
295.756	1570.06
295.987	1469.06
296.217	1491.06
296.448	1534.06
296.679	1538.06
296.909	1557.06
297.14	1546.06
297.37	1564.06
297.601	1671.06
297.831	1778.06
298.062	1805.06
298.292	1653.06
298.523	1544.06
298.753	1564.06
298.984	1595.06
299.214	1552.06
299.445	1612.06
299.675	1688.06
299.905	1671.06
300.136	1609.06
300.366	1569.06
300.597	1549.06
300.827	1505.06
301.057	1582.06
301.288	1670.06
301.518	1658.06
301.748	1690.06
301.979	1777.06
302.209	1821.06
302.439	1978.06
302.669	2026.06
302.9	1884.06
303.13	1718.06
303.36	1684.06
303.59	1737.06
303.82	1701.06
304.051	1671.06
304.281	1707.06
304.511	1675.06
304.741	1799.06
304.971	1955.06
305.201	2161.06
305.431	2013.06
305.661	1624.06
305.891	1513.06
306.121	1459.06
306.352	1505.06
306.582	1617.06
306.812	1739.06
307.042	1876.06
307.272	1898.06
307.502	1889.06
307.731	2055.06
307.961	2244.06
308.191	2046.06
308.421	1763.06
308.651	1699.06
308.881	1660.06
309.111	1633.06
309.341	1616.06
309.571	1648.06
309.8	1616.06
310.03	1603.06
310.26	1611.06
310.49	1566.06
310.72	1648.06
310.949	1737.06
311.179	1730.06
311.409	1740.06
311.639	1669.06
311.868	1673.06
312.098	1698.06
312.328	1666.06
312.557	1584.06
312.787	1689.06
313.017	1714.06
313.246	1710.06
313.476	1690.06
313.706	1764.06
313.935	1735.06
314.165	1717.06
314.394	1819.06
314.624	1846.06
314.853	1970.06
315.083	2091.06
315.312	2149.06
315.542	2058.06
315.771	1759.06
316.001	1736.06
316.23	1828.06
316.46	1866.06
316.689	1808.06
316.919	1726.06
317.148	1670.06
317.377	1682.06
317.607	1800.06
317.836	2052.06
318.065	2083.06
318.295	2003.06
318.524	1929.06
318.753	1878.06
318.983	1873.06
319.212	1842.06
319.441	1804.06
319.67	1752.06
319.9	1804.06
320.129	1878.06
320.358	1907.06
320.587	1989.06
320.816	1983.06
321.046	1952.06
321.275	1861.06
321.504	1812.06
321.733	1984.06
321.962	1984.06
322.191	1770.06
322.42	1838.06
322.649	1740.06
322.878	1769.06
323.108	1750.06
323.337	1874.06
323.566	1848.06
323.795	1843.06
324.024	1840.06
324.253	1784.06
324.482	1814.06
324.71	1745.06
324.939	1697.06
325.168	1684.06
325.397	1749.06
325.626	1778.06
325.855	1878.06
326.084	1819.06
326.313	1791.06
326.542	1809.06
326.77	1842.06
326.999	1864.06
327.228	1803.06
327.457	1707.06
327.686	1687.06
327.914	1735.06
328.143	1803.06
328.372	1792.06
328.6	1815.06
328.829	1783.06
329.058	1704.06
329.287	1741.06
329.515	1754.06
329.744	1847.06
329.972	1900.06
330.201	1973.06
330.43	1939.06
330.658	1872.06
330.887	1903.06
331.115	1896.06
331.344	1935.06
331.572	1854.06
331.801	1871.06
332.03	1906.06
332.258	1867.06
332.486	1918.06
332.715	1927.06
332.943	1923.06
333.172	1848.06
333.4	1932.06
333.629	1976.06
333.857	2061.06
334.085	2298.06
334.314	2550.06
334.542	2829.06
334.771	2632.06
334.999	2282.06
335.227	2153.06
335.455	2055.06
335.684	2021.06
335.912	2060.06
336.14	2128.06
336.369	2035.06
336.597	1970.06
336.825	1899.06
337.053	1952.06
337.281	2075.06
337.51	2166.06
337.738	2276.06
337.966	2232.06
338.194	1951.06
338.422	1920.06
338.65	1908.06
338.878	1828.06
339.106	1833.06
339.334	1776.06
339.562	1721.06
339.79	1825.06
340.018	1915.06
340.246	1953.06
340.474	2012.06
340.702	1960.06
340.93	1953.06
341.158	1889.06
341.386	1902.06
341.614	1872.06
341.842	1858.06
342.07	1879.06
342.298	1940.06
342.526	1908.06
342.754	1849.06
342.981	1855.06
343.209	1854.06
343.437	1828.06
343.665	1889.06
343.893	1924.06
344.12	2010.06
344.348	2057.06
344.576	1961.06
344.804	1899.06
345.031	1855.06
345.259	1867.06
345.487	1806.06
345.714	1744.06
345.942	1693.06
346.17	1752.06
346.397	1719.06
346.625	1768.06
346.853	1708.06
347.08	1658.06
347.308	1686.06
347.535	1726.06
347.763	1798.06
347.99	1751.06
348.218	1675.06
348.445	1714.06
348.673	1721.06
348.9	1773.06
349.128	1798.06
349.355	1938.06
349.583	1830.06
349.81	1781.06
350.037	1632.06
350.265	1598.06
350.492	1635.06
350.72	1687.06
350.947	1717.06
351.174	1803.06
351.402	1707.06
351.629	1628.06
351.856	1586.06
352.083	1584.06
352.311	1584.06
352.538	1643.06
352.765	1725.06
352.992	1798.06
353.22	1745.06
353.447	1622.06
353.674	1647.06
353.901	1732.06
354.128	1685.06
354.355	1663.06
354.583	1705.06
354.81	1774.06
355.037	1791.06
355.264	1796.06
355.491	1776.06
355.718	1767.06
355.945	1703.06
356.172	1659.06
356.399	1679.06
356.626	1626.06
356.853	1694.06
357.08	1817.06
357.307	2015.06
357.534	2062.06
357.761	1797.06
357.988	1673.06
358.215	1603.06
358.441	1634.06
358.668	1627.06
358.895	1634.06
359.122	1729.06
359.349	1940.06
359.576	1885.06
359.802	1718.06
360.029	1680.06
360.256	1629.06
360.483	1672.06
360.709	1707.06
360.936	1741.06
361.163	1803.06
361.39	1988.06
361.616	2143.06
361.843	2079.06
362.07	1962.06
362.296	1745.06
362.523	1654.06
362.749	1711.06
362.976	1749.06
363.203	1791.06
363.429	1705.06
363.656	1649.06
363.882	1707.06
364.109	1887.06
364.335	2059.06
364.562	1912.06
364.788	1810.06
365.015	1742.06
365.241	1641.06
365.468	1687.06
365.694	1779.06
365.92	1790.06
366.147	1779.06
366.373	1653.06
366.599	1659.06
366.826	1667.06
367.052	1663.06
367.278	1667.06
367.505	1719.06
367.731	1711.06
367.957	1759.06
368.184	1770.06
368.41	1914.06
368.636	1870.06
368.862	1918.06
369.089	1961.06
369.315	1875.06
369.541	1809.06
369.767	1722.06
369.993	1696.06
370.219	1713.06
370.445	1734.06
370.672	1827.06
370.898	1877.06
371.124	1880.06
371.35	1787.06
371.576	1835.06
371.802	1943.06
372.028	1819.06
372.254	1739.06
372.48	1726.06
372.706	1685.06
372.932	1686.06
373.158	1735.06
373.384	1736.06
373.61	1801.06
373.835	1900.06
374.061	1770.06
374.287	1769.06
374.513	1805.06
374.739	1819.06
374.965	1797.06
375.191	1844.06
375.416	1844.06
375.642	1835.06
375.868	1982.06
376.094	2019.06
376.319	1884.06
376.545	1788.06
376.771	1819.06
376.997	1924.06
377.222	1898.06
377.448	1803.06
377.674	1868.06
377.899	1848.06
378.125	1943.06
378.35	2008.06
378.576	1801.06
378.802	1721.06
379.027	1712.06
379.253	1745.06
379.478	1784.06
379.704	1806.06
379.929	1728.06
380.155	1795.06
380.38	1775.06
380.606	1819.06
380.831	1777.06
381.057	1878.06
381.282	1868.06
381.507	1889.06
381.733	1941.06
381.958	2066.06
382.184	1923.06
382.409	1838.06
382.634	1877.06
382.86	1830.06
383.085	1879.06
383.31	1893.06
383.535	2067.06
383.761	2155.06
383.986	2052.06
384.211	2031.06
384.436	2004.06
384.662	2078.06
384.887	2155.06
385.112	2058.06
385.337	2120.06
385.562	2048.06
385.787	2034.06
386.013	2089.06
386.238	2116.06
386.463	2049.06
386.688	2152.06
386.913	2350.06
387.138	2308.06
387.363	2105.06
387.588	2123.06
387.813	2061.06
388.038	2087.06
388.263	2182.06
388.488	2131.06
388.713	1991.06
388.938	1986.06
389.163	1960.06
389.387	2004.06
389.612	1988.06
389.837	2042.06
390.062	2056.06
390.287	2115.06
390.512	2044.06
390.736	2002.06
390.961	1975.06
391.186	1902.06
391.411	1960.06
391.636	2004.06
391.86	2028.06
392.085	2038.06
392.31	2021.06
392.534	2046.06
392.759	2074.06
392.984	2022.06
393.208	2049.06
393.433	2111.06
393.658	2181.06
393.882	2211.06
394.107	2052.06
394.331	1997.06
394.556	2003.06
394.78	2062.06
395.005	2087.06
395.229	2189.06
395.454	2373.06
395.678	2390.06
395.903	2282.06
396.127	2107.06
396.352	2135.06
396.576	2230.06
396.801	2268.06
397.025	2248.06
397.249	2207.06
397.474	2231.06
397.698	2199.06
397.922	2276.06
398.147	2293.06
398.371	2407.06
398.595	2449.06
398.82	2304.06
399.044	2350.06
399.268	2474.06
399.492	2617.06
399.717	2752.06
399.941	2743.06
400.165	2667.06
400.389	2601.06
400.613	2590.06
400.837	2843.06
401.062	3254.06
401.286	2832.06
401.51	2507.06
401.734	2647.06
401.958	2621.06
402.182	2434.06
402.406	2306.06
402.63	2276.06
402.854	2290.06
403.078	2372.06
403.302	2393.06
403.526	2424.06
403.75	2421.06
403.974	2474.06
404.198	2418.06
404.422	2517.06
404.645	2623.06
404.869	2594.06
405.093	2403.06
405.317	2330.06
405.541	2424.06
405.765	2465.06
405.988	2422.06
406.212	2516.06
406.436	2556.06
406.66	2608.06
406.883	2624.06
407.107	2910.06
407.331	3147.06
407.555	3423.06
407.778	3155.06
408.002	2642.06
408.226	2537.06
408.449	2554.06
408.673	2506.06
408.896	2475.06
409.12	2575.06
409.344	2467.06
409.567	2395.06
409.791	2440.06
410.014	2506.06
410.238	2570.06
410.461	2762.06
410.685	2534.06
410.908	2385.06
411.132	2458.06
411.355	2436.06
411.578	2429.06
411.802	2344.06
412.025	2426.06
412.249	2359.06
412.472	2310.06
412.695	2283.06
412.919	2276.06
413.142	2242.06
413.365	2318.06
413.589	2376.06
413.812	2458.06
414.035	2572.06
414.258	2392.06
414.482	2315.06
414.705	2338.06
414.928	2313.06
415.151	2296.06
415.374	2315.06
415.597	2357.06
415.821	2379.06
416.044	2470.06
416.267	2452.06
416.49	2226.06
416.713	2196.06
416.936	2325.06
417.159	2364.06
417.382	2387.06
417.605	2259.06
417.828	2322.06
418.051	2418.06
418.274	2284.06
418.497	2211.06
418.72	2229.06
418.943	2226.06
419.166	2400.06
419.389	2456.06
419.611	2330.06
419.834	2305.06
420.057	2334.06
420.28	2247.06
420.503	2215.06
420.726	2322.06
420.948	2273.06
421.171	2246.06
421.394	2256.06
421.617	2308.06
421.839	2276.06
422.062	2202.06
422.285	2200.06
422.507	2260.06
422.73	2191.06
422.953	2162.06
423.175	2136.06
423.398	2245.06
423.621	2239.06
423.843	2248.06
424.066	2280.06
424.288	2372.06
424.511	2459.06
424.733	2333.06
424.956	2115.06
425.178	2142.06
425.401	2121.06
425.623	2162.06
425.846	2130.06
426.068	2302.06
426.291	2347.06
426.513	2262.06
426.735	2226.06
426.958	2371.06
427.18	2570.06
427.402	2372.06
427.625	2358.06
427.847	2451.06
428.069	2249.06
428.292	2212.06
428.514	2126.06
428.736	2120.06
428.958	2123.06
429.181	2190.06
429.403	2442.06
429.625	3062.06
429.847	2668.06
430.069	2239.06
430.292	2414.06
430.514	2512.06
430.736	2332.06
430.958	2454.06
431.18	2312.06
431.402	2114.06
431.624	2152.06
431.846	2151.06
432.068	2180.06
432.29	2164.06
432.512	2166.06
432.734	2208.06
432.956	2257.06
433.178	2324.06
433.4	2334.06
433.622	2350.06
433.844	2201.06
434.066	2127.06
434.287	2155.06
434.509	2235.06
434.731	2329.06
434.953	2488.06
435.175	2438.06
435.397	2286.06
435.618	2298.06
435.84	2300.06
436.062	2256.06
436.284	2304.06
436.505	2280.06
436.727	2319.06
436.949	2222.06
437.17	2185.06
437.392	2135.06
437.614	2205.06
437.835	2143.06
438.057	2287.06
438.278	2374.06
438.5	2225.06
438.721	2092.06
438.943	2175.06
439.165	2148.06
439.386	2135.06
439.608	2127.06
439.829	2118.06
440.05	2162.06
440.272	2130.06
440.493	2082.06
440.715	2132.06
440.936	2263.06
441.158	2496.06
441.379	2443.06
441.6	2386.06
441.822	2354.06
442.043	2370.06
442.264	2268.06
442.486	2145.06
442.707	2143.06
442.928	2142.06
443.149	2247.06
443.371	2350.06
443.592	2433.06
443.813	2366.06
444.034	2363.06
444.255	2331.06
444.476	2415.06
444.698	2500.06
444.919	2453.06
445.14	2494.06
445.361	2471.06
445.582	2562.06
445.803	2489.06
446.024	2368.06
446.245	2458.06
446.466	2402.06
446.687	2252.06
446.908	2254.06
447.129	2206.06
447.35	2262.06
447.571	2246.06
447.792	2130.06
448.013	2079.06
448.234	2108.06
448.455	2236.06
448.675	2248.06
448.896	2033.06
449.117	2031.06
449.338	2121.06
449.559	2181.06
449.779	2332.06
450	2577.06
450.221	2832.06
450.442	2690.06
450.662	2312.06
450.883	2076.06
451.104	2005.06
451.324	2071.06
451.545	2179.06
451.766	2128.06
451.986	2018.06
452.207	2030.06
452.428	1928.06
452.648	1925.06
452.869	1988.06
453.089	2089.06
453.31	2120.06
453.53	2190.06
453.751	2058.06
453.971	1940.06
454.192	1963.06
454.412	2176.06
454.633	2090.06
454.853	2009.06
455.073	1884.06
455.294	1874.06
455.514	1870.06
455.734	1930.06
455.955	1930.06
456.175	1915.06
456.395	1930.06
456.616	2017.06
456.836	2052.06
457.056	1999.06
457.276	1986.06
457.497	1927.06
457.717	1859.06
457.937	1898.06
458.157	1940.06
458.377	1921.06
458.598	1916.06
458.818	1972.06
459.038	2081.06
459.258	2214.06
459.478	2178.06
459.698	2119.06
459.918	2206.06
460.138	2276.06
460.358	2320.06
460.578	2245.06
460.798	2374.06
461.018	2494.06
461.238	2414.06
461.458	2324.06
461.678	2342.06
461.898	2288.06
462.118	2178.06
462.338	2286.06
462.558	2321.06
462.777	2368.06
462.997	2388.06
463.217	2523.06
463.437	2563.06
463.657	2409.06
463.876	2311.06
464.096	2371.06
464.316	2328.06
464.536	2420.06
464.755	2433.06
464.975	2495.06
465.195	2386.06
465.414	2473.06
465.634	2428.06
465.854	2276.06
466.073	2430.06
466.293	2382.06
466.512	2167.06
466.732	2118.06
466.951	2199.06
467.171	2186.06
467.391	2067.06
467.61	2055.06
467.829	2082.06
468.049	2220.06
468.268	2505.06
468.488	2411.06
468.707	2222.06
468.927	2162.06
469.146	2110.06
469.365	2078.06
469.585	2132.06
469.804	2094.06
470.023	2100.06
470.243	2129.06
470.462	2127.06
470.681	2068.06
470.901	2117.06
471.12	2156.06
471.339	2089.06
471.558	1991.06
471.777	1977.06
471.997	2035.06
472.216	2050.06
472.435	1992.06
472.654	2008.06
472.873	2117.06
473.092	2258.06
473.311	2135.06
473.53	2031.06
473.749	2020.06
473.968	2125.06
474.187	2187.06
474.406	2320.06
474.625	2190.06
474.844	2169.06
475.063	2165.06
475.282	2174.06
475.501	2146.06
475.72	2110.06
475.939	2264.06
476.158	2204.06
476.377	2146.06
476.596	2139.06
476.814	2205.06
477.033	2206.06
477.252	2309.06
477.471	2385.06
477.69	2249.06
477.908	2194.06
478.127	2312.06
478.346	2536.06
478.564	2589.06
478.783	2541.06
479.002	2634.06
479.22	2536.06
479.439	2638.06
479.658	2923.06
479.876	2933.06
480.095	2593.06
480.313	2464.06
480.532	2364.06
480.751	2376.06
480.969	2428.06
481.188	2394.06
481.406	2358.06
481.624	2302.06
481.843	2360.06
482.061	2412.06
482.28	2450.06
482.498	2478.06
482.717	2443.06
482.935	2344.06
483.153	2370.06
483.372	2327.06
483.59	2296.06
483.808	2346.06
484.027	2430.06
484.245	2608.06
484.463	2911.06
484.681	3380.06
484.9	2627.06
485.118	2414.06
485.336	2410.06
485.554	2470.06
485.772	2592.06
485.99	2574.06
486.209	2588.06
486.427	2514.06
486.645	2549.06
486.863	2515.06
487.081	2508.06
487.299	2618.06
