Data from WStandard_LampEnergy5.5LIBS07252019.E.O._I.C._HRD10591_16-07-29-920.txt Node
Date: Thu Jul 25 16:07:29 EDT 2019
User: cochatt
Spectrometer: HR+D1059
Trigger mode: 1
Integration Time (sec): 1.000000E-1
Scans to average: 1
Electric dark correction enabled: true
Nonlinearity correction enabled: false
Boxcar width: 0
XAxis mode: Wavelengths
Number of Pixels in Spectrum: 2048
>>>>>Begin Spectral Data<<<<<
223.165	-19
223.4	-19
223.635	-19
223.869	-23
224.104	-30
224.338	-17
224.573	-17
224.808	-17
225.042	6
225.277	-11
225.511	2
225.746	1
225.98	13
226.215	17
226.449	17
226.683	19
226.918	29
227.152	30
227.387	17
227.621	28
227.856	44
228.09	46
228.324	52
228.559	53
228.793	143
229.027	367
229.262	361
229.496	394
229.73	390
229.964	429
230.199	448
230.433	454
230.667	504
230.901	546
231.136	467
231.37	440
231.604	438
231.838	459
232.072	472
232.306	441
232.541	457
232.775	535
233.009	626
233.243	600
233.477	508
233.711	545
233.945	566
234.179	536
234.413	606
234.647	632
234.881	582
235.115	541
235.349	584
235.583	570
235.817	573
236.051	545
236.285	570
236.519	592
236.753	646
236.987	668
237.221	703
237.455	739
237.689	722
237.922	684
238.156	665
238.39	672
238.624	717
238.858	750
239.091	768
239.325	789
239.559	906
239.793	948
240.027	1039
240.26	1032
240.494	794
240.728	719
240.961	729
241.195	746
241.429	818
241.662	838
241.896	742
242.13	763
242.363	869
242.597	897
242.83	859
243.064	888
243.298	932
243.531	933
243.765	937
243.998	958
244.232	789
244.465	799
244.699	813
244.932	909
245.166	1054
245.399	1008
245.633	912
245.866	875
246.099	921
246.333	955
246.566	988
246.8	1042
247.033	1157
247.266	1084
247.5	1048
247.733	1053
247.966	1122
248.2	1239
248.433	1170
248.666	1219
248.899	1318
249.133	1503
249.366	1784
249.599	1407
249.832	1280
250.066	1277
250.299	1261
250.532	1230
250.765	1103
250.998	1166
251.231	1209
251.465	1239
251.698	1200
251.931	1200
252.164	1196
252.397	1261
252.63	1269
252.863	1105
253.096	1123
253.329	1190
253.562	1152
253.795	1274
254.028	1278
254.261	1216
254.494	1209
254.727	1114
254.96	1168
255.193	1249
255.426	1408
255.659	1647
255.892	1679
256.124	1370
256.357	1339
256.59	1422
256.823	1436
257.056	1414
257.289	1696
257.521	1888
257.754	1662
257.987	1581
258.22	1758
258.452	1741
258.685	1430
258.918	1364
259.151	1392
259.383	1330
259.616	1171
259.849	1254
260.081	1427
260.314	1562
260.547	1709
260.779	1746
261.012	1634
261.244	1445
261.477	1401
261.71	1440
261.942	1452
262.175	1404
262.407	1456
262.64	1395
262.872	1299
263.105	1268
263.337	1289
263.57	1319
263.802	1328
264.035	1234
264.267	1171
264.499	1160
264.732	1254
264.964	1296
265.197	1362
265.429	1405
265.661	1552
265.894	1770
266.126	1836
266.358	1628
266.591	1659
266.823	1801
267.055	1636
267.287	1590
267.52	1595
267.752	1522
267.984	1526
268.216	1667
268.448	1702
268.681	1653
268.913	1498
269.145	1438
269.377	1375
269.609	1496
269.841	1760
270.073	2045
270.306	2287
270.538	2425
270.77	2075
271.002	1761
271.234	1660
271.466	1613
271.698	1796
271.93	2195
272.162	2182
272.394	2046
272.626	1886
272.858	1722
273.09	1453
273.322	1443
273.553	1353
273.785	1422
274.017	1464
274.249	1577
274.481	1607
274.713	1469
274.945	1433
275.176	1422
275.408	1430
275.64	1420
275.872	1367
276.104	1467
276.335	1670
276.567	1866
276.799	1953
277.031	1743
277.262	1652
277.494	1669
277.726	1873
277.957	1833
278.189	1686
278.421	1545
278.652	1536
278.884	1467
279.115	1495
279.347	1545
279.579	1466
279.81	1471
280.042	1603
280.273	1775
280.505	1787
280.736	1804
280.968	1764
281.199	1547
281.431	1452
281.662	1448
281.894	1446
282.125	1515
282.356	1576
282.588	1586
282.819	1566
283.051	1662
283.282	1821
283.513	1771
283.745	1508
283.976	1408
284.207	1432
284.439	1502
284.67	1499
284.901	1534
285.132	1586
285.364	1549
285.595	1561
285.826	1492
286.057	1521
286.288	1516
286.52	1561
286.751	1696
286.982	1781
287.213	1612
287.444	1454
287.675	1461
287.906	1523
288.138	1655
288.369	1637
288.6	1552
288.831	1466
289.062	1478
289.293	1521
289.524	1517
289.755	1564
289.986	1586
290.217	1452
290.448	1495
290.679	1552
290.91	1526
291.141	1597
291.371	1620
291.602	1609
291.833	1605
292.064	1671
292.295	1636
292.526	1684
292.757	1763
292.987	1687
293.218	1572
293.449	1682
293.68	1929
293.91	2068
294.141	1893
294.372	1799
294.603	1848
294.833	1919
295.064	1823
295.295	1686
295.525	1604
295.756	1488
295.987	1427
296.217	1470
296.448	1505
296.679	1556
296.909	1539
297.14	1487
297.37	1556
297.601	1621
297.831	1749
298.062	1733
298.292	1600
298.523	1540
298.753	1560
298.984	1572
299.214	1549
299.445	1614
299.675	1637
299.905	1645
300.136	1576
300.366	1572
300.597	1501
300.827	1513
301.057	1575
301.288	1624
301.518	1640
301.748	1692
301.979	1751
302.209	1751
302.439	1841
302.669	1984
302.9	1862
303.13	1674
303.36	1674
303.59	1704
303.82	1652
304.051	1669
304.281	1674
304.511	1676
304.741	1750
304.971	1929
305.201	2107
305.431	1918
305.661	1575
305.891	1488
306.121	1417
306.352	1513
306.582	1611
306.812	1696
307.042	1834
307.272	1830
307.502	1871
307.731	2015
307.961	2189
308.191	2065
308.421	1778
308.651	1652
308.881	1590
309.111	1594
309.341	1545
309.571	1578
309.8	1603
310.03	1602
310.26	1588
310.49	1566
310.72	1586
310.949	1634
311.179	1736
311.409	1668
311.639	1629
311.868	1625
312.098	1671
312.328	1614
312.557	1616
312.787	1653
313.017	1671
313.246	1691
313.476	1637
313.706	1714
313.935	1731
314.165	1747
314.394	1752
314.624	1826
314.853	1944
315.083	1971
315.312	2099
315.542	1964
315.771	1742
316.001	1697
316.23	1846
316.46	1818
316.689	1789
316.919	1688
317.148	1597
317.377	1608
317.607	1752
317.836	1971
318.065	2062
318.295	1990
318.524	1887
318.753	1844
318.983	1847
319.212	1752
319.441	1742
319.67	1702
319.9	1750
320.129	1791
320.358	1920
320.587	1975
320.816	1966
321.046	1905
321.275	1807
321.504	1784
321.733	1986
321.962	1936
322.191	1759
322.42	1756
322.649	1767
322.878	1731
323.108	1759
323.337	1825
323.566	1789
323.795	1789
324.024	1834
324.253	1776
324.482	1798
324.71	1720
324.939	1692
325.168	1652
325.397	1728
325.626	1816
325.855	1811
326.084	1759
326.313	1741
326.542	1783
326.77	1834
326.999	1826
327.228	1746
327.457	1703
327.686	1630
327.914	1663
328.143	1740
328.372	1765
328.6	1739
328.829	1744
329.058	1697
329.287	1710
329.515	1795
329.744	1788
329.972	1887
330.201	1948
330.43	1951
330.658	1822
330.887	1876
331.115	1844
331.344	1899
331.572	1852
331.801	1825
332.03	1842
332.258	1874
332.486	1865
332.715	1865
332.943	1895
333.172	1872
333.4	1906
333.629	1911
333.857	2025
334.085	2183
334.314	2468
334.542	2703
334.771	2527
334.999	2210
335.227	2120
335.455	1998
335.684	1984
335.912	2021
336.14	2127
336.369	2046
336.597	1884
336.825	1898
337.053	1951
337.281	2032
337.51	2104
337.738	2195
337.966	2121
338.194	1912
338.422	1858
338.65	1873
338.878	1821
339.106	1808
339.334	1767
339.562	1754
339.79	1763
340.018	1869
340.246	1916
340.474	1934
340.702	1924
340.93	1928
341.158	1865
341.386	1879
341.614	1833
341.842	1841
342.07	1844
342.298	1868
342.526	1822
342.754	1806
342.981	1782
343.209	1817
343.437	1793
343.665	1830
343.893	1885
344.12	1960
344.348	1978
344.576	1918
344.804	1821
345.031	1843
345.259	1871
345.487	1793
345.714	1727
345.942	1682
346.17	1705
346.397	1717
346.625	1783
346.853	1664
347.08	1629
347.308	1660
347.535	1711
347.763	1790
347.99	1740
348.218	1654
348.445	1682
348.673	1686
348.9	1768
349.128	1769
349.355	1864
349.583	1809
349.81	1760
350.037	1601
350.265	1596
350.492	1606
350.72	1634
350.947	1724
351.174	1759
351.402	1662
351.629	1589
351.856	1556
352.083	1569
352.311	1584
352.538	1653
352.765	1697
352.992	1781
353.22	1720
353.447	1606
353.674	1657
353.901	1683
354.128	1644
354.355	1650
354.583	1759
354.81	1761
355.037	1686
355.264	1774
355.491	1694
355.718	1685
355.945	1698
356.172	1650
356.399	1614
356.626	1640
356.853	1618
357.08	1777
357.307	2013
357.534	1997
357.761	1759
357.988	1623
358.215	1579
358.441	1620
358.668	1609
358.895	1620
359.122	1721
359.349	1904
359.576	1894
359.802	1724
360.029	1627
360.256	1650
360.483	1652
360.709	1694
360.936	1746
361.163	1770
361.39	1978
361.616	2110
361.843	2028
362.07	1964
362.296	1703
362.523	1668
362.749	1672
362.976	1714
363.203	1713
363.429	1665
363.656	1618
363.882	1665
364.109	1843
364.335	2035
364.562	1815
364.788	1789
365.015	1702
365.241	1625
365.468	1664
365.694	1760
365.92	1832
366.147	1743
366.373	1634
366.599	1614
366.826	1641
367.052	1598
367.278	1658
367.505	1630
367.731	1687
367.957	1684
368.184	1738
368.41	1865
368.636	1909
368.862	1897
369.089	1927
369.315	1834
369.541	1764
369.767	1684
369.993	1677
370.219	1660
370.445	1682
370.672	1794
370.898	1900
371.124	1918
371.35	1744
371.576	1797
371.802	1884
372.028	1802
372.254	1733
372.48	1730
372.706	1668
372.932	1653
373.158	1679
373.384	1757
373.61	1749
373.835	1874
374.061	1749
374.287	1722
374.513	1761
374.739	1765
374.965	1774
375.191	1820
375.416	1841
375.642	1816
375.868	1930
376.094	1934
376.319	1908
376.545	1762
376.771	1772
376.997	1897
377.222	1853
377.448	1815
377.674	1824
377.899	1810
378.125	1908
378.35	1956
378.576	1778
378.802	1720
379.027	1696
379.253	1730
379.478	1733
379.704	1748
379.929	1754
380.155	1739
380.38	1738
380.606	1742
380.831	1734
381.057	1863
381.282	1916
381.507	1794
381.733	1943
381.958	2043
382.184	1895
382.409	1778
382.634	1838
382.86	1820
383.085	1859
383.31	1902
383.535	2055
383.761	2157
383.986	2109
384.211	1994
384.436	1972
384.662	2051
384.887	2157
385.112	2024
385.337	2043
385.562	2084
385.787	2009
386.013	2040
386.238	2112
386.463	2049
386.688	2166
386.913	2300
387.138	2231
387.363	2068
387.588	2044
387.813	2047
388.038	2087
388.263	2171
388.488	2117
388.713	1924
388.938	1900
389.163	1945
389.387	1953
389.612	1997
389.837	2021
390.062	2028
390.287	2006
390.512	1996
390.736	1974
390.961	1947
391.186	1897
391.411	1923
391.636	1984
391.86	1990
392.085	2025
392.31	1991
392.534	2015
392.759	2041
392.984	2025
393.208	2045
393.433	2099
393.658	2149
393.882	2166
394.107	2060
394.331	1991
394.556	1988
394.78	2056
395.005	2088
395.229	2162
395.454	2304
395.678	2295
395.903	2256
396.127	2128
396.352	2110
396.576	2208
396.801	2212
397.025	2168
397.249	2201
397.474	2165
397.698	2174
397.922	2208
398.147	2308
398.371	2360
398.595	2431
398.82	2312
399.044	2356
399.268	2456
399.492	2586
399.717	2726
399.941	2764
400.165	2664
400.389	2591
400.613	2521
400.837	2818
401.062	3237
401.286	2764
401.51	2548
401.734	2620
401.958	2575
402.182	2355
402.406	2327
402.63	2239
402.854	2297
403.078	2380
403.302	2350
403.526	2390
403.75	2372
403.974	2417
404.198	2385
404.422	2486
404.645	2585
404.869	2578
405.093	2352
405.317	2341
405.541	2380
405.765	2457
405.988	2420
406.212	2452
406.436	2525
406.66	2563
406.883	2621
407.107	2907
407.331	3076
407.555	3392
407.778	3149
408.002	2616
408.226	2569
408.449	2547
408.673	2455
408.896	2486
409.12	2492
409.344	2422
409.567	2366
409.791	2423
410.014	2446
410.238	2591
410.461	2704
410.685	2460
410.908	2329
411.132	2396
411.355	2416
411.578	2288
411.802	2373
412.025	2430
412.249	2397
412.472	2297
412.695	2269
412.919	2320
413.142	2281
413.365	2256
413.589	2417
413.812	2436
414.035	2550
414.258	2374
414.482	2308
414.705	2303
414.928	2230
415.151	2274
415.374	2321
415.597	2345
415.821	2308
416.044	2421
416.267	2452
416.49	2261
416.713	2148
416.936	2265
417.159	2297
417.382	2370
417.605	2244
417.828	2266
418.051	2348
418.274	2271
418.497	2186
418.72	2264
418.943	2214
419.166	2356
419.389	2460
419.611	2360
419.834	2198
420.057	2341
420.28	2225
420.503	2183
420.726	2268
420.948	2284
421.171	2202
421.394	2228
421.617	2296
421.839	2239
422.062	2240
422.285	2187
422.507	2158
422.73	2128
422.953	2104
423.175	2076
423.398	2225
423.621	2217
423.843	2193
424.066	2239
424.288	2320
424.511	2363
424.733	2318
424.956	2110
425.178	2088
425.401	2120
425.623	2122
425.846	2130
426.068	2211
426.291	2308
426.513	2233
426.735	2234
426.958	2355
427.18	2540
427.402	2307
427.625	2412
427.847	2394
428.069	2222
428.292	2150
428.514	2141
428.736	2036
428.958	2136
429.181	2151
429.403	2405
429.625	3005
429.847	2614
430.069	2235
430.292	2396
430.514	2443
430.736	2272
430.958	2412
431.18	2314
431.402	2138
431.624	2106
431.846	2126
432.068	2076
432.29	2104
432.512	2137
432.734	2236
432.956	2185
433.178	2314
433.4	2292
433.622	2249
433.844	2165
434.066	2105
434.287	2117
434.509	2209
434.731	2314
434.953	2480
435.175	2431
435.397	2262
435.618	2256
435.84	2308
436.062	2213
436.284	2213
436.505	2253
436.727	2308
436.949	2229
437.17	2149
437.392	2129
437.614	2127
437.835	2125
438.057	2205
438.278	2337
438.5	2168
438.721	2130
438.943	2170
439.165	2119
439.386	2051
439.608	2077
439.829	2109
440.05	2152
440.272	2095
440.493	2058
440.715	2115
440.936	2240
441.158	2515
441.379	2440
441.6	2345
441.822	2298
442.043	2293
442.264	2211
442.486	2147
442.707	2095
442.928	2086
443.149	2210
443.371	2266
443.592	2362
443.813	2357
444.034	2329
444.255	2327
444.476	2374
444.698	2384
444.919	2410
445.14	2498
445.361	2442
445.582	2536
445.803	2402
446.024	2322
446.245	2408
446.466	2340
446.687	2192
446.908	2205
447.129	2158
447.35	2174
447.571	2166
447.792	2105
448.013	2080
448.234	2150
448.455	2179
448.675	2238
448.896	2020
449.117	2020
449.338	2058
449.559	2151
449.779	2315
450	2529
450.221	2670
450.442	2634
450.662	2279
450.883	2009
451.104	1975
451.324	2019
451.545	2103
451.766	2074
451.986	1961
452.207	1977
452.428	1908
452.648	1875
452.869	1942
453.089	2072
453.31	2076
453.53	2168
453.751	2062
453.971	1925
454.192	2038
454.412	2080
454.633	2048
454.853	1990
455.073	1855
455.294	1824
455.514	1869
455.734	1862
455.955	1913
456.175	1882
456.395	1907
456.616	1994
456.836	1959
457.056	1962
457.276	1992
457.497	1896
457.717	1821
457.937	1879
458.157	1929
458.377	1924
458.598	1924
458.818	1910
459.038	2009
459.258	2160
459.478	2212
459.698	2095
459.918	2128
460.138	2282
460.358	2260
460.578	2265
460.798	2367
461.018	2501
461.238	2393
461.458	2265
461.678	2304
461.898	2208
462.118	2159
462.338	2309
462.558	2318
462.777	2250
462.997	2401
463.217	2569
463.437	2546
463.657	2319
463.876	2315
464.096	2317
464.316	2289
464.536	2362
464.755	2406
464.975	2458
465.195	2320
465.414	2384
465.634	2412
465.854	2273
466.073	2404
466.293	2373
466.512	2069
466.732	2076
466.951	2124
467.171	2173
467.391	2065
467.61	1999
467.829	2031
468.049	2233
468.268	2471
468.488	2360
468.707	2150
468.927	2087
469.146	2076
469.365	2024
469.585	2066
469.804	2063
470.023	2077
470.243	2131
470.462	2058
470.681	2044
470.901	2086
471.12	2038
471.339	2062
471.558	1999
471.777	1937
471.997	2048
472.216	2012
472.435	1957
472.654	1973
472.873	2074
473.092	2194
473.311	2115
473.53	2029
473.749	1976
473.968	2056
474.187	2184
474.406	2269
474.625	2139
474.844	2107
475.063	2096
475.282	2162
475.501	2147
475.72	2097
475.939	2216
476.158	2160
476.377	2143
476.596	2132
476.814	2152
477.033	2170
477.252	2246
477.471	2342
477.69	2191
477.908	2201
478.127	2277
478.346	2483
478.564	2559
478.783	2449
479.002	2544
479.22	2497
479.439	2581
479.658	2896
479.876	2918
480.095	2558
480.313	2452
480.532	2296
480.751	2367
480.969	2382
481.188	2341
481.406	2332
481.624	2270
481.843	2338
482.061	2381
482.28	2392
482.498	2451
482.717	2450
482.935	2311
483.153	2278
483.372	2335
483.59	2304
483.808	2300
484.027	2377
484.245	2540
484.463	2913
484.681	3362
484.9	2594
485.118	2372
485.336	2351
485.554	2456
485.772	2566
485.99	2481
486.209	2550
486.427	2531
486.645	2516
486.863	2441
487.081	2562
487.299	2584
487.517	2570
487.735	2418
487.953	2382
488.171	2413
488.389	2380
488.607	2408
488.825	2684
489.043	2724
489.261	2426
489.479	2556
489.696	2620
489.914	2573
490.132	2537
490.35	2462
490.568	2590
490.786	2468
491.003	2396
491.221	2445
491.439	2534
491.657	2468
491.874	2500
492.092	2593
492.31	2546
492.527	2486
492.745	2469
492.963	2468
493.18	2588
493.398	2778
493.615	2816
493.833	2566
494.05	2508
494.268	2519
494.485	2654
494.703	2564
494.92	2497
495.138	2505
495.355	2556
495.573	2633
495.79	2746
496.008	2785
496.225	2622
496.442	2668
496.66	2690
496.877	2665
497.094	2759
497.312	2759
497.529	2749
497.746	2781
497.963	3234
498.181	3635
498.398	3433
498.615	3324
498.832	3299
499.049	3282
499.267	3274
499.484	3464
499.701	3724
499.918	3772
500.135	4022
500.352	4386
500.569	4316
500.786	4513
501.003	4320
501.22	3895
501.437	3763
501.654	3774
501.871	3710
502.088	3215
502.305	3262
502.522	3088
502.739	2880
502.956	2812
503.172	2855
503.389	2756
503.606	2634
503.823	2711
504.04	2676
504.256	2674
504.473	2670
504.69	2791
504.907	2645
505.123	2567
505.34	2639
505.557	3438
505.773	2949
505.99	2463
506.207	2334
506.423	2273
506.64	2308
506.856	2307
507.073	2566
507.289	2835
507.506	2699
507.722	2334
507.939	2202
508.155	2217
508.372	2218
508.588	2176
508.805	2097
509.021	2099
509.238	2078
509.454	2058
509.67	2113
509.887	2031
510.103	2074
510.319	2055
510.536	2190
510.752	2251
510.968	2215
511.184	2359
511.401	2339
511.617	2122
511.833	2035
512.049	1994
512.265	1996
512.481	2048
512.698	2079
512.914	2232
513.13	2129
513.346	2040
513.562	1973
513.778	2042
513.994	2087
514.21	2240
514.426	2225
514.642	2430
514.858	2289
515.074	2085
515.29	2081
515.506	2138
515.721	2129
515.937	2162
516.153	2424
516.369	2330
516.585	2238
516.801	2084
517.016	2095
517.232	2113
517.448	2253
517.664	2262
517.879	2190
518.095	2331
518.311	2258
518.527	2182
518.742	2151
518.958	2052
519.173	2005
519.389	2106
519.605	2079
519.82	2088
520.036	2121
520.251	2062
520.467	2089
520.682	2215
520.898	2353
521.113	2117
521.329	2003
521.544	2179
521.76	2113
521.975	1984
522.19	1926
522.406	1910
522.621	2292
522.836	2391
523.052	1964
523.267	1914
523.482	1962
523.698	1837
523.913	1794
524.128	1880
524.343	2009
524.559	1986
524.774	1874
524.989	1879
525.204	1835
525.419	1812
525.634	1808
525.849	1872
526.064	1876
526.28	1869
526.495	1768
526.71	1804
526.925	1818
527.14	1776
527.355	1792
527.57	1742
527.785	1818
527.999	1776
528.214	1719
528.429	1689
528.644	1753
528.859	1797
529.074	1709
529.289	1781
529.503	1792
529.718	1828
529.933	1756
530.148	1676
530.363	1692
530.577	1738
530.792	1776
531.007	1798
531.221	1721
531.436	1799
531.651	1892
531.865	1912
532.08	1816
532.295	1731
532.509	1663
532.724	1698
532.938	1751
533.153	1892
533.367	1806
533.582	1780
533.796	1715
534.011	1757
534.225	1743
534.44	1677
534.654	1705
534.868	1719
535.083	1792
535.297	1758
535.511	1716
535.726	1658
535.94	1701
536.154	1709
536.369	1698
536.583	1668
536.797	1649
537.011	1716
537.225	1651
537.44	1661
537.654	1679
537.868	1675
538.082	1562
538.296	1562
538.51	1581
538.724	1588
538.938	1611
539.153	1670
539.367	1672
539.581	1627
539.795	1708
540.009	1682
540.222	1621
540.436	1681
540.65	1836
540.864	1848
541.078	1750
541.292	1608
541.506	1632
541.72	1647
541.934	1672
