Data from WStandard_LampEnergy8_LIBS07252019.E.O._I.C._HRD10591_15-59-33-929.txt Node
Date: Thu Jul 25 15:59:33 EDT 2019
User: cochatt
Spectrometer: HR+D1059
Trigger mode: 1
Integration Time (sec): 1.000000E-1
Scans to average: 1
Electric dark correction enabled: true
Nonlinearity correction enabled: false
Boxcar width: 0
XAxis mode: Wavelengths
Number of Pixels in Spectrum: 2048
>>>>>Begin Spectral Data<<<<<
223.165	-12.88
223.4	-12.88
223.635	-12.88
223.869	-18.88
224.104	-34.88
224.338	-8.88
224.573	-16.88
224.808	-19.88
225.042	-8.88
225.277	-23.88
225.511	3.12
225.746	11.12
225.98	0.12
226.215	21.12
226.449	32.12
226.683	28.12
226.918	21.12
227.152	28.12
227.387	25.12
227.621	48.12
227.856	39.12
228.09	49.12
228.324	59.12
228.559	61.12
228.793	99.12
229.027	192.12
229.262	214.12
229.496	219.12
229.73	230.12
229.964	251.12
230.199	267.12
230.433	243.12
230.667	264.12
230.901	289.12
231.136	255.12
231.37	268.12
231.604	248.12
231.838	242.12
232.072	255.12
232.306	245.12
232.541	275.12
232.775	305.12
233.009	321.12
233.243	303.12
233.477	285.12
233.711	295.12
233.945	307.12
234.179	307.12
234.413	315.12
234.647	336.12
234.881	327.12
235.115	290.12
235.349	294.12
235.583	299.12
235.817	291.12
236.051	290.12
236.285	295.12
236.519	323.12
236.753	349.12
236.987	359.12
237.221	356.12
237.455	370.12
237.689	375.12
237.922	355.12
238.156	347.12
238.39	360.12
238.624	357.12
238.858	383.12
239.091	401.12
239.325	423.12
239.559	471.12
239.793	474.12
240.027	504.12
240.26	513.12
240.494	389.12
240.728	397.12
240.961	364.12
241.195	390.12
241.429	420.12
241.662	406.12
241.896	415.12
242.13	400.12
242.363	420.12
242.597	454.12
242.83	461.12
243.064	458.12
243.298	482.12
243.531	463.12
243.765	454.12
243.998	434.12
244.232	394.12
244.465	411.12
244.699	407.12
244.932	460.12
245.166	509.12
245.399	473.12
245.633	455.12
245.866	447.12
246.099	487.12
246.333	483.12
246.566	506.12
246.8	531.12
247.033	572.12
247.266	536.12
247.5	517.12
247.733	536.12
247.966	602.12
248.2	634.12
248.433	601.12
248.666	626.12
248.899	672.12
249.133	728.12
249.366	805.12
249.599	687.12
249.832	623.12
250.066	634.12
250.299	628.12
250.532	577.12
250.765	566.12
250.998	595.12
251.231	575.12
251.465	590.12
251.698	557.12
251.931	569.12
252.164	592.12
252.397	620.12
252.63	591.12
252.863	552.12
253.096	547.12
253.329	570.12
253.562	563.12
253.795	626.12
254.028	600.12
254.261	569.12
254.494	576.12
254.727	559.12
254.96	578.12
255.193	626.12
255.426	695.12
255.659	823.12
255.892	819.12
256.124	668.12
256.357	655.12
256.59	691.12
256.823	688.12
257.056	723.12
257.289	836.12
257.521	895.12
257.754	827.12
257.987	803.12
258.22	847.12
258.452	798.12
258.685	668.12
258.918	652.12
259.151	681.12
259.383	668.12
259.616	581.12
259.849	604.12
260.081	695.12
260.314	757.12
260.547	794.12
260.779	827.12
261.012	774.12
261.244	676.12
261.477	683.12
261.71	691.12
261.942	667.12
262.175	660.12
262.407	718.12
262.64	681.12
262.872	611.12
263.105	620.12
263.337	624.12
263.57	657.12
263.802	643.12
264.035	597.12
264.267	571.12
264.499	570.12
264.732	628.12
264.964	657.12
265.197	668.12
265.429	683.12
265.661	765.12
265.894	862.12
266.126	841.12
266.358	806.12
266.591	804.12
266.823	860.12
267.055	790.12
267.287	753.12
267.52	772.12
267.752	768.12
267.984	783.12
268.216	825.12
268.448	818.12
268.681	809.12
268.913	715.12
269.145	689.12
269.377	687.12
269.609	747.12
269.841	868.12
270.073	985.12
270.306	1094.12
270.538	1114.12
270.77	967.12
271.002	828.12
271.234	801.12
271.466	819.12
271.698	921.12
271.93	1075.12
272.162	1049.12
272.394	948.12
272.626	896.12
272.858	809.12
273.09	720.12
273.322	694.12
273.553	658.12
273.785	662.12
274.017	708.12
274.249	771.12
274.481	755.12
274.713	714.12
274.945	711.12
275.176	716.12
275.408	707.12
275.64	700.12
275.872	676.12
276.104	742.12
276.335	859.12
276.567	901.12
276.799	915.12
277.031	855.12
277.262	815.12
277.494	839.12
277.726	893.12
277.957	883.12
278.189	804.12
278.421	769.12
278.652	760.12
278.884	707.12
279.115	723.12
279.347	748.12
279.579	745.12
279.81	734.12
280.042	816.12
280.273	875.12
280.505	883.12
280.736	891.12
280.968	848.12
281.199	780.12
281.431	699.12
281.662	716.12
281.894	729.12
282.125	725.12
282.356	767.12
282.588	754.12
282.819	793.12
283.051	830.12
283.282	897.12
283.513	844.12
283.745	739.12
283.976	734.12
284.207	737.12
284.439	711.12
284.67	761.12
284.901	761.12
285.132	789.12
285.364	768.12
285.595	771.12
285.826	760.12
286.057	774.12
286.288	745.12
286.52	780.12
286.751	832.12
286.982	845.12
287.213	802.12
287.444	717.12
287.675	745.12
287.906	767.12
288.138	842.12
288.369	795.12
288.6	771.12
288.831	731.12
289.062	735.12
289.293	769.12
289.524	768.12
289.755	797.12
289.986	769.12
290.217	737.12
290.448	779.12
290.679	742.12
290.91	780.12
291.141	814.12
291.371	831.12
291.602	817.12
291.833	822.12
292.064	837.12
292.295	827.12
292.526	869.12
292.757	879.12
292.987	840.12
293.218	819.12
293.449	858.12
293.68	985.12
293.91	996.12
294.141	949.12
294.372	915.12
294.603	959.12
294.833	977.12
295.064	899.12
295.295	857.12
295.525	791.12
295.756	746.12
295.987	722.12
296.217	753.12
296.448	775.12
296.679	787.12
296.909	799.12
297.14	775.12
297.37	795.12
297.601	851.12
297.831	870.12
298.062	905.12
298.292	833.12
298.523	793.12
298.753	777.12
298.984	790.12
299.214	812.12
299.445	806.12
299.675	836.12
299.905	821.12
300.136	836.12
300.366	785.12
300.597	779.12
300.827	796.12
301.057	818.12
301.288	871.12
301.518	843.12
301.748	854.12
301.979	903.12
302.209	915.12
302.439	999.12
302.669	1011.12
302.9	919.12
303.13	857.12
303.36	845.12
303.59	851.12
303.82	865.12
304.051	833.12
304.281	891.12
304.511	883.12
304.741	936.12
304.971	1004.12
305.201	1078.12
305.431	979.12
305.661	811.12
305.891	757.12
306.121	771.12
306.352	808.12
306.582	868.12
306.812	889.12
307.042	938.12
307.272	977.12
307.502	1003.12
307.731	1031.12
307.961	1104.12
308.191	977.12
308.421	907.12
308.651	852.12
308.881	839.12
309.111	840.12
309.341	823.12
309.571	845.12
309.8	828.12
310.03	820.12
310.26	811.12
310.49	828.12
310.72	846.12
310.949	882.12
311.179	917.12
311.409	887.12
311.639	849.12
311.868	834.12
312.098	846.12
312.328	839.12
312.557	845.12
312.787	864.12
313.017	887.12
313.246	891.12
313.476	868.12
313.706	905.12
313.935	879.12
314.165	907.12
314.394	928.12
314.624	987.12
314.853	1042.12
315.083	1059.12
315.312	1052.12
315.542	983.12
315.771	906.12
316.001	933.12
316.23	965.12
316.46	947.12
316.689	915.12
316.919	866.12
317.148	879.12
317.377	881.12
317.607	931.12
317.836	1030.12
318.065	1052.12
318.295	1013.12
318.524	993.12
318.753	965.12
318.983	949.12
319.212	935.12
319.441	887.12
319.67	902.12
319.9	959.12
320.129	970.12
320.358	1028.12
320.587	1039.12
320.816	1010.12
321.046	1010.12
321.275	977.12
321.504	971.12
321.733	1061.12
321.962	997.12
322.191	957.12
322.42	937.12
322.649	898.12
322.878	933.12
323.108	916.12
323.337	966.12
323.566	955.12
323.795	944.12
324.024	936.12
324.253	949.12
324.482	961.12
324.71	914.12
324.939	881.12
325.168	891.12
325.397	927.12
325.626	961.12
325.855	958.12
326.084	925.12
326.313	931.12
326.542	923.12
326.77	974.12
326.999	958.12
327.228	940.12
327.457	899.12
327.686	881.12
327.914	924.12
328.143	960.12
328.372	928.12
328.6	939.12
328.829	936.12
329.058	909.12
329.287	925.12
329.515	959.12
329.744	963.12
329.972	1012.12
330.201	1042.12
330.43	1022.12
330.658	979.12
330.887	969.12
331.115	1000.12
331.344	991.12
331.572	1001.12
331.801	980.12
332.03	981.12
332.258	1002.12
332.486	992.12
332.715	1015.12
332.943	997.12
333.172	1011.12
333.4	1024.12
333.629	1038.12
333.857	1127.12
334.085	1227.12
334.314	1358.12
334.542	1402.12
334.771	1285.12
334.999	1145.12
335.227	1107.12
335.455	1041.12
335.684	1059.12
335.912	1084.12
336.14	1107.12
336.369	1053.12
336.597	1034.12
336.825	1029.12
337.053	1040.12
337.281	1114.12
337.51	1147.12
337.738	1169.12
337.966	1103.12
338.194	1040.12
338.422	1008.12
338.65	961.12
338.878	973.12
339.106	953.12
339.334	928.12
339.562	955.12
339.79	988.12
340.018	1060.12
340.246	1047.12
340.474	1043.12
340.702	1015.12
340.93	1042.12
341.158	1045.12
341.386	977.12
341.614	1006.12
341.842	977.12
342.07	1005.12
342.298	1014.12
342.526	978.12
342.754	991.12
342.981	979.12
343.209	967.12
343.437	978.12
343.665	1012.12
343.893	1035.12
344.12	1060.12
344.348	1057.12
344.576	989.12
344.804	992.12
345.031	989.12
345.259	973.12
345.487	940.12
345.714	928.12
345.942	947.12
346.17	929.12
346.397	931.12
346.625	910.12
346.853	888.12
347.08	872.12
347.308	895.12
347.535	915.12
347.763	973.12
347.99	908.12
348.218	891.12
348.445	936.12
348.673	934.12
348.9	981.12
349.128	981.12
349.355	1005.12
349.583	996.12
349.81	923.12
350.037	885.12
350.265	886.12
350.492	889.12
350.72	912.12
350.947	927.12
351.174	968.12
351.402	905.12
351.629	882.12
351.856	872.12
352.083	863.12
352.311	859.12
352.538	917.12
352.765	940.12
352.992	943.12
353.22	902.12
353.447	904.12
353.674	910.12
353.901	901.12
354.128	903.12
354.355	907.12
354.583	943.12
354.81	975.12
355.037	959.12
355.264	962.12
355.491	936.12
355.718	943.12
355.945	911.12
356.172	887.12
356.399	894.12
356.626	921.12
356.853	957.12
357.08	1041.12
357.307	1124.12
357.534	1080.12
357.761	965.12
357.988	889.12
358.215	863.12
358.441	901.12
358.668	896.12
358.895	914.12
359.122	969.12
359.349	1048.12
359.576	1013.12
359.802	949.12
360.029	887.12
360.256	908.12
360.483	915.12
360.709	952.12
360.936	970.12
361.163	1028.12
361.39	1091.12
361.616	1191.12
361.843	1130.12
362.07	1049.12
362.296	947.12
362.523	896.12
362.749	926.12
362.976	949.12
363.203	965.12
363.429	912.12
363.656	925.12
363.882	994.12
364.109	1093.12
364.335	1122.12
364.562	1014.12
364.788	970.12
365.015	945.12
365.241	923.12
365.468	954.12
365.694	973.12
365.92	999.12
366.147	943.12
366.373	895.12
366.599	909.12
366.826	934.12
367.052	896.12
367.278	943.12
367.505	971.12
367.731	965.12
367.957	969.12
368.184	1015.12
368.41	1065.12
368.636	1059.12
368.862	1088.12
369.089	1055.12
369.315	1021.12
369.541	982.12
369.767	956.12
369.993	941.12
370.219	928.12
370.445	1007.12
370.672	1039.12
370.898	1046.12
371.124	1037.12
371.35	1031.12
371.576	1030.12
371.802	1048.12
372.028	1011.12
372.254	966.12
372.48	942.12
372.706	943.12
372.932	947.12
373.158	949.12
373.384	972.12
373.61	994.12
373.835	1048.12
374.061	972.12
374.287	992.12
374.513	973.12
374.739	1023.12
374.965	1000.12
375.191	1023.12
375.416	1013.12
375.642	1023.12
375.868	1087.12
376.094	1107.12
376.319	1050.12
376.545	1000.12
376.771	1025.12
376.997	1114.12
377.222	1079.12
377.448	1048.12
377.674	1049.12
377.899	1047.12
378.125	1139.12
378.35	1075.12
378.576	995.12
378.802	981.12
379.027	977.12
379.253	976.12
379.478	983.12
379.704	1012.12
379.929	991.12
380.155	979.12
380.38	1034.12
380.606	1049.12
380.831	1064.12
381.057	1072.12
381.282	1062.12
381.507	1067.12
381.733	1142.12
381.958	1103.12
382.184	1075.12
382.409	1023.12
382.634	1041.12
382.86	1039.12
383.085	1003.12
383.31	1133.12
383.535	1175.12
383.761	1240.12
383.986	1175.12
384.211	1103.12
384.436	1102.12
384.662	1187.12
384.887	1181.12
385.112	1179.12
385.337	1125.12
385.562	1172.12
385.787	1147.12
386.013	1172.12
386.238	1165.12
386.463	1159.12
386.688	1242.12
386.913	1319.12
387.138	1253.12
387.363	1172.12
387.588	1195.12
387.813	1165.12
388.038	1176.12
388.263	1226.12
388.488	1135.12
388.713	1080.12
388.938	1083.12
389.163	1115.12
389.387	1130.12
389.612	1101.12
389.837	1175.12
390.062	1139.12
390.287	1171.12
390.512	1151.12
390.736	1104.12
390.961	1061.12
391.186	1078.12
391.411	1132.12
391.636	1105.12
391.86	1121.12
392.085	1149.12
392.31	1096.12
392.534	1161.12
392.759	1137.12
392.984	1129.12
393.208	1169.12
393.433	1165.12
393.658	1227.12
393.882	1242.12
394.107	1144.12
394.331	1136.12
394.556	1134.12
394.78	1162.12
395.005	1205.12
395.229	1250.12
395.454	1336.12
395.678	1288.12
395.903	1230.12
396.127	1206.12
396.352	1227.12
396.576	1279.12
396.801	1257.12
397.025	1212.12
397.249	1233.12
397.474	1246.12
397.698	1230.12
397.922	1273.12
398.147	1333.12
398.371	1379.12
398.595	1386.12
398.82	1317.12
399.044	1317.12
399.268	1367.12
399.492	1464.12
399.717	1480.12
399.941	1493.12
400.165	1473.12
400.389	1443.12
400.613	1460.12
400.837	1663.12
401.062	1822.12
401.286	1539.12
401.51	1439.12
401.734	1466.12
401.958	1425.12
402.182	1345.12
402.406	1277.12
402.63	1283.12
402.854	1308.12
403.078	1302.12
403.302	1347.12
403.526	1348.12
403.75	1345.12
403.974	1411.12
404.198	1341.12
404.422	1407.12
404.645	1472.12
404.869	1425.12
405.093	1351.12
405.317	1327.12
405.541	1346.12
405.765	1370.12
405.988	1380.12
406.212	1412.12
406.436	1458.12
406.66	1495.12
406.883	1521.12
407.107	1675.12
407.331	1830.12
407.555	1904.12
407.778	1705.12
408.002	1443.12
408.226	1385.12
408.449	1413.12
408.673	1362.12
408.896	1361.12
409.12	1407.12
409.344	1396.12
409.567	1352.12
409.791	1382.12
410.014	1416.12
410.238	1462.12
410.461	1546.12
410.685	1380.12
410.908	1346.12
411.132	1335.12
411.355	1339.12
411.578	1328.12
411.802	1384.12
412.025	1362.12
412.249	1333.12
412.472	1316.12
412.695	1294.12
412.919	1293.12
413.142	1319.12
413.365	1320.12
413.589	1373.12
413.812	1434.12
414.035	1458.12
414.258	1353.12
414.482	1315.12
414.705	1333.12
414.928	1295.12
415.151	1279.12
415.374	1320.12
415.597	1366.12
415.821	1356.12
416.044	1357.12
416.267	1381.12
416.49	1282.12
416.713	1267.12
416.936	1340.12
417.159	1398.12
417.382	1394.12
417.605	1337.12
417.828	1313.12
418.051	1330.12
418.274	1322.12
418.497	1260.12
418.72	1291.12
418.943	1277.12
419.166	1312.12
419.389	1403.12
419.611	1333.12
419.834	1280.12
420.057	1318.12
420.28	1275.12
420.503	1301.12
420.726	1333.12
420.948	1283.12
421.171	1270.12
421.394	1315.12
421.617	1360.12
421.839	1335.12
422.062	1367.12
422.285	1272.12
422.507	1298.12
422.73	1234.12
422.953	1235.12
423.175	1213.12
423.398	1289.12
423.621	1283.12
423.843	1292.12
424.066	1352.12
424.288	1381.12
424.511	1403.12
424.733	1373.12
424.956	1248.12
425.178	1223.12
425.401	1267.12
425.623	1292.12
425.846	1247.12
426.068	1333.12
426.291	1393.12
426.513	1337.12
426.735	1331.12
426.958	1448.12
427.18	1510.12
427.402	1375.12
427.625	1416.12
427.847	1397.12
428.069	1287.12
428.292	1276.12
428.514	1254.12
428.736	1250.12
428.958	1236.12
429.181	1276.12
429.403	1489.12
429.625	1761.12
429.847	1470.12
430.069	1307.12
430.292	1477.12
430.514	1466.12
430.736	1373.12
430.958	1414.12
431.18	1294.12
431.402	1230.12
431.624	1239.12
431.846	1177.12
432.068	1147.12
432.29	1138.12
432.512	1180.12
432.734	1264.12
432.956	1313.12
433.178	1330.12
433.4	1341.12
433.622	1306.12
433.844	1272.12
434.066	1215.12
434.287	1193.12
434.509	1203.12
434.731	1256.12
434.953	1341.12
435.175	1351.12
435.397	1312.12
435.618	1311.12
435.84	1229.12
436.062	1244.12
436.284	1266.12
436.505	1301.12
436.727	1315.12
436.949	1292.12
437.17	1249.12
437.392	1215.12
437.614	1231.12
437.835	1175.12
438.057	1213.12
438.278	1270.12
438.5	1187.12
438.721	1247.12
438.943	1241.12
439.165	1236.12
439.386	1236.12
439.608	1258.12
439.829	1266.12
440.05	1261.12
440.272	1261.12
440.493	1239.12
440.715	1272.12
440.936	1337.12
441.158	1453.12
441.379	1417.12
441.6	1370.12
441.822	1391.12
442.043	1361.12
442.264	1319.12
442.486	1258.12
442.707	1290.12
442.928	1268.12
443.149	1310.12
443.371	1359.12
443.592	1367.12
443.813	1403.12
444.034	1364.12
444.255	1328.12
444.476	1361.12
444.698	1430.12
444.919	1387.12
445.14	1505.12
445.361	1469.12
445.582	1473.12
445.803	1414.12
446.024	1393.12
446.245	1417.12
446.466	1407.12
446.687	1331.12
446.908	1345.12
447.129	1292.12
447.35	1343.12
447.571	1318.12
447.792	1249.12
448.013	1246.12
448.234	1288.12
448.455	1310.12
448.675	1294.12
448.896	1207.12
449.117	1232.12
449.338	1233.12
449.559	1274.12
449.779	1324.12
450	1400.12
450.221	1474.12
450.442	1438.12
450.662	1303.12
450.883	1164.12
451.104	1159.12
451.324	1188.12
451.545	1202.12
451.766	1199.12
451.986	1141.12
452.207	1114.12
452.428	1102.12
452.648	1078.12
452.869	1129.12
453.089	1136.12
453.31	1157.12
453.53	1149.12
453.751	1119.12
453.971	1077.12
454.192	1096.12
454.412	1164.12
454.633	1172.12
454.853	1135.12
455.073	1084.12
455.294	1071.12
455.514	1075.12
455.734	1085.12
455.955	1116.12
456.175	1094.12
456.395	1092.12
456.616	1109.12
456.836	1104.12
457.056	1083.12
457.276	1112.12
457.497	1063.12
457.717	1037.12
457.937	1041.12
458.157	1043.12
458.377	1072.12
458.598	1052.12
458.818	1070.12
459.038	1118.12
459.258	1151.12
459.478	1179.12
459.698	1108.12
459.918	1159.12
460.138	1248.12
460.358	1233.12
460.578	1225.12
460.798	1279.12
461.018	1371.12
461.238	1315.12
461.458	1278.12
461.678	1281.12
461.898	1254.12
462.118	1225.12
462.338	1250.12
462.558	1260.12
462.777	1269.12
462.997	1319.12
463.217	1372.12
463.437	1371.12
463.657	1287.12
463.876	1268.12
464.096	1236.12
464.316	1240.12
464.536	1312.12
464.755	1303.12
464.975	1319.12
465.195	1288.12
465.414	1316.12
465.634	1279.12
465.854	1291.12
466.073	1377.12
466.293	1341.12
466.512	1218.12
466.732	1189.12
466.951	1236.12
467.171	1229.12
467.391	1190.12
467.61	1183.12
467.829	1212.12
468.049	1327.12
468.268	1448.12
468.488	1337.12
468.707	1277.12
468.927	1272.12
469.146	1224.12
469.365	1217.12
469.585	1249.12
469.804	1222.12
470.023	1263.12
470.243	1250.12
470.462	1244.12
470.681	1239.12
470.901	1227.12
471.12	1228.12
471.339	1234.12
471.558	1209.12
471.777	1209.12
471.997	1233.12
472.216	1179.12
472.435	1098.12
472.654	1140.12
472.873	1205.12
473.092	1229.12
473.311	1181.12
473.53	1144.12
473.749	1130.12
473.968	1197.12
474.187	1235.12
474.406	1256.12
474.625	1217.12
474.844	1204.12
475.063	1224.12
475.282	1246.12
475.501	1201.12
475.72	1213.12
475.939	1284.12
476.158	1223.12
476.377	1214.12
476.596	1217.12
476.814	1211.12
477.033	1211.12
477.252	1272.12
477.471	1321.12
477.69	1281.12
477.908	1302.12
478.127	1343.12
478.346	1417.12
478.564	1456.12
478.783	1425.12
479.002	1446.12
479.22	1428.12
479.439	1499.12
479.658	1601.12
479.876	1546.12
480.095	1359.12
480.313	1313.12
480.532	1309.12
480.751	1335.12
480.969	1329.12
481.188	1280.12
481.406	1258.12
481.624	1225.12
481.843	1260.12
482.061	1295.12
482.28	1301.12
482.498	1305.12
482.717	1309.12
482.935	1300.12
483.153	1372.12
483.372	1371.12
483.59	1383.12
483.808	1341.12
484.027	1361.12
484.245	1441.12
484.463	1751.12
484.681	1913.12
484.9	1452.12
485.118	1373.12
485.336	1351.12
485.554	1394.12
485.772	1380.12
485.99	1368.12
486.209	1372.12
486.427	1356.12
486.645	1399.12
486.863	1443.12
487.081	1470.12
487.299	1443.12
487.517	1478.12
487.735	1491.12
487.953	1519.12
488.171	1501.12
488.389	1506.12
488.607	1431.12
488.825	1575.12
489.043	1542.12
489.261	1420.12
489.479	1463.12
489.696	1485.12
489.914	1487.12
490.132	1460.12
490.35	1461.12
490.568	1545.12
490.786	1497.12
491.003	1500.12
491.221	1523.12
491.439	1606.12
491.657	1594.12
491.874	1612.12
492.092	1676.12
492.31	1719.12
492.527	1679.12
492.745	1628.12
492.963	1583.12
493.18	1635.12
493.398	1696.12
493.615	1711.12
