Data from WStandard_LampEnergy8_LIBS07252019.E.O._I.C._HRD10591_15-59-10-929.txt Node
Date: Thu Jul 25 15:59:10 EDT 2019
User: cochatt
Spectrometer: HR+D1059
Trigger mode: 1
Integration Time (sec): 1.000000E-1
Scans to average: 1
Electric dark correction enabled: true
Nonlinearity correction enabled: false
Boxcar width: 0
XAxis mode: Wavelengths
Number of Pixels in Spectrum: 2048
>>>>>Begin Spectral Data<<<<<
223.165	-27.06
223.4	-27.06
223.635	-27.06
223.869	-10.06
224.104	-15.06
224.338	-20.06
224.573	-10.06
224.808	-17.06
225.042	-18.06
225.277	-10.06
225.511	11.94
225.746	2.94
225.98	12.94
226.215	-1.06
226.449	18.94
226.683	19.94
226.918	26.94
227.152	34.94
227.387	41.94
227.621	30.94
227.856	31.94
228.09	51.94
228.324	55.94
228.559	55.94
228.793	100.94
229.027	188.94
229.262	210.94
229.496	191.94
229.73	207.94
229.964	243.94
230.199	223.94
230.433	267.94
230.667	275.94
230.901	275.94
231.136	253.94
231.37	234.94
231.604	251.94
231.838	256.94
232.072	265.94
232.306	255.94
232.541	273.94
232.775	294.94
233.009	317.94
233.243	301.94
233.477	282.94
233.711	298.94
233.945	298.94
234.179	287.94
234.413	320.94
234.647	338.94
234.881	313.94
235.115	282.94
235.349	294.94
235.583	276.94
235.817	289.94
236.051	279.94
236.285	282.94
236.519	318.94
236.753	353.94
236.987	331.94
237.221	330.94
237.455	366.94
237.689	359.94
237.922	357.94
238.156	328.94
238.39	342.94
238.624	363.94
238.858	398.94
239.091	395.94
239.325	413.94
239.559	464.94
239.793	478.94
240.027	481.94
240.26	478.94
240.494	384.94
240.728	379.94
240.961	363.94
241.195	391.94
241.429	389.94
241.662	391.94
241.896	380.94
242.13	383.94
242.363	408.94
242.597	421.94
242.83	419.94
243.064	423.94
243.298	473.94
243.531	453.94
243.765	447.94
243.998	443.94
244.232	385.94
244.465	395.94
244.699	414.94
244.932	454.94
245.166	488.94
245.399	475.94
245.633	437.94
245.866	445.94
246.099	472.94
246.333	453.94
246.566	480.94
246.8	508.94
247.033	542.94
247.266	549.94
247.5	532.94
247.733	539.94
247.966	568.94
248.2	597.94
248.433	576.94
248.666	603.94
248.899	655.94
249.133	726.94
249.366	777.94
249.599	656.94
249.832	577.94
250.066	606.94
250.299	621.94
250.532	570.94
250.765	523.94
250.998	545.94
251.231	577.94
251.465	597.94
251.698	557.94
251.931	547.94
252.164	586.94
252.397	608.94
252.63	609.94
252.863	521.94
253.096	549.94
253.329	540.94
253.562	594.94
253.795	623.94
254.028	601.94
254.261	563.94
254.494	550.94
254.727	523.94
254.96	572.94
255.193	610.94
255.426	687.94
255.659	758.94
255.892	787.94
256.124	660.94
256.357	651.94
256.59	694.94
256.823	674.94
257.056	695.94
257.289	801.94
257.521	869.94
257.754	794.94
257.987	756.94
258.22	826.94
258.452	800.94
258.685	693.94
258.918	651.94
259.151	643.94
259.383	632.94
259.616	577.94
259.849	621.94
260.081	679.94
260.314	711.94
260.547	798.94
260.779	802.94
261.012	750.94
261.244	682.94
261.477	653.94
261.71	675.94
261.942	686.94
262.175	658.94
262.407	689.94
262.64	653.94
262.872	602.94
263.105	611.94
263.337	605.94
263.57	599.94
263.802	619.94
264.035	577.94
264.267	583.94
264.499	574.94
264.732	624.94
264.964	618.94
265.197	655.94
265.429	687.94
265.661	747.94
265.894	829.94
266.126	854.94
266.358	750.94
266.591	795.94
266.823	843.94
267.055	789.94
267.287	778.94
267.52	756.94
267.752	757.94
267.984	750.94
268.216	749.94
268.448	791.94
268.681	745.94
268.913	709.94
269.145	671.94
269.377	688.94
269.609	737.94
269.841	863.94
270.073	986.94
270.306	1069.94
270.538	1082.94
270.77	928.94
271.002	815.94
271.234	802.94
271.466	789.94
271.698	889.94
271.93	1042.94
272.162	1012.94
272.394	929.94
272.626	859.94
272.858	756.94
273.09	694.94
273.322	696.94
273.553	659.94
273.785	651.94
274.017	691.94
274.249	731.94
274.481	756.94
274.713	704.94
274.945	653.94
275.176	692.94
275.408	672.94
275.64	689.94
275.872	665.94
276.104	745.94
276.335	805.94
276.567	887.94
276.799	903.94
277.031	829.94
277.262	783.94
277.494	818.94
277.726	892.94
277.957	864.94
278.189	785.94
278.421	758.94
278.652	744.94
278.884	742.94
279.115	729.94
279.347	727.94
279.579	713.94
279.81	718.94
280.042	785.94
280.273	849.94
280.505	850.94
280.736	864.94
280.968	804.94
281.199	713.94
281.431	697.94
281.662	684.94
281.894	722.94
282.125	731.94
282.356	757.94
282.588	775.94
282.819	775.94
283.051	841.94
283.282	877.94
283.513	841.94
283.745	747.94
283.976	685.94
284.207	720.94
284.439	731.94
284.67	737.94
284.901	714.94
285.132	769.94
285.364	767.94
285.595	752.94
285.826	751.94
286.057	754.94
286.288	747.94
286.52	778.94
286.751	853.94
286.982	817.94
287.213	759.94
287.444	700.94
287.675	727.94
287.906	782.94
288.138	828.94
288.369	789.94
288.6	738.94
288.831	699.94
289.062	728.94
289.293	729.94
289.524	748.94
289.755	758.94
289.986	771.94
290.217	731.94
290.448	751.94
290.679	755.94
290.91	761.94
291.141	792.94
291.371	798.94
291.602	813.94
291.833	789.94
292.064	794.94
292.295	831.94
292.526	837.94
292.757	848.94
292.987	810.94
293.218	794.94
293.449	867.94
293.68	948.94
293.91	987.94
294.141	928.94
294.372	887.94
294.603	929.94
294.833	948.94
295.064	897.94
295.295	814.94
295.525	794.94
295.756	749.94
295.987	720.94
296.217	770.94
296.448	769.94
296.679	785.94
296.909	765.94
297.14	749.94
297.37	781.94
297.601	815.94
297.831	874.94
298.062	875.94
298.292	804.94
298.523	777.94
298.753	777.94
298.984	799.94
299.214	795.94
299.445	800.94
299.675	850.94
299.905	827.94
300.136	808.94
300.366	773.94
300.597	776.94
300.827	769.94
301.057	792.94
301.288	825.94
301.518	825.94
301.748	863.94
301.979	882.94
302.209	923.94
302.439	975.94
302.669	979.94
302.9	870.94
303.13	841.94
303.36	865.94
303.59	852.94
303.82	822.94
304.051	841.94
304.281	845.94
304.511	850.94
304.741	911.94
304.971	1005.94
305.201	1054.94
305.431	920.94
305.661	774.94
305.891	770.94
306.121	729.94
306.352	773.94
306.582	849.94
306.812	889.94
307.042	926.94
307.272	929.94
307.502	984.94
307.731	1037.94
307.961	1061.94
308.191	982.94
308.421	866.94
308.651	847.94
308.881	813.94
309.111	826.94
309.341	783.94
309.571	823.94
309.8	823.94
310.03	800.94
310.26	831.94
310.49	836.94
310.72	831.94
310.949	869.94
311.179	849.94
311.409	819.94
311.639	822.94
311.868	842.94
312.098	838.94
312.328	832.94
312.557	838.94
312.787	839.94
313.017	856.94
313.246	882.94
313.476	879.94
313.706	865.94
313.935	877.94
314.165	871.94
314.394	915.94
314.624	921.94
314.853	983.94
315.083	1034.94
315.312	1056.94
315.542	963.94
315.771	866.94
316.001	897.94
316.23	933.94
316.46	916.94
316.689	920.94
316.919	828.94
317.148	841.94
317.377	887.94
317.607	953.94
317.836	1041.94
318.065	1063.94
318.295	1016.94
318.524	949.94
318.753	927.94
318.983	927.94
319.212	899.94
319.441	922.94
319.67	901.94
319.9	915.94
320.129	987.94
320.358	1010.94
320.587	1010.94
320.816	1032.94
321.046	985.94
321.275	934.94
321.504	975.94
321.733	1027.94
321.962	966.94
322.191	934.94
322.42	919.94
322.649	880.94
322.878	907.94
323.108	919.94
323.337	956.94
323.566	956.94
323.795	926.94
324.024	928.94
324.253	910.94
324.482	918.94
324.71	881.94
324.939	834.94
325.168	885.94
325.397	901.94
325.626	961.94
325.855	935.94
326.084	909.94
326.313	923.94
326.542	927.94
326.77	938.94
326.999	901.94
327.228	890.94
327.457	874.94
327.686	863.94
327.914	864.94
328.143	941.94
328.372	901.94
328.6	914.94
328.829	884.94
329.058	907.94
329.287	880.94
329.515	925.94
329.744	967.94
329.972	1019.94
330.201	1035.94
330.43	1011.94
330.658	987.94
330.887	965.94
331.115	963.94
331.344	982.94
331.572	963.94
331.801	941.94
332.03	965.94
332.258	1004.94
332.486	1010.94
332.715	979.94
332.943	983.94
333.172	974.94
333.4	965.94
333.629	1017.94
333.857	1098.94
334.085	1232.94
334.314	1321.94
334.542	1383.94
334.771	1240.94
334.999	1156.94
335.227	1049.94
335.455	1054.94
335.684	1048.94
335.912	1055.94
336.14	1072.94
336.369	1019.94
336.597	969.94
336.825	980.94
337.053	1001.94
337.281	1088.94
337.51	1149.94
337.738	1140.94
337.966	1095.94
338.194	970.94
338.422	987.94
338.65	958.94
338.878	915.94
339.106	939.94
339.334	907.94
339.562	905.94
339.79	965.94
340.018	992.94
340.246	1017.94
340.474	1043.94
340.702	981.94
340.93	1000.94
341.158	1002.94
341.386	953.94
341.614	945.94
341.842	942.94
342.07	955.94
342.298	978.94
342.526	981.94
342.754	944.94
342.981	948.94
343.209	923.94
343.437	953.94
343.665	971.94
343.893	1010.94
344.12	1043.94
344.348	1013.94
344.576	997.94
344.804	947.94
345.031	970.94
345.259	956.94
345.487	906.94
345.714	931.94
345.942	929.94
346.17	901.94
346.397	910.94
346.625	925.94
346.853	893.94
347.08	851.94
347.308	899.94
347.535	919.94
347.763	938.94
347.99	920.94
348.218	889.94
348.445	882.94
348.673	899.94
348.9	950.94
349.128	941.94
349.355	1005.94
349.583	932.94
349.81	907.94
350.037	863.94
350.265	870.94
350.492	878.94
350.72	884.94
350.947	928.94
351.174	933.94
351.402	868.94
351.629	846.94
351.856	830.94
352.083	849.94
352.311	850.94
352.538	884.94
352.765	928.94
352.992	936.94
353.22	915.94
353.447	873.94
353.674	887.94
353.901	903.94
354.128	880.94
354.355	883.94
354.583	926.94
354.81	969.94
355.037	950.94
355.264	903.94
355.491	911.94
355.718	905.94
355.945	915.94
356.172	873.94
356.399	883.94
356.626	891.94
356.853	892.94
357.08	1011.94
357.307	1105.94
357.534	1032.94
357.761	950.94
357.988	893.94
358.215	880.94
358.441	867.94
358.668	862.94
358.895	913.94
359.122	979.94
359.349	1027.94
359.576	965.94
359.802	895.94
360.029	885.94
360.256	878.94
360.483	903.94
360.709	899.94
360.936	959.94
361.163	1011.94
361.39	1066.94
361.616	1121.94
361.843	1107.94
362.07	1036.94
362.296	905.94
362.523	900.94
362.749	907.94
362.976	912.94
363.203	931.94
363.429	892.94
363.656	918.94
363.882	965.94
364.109	1060.94
364.335	1081.94
364.562	996.94
364.788	984.94
365.015	924.94
365.241	856.94
365.468	943.94
365.694	925.94
365.92	998.94
366.147	953.94
366.373	875.94
366.599	874.94
366.826	875.94
367.052	900.94
367.278	905.94
367.505	912.94
367.731	921.94
367.957	945.94
368.184	954.94
368.41	1021.94
368.636	1033.94
368.862	1067.94
369.089	1038.94
369.315	1016.94
369.541	971.94
369.767	936.94
369.993	903.94
370.219	921.94
370.445	957.94
370.672	991.94
370.898	987.94
371.124	996.94
371.35	978.94
371.576	1023.94
371.802	1021.94
372.028	982.94
372.254	955.94
372.48	931.94
372.706	925.94
372.932	919.94
373.158	941.94
373.384	951.94
373.61	989.94
373.835	1025.94
374.061	984.94
374.287	984.94
374.513	969.94
374.739	983.94
374.965	976.94
375.191	1034.94
375.416	980.94
375.642	1010.94
375.868	1105.94
376.094	1069.94
376.319	1027.94
376.545	998.94
376.771	1035.94
376.997	1072.94
377.222	1027.94
377.448	1015.94
377.674	1026.94
377.899	1054.94
378.125	1094.94
378.35	1070.94
378.576	982.94
378.802	924.94
379.027	958.94
379.253	958.94
379.478	962.94
379.704	958.94
379.929	978.94
380.155	963.94
380.38	953.94
380.606	967.94
380.831	979.94
381.057	1054.94
381.282	1012.94
381.507	1042.94
381.733	1082.94
381.958	1153.94
382.184	1034.94
382.409	1017.94
382.634	1033.94
382.86	1049.94
383.085	1025.94
383.31	1035.94
383.535	1162.94
383.761	1194.94
383.986	1161.94
384.211	1109.94
384.436	1087.94
384.662	1144.94
384.887	1207.94
385.112	1083.94
385.337	1131.94
385.562	1119.94
385.787	1126.94
386.013	1137.94
386.238	1119.94
386.463	1159.94
386.688	1253.94
386.913	1296.94
387.138	1213.94
387.363	1167.94
387.588	1121.94
387.813	1122.94
388.038	1173.94
388.263	1203.94
388.488	1146.94
388.713	1057.94
388.938	1093.94
389.163	1078.94
389.387	1106.94
389.612	1115.94
389.837	1163.94
390.062	1154.94
390.287	1120.94
390.512	1085.94
390.736	1114.94
390.961	1089.94
391.186	1055.94
391.411	1064.94
391.636	1118.94
391.86	1133.94
392.085	1124.94
392.31	1117.94
392.534	1093.94
392.759	1120.94
392.984	1102.94
393.208	1090.94
393.433	1167.94
393.658	1197.94
393.882	1192.94
394.107	1167.94
394.331	1105.94
394.556	1129.94
394.78	1110.94
395.005	1171.94
395.229	1195.94
395.454	1286.94
395.678	1305.94
395.903	1216.94
396.127	1179.94
396.352	1180.94
396.576	1217.94
396.801	1206.94
397.025	1198.94
397.249	1214.94
397.474	1208.94
397.698	1202.94
397.922	1227.94
398.147	1281.94
398.371	1315.94
398.595	1323.94
398.82	1298.94
399.044	1333.94
399.268	1337.94
399.492	1487.94
399.717	1493.94
399.941	1473.94
400.165	1457.94
400.389	1414.94
400.613	1417.94
400.837	1629.94
401.062	1802.94
401.286	1529.94
401.51	1387.94
401.734	1458.94
401.958	1354.94
402.182	1319.94
402.406	1265.94
402.63	1246.94
402.854	1273.94
403.078	1283.94
403.302	1301.94
403.526	1338.94
403.75	1336.94
403.974	1354.94
404.198	1354.94
404.422	1400.94
404.645	1431.94
404.869	1395.94
405.093	1291.94
405.317	1298.94
405.541	1328.94
405.765	1308.94
405.988	1333.94
406.212	1362.94
406.436	1377.94
406.66	1440.94
406.883	1486.94
407.107	1654.94
407.331	1755.94
407.555	1890.94
407.778	1641.94
408.002	1426.94
408.226	1424.94
408.449	1413.94
408.673	1358.94
408.896	1349.94
409.12	1380.94
409.344	1350.94
409.567	1310.94
409.791	1349.94
410.014	1376.94
410.238	1503.94
410.461	1487.94
410.685	1370.94
410.908	1347.94
411.132	1353.94
411.355	1331.94
411.578	1327.94
411.802	1331.94
412.025	1353.94
412.249	1318.94
412.472	1291.94
412.695	1244.94
412.919	1283.94
413.142	1265.94
413.365	1300.94
413.589	1332.94
413.812	1362.94
414.035	1457.94
414.258	1305.94
414.482	1279.94
414.705	1283.94
414.928	1280.94
415.151	1267.94
415.374	1282.94
415.597	1326.94
415.821	1318.94
416.044	1363.94
416.267	1325.94
416.49	1278.94
416.713	1258.94
416.936	1315.94
417.159	1368.94
417.382	1331.94
417.605	1264.94
417.828	1290.94
418.051	1330.94
418.274	1305.94
418.497	1243.94
418.72	1244.94
418.943	1263.94
419.166	1320.94
419.389	1315.94
419.611	1334.94
419.834	1284.94
420.057	1277.94
420.28	1265.94
420.503	1254.94
420.726	1289.94
420.948	1257.94
421.171	1258.94
421.394	1252.94
421.617	1319.94
421.839	1295.94
422.062	1306.94
422.285	1239.94
422.507	1259.94
422.73	1233.94
422.953	1199.94
423.175	1220.94
423.398	1213.94
423.621	1245.94
423.843	1278.94
424.066	1292.94
424.288	1359.94
424.511	1395.94
424.733	1336.94
424.956	1215.94
425.178	1226.94
425.401	1228.94
425.623	1277.94
425.846	1237.94
426.068	1307.94
426.291	1321.94
426.513	1275.94
426.735	1292.94
426.958	1407.94
427.18	1486.94
427.402	1351.94
427.625	1420.94
427.847	1333.94
428.069	1237.94
428.292	1206.94
428.514	1236.94
428.736	1192.94
428.958	1249.94
429.181	1257.94
429.403	1473.94
429.625	1698.94
429.847	1434.94
430.069	1302.94
430.292	1460.94
430.514	1413.94
430.736	1362.94
430.958	1361.94
431.18	1261.94
431.402	1230.94
431.624	1177.94
431.846	1139.94
432.068	1100.94
432.29	1107.94
432.512	1155.94
432.734	1182.94
432.956	1262.94
433.178	1304.94
433.4	1300.94
433.622	1326.94
433.844	1224.94
434.066	1175.94
434.287	1145.94
434.509	1184.94
434.731	1213.94
434.953	1344.94
435.175	1301.94
435.397	1252.94
435.618	1227.94
435.84	1217.94
436.062	1214.94
436.284	1263.94
436.505	1245.94
436.727	1265.94
436.949	1225.94
437.17	1222.94
437.392	1217.94
437.614	1190.94
437.835	1151.94
438.057	1186.94
438.278	1228.94
438.5	1200.94
438.721	1216.94
438.943	1230.94
439.165	1226.94
439.386	1213.94
439.608	1222.94
439.829	1237.94
440.05	1202.94
440.272	1238.94
440.493	1214.94
440.715	1237.94
440.936	1345.94
441.158	1414.94
441.379	1349.94
441.6	1362.94
441.822	1343.94
442.043	1310.94
442.264	1301.94
442.486	1220.94
442.707	1205.94
442.928	1237.94
443.149	1280.94
443.371	1334.94
443.592	1353.94
443.813	1379.94
444.034	1335.94
444.255	1357.94
444.476	1386.94
444.698	1377.94
444.919	1350.94
445.14	1450.94
445.361	1425.94
445.582	1435.94
445.803	1394.94
446.024	1319.94
446.245	1377.94
446.466	1353.94
446.687	1308.94
446.908	1333.94
447.129	1282.94
447.35	1295.94
447.571	1281.94
447.792	1191.94
448.013	1234.94
448.234	1287.94
448.455	1311.94
448.675	1313.94
448.896	1201.94
449.117	1204.94
449.338	1212.94
449.559	1272.94
449.779	1284.94
450	1396.94
450.221	1469.94
450.442	1394.94
450.662	1241.94
450.883	1162.94
451.104	1162.94
451.324	1189.94
451.545	1183.94
451.766	1162.94
451.986	1113.94
452.207	1107.94
452.428	1050.94
452.648	1062.94
452.869	1143.94
453.089	1095.94
453.31	1103.94
453.53	1147.94
453.751	1105.94
453.971	1041.94
454.192	1095.94
454.412	1144.94
454.633	1133.94
454.853	1095.94
455.073	1005.94
455.294	1042.94
455.514	1063.94
455.734	1056.94
455.955	1053.94
456.175	1069.94
456.395	1067.94
456.616	1072.94
456.836	1087.94
457.056	1055.94
457.276	1044.94
457.497	1050.94
457.717	1016.94
457.937	1025.94
458.157	1025.94
458.377	1012.94
458.598	1030.94
458.818	1056.94
459.038	1093.94
459.258	1126.94
459.478	1132.94
459.698	1079.94
459.918	1144.94
460.138	1189.94
460.358	1214.94
460.578	1207.94
460.798	1317.94
461.018	1322.94
461.238	1235.94
461.458	1238.94
461.678	1222.94
461.898	1198.94
462.118	1193.94
462.338	1255.94
462.558	1217.94
462.777	1253.94
462.997	1285.94
463.217	1331.94
463.437	1325.94
463.657	1265.94
463.876	1221.94
464.096	1247.94
464.316	1225.94
464.536	1283.94
464.755	1271.94
464.975	1260.94
465.195	1251.94
465.414	1281.94
465.634	1286.94
465.854	1244.94
466.073	1358.94
466.293	1329.94
466.512	1180.94
466.732	1179.94
466.951	1231.94
467.171	1201.94
467.391	1223.94
467.61	1172.94
467.829	1231.94
468.049	1311.94
468.268	1426.94
468.488	1318.94
468.707	1231.94
468.927	1184.94
469.146	1192.94
469.365	1201.94
469.585	1201.94
469.804	1192.94
470.023	1220.94
470.243	1219.94
470.462	1181.94
470.681	1223.94
470.901	1209.94
471.12	1174.94
471.339	1214.94
471.558	1168.94
471.777	1163.94
471.997	1207.94
472.216	1178.94
472.435	1093.94
472.654	1112.94
472.873	1141.94
473.092	1163.94
473.311	1145.94
473.53	1103.94
473.749	1134.94
473.968	1190.94
474.187	1174.94
474.406	1212.94
474.625	1223.94
474.844	1192.94
475.063	1218.94
475.282	1246.94
475.501	1169.94
475.72	1210.94
475.939	1274.94
476.158	1212.94
476.377	1208.94
476.596	1189.94
476.814	1183.94
477.033	1220.94
477.252	1251.94
477.471	1284.94
477.69	1251.94
477.908	1258.94
478.127	1346.94
478.346	1405.94
478.564	1373.94
478.783	1384.94
479.002	1425.94
479.22	1419.94
479.439	1473.94
479.658	1565.94
479.876	1494.94
480.095	1335.94
480.313	1315.94
480.532	1262.94
480.751	1275.94
480.969	1266.94
481.188	1256.94
481.406	1250.94
481.624	1229.94
481.843	1248.94
482.061	1268.94
482.28	1289.94
482.498	1330.94
482.717	1303.94
482.935	1305.94
483.153	1339.94
483.372	1340.94
483.59	1323.94
483.808	1349.94
484.027	1357.94
484.245	1432.94
484.463	1706.94
484.681	1814.94
484.9	1444.94
485.118	1330.94
485.336	1323.94
485.554	1330.94
485.772	1390.94
485.99	1342.94
486.209	1364.94
486.427	1376.94
486.645	1383.94
486.863	1394.94
487.081	1453.94
487.299	1433.94
487.517	1417.94
487.735	1454.94
487.953	1469.94
488.171	1461.94
488.389	1440.94
488.607	1439.94
488.825	1585.94
489.043	1546.94
489.261	1403.94
489.479	1466.94
489.696	1466.94
489.914	1435.94
490.132	1413.94
490.35	1391.94
490.568	1499.94
490.786	1469.94
491.003	1453.94
491.221	1532.94
491.439	1534.94
491.657	1589.94
491.874	1601.94
492.092	1617.94
492.31	1666.94
492.527	1659.94
492.745	1599.94
492.963	1539.94
493.18	1627.94
493.398	1660.94
493.615	1683.94
493.833	1549.94
