Data from WStandard_LampEnergy5.5LIBS07252019.E.O._I.C._HRD10591_16-06-32-920.txt Node
Date: Thu Jul 25 16:06:32 EDT 2019
User: cochatt
Spectrometer: HR+D1059
Trigger mode: 1
Integration Time (sec): 1.000000E-1
Scans to average: 1
Electric dark correction enabled: true
Nonlinearity correction enabled: false
Boxcar width: 0
XAxis mode: Wavelengths
Number of Pixels in Spectrum: 2048
>>>>>Begin Spectral Data<<<<<
223.165	-23.69
223.4	-23.69
223.635	-23.69
223.869	-26.69
224.104	-18.69
224.338	-21.69
224.573	-11.69
224.808	-11.69
225.042	3.31
225.277	-0.69
225.511	-18.69
225.746	4.31
225.98	8.31
226.215	16.31
226.449	17.31
226.683	26.31
226.918	36.31
227.152	21.31
227.387	47.31
227.621	36.31
227.856	64.31
228.09	45.31
228.324	60.31
228.559	62.31
228.793	139.31
229.027	351.31
229.262	372.31
229.496	364.31
229.73	400.31
229.964	437.31
230.199	460.31
230.433	459.31
230.667	486.31
230.901	532.31
231.136	486.31
231.37	448.31
231.604	444.31
231.838	477.31
232.072	464.31
232.306	436.31
232.541	456.31
232.775	542.31
233.009	582.31
233.243	556.31
233.477	534.31
233.711	547.31
233.945	566.31
234.179	549.31
234.413	583.31
234.647	601.31
234.881	581.31
235.115	545.31
235.349	528.31
235.583	576.31
235.817	559.31
236.051	515.31
236.285	532.31
236.519	594.31
236.753	649.31
236.987	658.31
237.221	656.31
237.455	745.31
237.689	717.31
237.922	673.31
238.156	652.31
238.39	662.31
238.624	690.31
238.858	720.31
239.091	720.31
239.325	794.31
239.559	889.31
239.793	934.31
240.027	1021.31
240.26	977.31
240.494	737.31
240.728	680.31
240.961	711.31
241.195	712.31
241.429	818.31
241.662	823.31
241.896	721.31
242.13	755.31
242.363	840.31
242.597	869.31
242.83	843.31
243.064	860.31
243.298	948.31
243.531	896.31
243.765	904.31
243.998	902.31
244.232	777.31
244.465	743.31
244.699	774.31
244.932	866.31
245.166	1016.31
245.399	952.31
245.633	887.31
245.866	860.31
246.099	889.31
246.333	928.31
246.566	933.31
246.8	1006.31
247.033	1166.31
247.266	1042.31
247.5	1012.31
247.733	1026.31
247.966	1092.31
248.2	1220.31
248.433	1142.31
248.666	1193.31
248.899	1286.31
249.133	1471.31
249.366	1701.31
249.599	1399.31
249.832	1218.31
250.066	1232.31
250.299	1261.31
250.532	1173.31
250.765	1051.31
250.998	1098.31
251.231	1178.31
251.465	1208.31
251.698	1153.31
251.931	1160.31
252.164	1158.31
252.397	1230.31
252.63	1198.31
252.863	1061.31
253.096	1024.31
253.329	1092.31
253.562	1120.31
253.795	1256.31
254.028	1202.31
254.261	1137.31
254.494	1139.31
254.727	1054.31
254.96	1111.31
255.193	1226.31
255.426	1347.31
255.659	1603.31
255.892	1640.31
256.124	1373.31
256.357	1274.31
256.59	1361.31
256.823	1387.31
257.056	1349.31
257.289	1647.31
257.521	1824.31
257.754	1657.31
257.987	1575.31
258.22	1715.31
258.452	1655.31
258.685	1378.31
258.918	1344.31
259.151	1361.31
259.383	1277.31
259.616	1152.31
259.849	1212.31
260.081	1339.31
260.314	1520.31
260.547	1618.31
260.779	1648.31
261.012	1532.31
261.244	1400.31
261.477	1315.31
261.71	1363.31
261.942	1345.31
262.175	1318.31
262.407	1412.31
262.64	1368.31
262.872	1243.31
263.105	1202.31
263.337	1253.31
263.57	1260.31
263.802	1246.31
264.035	1189.31
264.267	1131.31
264.499	1086.31
264.732	1154.31
264.964	1236.31
265.197	1274.31
265.429	1312.31
265.661	1517.31
265.894	1652.31
266.126	1717.31
266.358	1545.31
266.591	1594.31
266.823	1717.31
267.055	1549.31
267.287	1501.31
267.52	1533.31
267.752	1540.31
267.984	1540.31
268.216	1548.31
268.448	1575.31
268.681	1574.31
268.913	1460.31
269.145	1368.31
269.377	1348.31
269.609	1414.31
269.841	1660.31
270.073	1919.31
270.306	2157.31
270.538	2333.31
270.77	1944.31
271.002	1644.31
271.234	1588.31
271.466	1576.31
271.698	1734.31
271.93	2132.31
272.162	2128.31
272.394	1890.31
272.626	1833.31
272.858	1631.31
273.09	1368.31
273.322	1378.31
273.553	1344.31
273.785	1356.31
274.017	1400.31
274.249	1496.31
274.481	1515.31
274.713	1378.31
274.945	1349.31
275.176	1332.31
275.408	1329.31
275.64	1282.31
275.872	1295.31
276.104	1416.31
276.335	1569.31
276.567	1826.31
276.799	1866.31
277.031	1640.31
277.262	1495.31
277.494	1570.31
277.726	1774.31
277.957	1761.31
278.189	1624.31
278.421	1460.31
278.652	1430.31
278.884	1399.31
279.115	1393.31
279.347	1432.31
279.579	1414.31
279.81	1412.31
280.042	1560.31
280.273	1716.31
280.505	1694.31
280.736	1746.31
280.968	1694.31
281.199	1447.31
281.431	1353.31
281.662	1386.31
281.894	1402.31
282.125	1428.31
282.356	1486.31
282.588	1490.31
282.819	1425.31
283.051	1578.31
283.282	1697.31
283.513	1676.31
283.745	1439.31
283.976	1323.31
284.207	1355.31
284.439	1442.31
284.67	1407.31
284.901	1436.31
285.132	1500.31
285.364	1460.31
285.595	1486.31
285.826	1450.31
286.057	1461.31
286.288	1441.31
286.52	1490.31
286.751	1568.31
286.982	1656.31
287.213	1551.31
287.444	1428.31
287.675	1354.31
287.906	1440.31
288.138	1532.31
288.369	1531.31
288.6	1457.31
288.831	1390.31
289.062	1398.31
289.293	1452.31
289.524	1472.31
289.755	1479.31
289.986	1480.31
290.217	1394.31
290.448	1397.31
290.679	1466.31
290.91	1477.31
291.141	1504.31
291.371	1573.31
291.602	1547.31
291.833	1481.31
292.064	1588.31
292.295	1549.31
292.526	1588.31
292.757	1676.31
292.987	1582.31
293.218	1479.31
293.449	1606.31
293.68	1831.31
293.91	1967.31
294.141	1816.31
294.372	1645.31
294.603	1732.31
294.833	1792.31
295.064	1704.31
295.295	1524.31
295.525	1517.31
295.756	1433.31
295.987	1354.31
296.217	1389.31
296.448	1405.31
296.679	1428.31
296.909	1422.31
297.14	1426.31
297.37	1406.31
297.601	1531.31
297.831	1634.31
298.062	1662.31
298.292	1508.31
298.523	1449.31
298.753	1458.31
298.984	1474.31
299.214	1481.31
299.445	1458.31
299.675	1527.31
299.905	1524.31
300.136	1473.31
300.366	1478.31
300.597	1438.31
300.827	1444.31
301.057	1459.31
301.288	1549.31
301.518	1560.31
301.748	1559.31
301.979	1647.31
302.209	1683.31
302.439	1770.31
302.669	1884.31
302.9	1752.31
303.13	1573.31
303.36	1556.31
303.59	1612.31
303.82	1553.31
304.051	1562.31
304.281	1559.31
304.511	1573.31
304.741	1636.31
304.971	1792.31
305.201	1982.31
305.431	1887.31
305.661	1524.31
305.891	1418.31
306.121	1332.31
306.352	1428.31
306.582	1508.31
306.812	1616.31
307.042	1734.31
307.272	1750.31
307.502	1793.31
307.731	1917.31
307.961	2092.31
308.191	1908.31
308.421	1646.31
308.651	1518.31
308.881	1516.31
309.111	1544.31
309.341	1500.31
309.571	1484.31
309.8	1476.31
310.03	1512.31
310.26	1525.31
310.49	1486.31
310.72	1523.31
310.949	1608.31
311.179	1645.31
311.409	1613.31
311.639	1516.31
311.868	1491.31
312.098	1512.31
312.328	1510.31
312.557	1534.31
312.787	1544.31
313.017	1582.31
313.246	1585.31
313.476	1566.31
313.706	1640.31
313.935	1582.31
314.165	1633.31
314.394	1621.31
314.624	1759.31
314.853	1840.31
315.083	1871.31
315.312	1981.31
315.542	1834.31
315.771	1659.31
316.001	1644.31
316.23	1735.31
316.46	1700.31
316.689	1690.31
316.919	1584.31
317.148	1573.31
317.377	1546.31
317.607	1654.31
317.836	1872.31
318.065	1930.31
318.295	1872.31
318.524	1814.31
318.753	1698.31
318.983	1702.31
319.212	1666.31
319.441	1645.31
319.67	1624.31
319.9	1652.31
320.129	1716.31
320.358	1848.31
320.587	1868.31
320.816	1855.31
321.046	1798.31
321.275	1686.31
321.504	1741.31
321.733	1844.31
321.962	1824.31
322.191	1645.31
322.42	1660.31
322.649	1656.31
322.878	1668.31
323.108	1639.31
323.337	1712.31
323.566	1704.31
323.795	1722.31
324.024	1708.31
324.253	1715.31
324.482	1746.31
324.71	1649.31
324.939	1576.31
325.168	1622.31
325.397	1626.31
325.626	1710.31
325.855	1682.31
326.084	1649.31
326.313	1665.31
326.542	1692.31
326.77	1703.31
326.999	1738.31
327.228	1681.31
327.457	1579.31
327.686	1585.31
327.914	1593.31
328.143	1639.31
328.372	1636.31
328.6	1674.31
328.829	1667.31
329.058	1600.31
329.287	1594.31
329.515	1672.31
329.744	1688.31
329.972	1758.31
330.201	1820.31
330.43	1804.31
330.658	1757.31
330.887	1744.31
331.115	1717.31
331.344	1744.31
331.572	1737.31
331.801	1688.31
332.03	1701.31
332.258	1769.31
332.486	1757.31
332.715	1757.31
332.943	1813.31
333.172	1713.31
333.4	1764.31
333.629	1808.31
333.857	1926.31
334.085	2070.31
334.314	2351.31
334.542	2634.31
334.771	2432.31
334.999	2120.31
335.227	2017.31
335.455	1891.31
335.684	1860.31
335.912	1888.31
336.14	2008.31
336.369	1924.31
336.597	1820.31
336.825	1785.31
337.053	1844.31
337.281	1873.31
337.51	2014.31
337.738	2087.31
337.966	2009.31
338.194	1852.31
338.422	1747.31
338.65	1734.31
338.878	1700.31
339.106	1691.31
339.334	1661.31
339.562	1656.31
339.79	1641.31
340.018	1809.31
340.246	1857.31
340.474	1895.31
340.702	1803.31
340.93	1785.31
341.158	1780.31
341.386	1766.31
341.614	1719.31
341.842	1726.31
342.07	1736.31
342.298	1743.31
342.526	1717.31
342.754	1765.31
342.981	1700.31
343.209	1686.31
343.437	1678.31
343.665	1719.31
343.893	1756.31
344.12	1855.31
344.348	1860.31
344.576	1857.31
344.804	1726.31
345.031	1728.31
345.259	1775.31
345.487	1679.31
345.714	1653.31
345.942	1583.31
346.17	1592.31
346.397	1675.31
346.625	1657.31
346.853	1580.31
347.08	1517.31
347.308	1554.31
347.535	1584.31
347.763	1648.31
347.99	1660.31
348.218	1540.31
348.445	1555.31
348.673	1565.31
348.9	1648.31
349.128	1691.31
349.355	1758.31
349.583	1687.31
349.81	1617.31
350.037	1508.31
350.265	1540.31
350.492	1526.31
350.72	1507.31
350.947	1633.31
351.174	1631.31
351.402	1583.31
351.629	1508.31
351.856	1478.31
352.083	1475.31
352.311	1526.31
352.538	1530.31
352.765	1615.31
352.992	1686.31
353.22	1581.31
353.447	1552.31
353.674	1537.31
353.901	1608.31
354.128	1531.31
354.355	1548.31
354.583	1642.31
354.81	1663.31
355.037	1639.31
355.264	1664.31
355.491	1614.31
355.718	1608.31
355.945	1596.31
356.172	1584.31
356.399	1568.31
356.626	1531.31
356.853	1557.31
357.08	1678.31
357.307	1855.31
357.534	1900.31
357.761	1637.31
357.988	1529.31
358.215	1481.31
358.441	1552.31
358.668	1479.31
358.895	1522.31
359.122	1629.31
359.349	1759.31
359.576	1795.31
359.802	1609.31
360.029	1557.31
360.256	1526.31
360.483	1550.31
360.709	1578.31
360.936	1606.31
361.163	1665.31
361.39	1878.31
361.616	1986.31
361.843	1949.31
362.07	1818.31
362.296	1612.31
362.523	1566.31
362.749	1570.31
362.976	1592.31
363.203	1622.31
363.429	1579.31
363.656	1542.31
363.882	1570.31
364.109	1752.31
364.335	1896.31
364.562	1772.31
364.788	1702.31
365.015	1596.31
365.241	1562.31
365.468	1600.31
365.694	1643.31
365.92	1749.31
366.147	1672.31
366.373	1552.31
366.599	1521.31
366.826	1478.31
367.052	1551.31
367.278	1592.31
367.505	1589.31
367.731	1617.31
367.957	1604.31
368.184	1668.31
368.41	1732.31
368.636	1745.31
368.862	1775.31
369.089	1792.31
369.315	1718.31
369.541	1652.31
369.767	1616.31
369.993	1564.31
370.219	1549.31
370.445	1582.31
370.672	1682.31
370.898	1772.31
371.124	1757.31
371.35	1673.31
371.576	1719.31
371.802	1767.31
372.028	1686.31
372.254	1622.31
372.48	1573.31
372.706	1593.31
372.932	1569.31
373.158	1617.31
373.384	1665.31
373.61	1694.31
373.835	1774.31
374.061	1708.31
374.287	1668.31
374.513	1672.31
374.739	1655.31
374.965	1684.31
375.191	1708.31
375.416	1693.31
375.642	1704.31
375.868	1766.31
376.094	1831.31
376.319	1775.31
376.545	1671.31
376.771	1666.31
376.997	1800.31
377.222	1750.31
377.448	1682.31
377.674	1747.31
377.899	1759.31
378.125	1766.31
378.35	1830.31
378.576	1679.31
378.802	1566.31
379.027	1614.31
379.253	1617.31
379.478	1652.31
379.704	1620.31
379.929	1622.31
380.155	1640.31
380.38	1658.31
380.606	1676.31
380.831	1682.31
381.057	1721.31
381.282	1793.31
381.507	1706.31
381.733	1816.31
381.958	1900.31
382.184	1760.31
382.409	1690.31
382.634	1742.31
382.86	1718.31
383.085	1722.31
383.31	1748.31
383.535	1897.31
383.761	1988.31
383.986	1915.31
384.211	1839.31
384.436	1849.31
384.662	1933.31
384.887	1992.31
385.112	1915.31
385.337	1934.31
385.562	1902.31
385.787	1916.31
386.013	1920.31
386.238	1991.31
386.463	1938.31
386.688	2050.31
386.913	2133.31
387.138	2121.31
387.363	1910.31
387.588	1969.31
387.813	1932.31
388.038	1965.31
388.263	1966.31
388.488	1976.31
388.713	1814.31
388.938	1853.31
389.163	1855.31
389.387	1865.31
389.612	1875.31
389.837	1917.31
390.062	1920.31
390.287	1896.31
390.512	1880.31
390.736	1876.31
390.961	1837.31
391.186	1831.31
391.411	1829.31
391.636	1882.31
391.86	1957.31
392.085	1892.31
392.31	1847.31
392.534	1892.31
392.759	1914.31
392.984	1927.31
393.208	1955.31
393.433	2025.31
393.658	2171.31
393.882	2076.31
394.107	1922.31
394.331	1885.31
394.556	1860.31
394.78	1904.31
395.005	1983.31
395.229	2016.31
395.454	2175.31
395.678	2196.31
395.903	2070.31
396.127	1989.31
396.352	1962.31
396.576	2028.31
396.801	2063.31
397.025	2097.31
397.249	2123.31
397.474	2056.31
397.698	2009.31
397.922	2064.31
398.147	2180.31
398.371	2277.31
398.595	2312.31
398.82	2178.31
399.044	2267.31
399.268	2304.31
399.492	2455.31
399.717	2561.31
399.941	2586.31
400.165	2520.31
400.389	2446.31
400.613	2402.31
400.837	2560.31
401.062	2914.31
401.286	2588.31
401.51	2312.31
401.734	2449.31
401.958	2417.31
402.182	2206.31
402.406	2130.31
402.63	2133.31
402.854	2137.31
403.078	2195.31
403.302	2237.31
403.526	2255.31
403.75	2250.31
403.974	2257.31
404.198	2255.31
404.422	2304.31
404.645	2399.31
404.869	2429.31
405.093	2259.31
405.317	2176.31
405.541	2297.31
405.765	2254.31
405.988	2248.31
406.212	2315.31
406.436	2370.31
406.66	2399.31
406.883	2404.31
407.107	2648.31
407.331	2929.31
407.555	3086.31
407.778	2855.31
408.002	2505.31
408.226	2388.31
408.449	2380.31
408.673	2302.31
408.896	2322.31
409.12	2350.31
409.344	2286.31
409.567	2207.31
409.791	2330.31
410.014	2354.31
410.238	2390.31
410.461	2532.31
410.685	2300.31
410.908	2186.31
411.132	2232.31
411.355	2234.31
411.578	2210.31
411.802	2184.31
412.025	2217.31
412.249	2190.31
412.472	2099.31
412.695	2136.31
412.919	2134.31
413.142	2098.31
413.365	2131.31
413.589	2203.31
413.812	2292.31
414.035	2358.31
414.258	2139.31
414.482	2114.31
414.705	2199.31
414.928	2140.31
415.151	2114.31
415.374	2192.31
415.597	2236.31
415.821	2169.31
416.044	2271.31
416.267	2253.31
416.49	2146.31
416.713	2064.31
416.936	2101.31
417.159	2178.31
417.382	2266.31
417.605	2134.31
417.828	2141.31
418.051	2233.31
418.274	2142.31
418.497	2091.31
418.72	2082.31
418.943	2100.31
419.166	2199.31
419.389	2346.31
419.611	2205.31
419.834	2137.31
420.057	2200.31
420.28	2093.31
420.503	2058.31
420.726	2109.31
420.948	2121.31
421.171	2044.31
421.394	2104.31
421.617	2150.31
421.839	2151.31
422.062	2097.31
422.285	2050.31
422.507	2058.31
422.73	2021.31
422.953	2007.31
423.175	1990.31
423.398	2052.31
423.621	2062.31
423.843	2064.31
424.066	2139.31
424.288	2189.31
424.511	2180.31
424.733	2223.31
424.956	2020.31
425.178	1988.31
425.401	1991.31
425.623	2013.31
425.846	2038.31
426.068	2109.31
426.291	2148.31
426.513	2118.31
426.735	2094.31
426.958	2218.31
427.18	2360.31
427.402	2168.31
427.625	2213.31
427.847	2218.31
428.069	2136.31
428.292	2072.31
428.514	1980.31
428.736	1975.31
428.958	1979.31
429.181	1992.31
429.403	2257.31
429.625	2759.31
429.847	2440.31
430.069	2090.31
430.292	2166.31
430.514	2338.31
430.736	2189.31
430.958	2271.31
431.18	2147.31
431.402	2037.31
431.624	2002.31
431.846	2012.31
432.068	1960.31
432.29	2005.31
432.512	2005.31
432.734	2060.31
432.956	2073.31
433.178	2188.31
433.4	2104.31
433.622	2193.31
433.844	2040.31
434.066	1965.31
434.287	2007.31
434.509	2044.31
434.731	2192.31
434.953	2319.31
435.175	2292.31
435.397	2138.31
435.618	2134.31
435.84	2157.31
436.062	2082.31
436.284	2065.31
436.505	2076.31
436.727	2180.31
436.949	2087.31
437.17	2052.31
437.392	2004.31
437.614	2039.31
437.835	1974.31
438.057	2143.31
438.278	2208.31
438.5	2076.31
438.721	1978.31
438.943	2020.31
439.165	2026.31
439.386	1957.31
439.608	1974.31
439.829	1985.31
440.05	2035.31
440.272	1997.31
440.493	1980.31
440.715	2003.31
440.936	2102.31
441.158	2379.31
441.379	2301.31
441.6	2232.31
441.822	2186.31
442.043	2171.31
442.264	2116.31
442.486	1976.31
442.707	1992.31
442.928	1977.31
443.149	2089.31
443.371	2188.31
443.592	2248.31
443.813	2236.31
444.034	2182.31
444.255	2192.31
444.476	2259.31
444.698	2326.31
444.919	2276.31
445.14	2352.31
445.361	2354.31
445.582	2417.31
445.803	2292.31
446.024	2177.31
446.245	2306.31
446.466	2225.31
446.687	2136.31
446.908	2138.31
447.129	2037.31
447.35	2122.31
447.571	2098.31
447.792	1980.31
448.013	1936.31
448.234	2045.31
448.455	2087.31
448.675	2097.31
448.896	1910.31
449.117	1878.31
449.338	2000.31
449.559	2055.31
449.779	2174.31
450	2377.31
450.221	2582.31
450.442	2472.31
450.662	2182.31
450.883	1899.31
451.104	1824.31
451.324	1957.31
451.545	2007.31
451.766	1968.31
451.986	1902.31
452.207	1908.31
452.428	1820.31
452.648	1800.31
452.869	1826.31
453.089	1964.31
453.31	1974.31
453.53	2046.31
453.751	1956.31
453.971	1808.31
454.192	1856.31
454.412	2012.31
454.633	1937.31
454.853	1834.31
455.073	1736.31
455.294	1749.31
455.514	1742.31
455.734	1743.31
455.955	1832.31
456.175	1803.31
456.395	1808.31
456.616	1854.31
456.836	1925.31
457.056	1841.31
457.276	1830.31
457.497	1808.31
457.717	1722.31
457.937	1756.31
458.157	1810.31
458.377	1796.31
458.598	1792.31
458.818	1801.31
459.038	1886.31
459.258	2058.31
459.478	2020.31
459.698	2006.31
459.918	1997.31
460.138	2121.31
460.358	2169.31
460.578	2146.31
460.798	2248.31
461.018	2398.31
461.238	2228.31
461.458	2135.31
461.678	2179.31
461.898	2157.31
462.118	2065.31
462.338	2170.31
462.558	2165.31
462.777	2159.31
462.997	2247.31
463.217	2410.31
463.437	2371.31
463.657	2232.31
463.876	2200.31
464.096	2178.31
464.316	2111.31
464.536	2256.31
464.755	2250.31
464.975	2265.31
465.195	2180.31
465.414	2309.31
465.634	2266.31
465.854	2149.31
466.073	2273.31
466.293	2277.31
466.512	1986.31
466.732	1962.31
466.951	2050.31
467.171	2044.31
467.391	1950.31
467.61	1924.31
467.829	1938.31
468.049	2089.31
468.268	2316.31
468.488	2181.31
468.707	2041.31
468.927	1995.31
469.146	2006.31
469.365	1961.31
469.585	1979.31
469.804	1952.31
470.023	1970.31
470.243	2020.31
470.462	1943.31
470.681	1919.31
470.901	1963.31
471.12	1973.31
471.339	1953.31
471.558	1910.31
471.777	1898.31
471.997	1896.31
472.216	1890.31
472.435	1805.31
472.654	1894.31
472.873	1962.31
473.092	2150.31
473.311	2016.31
473.53	1908.31
473.749	1849.31
473.968	1951.31
474.187	2064.31
474.406	2161.31
474.625	2057.31
474.844	2010.31
475.063	1982.31
475.282	2027.31
475.501	2021.31
475.72	2019.31
475.939	2122.31
476.158	2047.31
476.377	2005.31
476.596	1996.31
476.814	2084.31
477.033	2069.31
477.252	2135.31
477.471	2230.31
477.69	2107.31
477.908	2106.31
478.127	2193.31
478.346	2364.31
478.564	2432.31
478.783	2373.31
479.002	2441.31
479.22	2364.31
479.439	2459.31
479.658	2740.31
479.876	2751.31
480.095	2405.31
480.313	2294.31
480.532	2180.31
480.751	2202.31
480.969	2263.31
481.188	2247.31
481.406	2204.31
481.624	2124.31
481.843	2111.31
482.061	2229.31
482.28	2256.31
482.498	2311.31
482.717	2298.31
482.935	2170.31
483.153	2171.31
483.372	2225.31
483.59	2158.31
483.808	2216.31
484.027	2234.31
484.245	2370.31
484.463	2715.31
484.681	3080.31
484.9	2398.31
485.118	2249.31
485.336	2208.31
485.554	2365.31
485.772	2446.31
485.99	2374.31
486.209	2369.31
486.427	2363.31
486.645	2313.31
486.863	2313.31
487.081	2377.31
487.299	2398.31
