Data from WStandard_LampEnergy5.5LIBS07252019.E.O._I.C._HRD10591_16-06-47-921.txt Node
Date: Thu Jul 25 16:06:47 EDT 2019
User: cochatt
Spectrometer: HR+D1059
Trigger mode: 1
Integration Time (sec): 1.000000E-1
Scans to average: 1
Electric dark correction enabled: true
Nonlinearity correction enabled: false
Boxcar width: 0
XAxis mode: Wavelengths
Number of Pixels in Spectrum: 2048
>>>>>Begin Spectral Data<<<<<
223.165	-20
223.4	-20
223.635	-20
223.869	-24
224.104	-24
224.338	-24
224.573	-14
224.808	0
225.042	5
225.277	-11
225.511	4
225.746	8
225.98	10
226.215	18
226.449	12
226.683	20
226.918	17
227.152	23
227.387	33
227.621	36
227.856	36
228.09	33
228.324	37
228.559	58
228.793	128
229.027	347
229.262	388
229.496	394
229.73	392
229.964	442
230.199	457
230.433	458
230.667	488
230.901	552
231.136	501
231.37	488
231.604	454
231.838	461
232.072	489
232.306	456
232.541	477
232.775	575
233.009	633
233.243	594
233.477	521
233.711	550
233.945	572
234.179	562
234.413	606
234.647	650
234.881	596
235.115	551
235.349	558
235.583	573
235.817	553
236.051	527
236.285	559
236.519	598
236.753	672
236.987	684
237.221	679
237.455	784
237.689	759
237.922	678
238.156	641
238.39	692
238.624	700
238.858	732
239.091	776
239.325	816
239.559	960
239.793	976
240.027	1070
240.26	1057
240.494	754
240.728	735
240.961	734
241.195	746
241.429	827
241.662	853
241.896	766
242.13	803
242.363	864
242.597	922
242.83	912
243.064	899
243.298	982
243.531	943
243.765	918
243.998	942
244.232	817
244.465	776
244.699	793
244.932	924
245.166	1093
245.399	1025
245.633	905
245.866	898
246.099	944
246.333	965
246.566	952
246.8	1056
247.033	1198
247.266	1124
247.5	1054
247.733	1081
247.966	1126
248.2	1262
248.433	1210
248.666	1224
248.899	1352
249.133	1550
249.366	1783
249.599	1472
249.832	1299
250.066	1300
250.299	1341
250.532	1214
250.765	1120
250.998	1152
251.231	1231
251.465	1266
251.698	1215
251.931	1197
252.164	1200
252.397	1290
252.63	1278
252.863	1124
253.096	1107
253.329	1130
253.562	1202
253.795	1333
254.028	1316
254.261	1206
254.494	1209
254.727	1137
254.96	1152
255.193	1253
255.426	1437
255.659	1675
255.892	1733
256.124	1409
256.357	1324
256.59	1432
256.823	1488
257.056	1402
257.289	1729
257.521	1952
257.754	1722
257.987	1612
258.22	1851
258.452	1758
258.685	1409
258.918	1392
259.151	1389
259.383	1362
259.616	1192
259.849	1240
260.081	1396
260.314	1578
260.547	1714
260.779	1759
261.012	1632
261.244	1469
261.477	1377
261.71	1430
261.942	1441
262.175	1382
262.407	1445
262.64	1415
262.872	1327
263.105	1277
263.337	1300
263.57	1312
263.802	1317
264.035	1239
264.267	1154
264.499	1144
264.732	1243
264.964	1298
265.197	1375
265.429	1430
265.661	1618
265.894	1784
266.126	1837
266.358	1615
266.591	1687
266.823	1849
267.055	1622
267.287	1604
267.52	1592
267.752	1566
267.984	1547
268.216	1660
268.448	1681
268.681	1667
268.913	1574
269.145	1460
269.377	1427
269.609	1522
269.841	1778
270.073	2081
270.306	2305
270.538	2486
270.77	2085
271.002	1748
271.234	1670
271.466	1668
271.698	1864
271.93	2247
272.162	2273
272.394	2020
272.626	1936
272.858	1722
273.09	1490
273.322	1458
273.553	1402
273.785	1391
274.017	1427
274.249	1596
274.481	1589
274.713	1427
274.945	1418
275.176	1448
275.408	1434
275.64	1388
275.872	1357
276.104	1424
276.335	1698
276.567	1908
276.799	1948
277.031	1733
277.262	1642
277.494	1692
277.726	1918
277.957	1881
278.189	1704
278.421	1585
278.652	1489
278.884	1464
279.115	1513
279.347	1515
279.579	1493
279.81	1456
280.042	1645
280.273	1833
280.505	1780
280.736	1833
280.968	1751
281.199	1544
281.431	1469
281.662	1444
281.894	1453
282.125	1492
282.356	1532
282.588	1573
282.819	1577
283.051	1702
283.282	1781
283.513	1765
283.745	1536
283.976	1410
284.207	1410
284.439	1480
284.67	1503
284.901	1525
285.132	1576
285.364	1550
285.595	1555
285.826	1507
286.057	1559
286.288	1486
286.52	1501
286.751	1684
286.982	1745
287.213	1646
287.444	1480
287.675	1472
287.906	1468
288.138	1657
288.369	1625
288.6	1552
288.831	1474
289.062	1498
289.293	1534
289.524	1504
289.755	1593
289.986	1606
290.217	1457
290.448	1514
290.679	1575
290.91	1548
291.141	1593
291.371	1646
291.602	1624
291.833	1604
292.064	1645
292.295	1642
292.526	1692
292.757	1738
292.987	1681
293.218	1537
293.449	1657
293.68	1935
293.91	2096
294.141	1878
294.372	1768
294.603	1828
294.833	1941
295.064	1853
295.295	1686
295.525	1596
295.756	1476
295.987	1433
296.217	1479
296.448	1514
296.679	1505
296.909	1488
297.14	1530
297.37	1525
297.601	1617
297.831	1721
298.062	1773
298.292	1583
298.523	1508
298.753	1497
298.984	1592
299.214	1559
299.445	1579
299.675	1637
299.905	1645
300.136	1572
300.366	1578
300.597	1457
300.827	1488
301.057	1549
301.288	1656
301.518	1633
301.748	1648
301.979	1748
302.209	1746
302.439	1924
302.669	1957
302.9	1848
303.13	1660
303.36	1630
303.59	1693
303.82	1700
304.051	1600
304.281	1627
304.511	1664
304.741	1740
304.971	1918
305.201	2116
305.431	1967
305.661	1584
305.891	1432
306.121	1430
306.352	1509
306.582	1601
306.812	1716
307.042	1892
307.272	1810
307.502	1862
307.731	1989
307.961	2163
308.191	2048
308.421	1718
308.651	1606
308.881	1571
309.111	1561
309.341	1558
309.571	1577
309.8	1589
310.03	1553
310.26	1572
310.49	1505
310.72	1602
310.949	1654
311.179	1698
311.409	1687
311.639	1638
311.868	1617
312.098	1648
312.328	1628
312.557	1561
312.787	1619
313.017	1690
313.246	1646
313.476	1669
313.706	1717
313.935	1675
314.165	1658
314.394	1741
314.624	1804
314.853	1943
315.083	1999
315.312	2157
315.542	1942
315.771	1713
316.001	1702
316.23	1844
316.46	1803
316.689	1780
316.919	1684
317.148	1634
317.377	1640
317.607	1741
317.836	1999
318.065	2070
318.295	1979
318.524	1894
318.753	1814
318.983	1798
319.212	1750
319.441	1731
319.67	1722
319.9	1756
320.129	1798
320.358	1917
320.587	1978
320.816	1947
321.046	1884
321.275	1789
321.504	1770
321.733	1945
321.962	1916
322.191	1733
322.42	1733
322.649	1715
322.878	1722
323.108	1761
323.337	1812
323.566	1822
323.795	1776
324.024	1829
324.253	1729
324.482	1784
324.71	1731
324.939	1602
325.168	1651
325.397	1710
325.626	1784
325.855	1804
326.084	1712
326.313	1748
326.542	1729
326.77	1774
326.999	1840
327.228	1745
327.457	1652
327.686	1666
327.914	1679
328.143	1740
328.372	1726
328.6	1749
328.829	1731
329.058	1677
329.287	1681
329.515	1745
329.744	1761
329.972	1853
330.201	1906
330.43	1916
330.658	1806
330.887	1794
331.115	1823
331.344	1842
331.572	1798
331.801	1793
332.03	1841
332.258	1827
332.486	1866
332.715	1828
332.943	1866
333.172	1810
333.4	1852
333.629	1895
333.857	1999
334.085	2198
334.314	2457
334.542	2787
334.771	2545
334.999	2185
335.227	2091
335.455	1954
335.684	1959
335.912	1972
336.14	2093
336.369	2001
336.597	1888
336.825	1830
337.053	1948
337.281	2000
337.51	2146
337.738	2205
337.966	2137
338.194	1940
338.422	1852
338.65	1807
338.878	1816
339.106	1761
339.334	1764
339.562	1678
339.79	1729
340.018	1872
340.246	1938
340.474	1930
340.702	1878
340.93	1906
341.158	1838
341.386	1804
341.614	1824
341.842	1805
342.07	1812
342.298	1816
342.526	1882
342.754	1774
342.981	1798
343.209	1773
343.437	1777
343.665	1792
343.893	1817
344.12	1928
344.348	1970
344.576	1891
344.804	1808
345.031	1818
345.259	1835
345.487	1761
345.714	1681
345.942	1633
346.17	1670
346.397	1692
346.625	1735
346.853	1639
347.08	1591
347.308	1596
347.535	1643
347.763	1758
347.99	1696
348.218	1617
348.445	1654
348.673	1656
348.9	1744
349.128	1783
349.355	1842
349.583	1802
349.81	1716
350.037	1553
350.265	1590
350.492	1564
350.72	1635
350.947	1681
351.174	1734
351.402	1661
351.629	1582
351.856	1543
352.083	1549
352.311	1591
352.538	1601
352.765	1688
352.992	1711
353.22	1673
353.447	1598
353.674	1610
353.901	1690
354.128	1621
354.355	1564
354.583	1654
354.81	1717
355.037	1706
355.264	1729
355.491	1665
355.718	1683
355.945	1673
356.172	1608
356.399	1610
356.626	1621
356.853	1652
357.08	1756
357.307	1949
357.534	2048
357.761	1764
357.988	1625
358.215	1554
358.441	1599
358.668	1582
358.895	1584
359.122	1729
359.349	1864
359.576	1878
359.802	1688
360.029	1607
360.256	1573
360.483	1617
360.709	1644
360.936	1737
361.163	1778
361.39	1913
361.616	2109
361.843	2025
362.07	1916
362.296	1695
362.523	1618
362.749	1608
362.976	1691
363.203	1699
363.429	1673
363.656	1589
363.882	1660
364.109	1837
364.335	2021
364.562	1893
364.788	1766
365.015	1667
365.241	1575
365.468	1644
365.694	1733
365.92	1812
366.147	1752
366.373	1603
366.599	1608
366.826	1601
367.052	1586
367.278	1611
367.505	1631
367.731	1698
367.957	1711
368.184	1696
368.41	1828
368.636	1870
368.862	1842
369.089	1871
369.315	1793
369.541	1761
369.767	1705
369.993	1661
370.219	1625
370.445	1692
370.672	1779
370.898	1903
371.124	1887
371.35	1734
371.576	1800
371.802	1914
372.028	1762
372.254	1709
372.48	1691
372.706	1654
372.932	1643
373.158	1679
373.384	1685
373.61	1746
373.835	1884
374.061	1736
374.287	1738
374.513	1708
374.739	1736
374.965	1766
375.191	1788
375.416	1804
375.642	1795
375.868	1875
376.094	1945
376.319	1884
376.545	1742
376.771	1772
376.997	1887
377.222	1846
377.448	1800
377.674	1803
377.899	1829
378.125	1911
378.35	1903
378.576	1719
378.802	1665
379.027	1627
379.253	1710
379.478	1718
379.704	1669
379.929	1726
380.155	1699
380.38	1719
380.606	1796
380.831	1714
381.057	1827
381.282	1860
381.507	1797
381.733	1880
381.958	1987
382.184	1844
382.409	1805
382.634	1844
382.86	1799
383.085	1823
383.31	1820
383.535	1920
383.761	2128
383.986	1999
384.211	1904
384.436	1884
384.662	1999
384.887	2118
385.112	2005
385.337	2011
385.562	1965
385.787	1942
386.013	2058
386.238	2022
386.463	1978
386.688	2106
386.913	2238
387.138	2249
387.363	2036
387.588	2050
387.813	2066
388.038	2023
388.263	2145
388.488	2039
388.713	1916
388.938	1872
389.163	1918
389.387	1937
389.612	1932
389.837	1987
390.062	1999
390.287	2010
390.512	1964
390.736	1925
390.961	1920
391.186	1872
391.411	1914
391.636	1910
391.86	1929
392.085	1926
392.31	1936
392.534	1952
392.759	1973
392.984	1940
393.208	2000
393.433	2066
393.658	2182
393.882	2159
394.107	2012
394.331	1962
394.556	1918
394.78	2002
395.005	2032
395.229	2131
395.454	2275
395.678	2289
395.903	2204
396.127	2079
396.352	2092
396.576	2194
396.801	2224
397.025	2198
397.249	2183
397.474	2140
397.698	2093
397.922	2174
398.147	2219
398.371	2330
398.595	2376
398.82	2252
399.044	2308
399.268	2309
399.492	2535
399.717	2638
399.941	2673
400.165	2633
400.389	2556
400.613	2526
400.837	2693
401.062	3153
401.286	2708
401.51	2438
401.734	2622
401.958	2547
402.182	2352
402.406	2234
402.63	2233
402.854	2201
403.078	2275
403.302	2272
403.526	2357
403.75	2356
403.974	2368
404.198	2320
404.422	2341
404.645	2559
404.869	2498
405.093	2328
405.317	2238
405.541	2367
405.765	2342
405.988	2350
406.212	2370
406.436	2460
406.66	2481
406.883	2552
407.107	2776
407.331	3032
407.555	3265
407.778	3062
408.002	2562
408.226	2457
408.449	2476
408.673	2369
408.896	2432
409.12	2430
409.344	2372
409.567	2333
409.791	2381
410.014	2393
410.238	2489
410.461	2614
410.685	2420
410.908	2271
411.132	2334
411.355	2298
411.578	2275
411.802	2263
412.025	2319
412.249	2301
412.472	2204
412.695	2226
412.919	2258
413.142	2213
413.365	2255
413.589	2332
413.812	2354
414.035	2497
414.258	2285
414.482	2198
414.705	2238
414.928	2204
415.151	2210
415.374	2236
415.597	2246
415.821	2294
416.044	2365
416.267	2361
416.49	2183
416.713	2135
416.936	2256
417.159	2321
417.382	2375
417.605	2186
417.828	2257
418.051	2265
418.274	2256
418.497	2140
418.72	2183
418.943	2180
419.166	2296
419.389	2435
419.611	2243
419.834	2187
420.057	2236
420.28	2138
420.503	2131
420.726	2224
420.948	2216
421.171	2134
421.394	2124
421.617	2246
421.839	2206
422.062	2200
422.285	2114
422.507	2161
422.73	2099
422.953	2048
423.175	2058
423.398	2121
423.621	2194
423.843	2143
424.066	2196
424.288	2278
424.511	2298
424.733	2289
424.956	2102
425.178	2057
425.401	2124
425.623	2100
425.846	2097
426.068	2185
426.291	2266
426.513	2215
426.735	2260
426.958	2321
427.18	2518
427.402	2259
427.625	2359
427.847	2356
428.069	2178
428.292	2118
428.514	2030
428.736	2063
428.958	2072
429.181	2096
429.403	2313
429.625	2938
429.847	2597
430.069	2149
430.292	2338
430.514	2472
430.736	2248
430.958	2401
431.18	2245
431.402	2075
431.624	2056
431.846	2089
432.068	2028
432.29	2050
432.512	2110
432.734	2135
432.956	2173
433.178	2274
433.4	2193
433.622	2260
433.844	2073
434.066	2066
434.287	2051
434.509	2156
434.731	2269
434.953	2393
435.175	2335
435.397	2165
435.618	2238
435.84	2237
436.062	2166
436.284	2211
436.505	2212
436.727	2248
436.949	2175
437.17	2100
437.392	2089
437.614	2138
437.835	2063
438.057	2172
438.278	2284
438.5	2127
438.721	2102
438.943	2108
439.165	2062
439.386	2005
439.608	2079
439.829	2069
440.05	2085
440.272	2041
440.493	2034
440.715	2130
440.936	2178
441.158	2455
441.379	2401
441.6	2326
441.822	2237
442.043	2204
442.264	2186
442.486	2058
442.707	2084
442.928	2007
443.149	2155
443.371	2273
443.592	2370
443.813	2282
444.034	2280
444.255	2310
444.476	2335
444.698	2412
444.919	2330
445.14	2405
445.361	2395
445.582	2512
445.803	2392
446.024	2299
446.245	2421
446.466	2293
446.687	2217
446.908	2202
447.129	2097
447.35	2192
447.571	2140
447.792	2083
448.013	2050
448.234	2071
448.455	2185
448.675	2229
448.896	2028
449.117	1970
449.338	2015
449.559	2103
449.779	2258
450	2493
450.221	2700
450.442	2601
450.662	2288
450.883	2009
451.104	1980
451.324	2008
451.545	2087
451.766	2057
451.986	1942
452.207	1897
452.428	1884
452.648	1865
452.869	1898
453.089	2070
453.31	2092
453.53	2159
453.751	2066
453.971	1886
454.192	1976
454.412	2067
454.633	1991
454.853	1912
455.073	1836
455.294	1823
455.514	1823
455.734	1857
455.955	1902
456.175	1891
456.395	1886
456.616	1929
456.836	1992
457.056	1902
457.276	1931
457.497	1884
457.717	1777
457.937	1867
458.157	1926
458.377	1886
458.598	1848
458.818	1832
459.038	2040
459.258	2120
459.478	2111
459.698	2055
459.918	2095
460.138	2190
460.358	2249
460.578	2245
460.798	2325
461.018	2448
461.238	2352
461.458	2243
461.678	2242
461.898	2189
462.118	2092
462.338	2252
462.558	2188
462.777	2212
462.997	2339
463.217	2507
463.437	2526
463.657	2254
463.876	2239
464.096	2253
464.316	2172
464.536	2312
464.755	2311
464.975	2395
465.195	2203
465.414	2392
465.634	2370
465.854	2264
466.073	2383
466.293	2333
466.512	2083
466.732	2032
466.951	2157
467.171	2140
467.391	2016
467.61	1971
467.829	2012
468.049	2224
468.268	2426
468.488	2300
468.707	2176
468.927	2064
469.146	2040
469.365	2003
469.585	2072
469.804	2024
470.023	2069
470.243	2082
470.462	2076
470.681	1970
470.901	2004
471.12	2000
471.339	2039
471.558	1970
471.777	1944
471.997	1986
472.216	2016
472.435	1927
472.654	1927
472.873	2077
473.092	2168
473.311	2089
473.53	1948
473.749	1951
473.968	2030
474.187	2090
474.406	2266
474.625	2097
474.844	2044
475.063	2054
475.282	2133
475.501	2046
475.72	2052
475.939	2195
476.158	2159
476.377	2061
476.596	2098
476.814	2177
477.033	2141
477.252	2226
477.471	2310
477.69	2201
477.908	2156
478.127	2239
478.346	2433
478.564	2451
478.783	2423
479.002	2545
479.22	2461
479.439	2570
479.658	2868
479.876	2884
480.095	2477
480.313	2375
480.532	2254
480.751	2323
480.969	2368
481.188	2231
481.406	2290
481.624	2209
481.843	2240
482.061	2313
482.28	2318
482.498	2375
482.717	2350
482.935	2197
483.153	2249
483.372	2263
483.59	2266
483.808	2258
484.027	2320
484.245	2449
484.463	2852
484.681	3292
484.9	2535
485.118	2333
485.336	2278
485.554	2403
485.772	2488
485.99	2450
486.209	2508
486.427	2462
486.645	2423
486.863	2409
487.081	2446
487.299	2516
487.517	2488
487.735	2363
487.953	2374
488.171	2331
488.389	2326
488.607	2360
488.825	2622
489.043	2661
489.261	2362
489.479	2465
489.696	2556
489.914	2532
490.132	2448
490.35	2404
490.568	2470
490.786	2434
491.003	2333
491.221	2401
491.439	2485
491.657	2445
491.874	2486
492.092	2464
492.31	2436
492.527	2417
492.745	2395
492.963	2468
493.18	2508
493.398	2686
493.615	2775
493.833	2560
494.05	2471
494.268	2442
494.485	2564
494.703	2486
494.92	2393
495.138	2414
495.355	2483
495.573	2581
495.79	2772
496.008	2754
496.225	2623
496.442	2588
496.66	2673
496.877	2628
497.094	2676
497.312	2707
497.529	2674
497.746	2754
497.963	3228
498.181	3630
498.398	3391
498.615	3328
498.832	3203
499.049	3220
499.267	3128
499.484	3367
499.701	3663
499.918	3642
500.135	3913
500.352	4217
500.569	4129
500.786	4437
501.003	4121
501.22	3741
501.437	3612
501.654	3686
501.871	3561
502.088	3175
502.305	3114
502.522	3036
502.739	2824
502.956	2747
503.172	2750
503.389	2634
503.606	2586
503.823	2640
504.04	2625
504.256	2614
504.473	2626
504.69	2735
504.907	2589
505.123	2433
505.34	2510
505.557	3313
505.773	2897
505.99	2397
506.207	2256
506.423	2239
506.64	2221
506.856	2246
507.073	2519
507.289	2727
507.506	2630
507.722	2257
507.939	2131
508.155	2162
508.372	2212
508.588	2132
508.805	2059
509.021	2070
509.238	2037
509.454	2030
509.67	2008
509.887	1964
510.103	2027
510.319	2067
510.536	2134
510.752	2274
510.968	2205
511.184	2362
511.401	2328
511.617	2064
511.833	1971
512.049	1948
512.265	1941
512.481	1960
512.698	2023
512.914	2174
513.13	2091
513.346	2004
513.562	1969
513.778	1986
513.994	2068
514.21	2198
514.426	2198
514.642	2433
514.858	2255
515.074	2075
515.29	1989
515.506	2098
515.721	2118
515.937	2108
516.153	2420
516.369	2322
516.585	2161
516.801	2061
517.016	2078
517.232	2119
517.448	2199
517.664	2169
517.879	2128
518.095	2308
518.311	2220
518.527	2113
518.742	2072
518.958	1988
519.173	1995
519.389	2053
519.605	2004
519.82	2060
520.036	2087
520.251	2025
520.467	1993
520.682	2213
520.898	2276
521.113	2032
521.329	1958
521.544	2085
521.76	2054
521.975	1922
522.19	1902
522.406	1860
522.621	2306
522.836	2351
523.052	1875
523.267	1916
523.482	1892
523.698	1844
523.913	1774
524.128	1813
524.343	1947
524.559	1985
524.774	1846
524.989	1797
525.204	1840
525.419	1769
525.634	1748
525.849	1798
526.064	1801
526.28	1797
526.495	1781
526.71	1714
526.925	1750
527.14	1756
527.355	1728
527.57	1696
527.785	1750
527.999	1726
528.214	1717
528.429	1639
528.644	1648
528.859	1720
529.074	1705
529.289	1755
529.503	1747
529.718	1740
529.933	1734
530.148	1664
530.363	1653
530.577	1692
530.792	1730
531.007	1765
531.221	1731
531.436	1734
531.651	1810
531.865	1904
532.08	1780
532.295	1665
532.509	1609
532.724	1660
532.938	1760
533.153	1891
533.367	1769
533.582	1695
533.796	1650
534.011	1669
534.225	1742
534.44	1672
534.654	1658
534.868	1673
535.083	1745
535.297	1725
535.511	1671
535.726	1679
535.94	1670
536.154	1630
536.369	1637
536.583	1627
536.797	1606
537.011	1688
537.225	1661
537.44	1587
537.654	1641
537.868	1616
538.082	1586
538.296	1517
538.51	1564
538.724	1542
538.938	1552
539.153	1620
539.367	1618
539.581	1607
539.795	1714
540.009	1671
540.222	1618
540.436	1633
540.65	1804
540.864	1853
541.078	1705
541.292	1591
541.506	1569
541.72	1573
541.934	1631
