Data from WStandard_LampEnergy8_LIBS07252019.E.O._I.C._HRD10591_15-58-53-929.txt Node
Date: Thu Jul 25 15:58:53 EDT 2019
User: cochatt
Spectrometer: HR+D1059
Trigger mode: 1
Integration Time (sec): 1.000000E-1
Scans to average: 1
Electric dark correction enabled: true
Nonlinearity correction enabled: false
Boxcar width: 0
XAxis mode: Wavelengths
Number of Pixels in Spectrum: 2048
>>>>>Begin Spectral Data<<<<<
223.165	-15.75
223.4	-15.75
223.635	-15.75
223.869	-22.75
224.104	-21.75
224.338	-11.75
224.573	-20.75
224.808	-10.75
225.042	-14.75
225.277	-5.75
225.511	0.25
225.746	2.25
225.98	12.25
226.215	9.25
226.449	11.25
226.683	25.25
226.918	21.25
227.152	42.25
227.387	42.25
227.621	38.25
227.856	41.25
228.09	37.25
228.324	48.25
228.559	45.25
228.793	88.25
229.027	206.25
229.262	224.25
229.496	216.25
229.73	231.25
229.964	251.25
230.199	242.25
230.433	260.25
230.667	290.25
230.901	300.25
231.136	273.25
231.37	242.25
231.604	256.25
231.838	261.25
232.072	274.25
232.306	251.25
232.541	278.25
232.775	314.25
233.009	316.25
233.243	321.25
233.477	295.25
233.711	315.25
233.945	328.25
234.179	301.25
234.413	325.25
234.647	349.25
234.881	327.25
235.115	308.25
235.349	320.25
235.583	310.25
235.817	309.25
236.051	286.25
236.285	321.25
236.519	325.25
236.753	361.25
236.987	352.25
237.221	348.25
237.455	386.25
237.689	395.25
237.922	354.25
238.156	365.25
238.39	333.25
238.624	374.25
238.858	388.25
239.091	406.25
239.325	428.25
239.559	492.25
239.793	472.25
240.027	488.25
240.26	479.25
240.494	382.25
240.728	362.25
240.961	392.25
241.195	394.25
241.429	410.25
241.662	413.25
241.896	400.25
242.13	417.25
242.363	438.25
242.597	468.25
242.83	447.25
243.064	438.25
243.298	476.25
243.531	461.25
243.765	475.25
243.998	467.25
244.232	404.25
244.465	413.25
244.699	417.25
244.932	471.25
245.166	505.25
245.399	490.25
245.633	478.25
245.866	439.25
246.099	498.25
246.333	467.25
246.566	524.25
246.8	546.25
247.033	610.25
247.266	539.25
247.5	553.25
247.733	547.25
247.966	581.25
248.2	633.25
248.433	613.25
248.666	628.25
248.899	665.25
249.133	756.25
249.366	840.25
249.599	689.25
249.832	643.25
250.066	613.25
250.299	634.25
250.532	585.25
250.765	532.25
250.998	586.25
251.231	594.25
251.465	614.25
251.698	582.25
251.931	608.25
252.164	597.25
252.397	641.25
252.63	610.25
252.863	542.25
253.096	582.25
253.329	572.25
253.562	605.25
253.795	651.25
254.028	626.25
254.261	572.25
254.494	587.25
254.727	570.25
254.96	588.25
255.193	648.25
255.426	722.25
255.659	810.25
255.892	813.25
256.124	650.25
256.357	667.25
256.59	700.25
256.823	717.25
257.056	721.25
257.289	865.25
257.521	915.25
257.754	832.25
257.987	810.25
258.22	870.25
258.452	816.25
258.685	679.25
258.918	674.25
259.151	693.25
259.383	656.25
259.616	587.25
259.849	609.25
260.081	705.25
260.314	769.25
260.547	829.25
260.779	836.25
261.012	777.25
261.244	723.25
261.477	664.25
261.71	716.25
261.942	704.25
262.175	684.25
262.407	733.25
262.64	668.25
262.872	629.25
263.105	616.25
263.337	660.25
263.57	644.25
263.802	650.25
264.035	621.25
264.267	571.25
264.499	581.25
264.732	632.25
264.964	667.25
265.197	662.25
265.429	707.25
265.661	782.25
265.894	836.25
266.126	886.25
266.358	807.25
266.591	820.25
266.823	888.25
267.055	802.25
267.287	780.25
267.52	774.25
267.752	770.25
267.984	800.25
268.216	793.25
268.448	816.25
268.681	800.25
268.913	717.25
269.145	708.25
269.377	696.25
269.609	770.25
269.841	885.25
270.073	1032.25
270.306	1116.25
270.538	1116.25
270.77	958.25
271.002	861.25
271.234	826.25
271.466	824.25
271.698	945.25
271.93	1088.25
272.162	1048.25
272.394	968.25
272.626	919.25
272.858	837.25
273.09	706.25
273.322	708.25
273.553	663.25
273.785	700.25
274.017	773.25
274.249	756.25
274.481	760.25
274.713	707.25
274.945	727.25
275.176	725.25
275.408	690.25
275.64	683.25
275.872	708.25
276.104	757.25
276.335	858.25
276.567	922.25
276.799	932.25
277.031	841.25
277.262	846.25
277.494	864.25
277.726	932.25
277.957	899.25
278.189	833.25
278.421	746.25
278.652	766.25
278.884	720.25
279.115	731.25
279.347	784.25
279.579	740.25
279.81	740.25
280.042	820.25
280.273	891.25
280.505	892.25
280.736	916.25
280.968	818.25
281.199	757.25
281.431	749.25
281.662	722.25
281.894	755.25
282.125	750.25
282.356	793.25
282.588	797.25
282.819	804.25
283.051	848.25
283.282	889.25
283.513	865.25
283.745	752.25
283.976	735.25
284.207	760.25
284.439	790.25
284.67	737.25
284.901	799.25
285.132	809.25
285.364	794.25
285.595	777.25
285.826	774.25
286.057	761.25
286.288	781.25
286.52	806.25
286.751	888.25
286.982	861.25
287.213	772.25
287.444	752.25
287.675	762.25
287.906	796.25
288.138	827.25
288.369	806.25
288.6	770.25
288.831	740.25
289.062	776.25
289.293	772.25
289.524	771.25
289.755	781.25
289.986	825.25
290.217	784.25
290.448	766.25
290.679	776.25
290.91	814.25
291.141	848.25
291.371	844.25
291.602	854.25
291.833	810.25
292.064	868.25
292.295	802.25
292.526	862.25
292.757	906.25
292.987	843.25
293.218	821.25
293.449	894.25
293.68	991.25
293.91	1046.25
294.141	963.25
294.372	958.25
294.603	952.25
294.833	994.25
295.064	935.25
295.295	848.25
295.525	826.25
295.756	762.25
295.987	729.25
296.217	760.25
296.448	813.25
296.679	804.25
296.909	809.25
297.14	786.25
297.37	792.25
297.601	848.25
297.831	893.25
298.062	892.25
298.292	813.25
298.523	770.25
298.753	780.25
298.984	798.25
299.214	826.25
299.445	829.25
299.675	884.25
299.905	900.25
300.136	810.25
300.366	789.25
300.597	782.25
300.827	781.25
301.057	831.25
301.288	876.25
301.518	851.25
301.748	904.25
301.979	945.25
302.209	946.25
302.439	988.25
302.669	1029.25
302.9	915.25
303.13	873.25
303.36	863.25
303.59	873.25
303.82	876.25
304.051	862.25
304.281	886.25
304.511	899.25
304.741	957.25
304.971	1048.25
305.201	1102.25
305.431	971.25
305.661	842.25
305.891	740.25
306.121	773.25
306.352	803.25
306.582	868.25
306.812	897.25
307.042	970.25
307.272	980.25
307.502	1015.25
307.731	1088.25
307.961	1103.25
308.191	981.25
308.421	915.25
308.651	854.25
308.881	857.25
309.111	820.25
309.341	830.25
309.571	856.25
309.8	855.25
310.03	843.25
310.26	831.25
310.49	846.25
310.72	872.25
310.949	891.25
311.179	924.25
311.409	870.25
311.639	880.25
311.868	856.25
312.098	860.25
312.328	838.25
312.557	858.25
312.787	872.25
313.017	876.25
313.246	863.25
313.476	889.25
313.706	872.25
313.935	905.25
314.165	888.25
314.394	940.25
314.624	990.25
314.853	1058.25
315.083	1059.25
315.312	1060.25
315.542	1026.25
315.771	943.25
316.001	957.25
316.23	987.25
316.46	977.25
316.689	947.25
316.919	878.25
317.148	857.25
317.377	928.25
317.607	972.25
317.836	1076.25
318.065	1089.25
318.295	1048.25
318.524	985.25
318.753	956.25
318.983	958.25
319.212	924.25
319.441	940.25
319.67	937.25
319.9	942.25
320.129	1006.25
320.358	1052.25
320.587	1034.25
320.816	1040.25
321.046	1008.25
321.275	979.25
321.504	1029.25
321.733	1066.25
321.962	1002.25
322.191	962.25
322.42	951.25
322.649	916.25
322.878	936.25
323.108	940.25
323.337	957.25
323.566	984.25
323.795	961.25
324.024	972.25
324.253	940.25
324.482	964.25
324.71	911.25
324.939	891.25
325.168	945.25
325.397	959.25
325.626	973.25
325.855	973.25
326.084	935.25
326.313	946.25
326.542	980.25
326.77	981.25
326.999	996.25
327.228	936.25
327.457	878.25
327.686	892.25
327.914	917.25
328.143	962.25
328.372	946.25
328.6	925.25
328.829	918.25
329.058	922.25
329.287	926.25
329.515	949.25
329.744	975.25
329.972	1036.25
330.201	1038.25
330.43	998.25
330.658	1005.25
330.887	1010.25
331.115	1025.25
331.344	999.25
331.572	983.25
331.801	1008.25
332.03	986.25
332.258	982.25
332.486	1042.25
332.715	1048.25
332.943	1036.25
333.172	989.25
333.4	992.25
333.629	1026.25
333.857	1110.25
334.085	1246.25
334.314	1379.25
334.542	1452.25
334.771	1360.25
334.999	1181.25
335.227	1094.25
335.455	1084.25
335.684	1066.25
335.912	1095.25
336.14	1104.25
336.369	1048.25
336.597	1034.25
336.825	1053.25
337.053	1047.25
337.281	1137.25
337.51	1169.25
337.738	1187.25
337.966	1125.25
338.194	1016.25
338.422	975.25
338.65	968.25
338.878	978.25
339.106	976.25
339.334	949.25
339.562	960.25
339.79	982.25
340.018	1069.25
340.246	1070.25
340.474	1037.25
340.702	1068.25
340.93	1055.25
341.158	1000.25
341.386	1026.25
341.614	992.25
341.842	1030.25
342.07	1007.25
342.298	1013.25
342.526	1019.25
342.754	1006.25
342.981	995.25
343.209	983.25
343.437	998.25
343.665	1000.25
343.893	1030.25
344.12	1072.25
344.348	1046.25
344.576	1015.25
344.804	996.25
345.031	987.25
345.259	996.25
345.487	966.25
345.714	913.25
345.942	923.25
346.17	917.25
346.397	973.25
346.625	936.25
346.853	922.25
347.08	897.25
347.308	904.25
347.535	986.25
347.763	972.25
347.99	946.25
348.218	917.25
348.445	921.25
348.673	946.25
348.9	971.25
349.128	988.25
349.355	1010.25
349.583	983.25
349.81	918.25
350.037	880.25
350.265	856.25
350.492	910.25
350.72	902.25
350.947	939.25
351.174	926.25
351.402	911.25
351.629	866.25
351.856	874.25
352.083	857.25
352.311	880.25
352.538	922.25
352.765	938.25
352.992	962.25
353.22	914.25
353.447	917.25
353.674	909.25
353.901	935.25
354.128	891.25
354.355	941.25
354.583	976.25
354.81	951.25
355.037	952.25
355.264	978.25
355.491	942.25
355.718	932.25
355.945	917.25
356.172	922.25
356.399	896.25
356.626	906.25
356.853	952.25
357.08	1074.25
357.307	1130.25
357.534	1096.25
357.761	969.25
357.988	913.25
358.215	868.25
358.441	894.25
358.668	890.25
358.895	926.25
359.122	996.25
359.349	1065.25
359.576	1011.25
359.802	927.25
360.029	884.25
360.256	882.25
360.483	925.25
360.709	958.25
360.936	1008.25
361.163	1054.25
361.39	1136.25
361.616	1172.25
361.843	1149.25
362.07	1066.25
362.296	913.25
362.523	922.25
362.749	911.25
362.976	952.25
363.203	937.25
363.429	949.25
363.656	886.25
363.882	960.25
364.109	1066.25
364.335	1106.25
364.562	1057.25
364.788	988.25
365.015	930.25
365.241	893.25
365.468	968.25
365.694	1008.25
365.92	1008.25
366.147	960.25
366.373	919.25
366.599	895.25
366.826	898.25
367.052	957.25
367.278	949.25
367.505	951.25
367.731	964.25
367.957	982.25
368.184	1017.25
368.41	1076.25
368.636	1087.25
368.862	1080.25
369.089	1070.25
369.315	1011.25
369.541	1000.25
369.767	932.25
369.993	927.25
370.219	939.25
370.445	965.25
370.672	1056.25
370.898	1092.25
371.124	1080.25
371.35	993.25
371.576	1068.25
371.802	1076.25
372.028	998.25
372.254	972.25
372.48	954.25
372.706	944.25
372.932	955.25
373.158	964.25
373.384	978.25
373.61	1035.25
373.835	1054.25
374.061	983.25
374.287	991.25
374.513	1008.25
374.739	970.25
374.965	1014.25
375.191	1031.25
375.416	1030.25
375.642	1016.25
375.868	1066.25
376.094	1110.25
376.319	1030.25
376.545	1006.25
376.771	1046.25
376.997	1068.25
377.222	1052.25
377.448	1056.25
377.674	1032.25
377.899	1066.25
378.125	1118.25
378.35	1097.25
378.576	998.25
378.802	950.25
379.027	956.25
379.253	983.25
379.478	1008.25
379.704	981.25
379.929	986.25
380.155	1010.25
380.38	1026.25
380.606	1031.25
380.831	1040.25
381.057	1090.25
381.282	1071.25
381.507	1054.25
381.733	1129.25
381.958	1150.25
382.184	1063.25
382.409	1042.25
382.634	1065.25
382.86	1090.25
383.085	1047.25
383.31	1060.25
383.535	1218.25
383.761	1259.25
383.986	1196.25
384.211	1139.25
384.436	1126.25
384.662	1170.25
384.887	1182.25
385.112	1129.25
385.337	1186.25
385.562	1114.25
385.787	1136.25
386.013	1181.25
386.238	1180.25
386.463	1156.25
386.688	1275.25
386.913	1340.25
387.138	1243.25
387.363	1164.25
387.588	1145.25
387.813	1174.25
388.038	1208.25
388.263	1226.25
388.488	1168.25
388.713	1084.25
388.938	1061.25
389.163	1088.25
389.387	1105.25
389.612	1101.25
389.837	1144.25
390.062	1129.25
390.287	1120.25
390.512	1152.25
390.736	1108.25
390.961	1115.25
391.186	1067.25
391.411	1100.25
391.636	1123.25
391.86	1140.25
392.085	1136.25
392.31	1144.25
392.534	1140.25
392.759	1151.25
392.984	1124.25
393.208	1144.25
393.433	1182.25
393.658	1241.25
393.882	1224.25
394.107	1161.25
394.331	1129.25
394.556	1151.25
394.78	1191.25
395.005	1214.25
395.229	1250.25
395.454	1328.25
395.678	1273.25
395.903	1266.25
396.127	1228.25
396.352	1215.25
396.576	1278.25
396.801	1284.25
397.025	1265.25
397.249	1234.25
397.474	1230.25
397.698	1238.25
397.922	1271.25
398.147	1348.25
398.371	1408.25
398.595	1358.25
398.82	1313.25
399.044	1306.25
399.268	1389.25
399.492	1449.25
399.717	1468.25
399.941	1502.25
400.165	1510.25
400.389	1456.25
400.613	1473.25
400.837	1692.25
401.062	1826.25
401.286	1541.25
401.51	1480.25
401.734	1500.25
401.958	1401.25
402.182	1351.25
402.406	1314.25
402.63	1312.25
402.854	1270.25
403.078	1321.25
403.302	1349.25
403.526	1354.25
403.75	1325.25
403.974	1364.25
404.198	1420.25
404.422	1457.25
404.645	1514.25
404.869	1430.25
405.093	1350.25
405.317	1288.25
405.541	1348.25
405.765	1362.25
405.988	1351.25
406.212	1376.25
406.436	1424.25
406.66	1460.25
406.883	1487.25
407.107	1680.25
407.331	1833.25
407.555	1944.25
407.778	1681.25
408.002	1480.25
408.226	1443.25
408.449	1410.25
408.673	1362.25
408.896	1383.25
409.12	1403.25
409.344	1388.25
409.567	1322.25
409.791	1380.25
410.014	1388.25
410.238	1486.25
410.461	1550.25
410.685	1401.25
410.908	1342.25
411.132	1362.25
411.355	1353.25
411.578	1309.25
411.802	1365.25
412.025	1376.25
412.249	1329.25
412.472	1285.25
412.695	1292.25
412.919	1288.25
413.142	1266.25
413.365	1348.25
413.589	1374.25
413.812	1415.25
414.035	1452.25
414.258	1381.25
414.482	1309.25
414.705	1291.25
414.928	1291.25
415.151	1320.25
415.374	1325.25
415.597	1342.25
415.821	1372.25
416.044	1383.25
416.267	1360.25
416.49	1290.25
416.713	1254.25
416.936	1318.25
417.159	1354.25
417.382	1369.25
417.605	1336.25
417.828	1352.25
418.051	1341.25
418.274	1326.25
418.497	1271.25
418.72	1236.25
418.943	1302.25
419.166	1352.25
419.389	1392.25
419.611	1328.25
419.834	1305.25
420.057	1329.25
420.28	1319.25
420.503	1322.25
420.726	1324.25
420.948	1319.25
421.171	1273.25
421.394	1306.25
421.617	1325.25
421.839	1331.25
422.062	1341.25
422.285	1297.25
422.507	1322.25
422.73	1253.25
422.953	1236.25
423.175	1219.25
423.398	1297.25
423.621	1268.25
423.843	1278.25
424.066	1331.25
424.288	1386.25
424.511	1400.25
424.733	1389.25
424.956	1239.25
425.178	1248.25
425.401	1257.25
425.623	1308.25
425.846	1294.25
426.068	1308.25
426.291	1348.25
426.513	1353.25
426.735	1350.25
426.958	1448.25
427.18	1482.25
427.402	1377.25
427.625	1422.25
427.847	1402.25
428.069	1292.25
428.292	1247.25
428.514	1228.25
428.736	1214.25
428.958	1280.25
429.181	1280.25
429.403	1482.25
429.625	1812.25
429.847	1496.25
430.069	1326.25
430.292	1445.25
430.514	1458.25
430.736	1367.25
430.958	1384.25
431.18	1347.25
431.402	1238.25
431.624	1204.25
431.846	1179.25
432.068	1154.25
432.29	1173.25
432.512	1201.25
432.734	1275.25
432.956	1288.25
433.178	1332.25
433.4	1337.25
433.622	1285.25
433.844	1272.25
434.066	1242.25
434.287	1184.25
434.509	1251.25
434.731	1300.25
434.953	1374.25
435.175	1319.25
435.397	1302.25
435.618	1318.25
435.84	1245.25
436.062	1242.25
436.284	1282.25
436.505	1319.25
436.727	1341.25
436.949	1270.25
437.17	1268.25
437.392	1257.25
437.614	1212.25
437.835	1184.25
438.057	1231.25
438.278	1302.25
438.5	1253.25
438.721	1259.25
438.943	1277.25
439.165	1246.25
439.386	1204.25
439.608	1287.25
439.829	1258.25
440.05	1264.25
440.272	1243.25
440.493	1239.25
440.715	1277.25
440.936	1388.25
441.158	1473.25
441.379	1401.25
441.6	1394.25
441.822	1353.25
442.043	1368.25
442.264	1330.25
442.486	1294.25
442.707	1260.25
442.928	1269.25
443.149	1339.25
443.371	1355.25
443.592	1382.25
443.813	1414.25
444.034	1408.25
444.255	1370.25
444.476	1372.25
444.698	1418.25
444.919	1398.25
445.14	1493.25
445.361	1459.25
445.582	1444.25
445.803	1377.25
446.024	1364.25
446.245	1442.25
446.466	1390.25
446.687	1351.25
446.908	1330.25
447.129	1308.25
447.35	1307.25
447.571	1308.25
447.792	1256.25
448.013	1258.25
448.234	1248.25
448.455	1315.25
448.675	1316.25
448.896	1201.25
449.117	1204.25
449.338	1210.25
449.559	1270.25
449.779	1336.25
450	1422.25
450.221	1520.25
450.442	1447.25
450.662	1301.25
450.883	1177.25
451.104	1173.25
451.324	1198.25
451.545	1244.25
451.766	1194.25
451.986	1154.25
452.207	1149.25
452.428	1112.25
452.648	1106.25
452.869	1140.25
453.089	1158.25
453.31	1168.25
453.53	1150.25
453.751	1146.25
453.971	1060.25
454.192	1109.25
454.412	1180.25
454.633	1144.25
454.853	1113.25
455.073	1066.25
455.294	1051.25
455.514	1078.25
455.734	1094.25
455.955	1107.25
456.175	1080.25
456.395	1086.25
456.616	1092.25
456.836	1121.25
457.056	1093.25
457.276	1075.25
457.497	1046.25
457.717	1036.25
457.937	1062.25
458.157	1072.25
458.377	1044.25
458.598	1061.25
458.818	1038.25
459.038	1129.25
459.258	1188.25
459.478	1150.25
459.698	1120.25
459.918	1184.25
460.138	1249.25
460.358	1261.25
460.578	1266.25
460.798	1306.25
461.018	1364.25
461.238	1288.25
461.458	1268.25
461.678	1241.25
461.898	1233.25
462.118	1217.25
462.338	1282.25
462.558	1265.25
462.777	1276.25
462.997	1309.25
463.217	1377.25
463.437	1344.25
463.657	1267.25
463.876	1259.25
464.096	1244.25
464.316	1269.25
464.536	1308.25
464.755	1320.25
464.975	1300.25
465.195	1285.25
465.414	1293.25
465.634	1304.25
465.854	1303.25
466.073	1435.25
466.293	1322.25
466.512	1210.25
466.732	1216.25
466.951	1268.25
467.171	1244.25
467.391	1207.25
467.61	1198.25
467.829	1248.25
468.049	1357.25
468.268	1466.25
468.488	1346.25
468.707	1278.25
468.927	1224.25
469.146	1204.25
469.365	1209.25
469.585	1253.25
469.804	1239.25
470.023	1245.25
470.243	1271.25
470.462	1241.25
470.681	1221.25
470.901	1254.25
471.12	1237.25
471.339	1244.25
471.558	1157.25
471.777	1213.25
471.997	1213.25
472.216	1205.25
472.435	1115.25
472.654	1102.25
472.873	1157.25
473.092	1253.25
473.311	1220.25
473.53	1182.25
473.749	1150.25
473.968	1190.25
474.187	1236.25
474.406	1248.25
474.625	1205.25
474.844	1228.25
475.063	1210.25
475.282	1254.25
475.501	1222.25
475.72	1210.25
475.939	1299.25
476.158	1252.25
476.377	1245.25
476.596	1217.25
476.814	1209.25
477.033	1221.25
477.252	1261.25
477.471	1326.25
477.69	1321.25
477.908	1305.25
478.127	1382.25
478.346	1438.25
478.564	1430.25
478.783	1432.25
479.002	1454.25
479.22	1427.25
479.439	1471.25
479.658	1591.25
479.876	1560.25
480.095	1407.25
480.313	1382.25
480.532	1349.25
480.751	1272.25
480.969	1302.25
481.188	1275.25
481.406	1240.25
481.624	1260.25
481.843	1254.25
482.061	1327.25
482.28	1329.25
482.498	1339.25
482.717	1319.25
482.935	1319.25
483.153	1342.25
483.372	1373.25
483.59	1358.25
483.808	1390.25
484.027	1412.25
484.245	1436.25
484.463	1744.25
484.681	1891.25
484.9	1476.25
485.118	1389.25
485.336	1347.25
485.554	1401.25
485.772	1400.25
485.99	1370.25
486.209	1410.25
486.427	1408.25
486.645	1402.25
486.863	1423.25
487.081	1490.25
487.299	1483.25
487.517	1479.25
487.735	1492.25
487.953	1515.25
488.171	1499.25
488.389	1482.25
488.607	1456.25
488.825	1614.25
489.043	1572.25
489.261	1383.25
489.479	1498.25
489.696	1488.25
489.914	1465.25
490.132	1453.25
490.35	1448.25
490.568	1517.25
490.786	1506.25
491.003	1472.25
491.221	1548.25
491.439	1639.25
491.657	1565.25
491.874	1651.25
492.092	1674.25
492.31	1713.25
492.527	1690.25
492.745	1620.25
492.963	1626.25
493.18	1620.25
493.398	1694.25
