Data from WStandard_LampEnergy10_LIBS07252019.E.O._I.C._HRD10591_15-54-41-929.txt Node
Date: Thu Jul 25 15:54:41 EDT 2019
User: cochatt
Spectrometer: HR+D1059
Trigger mode: 1
Integration Time (sec): 1.000000E-1
Scans to average: 1
Electric dark correction enabled: true
Nonlinearity correction enabled: false
Boxcar width: 0
XAxis mode: Wavelengths
Number of Pixels in Spectrum: 2048
>>>>>Begin Spectral Data<<<<<
223.165	-13.69
223.4	-13.69
223.635	-13.69
223.869	-23.69
224.104	-10.69
224.338	-12.69
224.573	-5.69
224.808	-26.69
225.042	-9.69
225.277	-8.69
225.511	1.31
225.746	8.31
225.98	8.31
226.215	16.31
226.449	11.31
226.683	9.31
226.918	16.31
227.152	40.31
227.387	45.31
227.621	51.31
227.856	26.31
228.09	42.31
228.324	44.31
228.559	53.31
228.793	74.31
229.027	127.31
229.262	135.31
229.496	142.31
229.73	149.31
229.964	161.31
230.199	163.31
230.433	161.31
230.667	195.31
230.901	180.31
231.136	176.31
231.37	171.31
231.604	179.31
231.838	189.31
232.072	182.31
232.306	172.31
232.541	201.31
232.775	204.31
233.009	209.31
233.243	196.31
233.477	199.31
233.711	192.31
233.945	189.31
234.179	201.31
234.413	215.31
234.647	203.31
234.881	206.31
235.115	189.31
235.349	195.31
235.583	198.31
235.817	202.31
236.051	200.31
236.285	191.31
236.519	195.31
236.753	210.31
236.987	225.31
237.221	230.31
237.455	228.31
237.689	214.31
237.922	207.31
238.156	217.31
238.39	211.31
238.624	240.31
238.858	219.31
239.091	241.31
239.325	261.31
239.559	283.31
239.793	282.31
240.027	294.31
240.26	304.31
240.494	242.31
240.728	239.31
240.961	247.31
241.195	228.31
241.429	262.31
241.662	250.31
241.896	252.31
242.13	266.31
242.363	262.31
242.597	293.31
242.83	267.31
243.064	272.31
243.298	265.31
243.531	275.31
243.765	287.31
243.998	277.31
244.232	245.31
244.465	243.31
244.699	263.31
244.932	269.31
245.166	292.31
245.399	298.31
245.633	277.31
245.866	265.31
246.099	283.31
246.333	280.31
246.566	297.31
246.8	306.31
247.033	323.31
247.266	333.31
247.5	311.31
247.733	324.31
247.966	322.31
248.2	363.31
248.433	360.31
248.666	361.31
248.899	381.31
249.133	437.31
249.366	450.31
249.599	389.31
249.832	348.31
250.066	370.31
250.299	371.31
250.532	346.31
250.765	328.31
250.998	324.31
251.231	337.31
251.465	340.31
251.698	356.31
251.931	362.31
252.164	339.31
252.397	354.31
252.63	364.31
252.863	320.31
253.096	320.31
253.329	306.31
253.562	351.31
253.795	370.31
254.028	343.31
254.261	346.31
254.494	333.31
254.727	340.31
254.96	350.31
255.193	360.31
255.426	405.31
255.659	443.31
255.892	438.31
256.124	375.31
256.357	363.31
256.59	404.31
256.823	387.31
257.056	405.31
257.289	481.31
257.521	510.31
257.754	464.31
257.987	433.31
258.22	472.31
258.452	455.31
258.685	383.31
258.918	385.31
259.151	399.31
259.383	375.31
259.616	356.31
259.849	365.31
260.081	392.31
260.314	431.31
260.547	469.31
260.779	457.31
261.012	421.31
261.244	388.31
261.477	391.31
261.71	402.31
261.942	379.31
262.175	402.31
262.407	403.31
262.64	396.31
262.872	369.31
263.105	373.31
263.337	361.31
263.57	374.31
263.802	354.31
264.035	343.31
264.267	349.31
264.499	331.31
264.732	355.31
264.964	388.31
265.197	398.31
265.429	397.31
265.661	461.31
265.894	478.31
266.126	505.31
266.358	471.31
266.591	474.31
266.823	472.31
267.055	451.31
267.287	417.31
267.52	455.31
267.752	447.31
267.984	445.31
268.216	460.31
268.448	465.31
268.681	472.31
268.913	420.31
269.145	418.31
269.377	405.31
269.609	439.31
269.841	501.31
270.073	562.31
270.306	599.31
270.538	593.31
270.77	496.31
271.002	498.31
271.234	475.31
271.466	486.31
271.698	526.31
271.93	603.31
272.162	589.31
272.394	548.31
272.626	505.31
272.858	473.31
273.09	417.31
273.322	411.31
273.553	377.31
273.785	397.31
274.017	416.31
274.249	420.31
274.481	418.31
274.713	423.31
274.945	410.31
275.176	396.31
275.408	416.31
275.64	413.31
275.872	393.31
276.104	436.31
276.335	476.31
276.567	536.31
276.799	514.31
277.031	472.31
277.262	459.31
277.494	477.31
277.726	509.31
277.957	505.31
278.189	461.31
278.421	440.31
278.652	416.31
278.884	419.31
279.115	426.31
279.347	423.31
279.579	427.31
279.81	439.31
280.042	474.31
280.273	504.31
280.505	516.31
280.736	520.31
280.968	469.31
281.199	422.31
281.431	391.31
281.662	414.31
281.894	448.31
282.125	432.31
282.356	435.31
282.588	441.31
282.819	437.31
283.051	479.31
283.282	491.31
283.513	506.31
283.745	431.31
283.976	420.31
284.207	425.31
284.439	431.31
284.67	444.31
284.901	451.31
285.132	459.31
285.364	454.31
285.595	450.31
285.826	461.31
286.057	442.31
286.288	444.31
286.52	447.31
286.751	496.31
286.982	481.31
287.213	429.31
287.444	432.31
287.675	428.31
287.906	464.31
288.138	490.31
288.369	464.31
288.6	455.31
288.831	435.31
289.062	425.31
289.293	440.31
289.524	447.31
289.755	467.31
289.986	462.31
290.217	435.31
290.448	453.31
290.679	455.31
290.91	475.31
291.141	453.31
291.371	484.31
291.602	473.31
291.833	466.31
292.064	469.31
292.295	496.31
292.526	492.31
292.757	518.31
292.987	491.31
293.218	489.31
293.449	522.31
293.68	568.31
293.91	596.31
294.141	535.31
294.372	554.31
294.603	548.31
294.833	548.31
295.064	539.31
295.295	476.31
295.525	456.31
295.756	436.31
295.987	445.31
296.217	432.31
296.448	462.31
296.679	445.31
296.909	461.31
297.14	431.31
297.37	469.31
297.601	501.31
297.831	538.31
298.062	538.31
298.292	500.31
298.523	484.31
298.753	454.31
298.984	457.31
299.214	489.31
299.445	507.31
299.675	509.31
299.905	481.31
300.136	484.31
300.366	457.31
300.597	440.31
300.827	474.31
301.057	479.31
301.288	495.31
301.518	500.31
301.748	519.31
301.979	537.31
302.209	567.31
302.439	584.31
302.669	596.31
302.9	541.31
303.13	511.31
303.36	499.31
303.59	503.31
303.82	505.31
304.051	528.31
304.281	508.31
304.511	541.31
304.741	562.31
304.971	611.31
305.201	639.31
305.431	571.31
305.661	475.31
305.891	464.31
306.121	458.31
306.352	511.31
306.582	509.31
306.812	528.31
307.042	551.31
307.272	568.31
307.502	579.31
307.731	624.31
307.961	647.31
308.191	585.31
308.421	534.31
308.651	487.31
308.881	499.31
309.111	492.31
309.341	490.31
309.571	492.31
309.8	509.31
310.03	487.31
310.26	507.31
310.49	487.31
310.72	512.31
310.949	520.31
311.179	521.31
311.409	511.31
311.639	503.31
311.868	521.31
312.098	516.31
312.328	524.31
312.557	492.31
312.787	497.31
313.017	525.31
313.246	526.31
313.476	511.31
313.706	529.31
313.935	523.31
314.165	551.31
314.394	557.31
314.624	591.31
314.853	623.31
315.083	602.31
315.312	616.31
315.542	592.31
315.771	537.31
316.001	543.31
316.23	565.31
316.46	564.31
316.689	558.31
316.919	540.31
317.148	519.31
317.377	523.31
317.607	575.31
317.836	653.31
318.065	631.31
318.295	612.31
318.524	591.31
318.753	550.31
318.983	539.31
319.212	553.31
319.441	547.31
319.67	553.31
319.9	564.31
320.129	605.31
320.358	636.31
320.587	628.31
320.816	590.31
321.046	596.31
321.275	574.31
321.504	579.31
321.733	620.31
321.962	589.31
322.191	565.31
322.42	586.31
322.649	569.31
322.878	551.31
323.108	558.31
323.337	555.31
323.566	557.31
323.795	554.31
324.024	568.31
324.253	567.31
324.482	565.31
324.71	526.31
324.939	526.31
325.168	533.31
325.397	554.31
325.626	572.31
325.855	573.31
326.084	580.31
326.313	562.31
326.542	591.31
326.77	586.31
326.999	553.31
327.228	555.31
327.457	543.31
327.686	553.31
327.914	553.31
328.143	552.31
328.372	547.31
328.6	561.31
328.829	555.31
329.058	560.31
329.287	547.31
329.515	564.31
329.744	591.31
329.972	604.31
330.201	631.31
330.43	613.31
330.658	591.31
330.887	586.31
331.115	585.31
331.344	585.31
331.572	583.31
331.801	566.31
332.03	592.31
332.258	597.31
332.486	589.31
332.715	610.31
332.943	570.31
333.172	602.31
333.4	625.31
333.629	640.31
333.857	673.31
334.085	734.31
334.314	847.31
334.542	841.31
334.771	751.31
334.999	681.31
335.227	650.31
335.455	632.31
335.684	623.31
335.912	643.31
336.14	641.31
336.369	627.31
336.597	605.31
336.825	608.31
337.053	626.31
337.281	663.31
337.51	710.31
337.738	694.31
337.966	637.31
338.194	612.31
338.422	593.31
338.65	611.31
338.878	583.31
339.106	554.31
339.334	547.31
339.562	549.31
339.79	605.31
340.018	585.31
340.246	623.31
340.474	614.31
340.702	603.31
340.93	610.31
341.158	595.31
341.386	589.31
341.614	603.31
341.842	594.31
342.07	597.31
342.298	613.31
342.526	609.31
342.754	597.31
342.981	579.31
343.209	586.31
343.437	585.31
343.665	602.31
343.893	615.31
344.12	649.31
344.348	623.31
344.576	602.31
344.804	611.31
345.031	581.31
345.259	584.31
345.487	570.31
345.714	544.31
345.942	555.31
346.17	561.31
346.397	551.31
346.625	559.31
346.853	540.31
347.08	522.31
347.308	550.31
347.535	585.31
347.763	574.31
347.99	554.31
348.218	579.31
348.445	563.31
348.673	569.31
348.9	563.31
349.128	625.31
349.355	592.31
349.583	577.31
349.81	562.31
350.037	537.31
350.265	543.31
350.492	563.31
350.72	549.31
350.947	588.31
351.174	565.31
351.402	547.31
351.629	537.31
351.856	541.31
352.083	548.31
352.311	539.31
352.538	563.31
352.765	588.31
352.992	580.31
353.22	545.31
353.447	570.31
353.674	549.31
353.901	570.31
354.128	552.31
354.355	573.31
354.583	592.31
354.81	607.31
355.037	592.31
355.264	590.31
355.491	570.31
355.718	586.31
355.945	565.31
356.172	557.31
356.399	545.31
356.626	556.31
356.853	592.31
357.08	650.31
357.307	683.31
357.534	656.31
357.761	583.31
357.988	555.31
358.215	546.31
358.441	546.31
358.668	557.31
358.895	543.31
359.122	623.31
359.349	651.31
359.576	607.31
359.802	580.31
360.029	527.31
360.256	548.31
360.483	548.31
360.709	597.31
360.936	604.31
361.163	616.31
361.39	708.31
361.616	705.31
361.843	689.31
362.07	648.31
362.296	575.31
362.523	571.31
362.749	567.31
362.976	596.31
363.203	569.31
363.429	553.31
363.656	557.31
363.882	600.31
364.109	635.31
364.335	648.31
364.562	629.31
364.788	594.31
365.015	572.31
365.241	564.31
365.468	572.31
365.694	581.31
365.92	611.31
366.147	576.31
366.373	565.31
366.599	563.31
366.826	576.31
367.052	547.31
367.278	597.31
367.505	589.31
367.731	616.31
367.957	615.31
368.184	632.31
368.41	676.31
368.636	697.31
368.862	671.31
369.089	663.31
369.315	641.31
369.541	612.31
369.767	608.31
369.993	596.31
370.219	593.31
370.445	616.31
370.672	647.31
370.898	671.31
371.124	653.31
371.35	636.31
371.576	647.31
371.802	682.31
372.028	648.31
372.254	644.31
372.48	604.31
372.706	601.31
372.932	609.31
373.158	596.31
373.384	636.31
373.61	646.31
373.835	676.31
374.061	640.31
374.287	637.31
374.513	623.31
374.739	629.31
374.965	636.31
375.191	640.31
375.416	646.31
375.642	642.31
375.868	720.31
376.094	706.31
376.319	680.31
376.545	647.31
376.771	672.31
376.997	723.31
377.222	670.31
377.448	657.31
377.674	669.31
377.899	674.31
378.125	700.31
378.35	686.31
378.576	658.31
378.802	605.31
379.027	631.31
379.253	635.31
379.478	647.31
379.704	626.31
379.929	623.31
380.155	649.31
380.38	671.31
380.606	670.31
380.831	642.31
381.057	684.31
381.282	697.31
381.507	708.31
381.733	754.31
381.958	748.31
382.184	689.31
382.409	681.31
382.634	689.31
382.86	701.31
383.085	680.31
383.31	716.31
383.535	779.31
383.761	781.31
383.986	755.31
384.211	744.31
384.436	740.31
384.662	770.31
384.887	776.31
385.112	714.31
385.337	729.31
385.562	717.31
385.787	733.31
386.013	758.31
386.238	771.31
386.463	746.31
386.688	808.31
386.913	846.31
387.138	811.31
387.363	781.31
387.588	773.31
387.813	784.31
388.038	769.31
388.263	777.31
388.488	744.31
388.713	729.31
388.938	712.31
389.163	739.31
389.387	757.31
389.612	775.31
389.837	749.31
390.062	800.31
390.287	741.31
390.512	759.31
390.736	766.31
390.961	739.31
391.186	719.31
391.411	745.31
391.636	718.31
391.86	747.31
392.085	743.31
392.31	742.31
392.534	744.31
392.759	748.31
392.984	725.31
393.208	783.31
393.433	783.31
393.658	826.31
393.882	807.31
394.107	793.31
394.331	760.31
394.556	738.31
394.78	780.31
395.005	828.31
395.229	837.31
395.454	862.31
395.678	847.31
395.903	819.31
396.127	788.31
396.352	816.31
396.576	850.31
396.801	823.31
397.025	821.31
397.249	812.31
397.474	811.31
397.698	825.31
397.922	866.31
398.147	895.31
398.371	909.31
398.595	890.31
398.82	844.31
399.044	921.31
399.268	902.31
399.492	940.31
399.717	987.31
399.941	986.31
400.165	976.31
400.389	941.31
400.613	961.31
400.837	1117.31
401.062	1162.31
401.286	1057.31
401.51	980.31
401.734	977.31
401.958	944.31
402.182	891.31
402.406	884.31
402.63	862.31
402.854	891.31
403.078	921.31
403.302	893.31
403.526	899.31
403.75	933.31
403.974	924.31
404.198	951.31
404.422	973.31
404.645	1001.31
404.869	1011.31
405.093	895.31
405.317	875.31
405.541	917.31
405.765	939.31
405.988	919.31
406.212	944.31
406.436	969.31
406.66	986.31
406.883	1001.31
407.107	1126.31
407.331	1214.31
407.555	1263.31
407.778	1102.31
408.002	971.31
408.226	948.31
408.449	981.31
408.673	956.31
408.896	944.31
409.12	953.31
409.344	947.31
409.567	916.31
409.791	965.31
410.014	930.31
410.238	1023.31
410.461	1044.31
410.685	931.31
410.908	923.31
411.132	936.31
411.355	924.31
411.578	952.31
411.802	959.31
412.025	925.31
412.249	950.31
412.472	915.31
412.695	914.31
412.919	917.31
413.142	897.31
413.365	945.31
413.589	935.31
413.812	1016.31
414.035	977.31
414.258	963.31
414.482	920.31
414.705	943.31
414.928	917.31
415.151	913.31
415.374	930.31
415.597	929.31
415.821	926.31
416.044	961.31
416.267	931.31
416.49	899.31
416.713	912.31
416.936	973.31
417.159	986.31
417.382	977.31
417.605	932.31
417.828	936.31
418.051	971.31
418.274	946.31
418.497	949.31
418.72	922.31
418.943	913.31
419.166	959.31
419.389	982.31
419.611	959.31
419.834	936.31
420.057	947.31
420.28	935.31
420.503	937.31
420.726	991.31
420.948	923.31
421.171	903.31
421.394	933.31
421.617	995.31
421.839	997.31
422.062	977.31
422.285	941.31
422.507	906.31
422.73	913.31
422.953	889.31
423.175	865.31
423.398	893.31
423.621	935.31
423.843	951.31
424.066	986.31
424.288	1036.31
424.511	1050.31
424.733	1009.31
424.956	902.31
425.178	903.31
425.401	950.31
425.623	932.31
425.846	953.31
426.068	1001.31
426.291	980.31
426.513	932.31
426.735	972.31
426.958	1049.31
427.18	1055.31
427.402	977.31
427.625	1005.31
427.847	1000.31
428.069	926.31
428.292	915.31
428.514	879.31
428.736	899.31
428.958	933.31
429.181	951.31
429.403	1068.31
429.625	1223.31
429.847	1049.31
430.069	946.31
430.292	1053.31
430.514	1019.31
430.736	1016.31
430.958	1013.31
431.18	936.31
431.402	871.31
431.624	862.31
431.846	794.31
432.068	739.31
432.29	715.31
432.512	808.31
432.734	879.31
432.956	933.31
433.178	972.31
433.4	964.31
433.622	938.31
433.844	903.31
434.066	835.31
434.287	797.31
434.509	807.31
434.731	835.31
434.953	912.31
435.175	911.31
435.397	886.31
435.618	897.31
435.84	847.31
436.062	819.31
436.284	904.31
436.505	940.31
436.727	953.31
436.949	920.31
437.17	899.31
437.392	873.31
437.614	852.31
437.835	795.31
438.057	805.31
438.278	822.31
438.5	866.31
438.721	882.31
438.943	911.31
439.165	900.31
439.386	925.31
439.608	913.31
439.829	939.31
440.05	927.31
440.272	931.31
440.493	951.31
440.715	965.31
440.936	1032.31
441.158	1046.31
441.379	1028.31
441.6	1066.31
441.822	1026.31
442.043	981.31
442.264	968.31
442.486	969.31
442.707	948.31
442.928	934.31
443.149	987.31
443.371	979.31
443.592	1041.31
443.813	1050.31
444.034	1035.31
444.255	981.31
444.476	1011.31
444.698	1032.31
444.919	1015.31
445.14	1168.31
445.361	1105.31
445.582	1064.31
445.803	1060.31
446.024	1034.31
446.245	1053.31
446.466	1031.31
446.687	1033.31
446.908	1049.31
447.129	1031.31
447.35	1021.31
447.571	994.31
447.792	969.31
448.013	972.31
448.234	974.31
448.455	995.31
448.675	984.31
448.896	929.31
449.117	907.31
449.338	926.31
449.559	980.31
449.779	974.31
450	1048.31
450.221	1027.31
450.442	1008.31
450.662	947.31
450.883	872.31
451.104	869.31
451.324	865.31
451.545	879.31
451.766	893.31
451.986	846.31
452.207	817.31
452.428	795.31
452.648	777.31
452.869	780.31
453.089	789.31
453.31	787.31
453.53	774.31
453.751	743.31
453.971	689.31
454.192	739.31
454.412	757.31
454.633	778.31
454.853	776.31
455.073	754.31
455.294	746.31
455.514	762.31
455.734	775.31
455.955	757.31
456.175	729.31
456.395	740.31
456.616	742.31
456.836	767.31
457.056	724.31
457.276	720.31
457.497	692.31
457.717	678.31
457.937	699.31
458.157	733.31
458.377	705.31
458.598	671.31
458.818	675.31
459.038	710.31
459.258	727.31
459.478	720.31
459.698	703.31
459.918	751.31
460.138	791.31
460.358	810.31
460.578	838.31
460.798	858.31
461.018	885.31
461.238	845.31
461.458	858.31
461.678	834.31
461.898	845.31
462.118	821.31
462.338	860.31
462.558	853.31
462.777	853.31
462.997	873.31
463.217	873.31
463.437	892.31
463.657	860.31
463.876	821.31
464.096	816.31
464.316	855.31
464.536	860.31
464.755	869.31
464.975	910.31
465.195	880.31
465.414	889.31
465.634	855.31
465.854	885.31
466.073	968.31
466.293	951.31
466.512	875.31
466.732	875.31
466.951	904.31
467.171	905.31
467.391	883.31
467.61	897.31
467.829	897.31
468.049	977.31
468.268	1026.31
468.488	961.31
468.707	917.31
468.927	921.31
469.146	887.31
469.365	925.31
469.585	923.31
469.804	906.31
470.023	919.31
470.243	969.31
470.462	929.31
470.681	944.31
470.901	928.31
471.12	912.31
471.339	952.31
471.558	896.31
471.777	903.31
471.997	909.31
472.216	852.31
472.435	781.31
472.654	773.31
472.873	795.31
473.092	839.31
473.311	850.31
473.53	808.31
473.749	841.31
473.968	837.31
474.187	855.31
474.406	849.31
474.625	838.31
474.844	873.31
475.063	856.31
475.282	860.31
475.501	838.31
475.72	846.31
475.939	933.31
476.158	889.31
476.377	853.31
476.596	862.31
476.814	835.31
477.033	799.31
477.252	861.31
477.471	891.31
477.69	899.31
477.908	931.31
478.127	1005.31
478.346	996.31
478.564	1005.31
478.783	1007.31
479.002	1053.31
479.22	1005.31
479.439	1015.31
479.658	1044.31
479.876	965.31
480.095	913.31
480.313	905.31
480.532	903.31
480.751	882.31
480.969	816.31
481.188	809.31
481.406	762.31
481.624	749.31
481.843	801.31
482.061	801.31
482.28	892.31
482.498	885.31
482.717	886.31
482.935	891.31
483.153	973.31
483.372	1017.31
483.59	1023.31
483.808	966.31
484.027	951.31
484.245	1005.31
484.463	1201.31
484.681	1287.31
484.9	1031.31
485.118	959.31
485.336	961.31
485.554	920.31
485.772	881.31
485.99	899.31
486.209	910.31
486.427	897.31
486.645	935.31
486.863	1012.31
487.081	1070.31
487.299	1036.31
487.517	1029.31
487.735	1118.31
487.953	1196.31
488.171	1152.31
488.389	1112.31
488.607	1062.31
488.825	1126.31
489.043	1035.31
489.261	976.31
489.479	1033.31
489.696	1052.31
489.914	1035.31
490.132	1005.31
490.35	1084.31
490.568	1167.31
490.786	1191.31
491.003	1181.31
491.221	1243.31
491.439	1290.31
491.657	1257.31
491.874	1341.31
492.092	1446.31
492.31	1551.31
492.527	1455.31
492.745	1386.31
492.963	1335.31
493.18	1313.31
493.398	1350.31
493.615	1321.31
493.833	1295.31
494.05	1236.31
494.268	1227.31
494.485	1258.31
494.703	1238.31
494.92	1227.31
495.138	1222.31
495.355	1213.31
495.573	1254.31
495.79	1299.31
496.008	1301.31
496.225	1223.31
496.442	1234.31
496.66	1261.31
496.877	1238.31
497.094	1243.31
497.312	1219.31
497.529	1170.31
497.746	1180.31
497.963	1273.31
498.181	1276.31
498.398	1248.31
498.615	1203.31
498.832	1152.31
499.049	1148.31
499.267	1178.31
499.484	1268.31
499.701	1333.31
499.918	1390.31
500.135	1488.31
500.352	1535.31
