Data from WStandard_LampEnergy8_LIBS07252019.E.O._I.C._HRD10591_15-57-59-929.txt Node
Date: Thu Jul 25 15:57:59 EDT 2019
User: cochatt
Spectrometer: HR+D1059
Trigger mode: 1
Integration Time (sec): 1.000000E-1
Scans to average: 1
Electric dark correction enabled: true
Nonlinearity correction enabled: false
Boxcar width: 0
XAxis mode: Wavelengths
Number of Pixels in Spectrum: 2048
>>>>>Begin Spectral Data<<<<<
223.165	-12.12
223.4	-12.12
223.635	-12.12
223.869	-10.12
224.104	-35.12
224.338	-14.12
224.573	-1.12
224.808	-9.12
225.042	-2.12
225.277	-10.12
225.511	-16.12
225.746	4.88
225.98	10.88
226.215	16.88
226.449	5.88
226.683	26.88
226.918	22.88
227.152	21.88
227.387	28.88
227.621	41.88
227.856	25.88
228.09	49.88
228.324	50.88
228.559	47.88
228.793	94.88
229.027	208.88
229.262	195.88
229.496	226.88
229.73	239.88
229.964	242.88
230.199	270.88
230.433	272.88
230.667	287.88
230.901	289.88
231.136	292.88
231.37	283.88
231.604	268.88
231.838	274.88
232.072	263.88
232.306	280.88
232.541	294.88
232.775	304.88
233.009	338.88
233.243	308.88
233.477	289.88
233.711	294.88
233.945	325.88
234.179	311.88
234.413	358.88
234.647	342.88
234.881	332.88
235.115	311.88
235.349	304.88
235.583	323.88
235.817	305.88
236.051	298.88
236.285	323.88
236.519	335.88
236.753	362.88
236.987	382.88
237.221	370.88
237.455	376.88
237.689	370.88
237.922	380.88
238.156	372.88
238.39	383.88
238.624	388.88
238.858	418.88
239.091	415.88
239.325	444.88
239.559	475.88
239.793	492.88
240.027	528.88
240.26	522.88
240.494	386.88
240.728	387.88
240.961	384.88
241.195	407.88
241.429	424.88
241.662	417.88
241.896	388.88
242.13	426.88
242.363	452.88
242.597	491.88
242.83	454.88
243.064	484.88
243.298	493.88
243.531	498.88
243.765	481.88
243.998	467.88
244.232	439.88
244.465	409.88
244.699	418.88
244.932	471.88
245.166	552.88
245.399	517.88
245.633	476.88
245.866	462.88
246.099	504.88
246.333	508.88
246.566	506.88
246.8	566.88
247.033	616.88
247.266	574.88
247.5	547.88
247.733	542.88
247.966	580.88
248.2	617.88
248.433	626.88
248.666	646.88
248.899	713.88
249.133	799.88
249.366	867.88
249.599	709.88
249.832	638.88
250.066	654.88
250.299	664.88
250.532	599.88
250.765	577.88
250.998	588.88
251.231	624.88
251.465	621.88
251.698	597.88
251.931	594.88
252.164	622.88
252.397	626.88
252.63	629.88
252.863	577.88
253.096	574.88
253.329	590.88
253.562	608.88
253.795	641.88
254.028	629.88
254.261	615.88
254.494	588.88
254.727	577.88
254.96	588.88
255.193	648.88
255.426	717.88
255.659	825.88
255.892	821.88
256.124	722.88
256.357	662.88
256.59	747.88
256.823	734.88
257.056	728.88
257.289	874.88
257.521	962.88
257.754	863.88
257.987	824.88
258.22	890.88
258.452	840.88
258.685	710.88
258.918	706.88
259.151	688.88
259.383	668.88
259.616	601.88
259.849	637.88
260.081	705.88
260.314	814.88
260.547	842.88
260.779	869.88
261.012	811.88
261.244	708.88
261.477	708.88
261.71	735.88
261.942	721.88
262.175	688.88
262.407	751.88
262.64	673.88
262.872	642.88
263.105	623.88
263.337	652.88
263.57	654.88
263.802	667.88
264.035	616.88
264.267	599.88
264.499	588.88
264.732	642.88
264.964	686.88
265.197	694.88
265.429	733.88
265.661	793.88
265.894	856.88
266.126	912.88
266.358	812.88
266.591	828.88
266.823	883.88
267.055	804.88
267.287	830.88
267.52	790.88
267.752	789.88
267.984	806.88
268.216	821.88
268.448	839.88
268.681	844.88
268.913	757.88
269.145	734.88
269.377	700.88
269.609	797.88
269.841	931.88
270.073	1042.88
270.306	1148.88
270.538	1160.88
270.77	967.88
271.002	893.88
271.234	834.88
271.466	869.88
271.698	985.88
271.93	1097.88
272.162	1089.88
272.394	985.88
272.626	949.88
272.858	829.88
273.09	740.88
273.322	723.88
273.553	691.88
273.785	723.88
274.017	747.88
274.249	799.88
274.481	774.88
274.713	746.88
274.945	735.88
275.176	729.88
275.408	714.88
275.64	691.88
275.872	725.88
276.104	788.88
276.335	890.88
276.567	944.88
276.799	980.88
277.031	862.88
277.262	801.88
277.494	876.88
277.726	923.88
277.957	906.88
278.189	863.88
278.421	787.88
278.652	761.88
278.884	764.88
279.115	779.88
279.347	764.88
279.579	752.88
279.81	775.88
280.042	846.88
280.273	938.88
280.505	883.88
280.736	924.88
280.968	857.88
281.199	782.88
281.431	745.88
281.662	733.88
281.894	751.88
282.125	784.88
282.356	780.88
282.588	808.88
282.819	805.88
283.051	860.88
283.282	911.88
283.513	886.88
283.745	764.88
283.976	738.88
284.207	764.88
284.439	770.88
284.67	772.88
284.901	822.88
285.132	822.88
285.364	808.88
285.595	807.88
285.826	780.88
286.057	794.88
286.288	795.88
286.52	811.88
286.751	873.88
286.982	886.88
287.213	830.88
287.444	735.88
287.675	776.88
287.906	836.88
288.138	863.88
288.369	824.88
288.6	790.88
288.831	739.88
289.062	756.88
289.293	766.88
289.524	795.88
289.755	790.88
289.986	808.88
290.217	764.88
290.448	786.88
290.679	797.88
290.91	820.88
291.141	832.88
291.371	838.88
291.602	830.88
291.833	849.88
292.064	856.88
292.295	852.88
292.526	882.88
292.757	888.88
292.987	874.88
293.218	848.88
293.449	920.88
293.68	981.88
293.91	1058.88
294.141	995.88
294.372	922.88
294.603	992.88
294.833	994.88
295.064	935.88
295.295	868.88
295.525	818.88
295.756	800.88
295.987	744.88
296.217	795.88
296.448	792.88
296.679	802.88
296.909	792.88
297.14	781.88
297.37	813.88
297.601	875.88
297.831	932.88
298.062	908.88
298.292	835.88
298.523	820.88
298.753	812.88
298.984	852.88
299.214	815.88
299.445	845.88
299.675	888.88
299.905	862.88
300.136	823.88
300.366	826.88
300.597	774.88
300.827	798.88
301.057	849.88
301.288	880.88
301.518	844.88
301.748	896.88
301.979	918.88
302.209	974.88
302.439	1044.88
302.669	1073.88
302.9	1000.88
303.13	903.88
303.36	882.88
303.59	866.88
303.82	903.88
304.051	851.88
304.281	892.88
304.511	918.88
304.741	998.88
304.971	1114.88
305.201	1116.88
305.431	1020.88
305.661	811.88
305.891	778.88
306.121	778.88
306.352	818.88
306.582	866.88
306.812	940.88
307.042	976.88
307.272	979.88
307.502	1022.88
307.731	1112.88
307.961	1135.88
308.191	1032.88
308.421	891.88
308.651	855.88
308.881	860.88
309.111	873.88
309.341	849.88
309.571	838.88
309.8	869.88
310.03	862.88
310.26	864.88
310.49	851.88
310.72	883.88
310.949	911.88
311.179	930.88
311.409	898.88
311.639	878.88
311.868	862.88
312.098	865.88
312.328	886.88
312.557	866.88
312.787	877.88
313.017	881.88
313.246	901.88
313.476	893.88
313.706	949.88
313.935	932.88
314.165	937.88
314.394	970.88
314.624	1032.88
314.853	1049.88
315.083	1123.88
315.312	1097.88
315.542	1030.88
315.771	940.88
316.001	939.88
316.23	1005.88
316.46	971.88
316.689	946.88
316.919	878.88
317.148	905.88
317.377	935.88
317.607	1001.88
317.836	1102.88
318.065	1101.88
318.295	1025.88
318.524	1024.88
318.753	972.88
318.983	995.88
319.212	964.88
319.441	953.88
319.67	933.88
319.9	960.88
320.129	1048.88
320.358	1057.88
320.587	1074.88
320.816	1049.88
321.046	1030.88
321.275	984.88
321.504	1010.88
321.733	1064.88
321.962	1014.88
322.191	962.88
322.42	970.88
322.649	964.88
322.878	960.88
323.108	975.88
323.337	984.88
323.566	990.88
323.795	978.88
324.024	989.88
324.253	986.88
324.482	943.88
324.71	951.88
324.939	893.88
325.168	934.88
325.397	952.88
325.626	964.88
325.855	981.88
326.084	954.88
326.313	969.88
326.542	977.88
326.77	1030.88
326.999	1000.88
327.228	939.88
327.457	913.88
327.686	906.88
327.914	960.88
328.143	948.88
328.372	944.88
328.6	937.88
328.829	943.88
329.058	929.88
329.287	923.88
329.515	960.88
329.744	993.88
329.972	1019.88
330.201	1086.88
330.43	1066.88
330.658	980.88
330.887	1027.88
331.115	1043.88
331.344	1023.88
331.572	1002.88
331.801	995.88
332.03	990.88
332.258	1040.88
332.486	1020.88
332.715	1039.88
332.943	1030.88
333.172	1020.88
333.4	1033.88
333.629	1055.88
333.857	1125.88
334.085	1250.88
334.314	1440.88
334.542	1490.88
334.771	1348.88
334.999	1178.88
335.227	1109.88
335.455	1078.88
335.684	1076.88
335.912	1103.88
336.14	1128.88
336.369	1097.88
336.597	1047.88
336.825	1018.88
337.053	1058.88
337.281	1127.88
337.51	1186.88
337.738	1186.88
337.966	1103.88
338.194	1007.88
338.422	1018.88
338.65	1014.88
338.878	999.88
339.106	940.88
339.334	966.88
339.562	936.88
339.79	964.88
340.018	1042.88
340.246	1063.88
340.474	1096.88
340.702	1057.88
340.93	1028.88
341.158	1034.88
341.386	1014.88
341.614	1025.88
341.842	1020.88
342.07	1006.88
342.298	1028.88
342.526	1033.88
342.754	1002.88
342.981	1008.88
343.209	989.88
343.437	1026.88
343.665	1005.88
343.893	1037.88
344.12	1107.88
344.348	1087.88
344.576	1024.88
344.804	1010.88
345.031	1062.88
345.259	1000.88
345.487	1008.88
345.714	945.88
345.942	914.88
346.17	946.88
346.397	979.88
346.625	969.88
346.853	883.88
347.08	904.88
347.308	916.88
347.535	938.88
347.763	961.88
347.99	920.88
348.218	911.88
348.445	906.88
348.673	954.88
348.9	984.88
349.128	1010.88
349.355	1000.88
349.583	1002.88
349.81	910.88
350.037	892.88
350.265	896.88
350.492	924.88
350.72	928.88
350.947	977.88
351.174	982.88
351.402	913.88
351.629	897.88
351.856	864.88
352.083	854.88
352.311	895.88
352.538	918.88
352.765	972.88
352.992	963.88
353.22	902.88
353.447	900.88
353.674	936.88
353.901	927.88
354.128	920.88
354.355	918.88
354.583	962.88
354.81	998.88
355.037	980.88
355.264	966.88
355.491	950.88
355.718	958.88
355.945	925.88
356.172	936.88
356.399	911.88
356.626	919.88
356.853	961.88
357.08	1048.88
357.307	1150.88
357.534	1098.88
357.761	951.88
357.988	918.88
358.215	898.88
358.441	906.88
358.668	903.88
358.895	914.88
359.122	1005.88
359.349	1080.88
359.576	1017.88
359.802	935.88
360.029	911.88
360.256	901.88
360.483	911.88
360.709	973.88
360.936	976.88
361.163	1044.88
361.39	1137.88
361.616	1215.88
361.843	1176.88
362.07	1088.88
362.296	967.88
362.523	916.88
362.749	934.88
362.976	940.88
363.203	1011.88
363.429	915.88
363.656	926.88
363.882	966.88
364.109	1076.88
364.335	1102.88
364.562	1045.88
364.788	983.88
365.015	987.88
365.241	945.88
365.468	956.88
365.694	998.88
365.92	1024.88
366.147	982.88
366.373	905.88
366.599	915.88
366.826	929.88
367.052	931.88
367.278	914.88
367.505	939.88
367.731	978.88
367.957	984.88
368.184	1013.88
368.41	1086.88
368.636	1099.88
368.862	1071.88
369.089	1091.88
369.315	1034.88
369.541	981.88
369.767	958.88
369.993	959.88
370.219	951.88
370.445	997.88
370.672	1076.88
370.898	1083.88
371.124	1049.88
371.35	1010.88
371.576	1041.88
371.802	1099.88
372.028	1042.88
372.254	996.88
372.48	950.88
372.706	945.88
372.932	982.88
373.158	1000.88
373.384	1010.88
373.61	1030.88
373.835	1069.88
374.061	1027.88
374.287	997.88
374.513	1016.88
374.739	1054.88
374.965	1044.88
375.191	1034.88
375.416	1039.88
375.642	1010.88
375.868	1112.88
376.094	1134.88
376.319	1098.88
376.545	1045.88
376.771	1066.88
376.997	1115.88
377.222	1078.88
377.448	1075.88
377.674	1064.88
377.899	1088.88
378.125	1129.88
378.35	1110.88
378.576	991.88
378.802	961.88
379.027	1026.88
379.253	971.88
379.478	1008.88
379.704	1002.88
379.929	996.88
380.155	1027.88
380.38	1012.88
380.606	1039.88
380.831	1008.88
381.057	1122.88
381.282	1087.88
381.507	1051.88
381.733	1157.88
381.958	1174.88
382.184	1082.88
382.409	1032.88
382.634	1048.88
382.86	1044.88
383.085	1059.88
383.31	1081.88
383.535	1189.88
383.761	1242.88
383.986	1209.88
384.211	1126.88
384.436	1148.88
384.662	1226.88
384.887	1233.88
385.112	1170.88
385.337	1171.88
385.562	1150.88
385.787	1162.88
386.013	1175.88
386.238	1168.88
386.463	1195.88
386.688	1305.88
386.913	1355.88
387.138	1290.88
387.363	1213.88
387.588	1202.88
387.813	1175.88
388.038	1234.88
388.263	1220.88
388.488	1189.88
388.713	1088.88
388.938	1109.88
389.163	1152.88
389.387	1154.88
389.612	1115.88
389.837	1174.88
390.062	1170.88
390.287	1163.88
390.512	1146.88
390.736	1129.88
390.961	1116.88
391.186	1090.88
391.411	1105.88
391.636	1145.88
391.86	1138.88
392.085	1147.88
392.31	1127.88
392.534	1132.88
392.759	1163.88
392.984	1172.88
393.208	1172.88
393.433	1212.88
393.658	1272.88
393.882	1278.88
394.107	1162.88
394.331	1129.88
394.556	1144.88
394.78	1164.88
395.005	1218.88
395.229	1267.88
395.454	1352.88
395.678	1346.88
395.903	1294.88
396.127	1205.88
396.352	1228.88
396.576	1287.88
396.801	1293.88
397.025	1275.88
397.249	1253.88
397.474	1246.88
397.698	1216.88
397.922	1273.88
398.147	1366.88
398.371	1408.88
398.595	1367.88
398.82	1319.88
399.044	1343.88
399.268	1436.88
399.492	1434.88
399.717	1476.88
399.941	1512.88
400.165	1512.88
400.389	1466.88
400.613	1455.88
400.837	1682.88
401.062	1837.88
401.286	1565.88
401.51	1449.88
401.734	1496.88
401.958	1437.88
402.182	1334.88
402.406	1325.88
402.63	1317.88
402.854	1335.88
403.078	1351.88
403.302	1318.88
403.526	1353.88
403.75	1326.88
403.974	1385.88
404.198	1378.88
404.422	1440.88
404.645	1518.88
404.869	1430.88
405.093	1349.88
405.317	1339.88
405.541	1366.88
405.765	1394.88
405.988	1398.88
406.212	1416.88
406.436	1436.88
406.66	1496.88
406.883	1528.88
407.107	1724.88
407.331	1849.88
407.555	1998.88
407.778	1735.88
408.002	1478.88
408.226	1412.88
408.449	1414.88
408.673	1394.88
408.896	1401.88
409.12	1427.88
409.344	1401.88
409.567	1353.88
409.791	1360.88
410.014	1430.88
410.238	1522.88
410.461	1564.88
410.685	1430.88
410.908	1377.88
411.132	1408.88
411.355	1363.88
411.578	1318.88
411.802	1363.88
412.025	1379.88
412.249	1359.88
412.472	1285.88
412.695	1340.88
412.919	1305.88
413.142	1312.88
413.365	1362.88
413.589	1406.88
413.812	1462.88
414.035	1499.88
414.258	1404.88
414.482	1318.88
414.705	1369.88
414.928	1329.88
415.151	1316.88
415.374	1340.88
415.597	1347.88
415.821	1372.88
416.044	1396.88
416.267	1370.88
416.49	1303.88
416.713	1289.88
416.936	1358.88
417.159	1404.88
417.382	1395.88
417.605	1295.88
417.828	1312.88
418.051	1352.88
418.274	1353.88
418.497	1307.88
418.72	1329.88
418.943	1307.88
419.166	1366.88
419.389	1358.88
419.611	1331.88
419.834	1319.88
420.057	1354.88
420.28	1287.88
420.503	1307.88
420.726	1322.88
420.948	1333.88
421.171	1303.88
421.394	1324.88
421.617	1359.88
421.839	1359.88
422.062	1338.88
422.285	1286.88
422.507	1307.88
422.73	1251.88
422.953	1230.88
423.175	1257.88
423.398	1329.88
423.621	1310.88
423.843	1308.88
424.066	1379.88
424.288	1428.88
424.511	1465.88
424.733	1383.88
424.956	1258.88
425.178	1263.88
425.401	1256.88
425.623	1310.88
425.846	1304.88
426.068	1355.88
426.291	1353.88
426.513	1336.88
426.735	1347.88
426.958	1458.88
427.18	1538.88
427.402	1387.88
427.625	1441.88
427.847	1414.88
428.069	1296.88
428.292	1298.88
428.514	1250.88
428.736	1264.88
428.958	1248.88
429.181	1278.88
429.403	1517.88
429.625	1810.88
429.847	1519.88
430.069	1338.88
430.292	1490.88
430.514	1496.88
430.736	1392.88
430.958	1442.88
431.18	1368.88
431.402	1257.88
431.624	1232.88
431.846	1193.88
432.068	1168.88
432.29	1187.88
432.512	1219.88
432.734	1248.88
432.956	1299.88
433.178	1371.88
433.4	1322.88
433.622	1322.88
433.844	1275.88
434.066	1199.88
434.287	1210.88
434.509	1235.88
434.731	1278.88
434.953	1390.88
435.175	1351.88
435.397	1326.88
435.618	1284.88
435.84	1245.88
436.062	1288.88
436.284	1302.88
436.505	1334.88
436.727	1365.88
436.949	1266.88
437.17	1269.88
437.392	1258.88
437.614	1224.88
437.835	1170.88
438.057	1272.88
438.278	1278.88
438.5	1234.88
438.721	1247.88
438.943	1259.88
439.165	1255.88
439.386	1262.88
439.608	1257.88
439.829	1252.88
440.05	1252.88
440.272	1277.88
440.493	1264.88
440.715	1311.88
440.936	1369.88
441.158	1470.88
441.379	1406.88
441.6	1371.88
441.822	1395.88
442.043	1373.88
442.264	1333.88
442.486	1304.88
442.707	1265.88
442.928	1292.88
443.149	1317.88
443.371	1367.88
443.592	1378.88
443.813	1406.88
444.034	1401.88
444.255	1376.88
444.476	1366.88
444.698	1417.88
444.919	1414.88
445.14	1513.88
445.361	1484.88
445.582	1505.88
445.803	1421.88
446.024	1391.88
446.245	1446.88
446.466	1383.88
446.687	1374.88
446.908	1381.88
447.129	1330.88
447.35	1338.88
447.571	1322.88
447.792	1290.88
448.013	1243.88
448.234	1282.88
448.455	1334.88
448.675	1344.88
448.896	1242.88
449.117	1223.88
449.338	1275.88
449.559	1331.88
449.779	1335.88
450	1458.88
450.221	1512.88
450.442	1467.88
450.662	1331.88
450.883	1186.88
451.104	1173.88
451.324	1242.88
451.545	1251.88
451.766	1214.88
451.986	1147.88
452.207	1140.88
452.428	1120.88
452.648	1129.88
452.869	1145.88
453.089	1160.88
453.31	1153.88
453.53	1172.88
453.751	1133.88
453.971	1085.88
454.192	1123.88
454.412	1158.88
454.633	1162.88
454.853	1132.88
455.073	1065.88
455.294	1107.88
455.514	1084.88
455.734	1072.88
455.955	1112.88
456.175	1120.88
456.395	1085.88
456.616	1102.88
456.836	1129.88
457.056	1110.88
457.276	1072.88
457.497	1082.88
457.717	1048.88
457.937	1072.88
458.157	1079.88
458.377	1048.88
458.598	1059.88
458.818	1065.88
459.038	1151.88
459.258	1178.88
459.478	1137.88
459.698	1148.88
459.918	1201.88
460.138	1230.88
460.358	1281.88
460.578	1266.88
460.798	1306.88
461.018	1326.88
461.238	1303.88
461.458	1292.88
461.678	1282.88
461.898	1248.88
462.118	1240.88
462.338	1278.88
462.558	1268.88
462.777	1284.88
462.997	1353.88
463.217	1371.88
463.437	1341.88
463.657	1294.88
463.876	1289.88
464.096	1253.88
464.316	1298.88
464.536	1326.88
464.755	1343.88
464.975	1308.88
465.195	1300.88
465.414	1378.88
465.634	1332.88
465.854	1336.88
466.073	1475.88
466.293	1386.88
466.512	1235.88
466.732	1215.88
466.951	1282.88
467.171	1289.88
467.391	1190.88
467.61	1233.88
467.829	1233.88
468.049	1357.88
468.268	1507.88
468.488	1387.88
468.707	1301.88
468.927	1223.88
469.146	1228.88
469.365	1255.88
469.585	1257.88
469.804	1241.88
470.023	1265.88
470.243	1304.88
470.462	1264.88
470.681	1239.88
470.901	1234.88
471.12	1260.88
471.339	1250.88
471.558	1228.88
471.777	1192.88
471.997	1235.88
472.216	1219.88
472.435	1157.88
472.654	1159.88
472.873	1199.88
473.092	1283.88
473.311	1198.88
473.53	1150.88
473.749	1192.88
473.968	1178.88
474.187	1238.88
474.406	1267.88
474.625	1218.88
474.844	1260.88
475.063	1222.88
475.282	1274.88
475.501	1206.88
475.72	1209.88
475.939	1321.88
476.158	1282.88
476.377	1239.88
476.596	1237.88
476.814	1232.88
477.033	1240.88
477.252	1243.88
477.471	1316.88
477.69	1303.88
477.908	1293.88
478.127	1371.88
478.346	1470.88
478.564	1444.88
478.783	1410.88
479.002	1433.88
479.22	1437.88
479.439	1502.88
479.658	1620.88
479.876	1581.88
480.095	1416.88
480.313	1355.88
480.532	1301.88
480.751	1344.88
480.969	1330.88
481.188	1274.88
481.406	1259.88
481.624	1257.88
481.843	1291.88
482.061	1326.88
482.28	1366.88
482.498	1376.88
482.717	1328.88
482.935	1311.88
483.153	1376.88
483.372	1405.88
483.59	1383.88
483.808	1375.88
484.027	1371.88
484.245	1513.88
484.463	1764.88
484.681	1924.88
484.9	1481.88
485.118	1379.88
485.336	1338.88
485.554	1400.88
485.772	1420.88
485.99	1407.88
486.209	1410.88
486.427	1364.88
486.645	1376.88
486.863	1442.88
487.081	1494.88
487.299	1491.88
487.517	1469.88
487.735	1469.88
487.953	1521.88
488.171	1534.88
488.389	1466.88
488.607	1466.88
488.825	1664.88
489.043	1556.88
489.261	1456.88
489.479	1493.88
489.696	1491.88
489.914	1460.88
490.132	1491.88
490.35	1456.88
490.568	1579.88
490.786	1518.88
491.003	1493.88
491.221	1563.88
491.439	1590.88
491.657	1616.88
491.874	1625.88
492.092	1699.88
492.31	1735.88
492.527	1701.88
492.745	1650.88
492.963	1625.88
