Data from WStandard_LampEnergy10_LIBS07252019.E.O._I.C._HRD10591_15-55-41-928.txt Node
Date: Thu Jul 25 15:55:41 EDT 2019
User: cochatt
Spectrometer: HR+D1059
Trigger mode: 1
Integration Time (sec): 1.000000E-1
Scans to average: 1
Electric dark correction enabled: true
Nonlinearity correction enabled: false
Boxcar width: 0
XAxis mode: Wavelengths
Number of Pixels in Spectrum: 2048
>>>>>Begin Spectral Data<<<<<
223.165	-12.75
223.4	-12.75
223.635	-12.75
223.869	-11.75
224.104	-12.75
224.338	-23.75
224.573	-22.75
224.808	4.25
225.042	2.25
225.277	-4.75
225.511	0.25
225.746	2.25
225.98	11.25
226.215	9.25
226.449	0.25
226.683	19.25
226.918	21.25
227.152	18.25
227.387	50.25
227.621	44.25
227.856	31.25
228.09	37.25
228.324	48.25
228.559	58.25
228.793	81.25
229.027	123.25
229.262	135.25
229.496	154.25
229.73	144.25
229.964	178.25
230.199	165.25
230.433	159.25
230.667	183.25
230.901	194.25
231.136	170.25
231.37	156.25
231.604	180.25
231.838	154.25
232.072	183.25
232.306	168.25
232.541	182.25
232.775	185.25
233.009	204.25
233.243	210.25
233.477	195.25
233.711	183.25
233.945	202.25
234.179	182.25
234.413	187.25
234.647	196.25
234.881	211.25
235.115	183.25
235.349	186.25
235.583	196.25
235.817	199.25
236.051	195.25
236.285	180.25
236.519	208.25
236.753	210.25
236.987	226.25
237.221	233.25
237.455	248.25
237.689	227.25
237.922	203.25
238.156	206.25
238.39	209.25
238.624	218.25
238.858	241.25
239.091	250.25
239.325	263.25
239.559	257.25
239.793	271.25
240.027	286.25
240.26	295.25
240.494	217.25
240.728	221.25
240.961	246.25
241.195	212.25
241.429	242.25
241.662	233.25
241.896	248.25
242.13	240.25
242.363	272.25
242.597	258.25
242.83	278.25
243.064	264.25
243.298	274.25
243.531	274.25
243.765	278.25
243.998	275.25
244.232	260.25
244.465	256.25
244.699	247.25
244.932	277.25
245.166	307.25
245.399	291.25
245.633	278.25
245.866	271.25
246.099	279.25
246.333	267.25
246.566	307.25
246.8	306.25
247.033	329.25
247.266	312.25
247.5	311.25
247.733	299.25
247.966	334.25
248.2	342.25
248.433	351.25
248.666	362.25
248.899	374.25
249.133	440.25
249.366	467.25
249.599	416.25
249.832	364.25
250.066	358.25
250.299	363.25
250.532	331.25
250.765	310.25
250.998	329.25
251.231	349.25
251.465	344.25
251.698	336.25
251.931	325.25
252.164	357.25
252.397	371.25
252.63	358.25
252.863	308.25
253.096	320.25
253.329	331.25
253.562	348.25
253.795	363.25
254.028	346.25
254.261	323.25
254.494	332.25
254.727	327.25
254.96	334.25
255.193	370.25
255.426	406.25
255.659	428.25
255.892	442.25
256.124	377.25
256.357	373.25
256.59	412.25
256.823	393.25
257.056	411.25
257.289	481.25
257.521	518.25
257.754	434.25
257.987	443.25
258.22	465.25
258.452	429.25
258.685	395.25
258.918	393.25
259.151	394.25
259.383	383.25
259.616	347.25
259.849	345.25
260.081	388.25
260.314	418.25
260.547	459.25
260.779	477.25
261.012	413.25
261.244	406.25
261.477	391.25
261.71	381.25
261.942	396.25
262.175	388.25
262.407	410.25
262.64	376.25
262.872	361.25
263.105	366.25
263.337	374.25
263.57	346.25
263.802	373.25
264.035	350.25
264.267	325.25
264.499	347.25
264.732	347.25
264.964	375.25
265.197	400.25
265.429	406.25
265.661	455.25
265.894	498.25
266.126	487.25
266.358	444.25
266.591	466.25
266.823	464.25
267.055	447.25
267.287	430.25
267.52	441.25
267.752	430.25
267.984	438.25
268.216	450.25
268.448	480.25
268.681	457.25
268.913	406.25
269.145	410.25
269.377	406.25
269.609	442.25
269.841	492.25
270.073	560.25
270.306	596.25
270.538	592.25
270.77	528.25
271.002	481.25
271.234	464.25
271.466	483.25
271.698	549.25
271.93	581.25
272.162	599.25
272.394	558.25
272.626	488.25
272.858	448.25
273.09	407.25
273.322	410.25
273.553	399.25
273.785	400.25
274.017	408.25
274.249	422.25
274.481	443.25
274.713	416.25
274.945	400.25
275.176	409.25
275.408	409.25
275.64	414.25
275.872	402.25
276.104	437.25
276.335	498.25
276.567	515.25
276.799	517.25
277.031	466.25
277.262	459.25
277.494	507.25
277.726	529.25
277.957	488.25
278.189	452.25
278.421	441.25
278.652	436.25
278.884	421.25
279.115	417.25
279.347	423.25
279.579	438.25
279.81	436.25
280.042	457.25
280.273	497.25
280.505	495.25
280.736	480.25
280.968	457.25
281.199	420.25
281.431	410.25
281.662	402.25
281.894	433.25
282.125	442.25
282.356	442.25
282.588	447.25
282.819	456.25
283.051	489.25
283.282	506.25
283.513	479.25
283.745	411.25
283.976	422.25
284.207	432.25
284.439	446.25
284.67	435.25
284.901	463.25
285.132	444.25
285.364	435.25
285.595	443.25
285.826	440.25
286.057	438.25
286.288	434.25
286.52	469.25
286.751	498.25
286.982	493.25
287.213	470.25
287.444	443.25
287.675	439.25
287.906	450.25
288.138	474.25
288.369	488.25
288.6	456.25
288.831	414.25
289.062	422.25
289.293	449.25
289.524	458.25
289.755	461.25
289.986	471.25
290.217	418.25
290.448	418.25
290.679	459.25
290.91	448.25
291.141	459.25
291.371	471.25
291.602	471.25
291.833	470.25
292.064	492.25
292.295	500.25
292.526	501.25
292.757	488.25
292.987	487.25
293.218	480.25
293.449	499.25
293.68	588.25
293.91	581.25
294.141	566.25
294.372	535.25
294.603	563.25
294.833	563.25
295.064	524.25
295.295	482.25
295.525	470.25
295.756	448.25
295.987	412.25
296.217	434.25
296.448	443.25
296.679	445.25
296.909	460.25
297.14	457.25
297.37	484.25
297.601	500.25
297.831	513.25
298.062	496.25
298.292	470.25
298.523	466.25
298.753	473.25
298.984	479.25
299.214	472.25
299.445	499.25
299.675	484.25
299.905	510.25
300.136	498.25
300.366	473.25
300.597	451.25
300.827	457.25
301.057	478.25
301.288	501.25
301.518	510.25
301.748	513.25
301.979	570.25
302.209	543.25
302.439	590.25
302.669	574.25
302.9	563.25
303.13	518.25
303.36	492.25
303.59	530.25
303.82	497.25
304.051	529.25
304.281	511.25
304.511	529.25
304.741	570.25
304.971	595.25
305.201	616.25
305.431	530.25
305.661	473.25
305.891	432.25
306.121	456.25
306.352	486.25
306.582	496.25
306.812	520.25
307.042	562.25
307.272	552.25
307.502	585.25
307.731	644.25
307.961	638.25
308.191	565.25
308.421	524.25
308.651	507.25
308.881	478.25
309.111	500.25
309.341	475.25
309.571	486.25
309.8	486.25
310.03	512.25
310.26	490.25
310.49	471.25
310.72	510.25
310.949	541.25
311.179	518.25
311.409	497.25
311.639	503.25
311.868	506.25
312.098	501.25
312.328	513.25
312.557	480.25
312.787	502.25
313.017	524.25
313.246	512.25
313.476	501.25
313.706	518.25
313.935	559.25
314.165	518.25
314.394	580.25
314.624	597.25
314.853	619.25
315.083	612.25
315.312	636.25
315.542	557.25
315.771	555.25
316.001	553.25
316.23	581.25
316.46	555.25
316.689	547.25
316.919	525.25
317.148	518.25
317.377	530.25
317.607	592.25
317.836	630.25
318.065	636.25
318.295	603.25
318.524	585.25
318.753	561.25
318.983	553.25
319.212	540.25
319.441	527.25
319.67	559.25
319.9	573.25
320.129	620.25
320.358	600.25
320.587	609.25
320.816	601.25
321.046	601.25
321.275	564.25
321.504	607.25
321.733	626.25
321.962	590.25
322.191	565.25
322.42	542.25
322.649	546.25
322.878	554.25
323.108	555.25
323.337	577.25
323.566	574.25
323.795	572.25
324.024	553.25
324.253	551.25
324.482	557.25
324.71	543.25
324.939	538.25
325.168	522.25
325.397	562.25
325.626	558.25
325.855	572.25
326.084	547.25
326.313	555.25
326.542	547.25
326.77	576.25
326.999	570.25
327.228	534.25
327.457	552.25
327.686	529.25
327.914	546.25
328.143	545.25
328.372	572.25
328.6	567.25
328.829	536.25
329.058	542.25
329.287	538.25
329.515	564.25
329.744	585.25
329.972	607.25
330.201	622.25
330.43	616.25
330.658	577.25
330.887	579.25
331.115	589.25
331.344	611.25
331.572	588.25
331.801	573.25
332.03	570.25
332.258	596.25
332.486	600.25
332.715	586.25
332.943	601.25
333.172	589.25
333.4	595.25
333.629	623.25
333.857	675.25
334.085	745.25
334.314	804.25
334.542	831.25
334.771	752.25
334.999	682.25
335.227	647.25
335.455	644.25
335.684	638.25
335.912	648.25
336.14	663.25
336.369	638.25
336.597	586.25
336.825	594.25
337.053	618.25
337.281	668.25
337.51	686.25
337.738	692.25
337.966	638.25
338.194	606.25
338.422	598.25
338.65	577.25
338.878	568.25
339.106	563.25
339.334	558.25
339.562	555.25
339.79	588.25
340.018	608.25
340.246	622.25
340.474	602.25
340.702	623.25
340.93	612.25
341.158	615.25
341.386	622.25
341.614	613.25
341.842	589.25
342.07	597.25
342.298	604.25
342.526	603.25
342.754	572.25
342.981	585.25
343.209	558.25
343.437	604.25
343.665	580.25
343.893	600.25
344.12	626.25
344.348	611.25
344.576	575.25
344.804	587.25
345.031	586.25
345.259	562.25
345.487	556.25
345.714	553.25
345.942	541.25
346.17	551.25
346.397	577.25
346.625	569.25
346.853	543.25
347.08	528.25
347.308	566.25
347.535	567.25
347.763	581.25
347.99	571.25
348.218	558.25
348.445	568.25
348.673	541.25
348.9	568.25
349.128	602.25
349.355	606.25
349.583	594.25
349.81	558.25
350.037	542.25
350.265	548.25
350.492	521.25
350.72	555.25
350.947	580.25
351.174	588.25
351.402	558.25
351.629	511.25
351.856	527.25
352.083	523.25
352.311	560.25
352.538	540.25
352.765	543.25
352.992	584.25
353.22	544.25
353.447	542.25
353.674	546.25
353.901	543.25
354.128	553.25
354.355	565.25
354.583	566.25
354.81	591.25
355.037	584.25
355.264	576.25
355.491	552.25
355.718	569.25
355.945	555.25
356.172	552.25
356.399	535.25
356.626	548.25
356.853	587.25
357.08	663.25
357.307	673.25
357.534	618.25
357.761	592.25
357.988	524.25
358.215	540.25
358.441	532.25
358.668	531.25
358.895	545.25
359.122	615.25
359.349	613.25
359.576	602.25
359.802	546.25
360.029	540.25
360.256	542.25
360.483	576.25
360.709	559.25
360.936	588.25
361.163	622.25
361.39	699.25
361.616	706.25
361.843	694.25
362.07	642.25
362.296	558.25
362.523	539.25
362.749	563.25
362.976	566.25
363.203	601.25
363.429	539.25
363.656	574.25
363.882	578.25
364.109	638.25
364.335	649.25
364.562	611.25
364.788	601.25
365.015	586.25
365.241	573.25
365.468	581.25
365.694	580.25
365.92	616.25
366.147	583.25
366.373	582.25
366.599	572.25
366.826	552.25
367.052	566.25
367.278	570.25
367.505	590.25
367.731	593.25
367.957	616.25
368.184	630.25
368.41	668.25
368.636	656.25
368.862	658.25
369.089	678.25
369.315	648.25
369.541	600.25
369.767	583.25
369.993	590.25
370.219	579.25
370.445	614.25
370.672	658.25
370.898	684.25
371.124	638.25
371.35	634.25
371.576	638.25
371.802	639.25
372.028	605.25
372.254	603.25
372.48	567.25
372.706	599.25
372.932	595.25
373.158	628.25
373.384	618.25
373.61	636.25
373.835	634.25
374.061	614.25
374.287	622.25
374.513	595.25
374.739	607.25
374.965	632.25
375.191	620.25
375.416	665.25
375.642	654.25
375.868	697.25
376.094	708.25
376.319	681.25
376.545	644.25
376.771	690.25
376.997	688.25
377.222	682.25
377.448	652.25
377.674	656.25
377.899	690.25
378.125	721.25
378.35	692.25
378.576	607.25
378.802	582.25
379.027	605.25
379.253	618.25
379.478	615.25
379.704	609.25
379.929	630.25
380.155	658.25
380.38	644.25
380.606	652.25
380.831	646.25
381.057	694.25
381.282	678.25
381.507	672.25
381.733	727.25
381.958	726.25
382.184	674.25
382.409	684.25
382.634	664.25
382.86	661.25
383.085	674.25
383.31	716.25
383.535	767.25
383.761	764.25
383.986	763.25
384.211	731.25
384.436	727.25
384.662	748.25
384.887	769.25
385.112	742.25
385.337	746.25
385.562	701.25
385.787	724.25
386.013	752.25
386.238	749.25
386.463	747.25
386.688	826.25
386.913	855.25
387.138	806.25
387.363	764.25
387.588	789.25
387.813	735.25
388.038	785.25
388.263	806.25
388.488	756.25
388.713	726.25
388.938	748.25
389.163	732.25
389.387	750.25
389.612	755.25
389.837	780.25
390.062	785.25
390.287	745.25
390.512	730.25
390.736	742.25
390.961	729.25
391.186	710.25
391.411	727.25
391.636	737.25
391.86	762.25
392.085	752.25
392.31	766.25
392.534	771.25
392.759	763.25
392.984	764.25
393.208	786.25
393.433	790.25
393.658	830.25
393.882	816.25
394.107	780.25
394.331	739.25
394.556	750.25
394.78	778.25
395.005	814.25
395.229	824.25
395.454	841.25
395.678	859.25
395.903	829.25
396.127	807.25
396.352	806.25
396.576	845.25
396.801	849.25
397.025	862.25
397.249	838.25
397.474	826.25
397.698	835.25
397.922	838.25
398.147	870.25
398.371	929.25
398.595	895.25
398.82	868.25
399.044	904.25
399.268	922.25
399.492	989.25
399.717	975.25
399.941	986.25
400.165	982.25
400.389	936.25
400.613	971.25
400.837	1130.25
401.062	1212.25
401.286	1024.25
401.51	966.25
401.734	985.25
401.958	929.25
402.182	884.25
402.406	891.25
402.63	889.25
402.854	917.25
403.078	898.25
403.302	911.25
403.526	885.25
403.75	914.25
403.974	939.25
404.198	942.25
404.422	972.25
404.645	1011.25
404.869	954.25
405.093	881.25
405.317	908.25
405.541	910.25
405.765	916.25
405.988	889.25
406.212	947.25
406.436	944.25
406.66	987.25
406.883	1045.25
407.107	1151.25
407.331	1216.25
407.555	1250.25
407.778	1125.25
408.002	992.25
408.226	972.25
408.449	956.25
408.673	944.25
408.896	943.25
409.12	954.25
409.344	933.25
409.567	913.25
409.791	926.25
410.014	979.25
410.238	1022.25
410.461	1020.25
410.685	952.25
410.908	930.25
411.132	979.25
411.355	943.25
411.578	936.25
411.802	932.25
412.025	930.25
412.249	935.25
412.472	888.25
412.695	896.25
412.919	920.25
413.142	886.25
413.365	911.25
413.589	927.25
413.812	972.25
414.035	1023.25
414.258	935.25
414.482	906.25
414.705	912.25
414.928	888.25
415.151	895.25
415.374	938.25
415.597	919.25
415.821	946.25
416.044	953.25
416.267	919.25
416.49	913.25
416.713	903.25
416.936	936.25
417.159	965.25
417.382	955.25
417.605	912.25
417.828	932.25
418.051	942.25
418.274	952.25
418.497	912.25
418.72	931.25
418.943	907.25
419.166	954.25
419.389	992.25
419.611	964.25
419.834	930.25
420.057	939.25
420.28	932.25
420.503	921.25
420.726	936.25
420.948	928.25
421.171	906.25
421.394	936.25
421.617	984.25
421.839	985.25
422.062	972.25
422.285	930.25
422.507	955.25
422.73	900.25
422.953	882.25
423.175	855.25
423.398	898.25
423.621	922.25
423.843	958.25
424.066	973.25
424.288	989.25
424.511	1006.25
424.733	976.25
424.956	947.25
425.178	918.25
425.401	924.25
425.623	916.25
425.846	926.25
426.068	983.25
426.291	972.25
426.513	938.25
426.735	953.25
426.958	1042.25
427.18	1084.25
427.402	998.25
427.625	977.25
427.847	956.25
428.069	942.25
428.292	918.25
428.514	911.25
428.736	878.25
428.958	901.25
429.181	908.25
429.403	1081.25
429.625	1242.25
429.847	1037.25
430.069	968.25
430.292	1040.25
430.514	1048.25
430.736	959.25
430.958	1001.25
431.18	921.25
431.402	878.25
431.624	841.25
431.846	812.25
432.068	747.25
432.29	737.25
432.512	810.25
432.734	882.25
432.956	934.25
433.178	964.25
433.4	946.25
433.622	917.25
433.844	900.25
434.066	855.25
434.287	801.25
434.509	792.25
434.731	796.25
434.953	907.25
435.175	920.25
435.397	912.25
435.618	891.25
435.84	843.25
436.062	861.25
436.284	900.25
436.505	927.25
436.727	951.25
436.949	935.25
437.17	903.25
437.392	890.25
437.614	839.25
437.835	806.25
438.057	815.25
438.278	816.25
438.5	843.25
438.721	900.25
438.943	891.25
439.165	939.25
439.386	923.25
439.608	952.25
439.829	937.25
440.05	933.25
440.272	934.25
440.493	946.25
440.715	935.25
440.936	1024.25
441.158	1059.25
441.379	1036.25
441.6	1050.25
441.822	1011.25
442.043	992.25
442.264	966.25
442.486	946.25
442.707	931.25
442.928	939.25
443.149	983.25
443.371	1011.25
443.592	1018.25
443.813	1036.25
444.034	1006.25
444.255	993.25
444.476	1020.25
444.698	1036.25
444.919	1047.25
445.14	1123.25
445.361	1090.25
445.582	1065.25
445.803	1038.25
446.024	1032.25
446.245	1065.25
446.466	1058.25
446.687	1054.25
446.908	1037.25
447.129	1006.25
447.35	1008.25
447.571	986.25
447.792	964.25
448.013	962.25
448.234	961.25
448.455	979.25
448.675	978.25
448.896	897.25
449.117	900.25
449.338	924.25
449.559	958.25
449.779	973.25
450	1023.25
450.221	1030.25
450.442	1001.25
450.662	919.25
450.883	862.25
451.104	886.25
451.324	872.25
451.545	875.25
451.766	860.25
451.986	833.25
452.207	849.25
452.428	784.25
452.648	776.25
452.869	778.25
453.089	788.25
453.31	792.25
453.53	784.25
453.751	739.25
453.971	703.25
454.192	740.25
454.412	768.25
454.633	772.25
454.853	776.25
455.073	766.25
455.294	773.25
455.514	765.25
455.734	764.25
455.955	764.25
456.175	745.25
456.395	710.25
456.616	716.25
456.836	729.25
457.056	731.25
457.276	713.25
457.497	688.25
457.717	672.25
457.937	726.25
458.157	722.25
458.377	704.25
458.598	683.25
458.818	675.25
459.038	677.25
459.258	707.25
459.478	724.25
459.698	690.25
459.918	760.25
460.138	781.25
460.358	812.25
460.578	826.25
460.798	854.25
461.018	887.25
461.238	888.25
461.458	879.25
461.678	839.25
461.898	810.25
462.118	827.25
462.338	870.25
462.558	866.25
462.777	851.25
462.997	865.25
463.217	872.25
463.437	873.25
463.657	848.25
463.876	828.25
464.096	836.25
464.316	836.25
464.536	841.25
464.755	872.25
464.975	843.25
465.195	850.25
465.414	860.25
465.634	899.25
465.854	898.25
466.073	938.25
466.293	956.25
466.512	859.25
466.732	853.25
466.951	890.25
467.171	894.25
467.391	859.25
467.61	885.25
467.829	902.25
468.049	980.25
468.268	1053.25
468.488	970.25
468.707	894.25
468.927	917.25
469.146	892.25
469.365	908.25
469.585	921.25
469.804	897.25
470.023	923.25
470.243	925.25
470.462	955.25
470.681	934.25
470.901	918.25
471.12	913.25
471.339	917.25
471.558	922.25
471.777	895.25
471.997	905.25
472.216	852.25
472.435	777.25
472.654	766.25
472.873	790.25
473.092	822.25
473.311	819.25
473.53	818.25
473.749	803.25
473.968	842.25
474.187	838.25
474.406	823.25
474.625	857.25
474.844	894.25
475.063	880.25
475.282	865.25
475.501	812.25
475.72	827.25
475.939	868.25
476.158	850.25
476.377	875.25
476.596	862.25
476.814	807.25
477.033	819.25
477.252	844.25
477.471	916.25
477.69	942.25
477.908	914.25
478.127	971.25
478.346	1011.25
478.564	1011.25
478.783	995.25
479.002	1037.25
479.22	1004.25
479.439	1034.25
479.658	1035.25
479.876	983.25
480.095	880.25
480.313	892.25
480.532	894.25
480.751	856.25
480.969	845.25
481.188	795.25
481.406	769.25
481.624	784.25
481.843	785.25
482.061	786.25
482.28	884.25
482.498	902.25
482.717	852.25
482.935	898.25
483.153	972.25
483.372	1002.25
483.59	1017.25
483.808	993.25
484.027	919.25
484.245	996.25
484.463	1266.25
484.681	1271.25
484.9	1031.25
485.118	952.25
485.336	938.25
485.554	872.25
485.772	889.25
485.99	854.25
486.209	900.25
486.427	919.25
486.645	926.25
486.863	1013.25
487.081	1044.25
487.299	997.25
487.517	998.25
487.735	1086.25
487.953	1199.25
488.171	1170.25
488.389	1112.25
488.607	1095.25
488.825	1144.25
489.043	1081.25
489.261	984.25
489.479	1051.25
489.696	1044.25
489.914	1018.25
490.132	1035.25
490.35	1056.25
490.568	1144.25
490.786	1180.25
491.003	1200.25
491.221	1278.25
491.439	1266.25
491.657	1287.25
491.874	1363.25
492.092	1435.25
492.31	1521.25
492.527	1437.25
492.745	1375.25
492.963	1296.25
493.18	1324.25
493.398	1328.25
493.615	1323.25
493.833	1258.25
494.05	1225.25
494.268	1219.25
494.485	1215.25
494.703	1241.25
494.92	1211.25
495.138	1233.25
495.355	1218.25
495.573	1255.25
495.79	1270.25
496.008	1295.25
496.225	1228.25
496.442	1244.25
496.66	1211.25
496.877	1202.25
497.094	1223.25
497.312	1224.25
497.529	1237.25
497.746	1200.25
497.963	1297.25
498.181	1272.25
498.398	1225.25
498.615	1204.25
498.832	1161.25
499.049	1150.25
499.267	1169.25
499.484	1251.25
499.701	1344.25
499.918	1360.25
500.135	1487.25
500.352	1591.25
500.569	1561.25
