Data from WStandard_LampEnergy8_LIBS07252019.E.O._I.C._HRD10591_15-58-31-929.txt Node
Date: Thu Jul 25 15:58:31 EDT 2019
User: cochatt
Spectrometer: HR+D1059
Trigger mode: 1
Integration Time (sec): 1.000000E-1
Scans to average: 1
Electric dark correction enabled: true
Nonlinearity correction enabled: false
Boxcar width: 0
XAxis mode: Wavelengths
Number of Pixels in Spectrum: 2048
>>>>>Begin Spectral Data<<<<<
223.165	-13.69
223.4	-13.69
223.635	-13.69
223.869	-11.69
224.104	-13.69
224.338	-10.69
224.573	-12.69
224.808	-12.69
225.042	-11.69
225.277	-13.69
225.511	0.31
225.746	-3.69
225.98	4.31
226.215	10.31
226.449	15.31
226.683	15.31
226.918	25.31
227.152	33.31
227.387	36.31
227.621	35.31
227.856	39.31
228.09	51.31
228.324	55.31
228.559	40.31
228.793	94.31
229.027	199.31
229.262	224.31
229.496	202.31
229.73	232.31
229.964	258.31
230.199	265.31
230.433	274.31
230.667	280.31
230.901	267.31
231.136	287.31
231.37	268.31
231.604	273.31
231.838	279.31
232.072	284.31
232.306	257.31
232.541	281.31
232.775	309.31
233.009	341.31
233.243	313.31
233.477	290.31
233.711	305.31
233.945	313.31
234.179	303.31
234.413	325.31
234.647	340.31
234.881	308.31
235.115	295.31
235.349	308.31
235.583	314.31
235.817	291.31
236.051	306.31
236.285	297.31
236.519	311.31
236.753	357.31
236.987	356.31
237.221	361.31
237.455	383.31
237.689	373.31
237.922	361.31
238.156	355.31
238.39	360.31
238.624	379.31
238.858	396.31
239.091	406.31
239.325	420.31
239.559	483.31
239.793	490.31
240.027	522.31
240.26	497.31
240.494	387.31
240.728	389.31
240.961	366.31
241.195	392.31
241.429	434.31
241.662	411.31
241.896	389.31
242.13	407.31
242.363	441.31
242.597	479.31
242.83	466.31
243.064	480.31
243.298	464.31
243.531	467.31
243.765	463.31
243.998	473.31
244.232	422.31
244.465	411.31
244.699	405.31
244.932	462.31
245.166	507.31
245.399	501.31
245.633	452.31
245.866	459.31
246.099	478.31
246.333	473.31
246.566	495.31
246.8	533.31
247.033	577.31
247.266	557.31
247.5	522.31
247.733	541.31
247.966	567.31
248.2	627.31
248.433	611.31
248.666	607.31
248.899	694.31
249.133	773.31
249.366	831.31
249.599	708.31
249.832	608.31
250.066	619.31
250.299	624.31
250.532	580.31
250.765	571.31
250.998	595.31
251.231	580.31
251.465	625.31
251.698	575.31
251.931	585.31
252.164	593.31
252.397	618.31
252.63	598.31
252.863	531.31
253.096	529.31
253.329	575.31
253.562	597.31
253.795	631.31
254.028	623.31
254.261	596.31
254.494	587.31
254.727	567.31
254.96	611.31
255.193	669.31
255.426	721.31
255.659	786.31
255.892	789.31
256.124	700.31
256.357	651.31
256.59	701.31
256.823	717.31
257.056	720.31
257.289	834.31
257.521	892.31
257.754	846.31
257.987	780.31
258.22	827.31
258.452	823.31
258.685	673.31
258.918	673.31
259.151	665.31
259.383	637.31
259.616	591.31
259.849	611.31
260.081	703.31
260.314	767.31
260.547	796.31
260.779	833.31
261.012	757.31
261.244	700.31
261.477	675.31
261.71	677.31
261.942	705.31
262.175	706.31
262.407	703.31
262.64	669.31
262.872	634.31
263.105	603.31
263.337	641.31
263.57	639.31
263.802	646.31
264.035	622.31
264.267	597.31
264.499	567.31
264.732	646.31
264.964	667.31
265.197	661.31
265.429	728.31
265.661	770.31
265.894	851.31
266.126	874.31
266.358	785.31
266.591	834.31
266.823	909.31
267.055	786.31
267.287	772.31
267.52	773.31
267.752	774.31
267.984	789.31
268.216	819.31
268.448	822.31
268.681	821.31
268.913	743.31
269.145	699.31
269.377	705.31
269.609	755.31
269.841	888.31
270.073	999.31
270.306	1135.31
270.538	1143.31
270.77	981.31
271.002	875.31
271.234	830.31
271.466	845.31
271.698	902.31
271.93	1074.31
272.162	1060.31
272.394	991.31
272.626	932.31
272.858	809.31
273.09	724.31
273.322	725.31
273.553	688.31
273.785	707.31
274.017	736.31
274.249	771.31
274.481	777.31
274.713	711.31
274.945	719.31
275.176	695.31
275.408	693.31
275.64	697.31
275.872	703.31
276.104	773.31
276.335	831.31
276.567	938.31
276.799	923.31
277.031	833.31
277.262	842.31
277.494	852.31
277.726	923.31
277.957	874.31
278.189	789.31
278.421	772.31
278.652	748.31
278.884	747.31
279.115	737.31
279.347	743.31
279.579	751.31
279.81	779.31
280.042	826.31
280.273	893.31
280.505	906.31
280.736	893.31
280.968	839.31
281.199	744.31
281.431	731.31
281.662	727.31
281.894	761.31
282.125	745.31
282.356	779.31
282.588	805.31
282.819	781.31
283.051	871.31
283.282	904.31
283.513	876.31
283.745	799.31
283.976	714.31
284.207	719.31
284.439	743.31
284.67	752.31
284.901	811.31
285.132	819.31
285.364	799.31
285.595	772.31
285.826	776.31
286.057	764.31
286.288	754.31
286.52	805.31
286.751	851.31
286.982	875.31
287.213	813.31
287.444	744.31
287.675	739.31
287.906	832.31
288.138	842.31
288.369	804.31
288.6	787.31
288.831	761.31
289.062	748.31
289.293	785.31
289.524	777.31
289.755	780.31
289.986	805.31
290.217	735.31
290.448	775.31
290.679	806.31
290.91	779.31
291.141	816.31
291.371	855.31
291.602	848.31
291.833	837.31
292.064	849.31
292.295	872.31
292.526	856.31
292.757	900.31
292.987	837.31
293.218	812.31
293.449	883.31
293.68	970.31
293.91	995.31
294.141	984.31
294.372	943.31
294.603	947.31
294.833	987.31
295.064	925.31
295.295	843.31
295.525	815.31
295.756	772.31
295.987	743.31
296.217	755.31
296.448	779.31
296.679	761.31
296.909	754.31
297.14	793.31
297.37	817.31
297.601	827.31
297.831	893.31
298.062	917.31
298.292	821.31
298.523	808.31
298.753	808.31
298.984	799.31
299.214	811.31
299.445	835.31
299.675	851.31
299.905	859.31
300.136	808.31
300.366	812.31
300.597	785.31
300.827	806.31
301.057	815.31
301.288	856.31
301.518	861.31
301.748	903.31
301.979	941.31
302.209	940.31
302.439	985.31
302.669	994.31
302.9	931.31
303.13	859.31
303.36	873.31
303.59	893.31
303.82	881.31
304.051	867.31
304.281	858.31
304.511	903.31
304.741	972.31
304.971	1061.31
305.201	1069.31
305.431	963.31
305.661	818.31
305.891	752.31
306.121	785.31
306.352	831.31
306.582	874.31
306.812	889.31
307.042	946.31
307.272	966.31
307.502	1015.31
307.731	1046.31
307.961	1093.31
308.191	998.31
308.421	856.31
308.651	882.31
308.881	881.31
309.111	842.31
309.341	829.31
309.571	854.31
309.8	833.31
310.03	836.31
310.26	821.31
310.49	840.31
310.72	872.31
310.949	886.31
311.179	906.31
311.409	872.31
311.639	866.31
311.868	849.31
312.098	871.31
312.328	856.31
312.557	871.31
312.787	884.31
313.017	915.31
313.246	905.31
313.476	893.31
313.706	912.31
313.935	890.31
314.165	927.31
314.394	936.31
314.624	1031.31
314.853	1045.31
315.083	1063.31
315.312	1054.31
315.542	1010.31
315.771	901.31
316.001	938.31
316.23	953.31
316.46	955.31
316.689	917.31
316.919	881.31
317.148	896.31
317.377	919.31
317.607	960.31
317.836	1056.31
318.065	1122.31
318.295	1020.31
318.524	982.31
318.753	972.31
318.983	949.31
319.212	940.31
319.441	922.31
319.67	910.31
319.9	948.31
320.129	1019.31
320.358	1034.31
320.587	1063.31
320.816	1047.31
321.046	1004.31
321.275	995.31
321.504	1034.31
321.733	1063.31
321.962	1008.31
322.191	938.31
322.42	909.31
322.649	919.31
322.878	946.31
323.108	940.31
323.337	985.31
323.566	997.31
323.795	974.31
324.024	979.31
324.253	959.31
324.482	935.31
324.71	917.31
324.939	867.31
325.168	899.31
325.397	922.31
325.626	988.31
325.855	953.31
326.084	944.31
326.313	963.31
326.542	954.31
326.77	992.31
326.999	979.31
327.228	929.31
327.457	891.31
327.686	860.31
327.914	912.31
328.143	921.31
328.372	930.31
328.6	938.31
328.829	928.31
329.058	908.31
329.287	960.31
329.515	965.31
329.744	971.31
329.972	1028.31
330.201	1046.31
330.43	1034.31
330.658	984.31
330.887	1029.31
331.115	990.31
331.344	1013.31
331.572	987.31
331.801	973.31
332.03	986.31
332.258	1025.31
332.486	1002.31
332.715	1007.31
332.943	1026.31
333.172	972.31
333.4	997.31
333.629	1032.31
333.857	1073.31
334.085	1239.31
334.314	1401.31
334.542	1439.31
334.771	1346.31
334.999	1170.31
335.227	1084.31
335.455	1082.31
335.684	1057.31
335.912	1091.31
336.14	1091.31
336.369	1069.31
336.597	1034.31
336.825	1026.31
337.053	1063.31
337.281	1119.31
337.51	1179.31
337.738	1189.31
337.966	1130.31
338.194	1053.31
338.422	998.31
338.65	995.31
338.878	951.31
339.106	957.31
339.334	952.31
339.562	966.31
339.79	974.31
340.018	1057.31
340.246	1091.31
340.474	1043.31
340.702	1006.31
340.93	1021.31
341.158	1037.31
341.386	1004.31
341.614	1022.31
341.842	1002.31
342.07	998.31
342.298	1024.31
342.526	984.31
342.754	961.31
342.981	963.31
343.209	970.31
343.437	986.31
343.665	978.31
343.893	989.31
344.12	1080.31
344.348	1068.31
344.576	1021.31
344.804	989.31
345.031	987.31
345.259	993.31
345.487	938.31
345.714	914.31
345.942	939.31
346.17	927.31
346.397	957.31
346.625	918.31
346.853	914.31
347.08	898.31
347.308	902.31
347.535	923.31
347.763	978.31
347.99	950.31
348.218	906.31
348.445	930.31
348.673	955.31
348.9	975.31
349.128	1006.31
349.355	1019.31
349.583	1008.31
349.81	935.31
350.037	866.31
350.265	889.31
350.492	884.31
350.72	905.31
350.947	996.31
351.174	960.31
351.402	902.31
351.629	895.31
351.856	855.31
352.083	874.31
352.311	877.31
352.538	896.31
352.765	953.31
352.992	963.31
353.22	908.31
353.447	893.31
353.674	934.31
353.901	931.31
354.128	899.31
354.355	907.31
354.583	968.31
354.81	980.31
355.037	978.31
355.264	938.31
355.491	925.31
355.718	928.31
355.945	923.31
356.172	889.31
356.399	867.31
356.626	938.31
356.853	969.31
357.08	1077.31
357.307	1143.31
357.534	1068.31
357.761	956.31
357.988	890.31
358.215	886.31
358.441	900.31
358.668	903.31
358.895	905.31
359.122	964.31
359.349	1074.31
359.576	1003.31
359.802	937.31
360.029	923.31
360.256	907.31
360.483	899.31
360.709	935.31
360.936	988.31
361.163	993.31
361.39	1111.31
361.616	1193.31
361.843	1139.31
362.07	1071.31
362.296	936.31
362.523	908.31
362.749	941.31
362.976	956.31
363.203	970.31
363.429	934.31
363.656	894.31
363.882	970.31
364.109	1066.31
364.335	1100.31
364.562	1018.31
364.788	993.31
365.015	920.31
365.241	898.31
365.468	958.31
365.694	991.31
365.92	1005.31
366.147	970.31
366.373	945.31
366.599	899.31
366.826	929.31
367.052	921.31
367.278	924.31
367.505	948.31
367.731	957.31
367.957	967.31
368.184	1009.31
368.41	1074.31
368.636	1046.31
368.862	1065.31
369.089	1067.31
369.315	1007.31
369.541	988.31
369.767	960.31
369.993	947.31
370.219	957.31
370.445	1000.31
370.672	1023.31
370.898	1086.31
371.124	1067.31
371.35	1008.31
371.576	1042.31
371.802	1045.31
372.028	998.31
372.254	987.31
372.48	972.31
372.706	936.31
372.932	964.31
373.158	938.31
373.384	994.31
373.61	996.31
373.835	1058.31
374.061	995.31
374.287	1012.31
374.513	1010.31
374.739	1011.31
374.965	990.31
375.191	1015.31
375.416	998.31
375.642	1019.31
375.868	1115.31
376.094	1120.31
376.319	1077.31
376.545	993.31
376.771	1066.31
376.997	1090.31
377.222	1096.31
377.448	1024.31
377.674	1055.31
377.899	1068.31
378.125	1105.31
378.35	1081.31
378.576	980.31
378.802	965.31
379.027	995.31
379.253	986.31
379.478	1011.31
379.704	1029.31
379.929	1002.31
380.155	1047.31
380.38	1024.31
380.606	1023.31
380.831	1027.31
381.057	1103.31
381.282	1080.31
381.507	1041.31
381.733	1128.31
381.958	1154.31
382.184	1063.31
382.409	1041.31
382.634	1065.31
382.86	1041.31
383.085	1033.31
383.31	1076.31
383.535	1220.31
383.761	1224.31
383.986	1184.31
384.211	1116.31
384.436	1129.31
384.662	1182.31
384.887	1189.31
385.112	1138.31
385.337	1155.31
385.562	1111.31
385.787	1149.31
386.013	1185.31
386.238	1169.31
386.463	1155.31
386.688	1286.31
386.913	1317.31
387.138	1269.31
387.363	1207.31
387.588	1196.31
387.813	1176.31
388.038	1205.31
388.263	1229.31
388.488	1217.31
388.713	1093.31
388.938	1082.31
389.163	1107.31
389.387	1134.31
389.612	1140.31
389.837	1179.31
390.062	1168.31
390.287	1156.31
390.512	1137.31
390.736	1123.31
390.961	1093.31
391.186	1094.31
391.411	1112.31
391.636	1156.31
391.86	1149.31
392.085	1139.31
392.31	1167.31
392.534	1140.31
392.759	1147.31
392.984	1149.31
393.208	1161.31
393.433	1196.31
393.658	1221.31
393.882	1243.31
394.107	1174.31
394.331	1158.31
394.556	1114.31
394.78	1164.31
395.005	1185.31
395.229	1251.31
395.454	1329.31
395.678	1319.31
395.903	1214.31
396.127	1189.31
396.352	1213.31
396.576	1247.31
396.801	1279.31
397.025	1279.31
397.249	1243.31
397.474	1239.31
397.698	1242.31
397.922	1248.31
398.147	1319.31
398.371	1409.31
398.595	1377.31
398.82	1301.31
399.044	1368.31
399.268	1396.31
399.492	1435.31
399.717	1489.31
399.941	1536.31
400.165	1471.31
400.389	1459.31
400.613	1514.31
400.837	1684.31
401.062	1860.31
401.286	1545.31
401.51	1453.31
401.734	1497.31
401.958	1439.31
402.182	1344.31
402.406	1345.31
402.63	1330.31
402.854	1336.31
403.078	1321.31
403.302	1370.31
403.526	1344.31
403.75	1345.31
403.974	1330.31
404.198	1343.31
404.422	1425.31
404.645	1519.31
404.869	1442.31
405.093	1325.31
405.317	1305.31
405.541	1363.31
405.765	1403.31
405.988	1339.31
406.212	1399.31
406.436	1412.31
406.66	1477.31
406.883	1514.31
407.107	1725.31
407.331	1821.31
407.555	1926.31
407.778	1689.31
408.002	1475.31
408.226	1431.31
408.449	1436.31
408.673	1352.31
408.896	1411.31
409.12	1421.31
409.344	1403.31
409.567	1363.31
409.791	1386.31
410.014	1403.31
410.238	1491.31
410.461	1531.31
410.685	1380.31
410.908	1351.31
411.132	1396.31
411.355	1354.31
411.578	1340.31
411.802	1353.31
412.025	1348.31
412.249	1368.31
412.472	1303.31
412.695	1315.31
412.919	1307.31
413.142	1279.31
413.365	1348.31
413.589	1395.31
413.812	1453.31
414.035	1455.31
414.258	1336.31
414.482	1313.31
414.705	1351.31
414.928	1317.31
415.151	1298.31
415.374	1332.31
415.597	1340.31
415.821	1370.31
416.044	1343.31
416.267	1356.31
416.49	1265.31
416.713	1277.31
416.936	1325.31
417.159	1371.31
417.382	1379.31
417.605	1328.31
417.828	1345.31
418.051	1343.31
418.274	1330.31
418.497	1264.31
418.72	1318.31
418.943	1256.31
419.166	1343.31
419.389	1380.31
419.611	1319.31
419.834	1314.31
420.057	1319.31
420.28	1282.31
420.503	1300.31
420.726	1321.31
420.948	1340.31
421.171	1299.31
421.394	1321.31
421.617	1332.31
421.839	1340.31
422.062	1354.31
422.285	1296.31
422.507	1288.31
422.73	1225.31
422.953	1236.31
423.175	1251.31
423.398	1280.31
423.621	1288.31
423.843	1294.31
424.066	1373.31
424.288	1388.31
424.511	1457.31
424.733	1379.31
424.956	1250.31
425.178	1249.31
425.401	1253.31
425.623	1309.31
425.846	1285.31
426.068	1336.31
426.291	1375.31
426.513	1329.31
426.735	1303.31
426.958	1435.31
427.18	1513.31
427.402	1386.31
427.625	1444.31
427.847	1407.31
428.069	1312.31
428.292	1268.31
428.514	1245.31
428.736	1195.31
428.958	1240.31
429.181	1281.31
429.403	1508.31
429.625	1761.31
429.847	1495.31
430.069	1296.31
430.292	1460.31
430.514	1484.31
430.736	1362.31
430.958	1401.31
431.18	1329.31
431.402	1226.31
431.624	1171.31
431.846	1199.31
432.068	1147.31
432.29	1179.31
432.512	1197.31
432.734	1237.31
432.956	1305.31
433.178	1346.31
433.4	1331.31
433.622	1316.31
433.844	1279.31
434.066	1202.31
434.287	1218.31
434.509	1209.31
434.731	1293.31
434.953	1370.31
435.175	1353.31
435.397	1288.31
435.618	1256.31
435.84	1260.31
436.062	1263.31
436.284	1283.31
436.505	1301.31
436.727	1351.31
436.949	1259.31
437.17	1266.31
437.392	1242.31
437.614	1208.31
437.835	1200.31
438.057	1260.31
438.278	1287.31
438.5	1237.31
438.721	1235.31
438.943	1234.31
439.165	1253.31
439.386	1268.31
439.608	1270.31
439.829	1253.31
440.05	1273.31
440.272	1254.31
440.493	1222.31
440.715	1301.31
440.936	1379.31
441.158	1431.31
441.379	1391.31
441.6	1384.31
441.822	1331.31
442.043	1362.31
442.264	1326.31
442.486	1263.31
442.707	1259.31
442.928	1226.31
443.149	1305.31
443.371	1381.31
443.592	1422.31
443.813	1362.31
444.034	1385.31
444.255	1363.31
444.476	1398.31
444.698	1431.31
444.919	1396.31
445.14	1512.31
445.361	1460.31
445.582	1500.31
445.803	1403.31
446.024	1421.31
446.245	1467.31
446.466	1385.31
446.687	1377.31
446.908	1336.31
447.129	1321.31
447.35	1323.31
447.571	1336.31
447.792	1251.31
448.013	1260.31
448.234	1288.31
448.455	1331.31
448.675	1334.31
448.896	1232.31
449.117	1238.31
449.338	1238.31
449.559	1297.31
449.779	1373.31
450	1436.31
450.221	1506.31
450.442	1456.31
450.662	1290.31
450.883	1185.31
451.104	1153.31
451.324	1192.31
451.545	1231.31
451.766	1195.31
451.986	1129.31
452.207	1156.31
452.428	1097.31
452.648	1105.31
452.869	1153.31
453.089	1185.31
453.31	1153.31
453.53	1161.31
453.751	1136.31
453.971	1032.31
454.192	1120.31
454.412	1168.31
454.633	1189.31
454.853	1131.31
455.073	1052.31
455.294	1109.31
455.514	1079.31
455.734	1098.31
455.955	1104.31
456.175	1084.31
456.395	1073.31
456.616	1110.31
456.836	1113.31
457.056	1094.31
457.276	1105.31
457.497	1075.31
457.717	1041.31
457.937	1053.31
458.157	1083.31
458.377	1056.31
458.598	1071.31
458.818	1037.31
459.038	1129.31
459.258	1139.31
459.478	1153.31
459.698	1119.31
459.918	1192.31
460.138	1227.31
460.358	1256.31
460.578	1290.31
460.798	1279.31
461.018	1379.31
461.238	1309.31
461.458	1275.31
461.678	1284.31
461.898	1240.31
462.118	1211.31
462.338	1261.31
462.558	1251.31
462.777	1293.31
462.997	1344.31
463.217	1395.31
463.437	1356.31
463.657	1276.31
463.876	1251.31
464.096	1277.31
464.316	1279.31
464.536	1299.31
464.755	1314.31
464.975	1347.31
465.195	1286.31
465.414	1338.31
465.634	1301.31
465.854	1308.31
466.073	1437.31
466.293	1349.31
466.512	1194.31
466.732	1213.31
466.951	1265.31
467.171	1264.31
467.391	1205.31
467.61	1192.31
467.829	1222.31
468.049	1357.31
468.268	1447.31
468.488	1371.31
468.707	1271.31
468.927	1234.31
469.146	1249.31
469.365	1227.31
469.585	1267.31
469.804	1215.31
470.023	1263.31
470.243	1283.31
470.462	1257.31
470.681	1216.31
470.901	1265.31
471.12	1211.31
471.339	1224.31
471.558	1241.31
471.777	1159.31
471.997	1252.31
472.216	1190.31
472.435	1128.31
472.654	1147.31
472.873	1183.31
473.092	1235.31
473.311	1189.31
473.53	1149.31
473.749	1206.31
473.968	1209.31
474.187	1221.31
474.406	1282.31
474.625	1196.31
474.844	1228.31
475.063	1216.31
475.282	1238.31
475.501	1202.31
475.72	1214.31
475.939	1302.31
476.158	1247.31
476.377	1223.31
476.596	1201.31
476.814	1205.31
477.033	1233.31
477.252	1302.31
477.471	1313.31
477.69	1307.31
477.908	1255.31
478.127	1371.31
478.346	1457.31
478.564	1417.31
478.783	1384.31
479.002	1472.31
479.22	1425.31
479.439	1486.31
479.658	1585.31
479.876	1543.31
480.095	1368.31
480.313	1383.31
480.532	1320.31
480.751	1282.31
480.969	1350.31
481.188	1316.31
481.406	1258.31
481.624	1246.31
481.843	1279.31
482.061	1299.31
482.28	1360.31
482.498	1353.31
482.717	1308.31
482.935	1319.31
483.153	1363.31
483.372	1376.31
483.59	1404.31
483.808	1361.31
484.027	1365.31
484.245	1483.31
484.463	1777.31
484.681	1919.31
484.9	1474.31
485.118	1395.31
485.336	1349.31
485.554	1367.31
485.772	1427.31
485.99	1344.31
486.209	1394.31
486.427	1386.31
486.645	1388.31
486.863	1440.31
487.081	1467.31
487.299	1459.31
487.517	1456.31
487.735	1460.31
487.953	1506.31
488.171	1490.31
488.389	1495.31
488.607	1487.31
488.825	1592.31
489.043	1540.31
489.261	1418.31
489.479	1518.31
489.696	1499.31
489.914	1460.31
490.132	1459.31
490.35	1471.31
490.568	1543.31
490.786	1530.31
491.003	1503.31
491.221	1563.31
491.439	1586.31
491.657	1594.31
491.874	1626.31
492.092	1688.31
492.31	1723.31
492.527	1691.31
492.745	1614.31
492.963	1636.31
493.18	1654.31
493.398	1703.31
