Data from WStandard_LampEnergy10_LIBS07252019.E.O._I.C._HRD10591_15-54-09-928.txt Node
Date: Thu Jul 25 15:54:09 EDT 2019
User: cochatt
Spectrometer: HR+D1059
Trigger mode: 1
Integration Time (sec): 1.000000E-1
Scans to average: 1
Electric dark correction enabled: true
Nonlinearity correction enabled: false
Boxcar width: 0
XAxis mode: Wavelengths
Number of Pixels in Spectrum: 2048
>>>>>Begin Spectral Data<<<<<
223.165	-26.75
223.4	-26.75
223.635	-26.75
223.869	-15.75
224.104	-14.75
224.338	-24.75
224.573	-20.75
224.808	-18.75
225.042	0.25
225.277	-13.75
225.511	-7.75
225.746	2.25
225.98	7.25
226.215	22.25
226.449	25.25
226.683	33.25
226.918	20.25
227.152	32.25
227.387	33.25
227.621	35.25
227.856	33.25
228.09	51.25
228.324	39.25
228.559	31.25
228.793	80.25
229.027	132.25
229.262	140.25
229.496	137.25
229.73	158.25
229.964	165.25
230.199	157.25
230.433	171.25
230.667	175.25
230.901	180.25
231.136	167.25
231.37	177.25
231.604	167.25
231.838	170.25
232.072	171.25
232.306	162.25
232.541	194.25
232.775	207.25
233.009	211.25
233.243	182.25
233.477	193.25
233.711	198.25
233.945	203.25
234.179	206.25
234.413	207.25
234.647	225.25
234.881	212.25
235.115	192.25
235.349	191.25
235.583	218.25
235.817	196.25
236.051	196.25
236.285	192.25
236.519	198.25
236.753	224.25
236.987	215.25
237.221	228.25
237.455	226.25
237.689	234.25
237.922	217.25
238.156	196.25
238.39	222.25
238.624	224.25
238.858	245.25
239.091	230.25
239.325	265.25
239.559	293.25
239.793	302.25
240.027	315.25
240.26	294.25
240.494	250.25
240.728	229.25
240.961	241.25
241.195	244.25
241.429	255.25
241.662	243.25
241.896	263.25
242.13	260.25
242.363	276.25
242.597	291.25
242.83	275.25
243.064	264.25
243.298	292.25
243.531	281.25
243.765	291.25
243.998	279.25
244.232	264.25
244.465	246.25
244.699	246.25
244.932	278.25
245.166	292.25
245.399	287.25
245.633	275.25
245.866	288.25
246.099	294.25
246.333	297.25
246.566	296.25
246.8	304.25
247.033	327.25
247.266	329.25
247.5	306.25
247.733	319.25
247.966	334.25
248.2	353.25
248.433	368.25
248.666	365.25
248.899	401.25
249.133	440.25
249.366	466.25
249.599	407.25
249.832	379.25
250.066	360.25
250.299	360.25
250.532	361.25
250.765	336.25
250.998	337.25
251.231	352.25
251.465	356.25
251.698	317.25
251.931	349.25
252.164	347.25
252.397	364.25
252.63	370.25
252.863	346.25
253.096	340.25
253.329	353.25
253.562	343.25
253.795	350.25
254.028	385.25
254.261	349.25
254.494	353.25
254.727	339.25
254.96	335.25
255.193	403.25
255.426	456.25
255.659	456.25
255.892	467.25
256.124	392.25
256.357	387.25
256.59	388.25
256.823	419.25
257.056	444.25
257.289	462.25
257.521	522.25
257.754	478.25
257.987	451.25
258.22	482.25
258.452	475.25
258.685	372.25
258.918	403.25
259.151	381.25
259.383	367.25
259.616	339.25
259.849	375.25
260.081	406.25
260.314	445.25
260.547	479.25
260.779	475.25
261.012	452.25
261.244	398.25
261.477	389.25
261.71	403.25
261.942	409.25
262.175	392.25
262.407	407.25
262.64	382.25
262.872	383.25
263.105	376.25
263.337	370.25
263.57	382.25
263.802	387.25
264.035	356.25
264.267	354.25
264.499	349.25
264.732	374.25
264.964	382.25
265.197	402.25
265.429	449.25
265.661	462.25
265.894	521.25
266.126	503.25
266.358	445.25
266.591	459.25
266.823	484.25
267.055	467.25
267.287	457.25
267.52	451.25
267.752	458.25
267.984	457.25
268.216	470.25
268.448	455.25
268.681	445.25
268.913	428.25
269.145	388.25
269.377	417.25
269.609	480.25
269.841	524.25
270.073	601.25
270.306	646.25
270.538	625.25
270.77	543.25
271.002	511.25
271.234	471.25
271.466	513.25
271.698	551.25
271.93	626.25
272.162	597.25
272.394	563.25
272.626	519.25
272.858	479.25
273.09	397.25
273.322	403.25
273.553	400.25
273.785	405.25
274.017	434.25
274.249	467.25
274.481	457.25
274.713	431.25
274.945	399.25
275.176	404.25
275.408	412.25
275.64	420.25
275.872	404.25
276.104	453.25
276.335	492.25
276.567	529.25
276.799	512.25
277.031	510.25
277.262	496.25
277.494	491.25
277.726	548.25
277.957	510.25
278.189	492.25
278.421	448.25
278.652	441.25
278.884	433.25
279.115	440.25
279.347	448.25
279.579	421.25
279.81	433.25
280.042	477.25
280.273	506.25
280.505	515.25
280.736	513.25
280.968	485.25
281.199	438.25
281.431	409.25
281.662	441.25
281.894	437.25
282.125	424.25
282.356	442.25
282.588	469.25
282.819	453.25
283.051	496.25
283.282	514.25
283.513	511.25
283.745	445.25
283.976	432.25
284.207	433.25
284.439	446.25
284.67	449.25
284.901	450.25
285.132	465.25
285.364	447.25
285.595	462.25
285.826	451.25
286.057	470.25
286.288	437.25
286.52	453.25
286.751	510.25
286.982	508.25
287.213	473.25
287.444	445.25
287.675	447.25
287.906	459.25
288.138	488.25
288.369	468.25
288.6	465.25
288.831	437.25
289.062	436.25
289.293	455.25
289.524	459.25
289.755	481.25
289.986	458.25
290.217	440.25
290.448	449.25
290.679	444.25
290.91	470.25
291.141	488.25
291.371	507.25
291.602	479.25
291.833	504.25
292.064	491.25
292.295	471.25
292.526	514.25
292.757	507.25
292.987	489.25
293.218	495.25
293.449	530.25
293.68	592.25
293.91	591.25
294.141	574.25
294.372	552.25
294.603	573.25
294.833	586.25
295.064	525.25
295.295	488.25
295.525	495.25
295.756	452.25
295.987	469.25
296.217	436.25
296.448	468.25
296.679	444.25
296.909	437.25
297.14	472.25
297.37	475.25
297.601	497.25
297.831	531.25
298.062	519.25
298.292	470.25
298.523	457.25
298.753	474.25
298.984	473.25
299.214	496.25
299.445	511.25
299.675	510.25
299.905	499.25
300.136	477.25
300.366	481.25
300.597	457.25
300.827	467.25
301.057	496.25
301.288	538.25
301.518	533.25
301.748	543.25
301.979	549.25
302.209	557.25
302.439	597.25
302.669	591.25
302.9	565.25
303.13	510.25
303.36	517.25
303.59	529.25
303.82	518.25
304.051	525.25
304.281	545.25
304.511	529.25
304.741	578.25
304.971	622.25
305.201	617.25
305.431	579.25
305.661	495.25
305.891	456.25
306.121	461.25
306.352	472.25
306.582	541.25
306.812	563.25
307.042	578.25
307.272	605.25
307.502	614.25
307.731	629.25
307.961	619.25
308.191	588.25
308.421	544.25
308.651	522.25
308.881	517.25
309.111	487.25
309.341	503.25
309.571	501.25
309.8	510.25
310.03	473.25
310.26	519.25
310.49	491.25
310.72	518.25
310.949	534.25
311.179	528.25
311.409	525.25
311.639	519.25
311.868	517.25
312.098	513.25
312.328	533.25
312.557	507.25
312.787	520.25
313.017	528.25
313.246	528.25
313.476	528.25
313.706	545.25
313.935	525.25
314.165	535.25
314.394	565.25
314.624	587.25
314.853	632.25
315.083	623.25
315.312	633.25
315.542	599.25
315.771	542.25
316.001	562.25
316.23	563.25
316.46	561.25
316.689	553.25
316.919	520.25
317.148	545.25
317.377	559.25
317.607	580.25
317.836	651.25
318.065	667.25
318.295	625.25
318.524	600.25
318.753	575.25
318.983	587.25
319.212	571.25
319.441	561.25
319.67	563.25
319.9	564.25
320.129	597.25
320.358	615.25
320.587	637.25
320.816	617.25
321.046	613.25
321.275	596.25
321.504	599.25
321.733	653.25
321.962	624.25
322.191	580.25
322.42	537.25
322.649	544.25
322.878	571.25
323.108	557.25
323.337	576.25
323.566	595.25
323.795	571.25
324.024	579.25
324.253	577.25
324.482	533.25
324.71	563.25
324.939	543.25
325.168	585.25
325.397	576.25
325.626	588.25
325.855	581.25
326.084	529.25
326.313	561.25
326.542	594.25
326.77	589.25
326.999	570.25
327.228	563.25
327.457	544.25
327.686	545.25
327.914	568.25
328.143	581.25
328.372	586.25
328.6	594.25
328.829	549.25
329.058	578.25
329.287	558.25
329.515	542.25
329.744	595.25
329.972	601.25
330.201	605.25
330.43	608.25
330.658	590.25
330.887	614.25
331.115	593.25
331.344	623.25
331.572	602.25
331.801	589.25
332.03	585.25
332.258	599.25
332.486	611.25
332.715	593.25
332.943	597.25
333.172	598.25
333.4	622.25
333.629	631.25
333.857	703.25
334.085	759.25
334.314	840.25
334.542	849.25
334.771	750.25
334.999	691.25
335.227	650.25
335.455	672.25
335.684	642.25
335.912	639.25
336.14	648.25
336.369	635.25
336.597	598.25
336.825	604.25
337.053	631.25
337.281	672.25
337.51	688.25
337.738	688.25
337.966	669.25
338.194	588.25
338.422	584.25
338.65	592.25
338.878	598.25
339.106	558.25
339.334	586.25
339.562	575.25
339.79	599.25
340.018	627.25
340.246	653.25
340.474	629.25
340.702	621.25
340.93	640.25
341.158	603.25
341.386	605.25
341.614	614.25
341.842	619.25
342.07	596.25
342.298	617.25
342.526	597.25
342.754	587.25
342.981	595.25
343.209	598.25
343.437	601.25
343.665	594.25
343.893	613.25
344.12	647.25
344.348	632.25
344.576	603.25
344.804	598.25
345.031	613.25
345.259	620.25
345.487	579.25
345.714	559.25
345.942	573.25
346.17	557.25
346.397	581.25
346.625	577.25
346.853	553.25
347.08	536.25
347.308	549.25
347.535	560.25
347.763	571.25
347.99	555.25
348.218	561.25
348.445	571.25
348.673	580.25
348.9	595.25
349.128	629.25
349.355	619.25
349.583	600.25
349.81	551.25
350.037	503.25
350.265	536.25
350.492	537.25
350.72	544.25
350.947	577.25
351.174	577.25
351.402	559.25
351.629	533.25
351.856	520.25
352.083	537.25
352.311	546.25
352.538	563.25
352.765	568.25
352.992	569.25
353.22	561.25
353.447	535.25
353.674	576.25
353.901	561.25
354.128	566.25
354.355	571.25
354.583	589.25
354.81	596.25
355.037	596.25
355.264	571.25
355.491	576.25
355.718	578.25
355.945	571.25
356.172	535.25
356.399	567.25
356.626	568.25
356.853	580.25
357.08	639.25
357.307	674.25
357.534	635.25
357.761	595.25
357.988	571.25
358.215	551.25
358.441	537.25
358.668	548.25
358.895	572.25
359.122	603.25
359.349	650.25
359.576	626.25
359.802	547.25
360.029	553.25
360.256	544.25
360.483	575.25
360.709	566.25
360.936	594.25
361.163	645.25
361.39	677.25
361.616	748.25
361.843	712.25
362.07	654.25
362.296	560.25
362.523	567.25
362.749	568.25
362.976	599.25
363.203	592.25
363.429	572.25
363.656	564.25
363.882	608.25
364.109	673.25
364.335	692.25
364.562	639.25
364.788	603.25
365.015	583.25
365.241	562.25
365.468	567.25
365.694	609.25
365.92	611.25
366.147	604.25
366.373	576.25
366.599	551.25
366.826	565.25
367.052	543.25
367.278	572.25
367.505	587.25
367.731	613.25
367.957	615.25
368.184	647.25
368.41	687.25
368.636	680.25
368.862	661.25
369.089	661.25
369.315	644.25
369.541	612.25
369.767	592.25
369.993	574.25
370.219	602.25
370.445	613.25
370.672	652.25
370.898	691.25
371.124	658.25
371.35	646.25
371.576	676.25
371.802	664.25
372.028	643.25
372.254	626.25
372.48	628.25
372.706	583.25
372.932	615.25
373.158	631.25
373.384	611.25
373.61	643.25
373.835	669.25
374.061	637.25
374.287	620.25
374.513	627.25
374.739	642.25
374.965	650.25
375.191	665.25
375.416	669.25
375.642	684.25
375.868	743.25
376.094	704.25
376.319	668.25
376.545	633.25
376.771	669.25
376.997	701.25
377.222	686.25
377.448	657.25
377.674	667.25
377.899	664.25
378.125	692.25
378.35	689.25
378.576	663.25
378.802	621.25
379.027	626.25
379.253	625.25
379.478	657.25
379.704	661.25
379.929	654.25
380.155	641.25
380.38	649.25
380.606	660.25
380.831	651.25
381.057	711.25
381.282	701.25
381.507	697.25
381.733	735.25
381.958	767.25
382.184	694.25
382.409	683.25
382.634	701.25
382.86	672.25
383.085	687.25
383.31	750.25
383.535	763.25
383.761	807.25
383.986	763.25
384.211	723.25
384.436	730.25
384.662	765.25
384.887	767.25
385.112	749.25
385.337	717.25
385.562	745.25
385.787	791.25
386.013	769.25
386.238	764.25
386.463	750.25
386.688	830.25
386.913	864.25
387.138	832.25
387.363	794.25
387.588	781.25
387.813	776.25
388.038	805.25
388.263	788.25
388.488	789.25
388.713	721.25
388.938	738.25
389.163	718.25
389.387	762.25
389.612	733.25
389.837	766.25
390.062	769.25
390.287	764.25
390.512	765.25
390.736	749.25
390.961	722.25
391.186	719.25
391.411	720.25
391.636	750.25
391.86	752.25
392.085	770.25
392.31	735.25
392.534	761.25
392.759	760.25
392.984	763.25
393.208	799.25
393.433	789.25
393.658	820.25
393.882	809.25
394.107	773.25
394.331	781.25
394.556	781.25
394.78	797.25
395.005	820.25
395.229	848.25
395.454	877.25
395.678	868.25
395.903	823.25
396.127	825.25
396.352	806.25
396.576	866.25
396.801	865.25
397.025	856.25
397.249	844.25
397.474	835.25
397.698	843.25
397.922	875.25
398.147	908.25
398.371	927.25
398.595	927.25
398.82	841.25
399.044	903.25
399.268	945.25
399.492	986.25
399.717	1008.25
399.941	1024.25
400.165	969.25
400.389	974.25
400.613	1015.25
400.837	1149.25
401.062	1216.25
401.286	1039.25
401.51	982.25
401.734	1001.25
401.958	954.25
402.182	901.25
402.406	884.25
402.63	872.25
402.854	872.25
403.078	909.25
403.302	913.25
403.526	934.25
403.75	924.25
403.974	924.25
404.198	944.25
404.422	984.25
404.645	1033.25
404.869	1009.25
405.093	955.25
405.317	923.25
405.541	901.25
405.765	937.25
405.988	948.25
406.212	993.25
406.436	986.25
406.66	988.25
406.883	1050.25
407.107	1136.25
407.331	1204.25
407.555	1284.25
407.778	1133.25
408.002	962.25
408.226	974.25
408.449	950.25
408.673	948.25
408.896	961.25
409.12	962.25
409.344	955.25
409.567	954.25
409.791	962.25
410.014	980.25
410.238	1030.25
410.461	1062.25
410.685	960.25
410.908	961.25
411.132	962.25
411.355	962.25
411.578	928.25
411.802	917.25
412.025	915.25
412.249	923.25
412.472	934.25
412.695	925.25
412.919	917.25
413.142	914.25
413.365	927.25
413.589	951.25
413.812	1001.25
414.035	1007.25
414.258	963.25
414.482	933.25
414.705	925.25
414.928	949.25
415.151	951.25
415.374	929.25
415.597	943.25
415.821	955.25
416.044	948.25
416.267	962.25
416.49	911.25
416.713	935.25
416.936	932.25
417.159	990.25
417.382	971.25
417.605	907.25
417.828	956.25
418.051	966.25
418.274	943.25
418.497	950.25
418.72	945.25
418.943	918.25
419.166	1003.25
419.389	988.25
419.611	958.25
419.834	945.25
420.057	936.25
420.28	930.25
420.503	981.25
420.726	961.25
420.948	937.25
421.171	945.25
421.394	944.25
421.617	985.25
421.839	1001.25
422.062	990.25
422.285	931.25
422.507	925.25
422.73	917.25
422.953	890.25
423.175	887.25
423.398	925.25
423.621	941.25
423.843	973.25
424.066	990.25
424.288	1040.25
424.511	1052.25
424.733	1024.25
424.956	932.25
425.178	926.25
425.401	929.25
425.623	980.25
425.846	957.25
426.068	983.25
426.291	1006.25
426.513	947.25
426.735	969.25
426.958	1073.25
427.18	1091.25
427.402	1003.25
427.625	1058.25
427.847	997.25
428.069	958.25
428.292	897.25
428.514	884.25
428.736	902.25
428.958	929.25
429.181	932.25
429.403	1078.25
429.625	1224.25
429.847	1040.25
430.069	939.25
430.292	1041.25
430.514	1054.25
430.736	992.25
430.958	982.25
431.18	921.25
431.402	880.25
431.624	841.25
431.846	775.25
432.068	739.25
432.29	735.25
432.512	829.25
432.734	891.25
432.956	961.25
433.178	973.25
433.4	985.25
433.622	984.25
433.844	917.25
434.066	887.25
434.287	807.25
434.509	783.25
434.731	840.25
434.953	948.25
435.175	941.25
435.397	917.25
435.618	904.25
435.84	848.25
436.062	852.25
436.284	900.25
436.505	929.25
436.727	961.25
436.949	919.25
437.17	926.25
437.392	891.25
437.614	867.25
437.835	803.25
438.057	821.25
438.278	872.25
438.5	895.25
438.721	883.25
438.943	913.25
439.165	957.25
439.386	928.25
439.608	947.25
439.829	943.25
440.05	977.25
440.272	970.25
440.493	940.25
440.715	966.25
440.936	1047.25
441.158	1083.25
441.379	1056.25
441.6	1029.25
441.822	1043.25
442.043	1019.25
442.264	1028.25
442.486	987.25
442.707	957.25
442.928	962.25
443.149	997.25
443.371	1016.25
443.592	1029.25
443.813	1035.25
444.034	1037.25
444.255	1040.25
444.476	1032.25
444.698	1052.25
444.919	1061.25
445.14	1156.25
445.361	1098.25
445.582	1066.25
445.803	1045.25
446.024	1051.25
446.245	1071.25
446.466	1076.25
446.687	1038.25
446.908	1041.25
447.129	1021.25
447.35	985.25
447.571	1025.25
447.792	959.25
448.013	979.25
448.234	964.25
448.455	990.25
448.675	1032.25
448.896	928.25
449.117	925.25
449.338	934.25
449.559	943.25
449.779	1011.25
450	1010.25
450.221	1059.25
450.442	1038.25
450.662	960.25
450.883	883.25
451.104	891.25
451.324	893.25
451.545	887.25
451.766	869.25
451.986	847.25
452.207	838.25
452.428	804.25
452.648	800.25
452.869	801.25
453.089	816.25
453.31	781.25
453.53	786.25
453.751	732.25
453.971	733.25
454.192	726.25
454.412	811.25
454.633	800.25
454.853	774.25
455.073	795.25
455.294	813.25
455.514	779.25
455.734	753.25
455.955	761.25
456.175	742.25
456.395	733.25
456.616	751.25
456.836	751.25
457.056	752.25
457.276	742.25
457.497	723.25
457.717	701.25
457.937	707.25
458.157	720.25
458.377	689.25
458.598	693.25
458.818	686.25
459.038	720.25
459.258	697.25
459.478	725.25
459.698	739.25
459.918	767.25
460.138	801.25
460.358	845.25
460.578	848.25
460.798	863.25
461.018	904.25
461.238	869.25
461.458	878.25
461.678	875.25
461.898	836.25
462.118	843.25
462.338	867.25
462.558	888.25
462.777	850.25
462.997	886.25
463.217	920.25
463.437	895.25
463.657	856.25
463.876	835.25
464.096	845.25
464.316	816.25
464.536	885.25
464.755	897.25
464.975	882.25
465.195	859.25
465.414	895.25
465.634	881.25
465.854	885.25
466.073	980.25
466.293	947.25
466.512	860.25
466.732	887.25
466.951	933.25
467.171	907.25
467.391	899.25
467.61	903.25
467.829	898.25
468.049	989.25
468.268	1059.25
468.488	986.25
468.707	938.25
468.927	898.25
469.146	885.25
469.365	916.25
469.585	934.25
469.804	935.25
470.023	925.25
470.243	943.25
470.462	948.25
470.681	939.25
470.901	976.25
471.12	951.25
471.339	954.25
471.558	951.25
471.777	907.25
471.997	901.25
472.216	850.25
472.435	802.25
472.654	780.25
472.873	815.25
473.092	835.25
473.311	856.25
473.53	865.25
473.749	857.25
473.968	855.25
474.187	856.25
474.406	831.25
474.625	872.25
474.844	867.25
475.063	883.25
475.282	893.25
475.501	799.25
475.72	871.25
475.939	937.25
476.158	905.25
476.377	875.25
476.596	853.25
476.814	830.25
477.033	811.25
477.252	857.25
477.471	911.25
477.69	919.25
477.908	937.25
478.127	975.25
478.346	1037.25
478.564	1022.25
478.783	1029.25
479.002	1064.25
479.22	1043.25
479.439	1048.25
479.658	1089.25
479.876	995.25
480.095	923.25
480.313	909.25
480.532	892.25
480.751	895.25
480.969	849.25
481.188	819.25
481.406	806.25
481.624	745.25
481.843	808.25
482.061	839.25
482.28	865.25
482.498	901.25
482.717	849.25
482.935	919.25
483.153	988.25
483.372	1032.25
483.59	1055.25
483.808	1005.25
484.027	955.25
484.245	999.25
484.463	1233.25
484.681	1318.25
484.9	1051.25
485.118	985.25
485.336	925.25
485.554	911.25
485.772	893.25
485.99	897.25
486.209	909.25
486.427	895.25
486.645	952.25
486.863	1013.25
487.081	1049.25
487.299	1024.25
487.517	1053.25
487.735	1121.25
487.953	1197.25
488.171	1187.25
488.389	1145.25
488.607	1111.25
488.825	1161.25
489.043	1077.25
489.261	980.25
489.479	1075.25
489.696	1081.25
489.914	1031.25
490.132	1053.25
490.35	1068.25
490.568	1172.25
490.786	1213.25
491.003	1228.25
491.221	1281.25
491.439	1313.25
491.657	1331.25
491.874	1341.25
492.092	1450.25
492.31	1525.25
492.527	1461.25
492.745	1345.25
492.963	1311.25
493.18	1341.25
493.398	1360.25
493.615	1334.25
493.833	1300.25
494.05	1245.25
494.268	1252.25
494.485	1286.25
494.703	1239.25
494.92	1255.25
495.138	1239.25
495.355	1260.25
495.573	1269.25
495.79	1337.25
496.008	1297.25
496.225	1242.25
496.442	1289.25
496.66	1234.25
496.877	1238.25
497.094	1252.25
497.312	1239.25
497.529	1182.25
497.746	1165.25
497.963	1299.25
498.181	1325.25
498.398	1259.25
498.615	1223.25
498.832	1172.25
499.049	1184.25
499.267	1189.25
499.484	1280.25
499.701	1354.25
499.918	1413.25
500.135	1475.25
