Data from WStandard_LampEnergy5.5LIBS07252019.E.O._I.C._HRD10591_16-07-40-920.txt Node
Date: Thu Jul 25 16:07:40 EDT 2019
User: cochatt
Spectrometer: HR+D1059
Trigger mode: 1
Integration Time (sec): 1.000000E-1
Scans to average: 1
Electric dark correction enabled: true
Nonlinearity correction enabled: false
Boxcar width: 0
XAxis mode: Wavelengths
Number of Pixels in Spectrum: 2048
>>>>>Begin Spectral Data<<<<<
223.165	-20.88
223.4	-20.88
223.635	-20.88
223.869	-4.88
224.104	-11.88
224.338	-8.88
224.573	-22.88
224.808	-11.88
225.042	-2.88
225.277	-14.88
225.511	0.12
225.746	9.12
225.98	4.12
226.215	7.12
226.449	13.12
226.683	14.12
226.918	25.12
227.152	26.12
227.387	35.12
227.621	32.12
227.856	40.12
228.09	32.12
228.324	52.12
228.559	43.12
228.793	138.12
229.027	381.12
229.262	378.12
229.496	387.12
229.73	404.12
229.964	461.12
230.199	487.12
230.433	488.12
230.667	524.12
230.901	524.12
231.136	486.12
231.37	469.12
231.604	492.12
231.838	473.12
232.072	476.12
232.306	469.12
232.541	513.12
232.775	576.12
233.009	639.12
233.243	595.12
233.477	541.12
233.711	559.12
233.945	613.12
234.179	556.12
234.413	617.12
234.647	622.12
234.881	595.12
235.115	565.12
235.349	581.12
235.583	573.12
235.817	577.12
236.051	533.12
236.285	559.12
236.519	601.12
236.753	668.12
236.987	711.12
237.221	707.12
237.455	787.12
237.689	727.12
237.922	707.12
238.156	667.12
238.39	691.12
238.624	723.12
238.858	749.12
239.091	818.12
239.325	841.12
239.559	981.12
239.793	979.12
240.027	1087.12
240.26	1065.12
240.494	815.12
240.728	727.12
240.961	757.12
241.195	761.12
241.429	840.12
241.662	849.12
241.896	773.12
242.13	802.12
242.363	860.12
242.597	923.12
242.83	892.12
243.064	929.12
243.298	989.12
243.531	938.12
243.765	975.12
243.998	950.12
244.232	835.12
244.465	805.12
244.699	805.12
244.932	910.12
245.166	1073.12
245.399	1023.12
245.633	922.12
245.866	896.12
246.099	957.12
246.333	996.12
246.566	1023.12
246.8	1066.12
247.033	1217.12
247.266	1092.12
247.5	1115.12
247.733	1113.12
247.966	1128.12
248.2	1289.12
248.433	1209.12
248.666	1236.12
248.899	1357.12
249.133	1625.12
249.366	1793.12
249.599	1494.12
249.832	1289.12
250.066	1326.12
250.299	1341.12
250.532	1279.12
250.765	1133.12
250.998	1181.12
251.231	1258.12
251.465	1275.12
251.698	1212.12
251.931	1205.12
252.164	1245.12
252.397	1309.12
252.63	1305.12
252.863	1144.12
253.096	1128.12
253.329	1176.12
253.562	1196.12
253.795	1360.12
254.028	1308.12
254.261	1223.12
254.494	1197.12
254.727	1143.12
254.96	1168.12
255.193	1267.12
255.426	1464.12
255.659	1715.12
255.892	1752.12
256.124	1424.12
256.357	1399.12
256.59	1476.12
256.823	1452.12
257.056	1435.12
257.289	1777.12
257.521	1973.12
257.754	1752.12
257.987	1629.12
258.22	1845.12
258.452	1837.12
258.685	1434.12
258.918	1411.12
259.151	1428.12
259.383	1364.12
259.616	1209.12
259.849	1251.12
260.081	1407.12
260.314	1623.12
260.547	1784.12
260.779	1826.12
261.012	1655.12
261.244	1512.12
261.477	1377.12
261.71	1465.12
261.942	1459.12
262.175	1409.12
262.407	1463.12
262.64	1426.12
262.872	1315.12
263.105	1281.12
263.337	1321.12
263.57	1337.12
263.802	1348.12
264.035	1259.12
264.267	1167.12
264.499	1176.12
264.732	1253.12
264.964	1338.12
265.197	1385.12
265.429	1427.12
265.661	1600.12
265.894	1834.12
266.126	1863.12
266.358	1631.12
266.591	1718.12
266.823	1865.12
267.055	1678.12
267.287	1636.12
267.52	1604.12
267.752	1572.12
267.984	1567.12
268.216	1677.12
268.448	1703.12
268.681	1668.12
268.913	1575.12
269.145	1459.12
269.377	1427.12
269.609	1558.12
269.841	1785.12
270.073	2100.12
270.306	2311.12
270.538	2539.12
270.77	2129.12
271.002	1763.12
271.234	1730.12
271.466	1679.12
271.698	1859.12
271.93	2288.12
272.162	2277.12
272.394	2077.12
272.626	1950.12
272.858	1733.12
273.09	1497.12
273.322	1494.12
273.553	1414.12
273.785	1440.12
274.017	1486.12
274.249	1635.12
274.481	1639.12
274.713	1508.12
274.945	1452.12
275.176	1473.12
275.408	1407.12
275.64	1435.12
275.872	1390.12
276.104	1458.12
276.335	1706.12
276.567	1901.12
276.799	1994.12
277.031	1764.12
277.262	1632.12
277.494	1706.12
277.726	1909.12
277.957	1890.12
278.189	1721.12
278.421	1592.12
278.652	1502.12
278.884	1531.12
279.115	1536.12
279.347	1552.12
279.579	1520.12
279.81	1516.12
280.042	1663.12
280.273	1855.12
280.505	1868.12
280.736	1873.12
280.968	1777.12
281.199	1546.12
281.431	1461.12
281.662	1493.12
281.894	1460.12
282.125	1538.12
282.356	1559.12
282.588	1620.12
282.819	1549.12
283.051	1692.12
283.282	1842.12
283.513	1793.12
283.745	1556.12
283.976	1468.12
284.207	1461.12
284.439	1508.12
284.67	1535.12
284.901	1578.12
285.132	1620.12
285.364	1585.12
285.595	1569.12
285.826	1547.12
286.057	1529.12
286.288	1507.12
286.52	1601.12
286.751	1751.12
286.982	1795.12
287.213	1605.12
287.444	1495.12
287.675	1483.12
287.906	1516.12
288.138	1686.12
288.369	1625.12
288.6	1540.12
288.831	1516.12
289.062	1549.12
289.293	1546.12
289.524	1561.12
289.755	1606.12
289.986	1614.12
290.217	1511.12
290.448	1516.12
290.679	1612.12
290.91	1581.12
291.141	1597.12
291.371	1662.12
291.602	1635.12
291.833	1618.12
292.064	1690.12
292.295	1644.12
292.526	1640.12
292.757	1771.12
292.987	1679.12
293.218	1559.12
293.449	1681.12
293.68	1975.12
293.91	2074.12
294.141	1964.12
294.372	1818.12
294.603	1867.12
294.833	1937.12
295.064	1849.12
295.295	1671.12
295.525	1660.12
295.756	1563.12
295.987	1428.12
296.217	1522.12
296.448	1516.12
296.679	1531.12
296.909	1538.12
297.14	1558.12
297.37	1522.12
297.601	1593.12
297.831	1787.12
298.062	1828.12
298.292	1594.12
298.523	1523.12
298.753	1588.12
298.984	1622.12
299.214	1586.12
299.445	1584.12
299.675	1655.12
299.905	1671.12
300.136	1605.12
300.366	1576.12
300.597	1500.12
300.827	1484.12
301.057	1573.12
301.288	1637.12
301.518	1647.12
301.748	1681.12
301.979	1779.12
302.209	1764.12
302.439	1935.12
302.669	2000.12
302.9	1899.12
303.13	1695.12
303.36	1665.12
303.59	1717.12
303.82	1692.12
304.051	1701.12
304.281	1693.12
304.511	1679.12
304.741	1744.12
304.971	1949.12
305.201	2145.12
305.431	2006.12
305.661	1651.12
305.891	1461.12
306.121	1478.12
306.352	1529.12
306.582	1611.12
306.812	1736.12
307.042	1884.12
307.272	1830.12
307.502	1908.12
307.731	2079.12
307.961	2231.12
308.191	2064.12
308.421	1762.12
308.651	1623.12
308.881	1596.12
309.111	1600.12
309.341	1575.12
309.571	1595.12
309.8	1617.12
310.03	1587.12
310.26	1575.12
310.49	1611.12
310.72	1648.12
310.949	1683.12
311.179	1735.12
311.409	1692.12
311.639	1625.12
311.868	1619.12
312.098	1655.12
312.328	1628.12
312.557	1617.12
312.787	1673.12
313.017	1710.12
313.246	1703.12
313.476	1675.12
313.706	1713.12
313.935	1705.12
314.165	1685.12
314.394	1711.12
314.624	1892.12
314.853	1995.12
315.083	2045.12
315.312	2095.12
315.542	1984.12
315.771	1783.12
316.001	1715.12
316.23	1868.12
316.46	1857.12
316.689	1826.12
316.919	1691.12
317.148	1638.12
317.377	1658.12
317.607	1778.12
317.836	2019.12
318.065	2075.12
318.295	1977.12
318.524	1958.12
318.753	1847.12
318.983	1787.12
319.212	1775.12
319.441	1743.12
319.67	1730.12
319.9	1796.12
320.129	1868.12
320.358	1907.12
320.587	1981.12
320.816	1963.12
321.046	1947.12
321.275	1800.12
321.504	1797.12
321.733	2017.12
321.962	1907.12
322.191	1765.12
322.42	1763.12
322.649	1746.12
322.878	1753.12
323.108	1788.12
323.337	1859.12
323.566	1838.12
323.795	1826.12
324.024	1805.12
324.253	1795.12
324.482	1810.12
324.71	1765.12
324.939	1660.12
325.168	1675.12
325.397	1761.12
325.626	1851.12
325.855	1853.12
326.084	1752.12
326.313	1817.12
326.542	1786.12
326.77	1839.12
326.999	1879.12
327.228	1759.12
327.457	1670.12
327.686	1641.12
327.914	1722.12
328.143	1754.12
328.372	1762.12
328.6	1740.12
328.829	1763.12
329.058	1731.12
329.287	1686.12
329.515	1826.12
329.744	1805.12
329.972	1870.12
330.201	1955.12
330.43	1925.12
330.658	1867.12
330.887	1817.12
331.115	1888.12
331.344	1913.12
331.572	1844.12
331.801	1861.12
332.03	1853.12
332.258	1847.12
332.486	1887.12
332.715	1881.12
332.943	1905.12
333.172	1871.12
333.4	1901.12
333.629	1920.12
333.857	2031.12
334.085	2238.12
334.314	2540.12
334.542	2807.12
334.771	2624.12
334.999	2231.12
335.227	2152.12
335.455	1991.12
335.684	1958.12
335.912	2026.12
336.14	2099.12
336.369	2076.12
336.597	1929.12
336.825	1887.12
337.053	1938.12
337.281	2041.12
337.51	2162.12
337.738	2255.12
337.966	2097.12
338.194	1910.12
338.422	1849.12
338.65	1831.12
338.878	1821.12
339.106	1802.12
339.334	1753.12
339.562	1703.12
339.79	1747.12
340.018	1886.12
340.246	1966.12
340.474	2017.12
340.702	1915.12
340.93	1944.12
341.158	1899.12
341.386	1880.12
341.614	1890.12
341.842	1833.12
342.07	1857.12
342.298	1864.12
342.526	1847.12
342.754	1839.12
342.981	1800.12
343.209	1819.12
343.437	1805.12
343.665	1806.12
343.893	1847.12
344.12	1931.12
344.348	1994.12
344.576	1935.12
344.804	1835.12
345.031	1815.12
345.259	1845.12
345.487	1813.12
345.714	1692.12
345.942	1703.12
346.17	1700.12
346.397	1725.12
346.625	1741.12
346.853	1672.12
347.08	1656.12
347.308	1640.12
347.535	1648.12
347.763	1782.12
347.99	1746.12
348.218	1621.12
348.445	1667.12
348.673	1734.12
348.9	1732.12
349.128	1828.12
349.355	1872.12
349.583	1788.12
349.81	1767.12
350.037	1628.12
350.265	1590.12
350.492	1623.12
350.72	1648.12
350.947	1729.12
351.174	1764.12
351.402	1702.12
351.629	1612.12
351.856	1585.12
352.083	1592.12
352.311	1594.12
352.538	1620.12
352.765	1664.12
352.992	1751.12
353.22	1668.12
353.447	1629.12
353.674	1647.12
353.901	1707.12
354.128	1659.12
354.355	1624.12
354.583	1672.12
354.81	1769.12
355.037	1786.12
355.264	1722.12
355.491	1695.12
355.718	1668.12
355.945	1737.12
356.172	1659.12
356.399	1624.12
356.626	1660.12
356.853	1715.12
357.08	1798.12
357.307	2022.12
357.534	2033.12
357.761	1758.12
357.988	1627.12
358.215	1596.12
358.441	1602.12
358.668	1605.12
358.895	1596.12
359.122	1695.12
359.349	1872.12
359.576	1860.12
359.802	1687.12
360.029	1637.12
360.256	1612.12
360.483	1655.12
360.709	1672.12
360.936	1727.12
361.163	1778.12
361.39	1945.12
361.616	2127.12
361.843	2070.12
362.07	1996.12
362.296	1736.12
362.523	1655.12
362.749	1652.12
362.976	1720.12
363.203	1716.12
363.429	1676.12
363.656	1615.12
363.882	1659.12
364.109	1831.12
364.335	2020.12
364.562	1894.12
364.788	1797.12
365.015	1717.12
365.241	1649.12
365.468	1669.12
365.694	1729.12
365.92	1842.12
366.147	1764.12
366.373	1659.12
366.599	1638.12
366.826	1640.12
367.052	1643.12
367.278	1652.12
367.505	1691.12
367.731	1731.12
367.957	1722.12
368.184	1769.12
368.41	1853.12
368.636	1835.12
368.862	1881.12
369.089	1923.12
369.315	1868.12
369.541	1770.12
369.767	1706.12
369.993	1622.12
370.219	1631.12
370.445	1694.12
370.672	1767.12
370.898	1877.12
371.124	1864.12
371.35	1733.12
371.576	1825.12
371.802	1908.12
372.028	1790.12
372.254	1730.12
372.48	1710.12
372.706	1699.12
372.932	1708.12
373.158	1715.12
373.384	1752.12
373.61	1765.12
373.835	1868.12
374.061	1796.12
374.287	1754.12
374.513	1746.12
374.739	1784.12
374.965	1777.12
375.191	1798.12
375.416	1820.12
375.642	1814.12
375.868	1912.12
376.094	1976.12
376.319	1904.12
376.545	1752.12
376.771	1793.12
376.997	1891.12
377.222	1869.12
377.448	1797.12
377.674	1841.12
377.899	1805.12
378.125	1929.12
378.35	1931.12
378.576	1776.12
378.802	1697.12
379.027	1736.12
379.253	1745.12
379.478	1762.12
379.704	1727.12
379.929	1745.12
380.155	1767.12
380.38	1747.12
380.606	1796.12
380.831	1762.12
381.057	1844.12
381.282	1869.12
381.507	1836.12
381.733	1947.12
381.958	2018.12
382.184	1874.12
382.409	1815.12
382.634	1871.12
382.86	1856.12
383.085	1852.12
383.31	1860.12
383.535	2026.12
383.761	2152.12
383.986	2084.12
384.211	1993.12
384.436	1951.12
384.662	2063.12
384.887	2157.12
385.112	2018.12
385.337	2001.12
385.562	2014.12
385.787	1991.12
386.013	2070.12
386.238	2073.12
386.463	2065.12
386.688	2159.12
386.913	2305.12
387.138	2245.12
387.363	2068.12
387.588	2101.12
387.813	2062.12
388.038	2059.12
388.263	2183.12
388.488	2118.12
388.713	1913.12
388.938	1902.12
389.163	1935.12
389.387	1978.12
389.612	1992.12
389.837	2021.12
390.062	2057.12
390.287	2034.12
390.512	2011.12
390.736	1952.12
390.961	1928.12
391.186	1916.12
391.411	1986.12
391.636	1948.12
391.86	1983.12
392.085	2009.12
392.31	1974.12
392.534	1999.12
392.759	2036.12
392.984	1978.12
393.208	2060.12
393.433	2115.12
393.658	2172.12
393.882	2179.12
394.107	2047.12
394.331	2020.12
394.556	2009.12
394.78	1974.12
395.005	2056.12
395.229	2136.12
395.454	2331.12
395.678	2313.12
395.903	2209.12
396.127	2116.12
396.352	2161.12
396.576	2188.12
396.801	2207.12
397.025	2204.12
397.249	2193.12
397.474	2167.12
397.698	2147.12
397.922	2191.12
398.147	2360.12
398.371	2373.12
398.595	2366.12
398.82	2311.12
399.044	2340.12
399.268	2437.12
399.492	2600.12
399.717	2705.12
399.941	2747.12
400.165	2643.12
400.389	2575.12
400.613	2525.12
400.837	2747.12
401.062	3217.12
401.286	2748.12
401.51	2531.12
401.734	2617.12
401.958	2555.12
402.182	2386.12
402.406	2310.12
402.63	2259.12
402.854	2248.12
403.078	2263.12
403.302	2391.12
403.526	2395.12
403.75	2339.12
403.974	2399.12
404.198	2420.12
404.422	2428.12
404.645	2581.12
404.869	2513.12
405.093	2347.12
405.317	2323.12
405.541	2402.12
405.765	2425.12
405.988	2405.12
406.212	2439.12
406.436	2471.12
406.66	2562.12
406.883	2591.12
407.107	2824.12
407.331	3119.12
407.555	3318.12
407.778	3193.12
408.002	2588.12
408.226	2527.12
408.449	2567.12
408.673	2517.12
408.896	2481.12
409.12	2533.12
409.344	2457.12
409.567	2366.12
409.791	2399.12
410.014	2464.12
410.238	2545.12
410.461	2692.12
410.685	2490.12
410.908	2344.12
411.132	2404.12
411.355	2374.12
411.578	2343.12
411.802	2360.12
412.025	2378.12
412.249	2340.12
412.472	2264.12
412.695	2261.12
412.919	2271.12
413.142	2254.12
413.365	2263.12
413.589	2346.12
413.812	2457.12
414.035	2546.12
414.258	2336.12
414.482	2263.12
414.705	2288.12
414.928	2258.12
415.151	2272.12
415.374	2357.12
415.597	2320.12
415.821	2327.12
416.044	2396.12
416.267	2433.12
416.49	2225.12
416.713	2170.12
416.936	2243.12
417.159	2303.12
417.382	2401.12
417.605	2210.12
417.828	2309.12
418.051	2353.12
418.274	2260.12
418.497	2197.12
418.72	2207.12
418.943	2216.12
419.166	2372.12
419.389	2480.12
419.611	2322.12
419.834	2303.12
420.057	2295.12
420.28	2199.12
420.503	2181.12
420.726	2245.12
420.948	2260.12
421.171	2152.12
421.394	2241.12
421.617	2230.12
421.839	2278.12
422.062	2198.12
422.285	2195.12
422.507	2166.12
422.73	2114.12
422.953	2125.12
423.175	2134.12
423.398	2175.12
423.621	2187.12
423.843	2171.12
424.066	2252.12
424.288	2313.12
424.511	2351.12
424.733	2313.12
424.956	2075.12
425.178	2073.12
425.401	2124.12
425.623	2165.12
425.846	2121.12
426.068	2257.12
426.291	2263.12
426.513	2240.12
426.735	2274.12
426.958	2330.12
427.18	2531.12
427.402	2317.12
427.625	2418.12
427.847	2423.12
428.069	2208.12
428.292	2145.12
428.514	2113.12
428.736	2130.12
428.958	2112.12
429.181	2111.12
429.403	2378.12
429.625	2934.12
429.847	2619.12
430.069	2213.12
430.292	2391.12
430.514	2503.12
430.736	2313.12
430.958	2400.12
431.18	2303.12
431.402	2135.12
431.624	2106.12
431.846	2106.12
432.068	2078.12
432.29	2125.12
432.512	2142.12
432.734	2178.12
432.956	2247.12
433.178	2314.12
433.4	2274.12
433.622	2235.12
433.844	2208.12
434.066	2067.12
434.287	2096.12
434.509	2161.12
434.731	2332.12
434.953	2417.12
435.175	2384.12
435.397	2275.12
435.618	2261.12
435.84	2249.12
436.062	2178.12
436.284	2209.12
436.505	2215.12
436.727	2268.12
436.949	2227.12
437.17	2137.12
437.392	2129.12
437.614	2173.12
437.835	2127.12
438.057	2267.12
438.278	2321.12
438.5	2201.12
438.721	2091.12
438.943	2141.12
439.165	2132.12
439.386	2076.12
439.608	2123.12
439.829	2125.12
440.05	2082.12
440.272	2068.12
440.493	2056.12
440.715	2100.12
440.936	2254.12
441.158	2481.12
441.379	2438.12
441.6	2375.12
441.822	2266.12
442.043	2319.12
442.264	2226.12
442.486	2117.12
442.707	2111.12
442.928	2126.12
443.149	2143.12
443.371	2336.12
443.592	2402.12
443.813	2351.12
444.034	2335.12
444.255	2331.12
444.476	2359.12
444.698	2438.12
444.919	2394.12
445.14	2465.12
445.361	2475.12
445.582	2591.12
445.803	2423.12
446.024	2313.12
446.245	2451.12
446.466	2359.12
446.687	2219.12
446.908	2248.12
447.129	2146.12
447.35	2197.12
447.571	2199.12
447.792	2080.12
448.013	2079.12
448.234	2123.12
448.455	2206.12
448.675	2240.12
448.896	2049.12
449.117	2016.12
449.338	2097.12
449.559	2175.12
449.779	2282.12
450	2502.12
450.221	2715.12
450.442	2617.12
450.662	2331.12
450.883	2028.12
451.104	1999.12
451.324	2007.12
451.545	2100.12
451.766	2114.12
451.986	1990.12
452.207	1985.12
452.428	1911.12
452.648	1915.12
452.869	1930.12
453.089	2060.12
453.31	2083.12
453.53	2120.12
453.751	2061.12
453.971	1899.12
454.192	1981.12
454.412	2107.12
454.633	2051.12
454.853	1974.12
455.073	1860.12
455.294	1836.12
455.514	1842.12
455.734	1873.12
455.955	1893.12
456.175	1907.12
456.395	1917.12
456.616	2031.12
456.836	2006.12
457.056	1933.12
457.276	1947.12
457.497	1875.12
457.717	1833.12
457.937	1874.12
458.157	1921.12
458.377	1941.12
458.598	1907.12
458.818	1883.12
459.038	2031.12
459.258	2171.12
459.478	2180.12
459.698	2070.12
459.918	2123.12
460.138	2249.12
460.358	2250.12
460.578	2292.12
460.798	2371.12
461.018	2563.12
461.238	2409.12
461.458	2233.12
461.678	2319.12
461.898	2215.12
462.118	2160.12
462.338	2293.12
462.558	2249.12
462.777	2259.12
462.997	2371.12
463.217	2534.12
463.437	2514.12
463.657	2326.12
463.876	2269.12
464.096	2271.12
464.316	2271.12
464.536	2364.12
464.755	2357.12
464.975	2389.12
465.195	2295.12
465.414	2439.12
465.634	2455.12
465.854	2301.12
466.073	2404.12
466.293	2381.12
466.512	2086.12
466.732	2083.12
466.951	2157.12
467.171	2181.12
467.391	2041.12
467.61	1999.12
467.829	2045.12
468.049	2227.12
468.268	2467.12
468.488	2313.12
468.707	2199.12
468.927	2124.12
469.146	2084.12
469.365	2037.12
469.585	2067.12
469.804	2057.12
470.023	2066.12
470.243	2082.12
470.462	2043.12
470.681	2004.12
470.901	2095.12
471.12	2097.12
471.339	2076.12
471.558	2008.12
471.777	2000.12
471.997	2035.12
472.216	2067.12
472.435	2000.12
472.654	2017.12
472.873	2097.12
473.092	2266.12
473.311	2126.12
473.53	1973.12
473.749	1965.12
473.968	2095.12
474.187	2101.12
474.406	2253.12
474.625	2175.12
474.844	2106.12
475.063	2073.12
475.282	2187.12
475.501	2111.12
475.72	2115.12
475.939	2299.12
476.158	2180.12
476.377	2149.12
476.596	2119.12
476.814	2183.12
477.033	2199.12
477.252	2300.12
477.471	2317.12
477.69	2232.12
477.908	2207.12
478.127	2325.12
478.346	2485.12
478.564	2511.12
478.783	2460.12
479.002	2574.12
479.22	2482.12
479.439	2576.12
479.658	2933.12
479.876	2962.12
480.095	2523.12
480.313	2472.12
480.532	2335.12
480.751	2333.12
480.969	2399.12
481.188	2352.12
481.406	2391.12
481.624	2274.12
481.843	2333.12
482.061	2378.12
482.28	2405.12
482.498	2434.12
482.717	2404.12
482.935	2285.12
483.153	2319.12
483.372	2340.12
483.59	2314.12
483.808	2320.12
484.027	2359.12
484.245	2516.12
484.463	2833.12
484.681	3369.12
484.9	2541.12
485.118	2409.12
485.336	2365.12
485.554	2459.12
485.772	2588.12
485.99	2546.12
486.209	2575.12
486.427	2537.12
486.645	2507.12
486.863	2498.12
487.081	2510.12
487.299	2599.12
