Data from WStandard_LampEnergy10_LIBS07252019.E.O._I.C._HRD10591_15-54-25-928.txt Node
Date: Thu Jul 25 15:54:25 EDT 2019
User: cochatt
Spectrometer: HR+D1059
Trigger mode: 1
Integration Time (sec): 1.000000E-1
Scans to average: 1
Electric dark correction enabled: true
Nonlinearity correction enabled: false
Boxcar width: 0
XAxis mode: Wavelengths
Number of Pixels in Spectrum: 2048
>>>>>Begin Spectral Data<<<<<
223.165	-11.81
223.4	-11.81
223.635	-11.81
223.869	-0.81
224.104	-27.81
224.338	-21.81
224.573	-4.81
224.808	-11.81
225.042	-1.81
225.277	-23.81
225.511	-0.81
225.746	6.19
225.98	5.19
226.215	15.19
226.449	19.19
226.683	22.19
226.918	13.19
227.152	24.19
227.387	32.19
227.621	31.19
227.856	26.19
228.09	44.19
228.324	47.19
228.559	59.19
228.793	74.19
229.027	139.19
229.262	135.19
229.496	148.19
229.73	148.19
229.964	155.19
230.199	164.19
230.433	176.19
230.667	187.19
230.901	180.19
231.136	161.19
231.37	156.19
231.604	171.19
231.838	186.19
232.072	179.19
232.306	173.19
232.541	177.19
232.775	194.19
233.009	205.19
233.243	203.19
233.477	196.19
233.711	187.19
233.945	181.19
234.179	190.19
234.413	196.19
234.647	193.19
234.881	191.19
235.115	184.19
235.349	204.19
235.583	190.19
235.817	187.19
236.051	186.19
236.285	200.19
236.519	202.19
236.753	210.19
236.987	213.19
237.221	224.19
237.455	215.19
237.689	229.19
237.922	220.19
238.156	215.19
238.39	216.19
238.624	226.19
238.858	242.19
239.091	239.19
239.325	257.19
239.559	287.19
239.793	289.19
240.027	307.19
240.26	273.19
240.494	220.19
240.728	210.19
240.961	225.19
241.195	254.19
241.429	240.19
241.662	252.19
241.896	241.19
242.13	245.19
242.363	258.19
242.597	276.19
242.83	279.19
243.064	271.19
243.298	293.19
243.531	273.19
243.765	259.19
243.998	271.19
244.232	263.19
244.465	224.19
244.699	269.19
244.932	280.19
245.166	301.19
245.399	283.19
245.633	259.19
245.866	250.19
246.099	273.19
246.333	301.19
246.566	288.19
246.8	307.19
247.033	335.19
247.266	323.19
247.5	316.19
247.733	336.19
247.966	326.19
248.2	364.19
248.433	352.19
248.666	362.19
248.899	360.19
249.133	416.19
249.366	458.19
249.599	388.19
249.832	352.19
250.066	356.19
250.299	371.19
250.532	351.19
250.765	328.19
250.998	347.19
251.231	338.19
251.465	359.19
251.698	320.19
251.931	324.19
252.164	335.19
252.397	357.19
252.63	347.19
252.863	313.19
253.096	309.19
253.329	349.19
253.562	338.19
253.795	366.19
254.028	353.19
254.261	341.19
254.494	304.19
254.727	320.19
254.96	349.19
255.193	362.19
255.426	421.19
255.659	442.19
255.892	435.19
256.124	376.19
256.357	384.19
256.59	410.19
256.823	415.19
257.056	423.19
257.289	453.19
257.521	506.19
257.754	452.19
257.987	439.19
258.22	463.19
258.452	461.19
258.685	385.19
258.918	383.19
259.151	396.19
259.383	383.19
259.616	360.19
259.849	364.19
260.081	394.19
260.314	449.19
260.547	458.19
260.779	474.19
261.012	430.19
261.244	415.19
261.477	398.19
261.71	384.19
261.942	406.19
262.175	383.19
262.407	399.19
262.64	390.19
262.872	357.19
263.105	357.19
263.337	376.19
263.57	374.19
263.802	375.19
264.035	365.19
264.267	320.19
264.499	335.19
264.732	348.19
264.964	383.19
265.197	402.19
265.429	427.19
265.661	435.19
265.894	471.19
266.126	471.19
266.358	448.19
266.591	454.19
266.823	447.19
267.055	457.19
267.287	439.19
267.52	450.19
267.752	430.19
267.984	434.19
268.216	451.19
268.448	456.19
268.681	439.19
268.913	442.19
269.145	397.19
269.377	403.19
269.609	447.19
269.841	484.19
270.073	567.19
270.306	612.19
270.538	607.19
270.77	533.19
271.002	476.19
271.234	476.19
271.466	476.19
271.698	548.19
271.93	606.19
272.162	572.19
272.394	515.19
272.626	493.19
272.858	446.19
273.09	407.19
273.322	396.19
273.553	380.19
273.785	396.19
274.017	405.19
274.249	442.19
274.481	416.19
274.713	396.19
274.945	398.19
275.176	421.19
275.408	419.19
275.64	382.19
275.872	382.19
276.104	420.19
276.335	491.19
276.567	522.19
276.799	505.19
277.031	482.19
277.262	460.19
277.494	485.19
277.726	516.19
277.957	494.19
278.189	457.19
278.421	423.19
278.652	417.19
278.884	427.19
279.115	412.19
279.347	439.19
279.579	441.19
279.81	427.19
280.042	463.19
280.273	516.19
280.505	538.19
280.736	481.19
280.968	454.19
281.199	415.19
281.431	418.19
281.662	441.19
281.894	423.19
282.125	431.19
282.356	443.19
282.588	444.19
282.819	439.19
283.051	485.19
283.282	508.19
283.513	492.19
283.745	445.19
283.976	413.19
284.207	400.19
284.439	432.19
284.67	443.19
284.901	453.19
285.132	452.19
285.364	437.19
285.595	471.19
285.826	442.19
286.057	458.19
286.288	458.19
286.52	446.19
286.751	490.19
286.982	484.19
287.213	457.19
287.444	439.19
287.675	423.19
287.906	452.19
288.138	470.19
288.369	451.19
288.6	432.19
288.831	418.19
289.062	442.19
289.293	436.19
289.524	442.19
289.755	448.19
289.986	444.19
290.217	443.19
290.448	443.19
290.679	438.19
290.91	470.19
291.141	466.19
291.371	466.19
291.602	484.19
291.833	471.19
292.064	496.19
292.295	467.19
292.526	491.19
292.757	486.19
292.987	473.19
293.218	471.19
293.449	508.19
293.68	573.19
293.91	575.19
294.141	544.19
294.372	538.19
294.603	559.19
294.833	564.19
295.064	510.19
295.295	486.19
295.525	469.19
295.756	445.19
295.987	432.19
296.217	434.19
296.448	427.19
296.679	464.19
296.909	453.19
297.14	430.19
297.37	466.19
297.601	481.19
297.831	511.19
298.062	508.19
298.292	464.19
298.523	455.19
298.753	444.19
298.984	477.19
299.214	491.19
299.445	476.19
299.675	495.19
299.905	506.19
300.136	479.19
300.366	479.19
300.597	463.19
300.827	454.19
301.057	468.19
301.288	493.19
301.518	522.19
301.748	517.19
301.979	544.19
302.209	551.19
302.439	567.19
302.669	570.19
302.9	552.19
303.13	506.19
303.36	510.19
303.59	531.19
303.82	506.19
304.051	484.19
304.281	513.19
304.511	520.19
304.741	565.19
304.971	596.19
305.201	622.19
305.431	531.19
305.661	473.19
305.891	460.19
306.121	454.19
306.352	472.19
306.582	504.19
306.812	522.19
307.042	554.19
307.272	557.19
307.502	590.19
307.731	604.19
307.961	612.19
308.191	551.19
308.421	514.19
308.651	495.19
308.881	502.19
309.111	493.19
309.341	487.19
309.571	487.19
309.8	478.19
310.03	483.19
310.26	498.19
310.49	492.19
310.72	513.19
310.949	522.19
311.179	519.19
311.409	501.19
311.639	509.19
311.868	504.19
312.098	515.19
312.328	502.19
312.557	512.19
312.787	511.19
313.017	497.19
313.246	517.19
313.476	518.19
313.706	527.19
313.935	504.19
314.165	551.19
314.394	555.19
314.624	603.19
314.853	625.19
315.083	620.19
315.312	620.19
315.542	579.19
315.771	542.19
316.001	554.19
316.23	574.19
316.46	549.19
316.689	524.19
316.919	511.19
317.148	513.19
317.377	531.19
317.607	562.19
317.836	636.19
318.065	615.19
318.295	599.19
318.524	575.19
318.753	538.19
318.983	559.19
319.212	562.19
319.441	556.19
319.67	548.19
319.9	575.19
320.129	584.19
320.358	605.19
320.587	583.19
320.816	593.19
321.046	583.19
321.275	594.19
321.504	591.19
321.733	593.19
321.962	595.19
322.191	555.19
322.42	555.19
322.649	551.19
322.878	549.19
323.108	551.19
323.337	580.19
323.566	563.19
323.795	561.19
324.024	565.19
324.253	560.19
324.482	534.19
324.71	518.19
324.939	520.19
325.168	549.19
325.397	571.19
325.626	584.19
325.855	558.19
326.084	562.19
326.313	544.19
326.542	570.19
326.77	577.19
326.999	565.19
327.228	542.19
327.457	548.19
327.686	524.19
327.914	535.19
328.143	542.19
328.372	553.19
328.6	560.19
328.829	546.19
329.058	522.19
329.287	538.19
329.515	559.19
329.744	590.19
329.972	606.19
330.201	631.19
330.43	619.19
330.658	587.19
330.887	595.19
331.115	583.19
331.344	582.19
331.572	574.19
331.801	590.19
332.03	582.19
332.258	602.19
332.486	593.19
332.715	611.19
332.943	615.19
333.172	586.19
333.4	588.19
333.629	636.19
333.857	657.19
334.085	748.19
334.314	814.19
334.542	834.19
334.771	773.19
334.999	655.19
335.227	645.19
335.455	610.19
335.684	627.19
335.912	652.19
336.14	650.19
336.369	602.19
336.597	587.19
336.825	583.19
337.053	639.19
337.281	663.19
337.51	697.19
337.738	674.19
337.966	654.19
338.194	583.19
338.422	584.19
338.65	574.19
338.878	574.19
339.106	554.19
339.334	571.19
339.562	584.19
339.79	577.19
340.018	620.19
340.246	634.19
340.474	600.19
340.702	609.19
340.93	627.19
341.158	602.19
341.386	596.19
341.614	591.19
341.842	574.19
342.07	588.19
342.298	580.19
342.526	603.19
342.754	572.19
342.981	575.19
343.209	588.19
343.437	578.19
343.665	590.19
343.893	596.19
344.12	609.19
344.348	609.19
344.576	607.19
344.804	590.19
345.031	576.19
345.259	598.19
345.487	552.19
345.714	555.19
345.942	532.19
346.17	556.19
346.397	554.19
346.625	547.19
346.853	533.19
347.08	514.19
347.308	537.19
347.535	544.19
347.763	577.19
347.99	558.19
348.218	573.19
348.445	548.19
348.673	541.19
348.9	554.19
349.128	597.19
349.355	598.19
349.583	591.19
349.81	555.19
350.037	501.19
350.265	518.19
350.492	520.19
350.72	544.19
350.947	594.19
351.174	564.19
351.402	552.19
351.629	521.19
351.856	529.19
352.083	517.19
352.311	534.19
352.538	559.19
352.765	562.19
352.992	561.19
353.22	545.19
353.447	551.19
353.674	525.19
353.901	542.19
354.128	539.19
354.355	540.19
354.583	571.19
354.81	573.19
355.037	590.19
355.264	571.19
355.491	562.19
355.718	562.19
355.945	534.19
356.172	544.19
356.399	541.19
356.626	551.19
356.853	572.19
357.08	612.19
357.307	676.19
357.534	628.19
357.761	574.19
357.988	538.19
358.215	521.19
358.441	520.19
358.668	516.19
358.895	571.19
359.122	588.19
359.349	634.19
359.576	596.19
359.802	552.19
360.029	550.19
360.256	537.19
360.483	566.19
360.709	573.19
360.936	574.19
361.163	625.19
361.39	678.19
361.616	724.19
361.843	686.19
362.07	644.19
362.296	556.19
362.523	545.19
362.749	560.19
362.976	581.19
363.203	570.19
363.429	556.19
363.656	539.19
363.882	579.19
364.109	638.19
364.335	634.19
364.562	609.19
364.788	566.19
365.015	571.19
365.241	564.19
365.468	571.19
365.694	597.19
365.92	583.19
366.147	575.19
366.373	556.19
366.599	534.19
366.826	544.19
367.052	552.19
367.278	570.19
367.505	569.19
367.731	615.19
367.957	580.19
368.184	627.19
368.41	646.19
368.636	651.19
368.862	662.19
369.089	667.19
369.315	640.19
369.541	606.19
369.767	588.19
369.993	586.19
370.219	562.19
370.445	629.19
370.672	626.19
370.898	645.19
371.124	664.19
371.35	634.19
371.576	660.19
371.802	650.19
372.028	631.19
372.254	601.19
372.48	578.19
372.706	604.19
372.932	597.19
373.158	612.19
373.384	609.19
373.61	624.19
373.835	640.19
374.061	604.19
374.287	626.19
374.513	617.19
374.739	627.19
374.965	625.19
375.191	618.19
375.416	638.19
375.642	657.19
375.868	691.19
376.094	722.19
376.319	672.19
376.545	633.19
376.771	652.19
376.997	687.19
377.222	659.19
377.448	649.19
377.674	636.19
377.899	674.19
378.125	708.19
378.35	653.19
378.576	640.19
378.802	628.19
379.027	620.19
379.253	617.19
379.478	634.19
379.704	636.19
379.929	627.19
380.155	629.19
380.38	639.19
380.606	662.19
380.831	674.19
381.057	687.19
381.282	697.19
381.507	663.19
381.733	738.19
381.958	711.19
382.184	665.19
382.409	658.19
382.634	670.19
382.86	683.19
383.085	690.19
383.31	689.19
383.535	764.19
383.761	794.19
383.986	757.19
384.211	699.19
384.436	723.19
384.662	763.19
384.887	746.19
385.112	719.19
385.337	713.19
385.562	724.19
385.787	742.19
386.013	760.19
386.238	721.19
386.463	770.19
386.688	823.19
386.913	842.19
387.138	790.19
387.363	767.19
387.588	769.19
387.813	753.19
388.038	759.19
388.263	796.19
388.488	735.19
388.713	727.19
388.938	694.19
389.163	720.19
389.387	715.19
389.612	760.19
389.837	731.19
390.062	751.19
390.287	750.19
390.512	746.19
390.736	721.19
390.961	708.19
391.186	715.19
391.411	729.19
391.636	743.19
391.86	733.19
392.085	740.19
392.31	733.19
392.534	786.19
392.759	750.19
392.984	749.19
393.208	754.19
393.433	780.19
393.658	790.19
393.882	789.19
394.107	769.19
394.331	747.19
394.556	752.19
394.78	778.19
395.005	790.19
395.229	829.19
395.454	866.19
395.678	848.19
395.903	800.19
396.127	797.19
396.352	798.19
396.576	825.19
396.801	816.19
397.025	821.19
397.249	830.19
397.474	817.19
397.698	835.19
397.922	855.19
398.147	865.19
398.371	878.19
398.595	886.19
398.82	866.19
399.044	872.19
399.268	908.19
399.492	954.19
399.717	965.19
399.941	966.19
400.165	968.19
400.389	934.19
400.613	988.19
400.837	1138.19
401.062	1175.19
401.286	999.19
401.51	947.19
401.734	967.19
401.958	936.19
402.182	883.19
402.406	871.19
402.63	836.19
402.854	890.19
403.078	858.19
403.302	902.19
403.526	903.19
403.75	932.19
403.974	942.19
404.198	924.19
404.422	963.19
404.645	968.19
404.869	974.19
405.093	913.19
405.317	895.19
405.541	914.19
405.765	920.19
405.988	923.19
406.212	935.19
406.436	931.19
406.66	1005.19
406.883	1051.19
407.107	1123.19
407.331	1221.19
407.555	1242.19
407.778	1106.19
408.002	983.19
408.226	953.19
408.449	922.19
408.673	938.19
408.896	924.19
409.12	950.19
409.344	935.19
409.567	916.19
409.791	922.19
410.014	935.19
410.238	1020.19
410.461	1042.19
410.685	953.19
410.908	902.19
411.132	923.19
411.355	933.19
411.578	926.19
411.802	925.19
412.025	943.19
412.249	911.19
412.472	895.19
412.695	903.19
412.919	871.19
413.142	911.19
413.365	916.19
413.589	922.19
413.812	988.19
414.035	1003.19
414.258	938.19
414.482	883.19
414.705	912.19
414.928	895.19
415.151	875.19
415.374	872.19
415.597	928.19
415.821	918.19
416.044	935.19
416.267	946.19
416.49	912.19
416.713	918.19
416.936	979.19
417.159	976.19
417.382	968.19
417.605	940.19
417.828	904.19
418.051	946.19
418.274	921.19
418.497	920.19
418.72	910.19
418.943	901.19
419.166	931.19
419.389	981.19
419.611	920.19
419.834	933.19
420.057	949.19
420.28	934.19
420.503	952.19
420.726	910.19
420.948	944.19
421.171	901.19
421.394	911.19
421.617	987.19
421.839	995.19
422.062	954.19
422.285	923.19
422.507	891.19
422.73	882.19
422.953	852.19
423.175	894.19
423.398	912.19
423.621	895.19
423.843	925.19
424.066	945.19
424.288	1029.19
424.511	1035.19
424.733	1000.19
424.956	918.19
425.178	918.19
425.401	925.19
425.623	950.19
425.846	917.19
426.068	940.19
426.291	958.19
426.513	928.19
426.735	959.19
426.958	1019.19
427.18	1050.19
427.402	976.19
427.625	1002.19
427.847	978.19
428.069	918.19
428.292	934.19
428.514	895.19
428.736	887.19
428.958	890.19
429.181	943.19
429.403	1040.19
429.625	1214.19
429.847	1036.19
430.069	934.19
430.292	1002.19
430.514	991.19
430.736	989.19
430.958	989.19
431.18	926.19
431.402	851.19
431.624	854.19
431.846	781.19
432.068	718.19
432.29	732.19
432.512	803.19
432.734	874.19
432.956	935.19
433.178	948.19
433.4	964.19
433.622	949.19
433.844	867.19
434.066	850.19
434.287	808.19
434.509	773.19
434.731	827.19
434.953	935.19
435.175	925.19
435.397	898.19
435.618	862.19
435.84	808.19
436.062	831.19
436.284	914.19
436.505	919.19
436.727	949.19
436.949	922.19
437.17	878.19
437.392	863.19
437.614	844.19
437.835	794.19
438.057	800.19
438.278	819.19
438.5	843.19
438.721	896.19
438.943	906.19
439.165	927.19
439.386	894.19
439.608	943.19
439.829	942.19
440.05	947.19
440.272	938.19
440.493	936.19
440.715	947.19
440.936	1005.19
441.158	1082.19
441.379	1034.19
441.6	1062.19
441.822	1023.19
442.043	1025.19
442.264	991.19
442.486	922.19
442.707	946.19
442.928	995.19
443.149	951.19
443.371	995.19
443.592	1037.19
443.813	1016.19
444.034	1008.19
444.255	983.19
444.476	1027.19
444.698	1030.19
444.919	1060.19
445.14	1138.19
445.361	1085.19
445.582	1068.19
445.803	1044.19
446.024	1027.19
446.245	1041.19
446.466	1052.19
446.687	1038.19
446.908	1038.19
447.129	1014.19
447.35	1023.19
447.571	984.19
447.792	952.19
448.013	959.19
448.234	944.19
448.455	989.19
448.675	971.19
448.896	897.19
449.117	900.19
449.338	923.19
449.559	937.19
449.779	971.19
450	1002.19
450.221	1060.19
450.442	1024.19
450.662	940.19
450.883	894.19
451.104	888.19
451.324	858.19
451.545	877.19
451.766	875.19
451.986	861.19
452.207	812.19
452.428	796.19
452.648	793.19
452.869	777.19
453.089	775.19
453.31	767.19
453.53	746.19
453.751	730.19
453.971	692.19
454.192	736.19
454.412	763.19
454.633	777.19
454.853	784.19
455.073	720.19
455.294	734.19
455.514	762.19
455.734	766.19
455.955	746.19
456.175	737.19
456.395	716.19
456.616	731.19
456.836	723.19
457.056	736.19
457.276	718.19
457.497	702.19
457.717	686.19
457.937	702.19
458.157	704.19
458.377	694.19
458.598	690.19
458.818	678.19
459.038	709.19
459.258	721.19
459.478	694.19
459.698	704.19
459.918	735.19
460.138	792.19
460.358	832.19
460.578	820.19
460.798	858.19
461.018	910.19
461.238	871.19
461.458	871.19
461.678	816.19
461.898	815.19
462.118	800.19
462.338	858.19
462.558	836.19
462.777	846.19
462.997	855.19
463.217	878.19
463.437	854.19
463.657	822.19
463.876	829.19
464.096	824.19
464.316	812.19
464.536	867.19
464.755	878.19
464.975	856.19
465.195	827.19
465.414	877.19
465.634	887.19
465.854	894.19
466.073	948.19
466.293	910.19
466.512	842.19
466.732	862.19
466.951	890.19
467.171	906.19
467.391	871.19
467.61	853.19
467.829	867.19
468.049	963.19
468.268	1043.19
468.488	939.19
468.707	890.19
468.927	897.19
469.146	879.19
469.365	879.19
469.585	905.19
469.804	901.19
470.023	908.19
470.243	916.19
470.462	911.19
470.681	925.19
470.901	908.19
471.12	931.19
471.339	922.19
471.558	919.19
471.777	896.19
471.997	883.19
472.216	834.19
472.435	758.19
472.654	765.19
472.873	762.19
473.092	828.19
473.311	813.19
473.53	818.19
473.749	814.19
473.968	820.19
474.187	828.19
474.406	830.19
474.625	840.19
474.844	868.19
475.063	869.19
475.282	867.19
475.501	814.19
475.72	844.19
475.939	888.19
476.158	860.19
476.377	838.19
476.596	837.19
476.814	791.19
477.033	794.19
477.252	840.19
477.471	908.19
477.69	910.19
477.908	922.19
478.127	964.19
478.346	1011.19
478.564	998.19
478.783	1020.19
479.002	1014.19
479.22	1009.19
479.439	1022.19
479.658	1026.19
479.876	993.19
480.095	890.19
480.313	903.19
480.532	877.19
480.751	845.19
480.969	801.19
481.188	798.19
481.406	770.19
481.624	766.19
481.843	768.19
482.061	830.19
482.28	847.19
482.498	876.19
482.717	855.19
482.935	869.19
483.153	978.19
483.372	1027.19
483.59	990.19
483.808	944.19
484.027	952.19
484.245	994.19
484.463	1203.19
484.681	1292.19
484.9	1038.19
485.118	942.19
485.336	908.19
485.554	905.19
485.772	871.19
485.99	871.19
486.209	883.19
486.427	890.19
486.645	912.19
486.863	1008.19
487.081	1002.19
487.299	1018.19
487.517	999.19
487.735	1085.19
487.953	1191.19
488.171	1177.19
488.389	1081.19
488.607	1077.19
488.825	1101.19
489.043	1051.19
489.261	957.19
489.479	1007.19
489.696	1049.19
489.914	1045.19
490.132	1047.19
490.35	1098.19
490.568	1174.19
490.786	1188.19
491.003	1167.19
491.221	1251.19
491.439	1296.19
491.657	1284.19
491.874	1343.19
492.092	1465.19
492.31	1468.19
492.527	1470.19
492.745	1348.19
492.963	1323.19
493.18	1281.19
493.398	1326.19
493.615	1365.19
493.833	1214.19
494.05	1242.19
494.268	1234.19
494.485	1219.19
494.703	1191.19
494.92	1233.19
495.138	1205.19
495.355	1217.19
495.573	1236.19
495.79	1296.19
496.008	1301.19
496.225	1227.19
496.442	1247.19
496.66	1218.19
496.877	1205.19
497.094	1232.19
497.312	1217.19
497.529	1160.19
497.746	1171.19
497.963	1286.19
498.181	1286.19
498.398	1236.19
498.615	1207.19
498.832	1138.19
499.049	1178.19
499.267	1140.19
499.484	1233.19
499.701	1330.19
499.918	1349.19
500.135	1473.19
500.352	1544.19
