Data from WStandard_LampEnergy10_LIBS07252019.E.O._I.C._HRD10591_15-55-06-928.txt Node
Date: Thu Jul 25 15:55:06 EDT 2019
User: cochatt
Spectrometer: HR+D1059
Trigger mode: 1
Integration Time (sec): 1.000000E-1
Scans to average: 1
Electric dark correction enabled: true
Nonlinearity correction enabled: false
Boxcar width: 0
XAxis mode: Wavelengths
Number of Pixels in Spectrum: 2048
>>>>>Begin Spectral Data<<<<<
223.165	-21.62
223.4	-21.62
223.635	-21.62
223.869	-20.62
224.104	-33.62
224.338	-17.62
224.573	-22.62
224.808	-18.62
225.042	2.38
225.277	-2.62
225.511	-3.62
225.746	6.38
225.98	27.38
226.215	8.38
226.449	17.38
226.683	25.38
226.918	27.38
227.152	26.38
227.387	35.38
227.621	34.38
227.856	42.38
228.09	43.38
228.324	56.38
228.559	58.38
228.793	92.38
229.027	129.38
229.262	142.38
229.496	148.38
229.73	162.38
229.964	160.38
230.199	155.38
230.433	155.38
230.667	182.38
230.901	191.38
231.136	178.38
231.37	175.38
231.604	181.38
231.838	193.38
232.072	176.38
232.306	178.38
232.541	158.38
232.775	198.38
233.009	208.38
233.243	203.38
233.477	184.38
233.711	190.38
233.945	205.38
234.179	208.38
234.413	200.38
234.647	219.38
234.881	200.38
235.115	186.38
235.349	197.38
235.583	205.38
235.817	205.38
236.051	204.38
236.285	182.38
236.519	210.38
236.753	222.38
236.987	219.38
237.221	214.38
237.455	226.38
237.689	232.38
237.922	218.38
238.156	208.38
238.39	214.38
238.624	230.38
238.858	258.38
239.091	258.38
239.325	252.38
239.559	289.38
239.793	298.38
240.027	310.38
240.26	315.38
240.494	253.38
240.728	226.38
240.961	230.38
241.195	238.38
241.429	252.38
241.662	246.38
241.896	243.38
242.13	257.38
242.363	253.38
242.597	271.38
242.83	267.38
243.064	278.38
243.298	282.38
243.531	265.38
243.765	267.38
243.998	281.38
244.232	258.38
244.465	247.38
244.699	257.38
244.932	284.38
245.166	312.38
245.399	302.38
245.633	266.38
245.866	282.38
246.099	276.38
246.333	279.38
246.566	302.38
246.8	316.38
247.033	324.38
247.266	325.38
247.5	323.38
247.733	322.38
247.966	338.38
248.2	365.38
248.433	368.38
248.666	368.38
248.899	391.38
249.133	439.38
249.366	455.38
249.599	403.38
249.832	367.38
250.066	372.38
250.299	363.38
250.532	350.38
250.765	318.38
250.998	330.38
251.231	356.38
251.465	347.38
251.698	349.38
251.931	339.38
252.164	341.38
252.397	357.38
252.63	363.38
252.863	329.38
253.096	345.38
253.329	335.38
253.562	325.38
253.795	364.38
254.028	358.38
254.261	341.38
254.494	321.38
254.727	317.38
254.96	356.38
255.193	372.38
255.426	408.38
255.659	453.38
255.892	455.38
256.124	407.38
256.357	382.38
256.59	412.38
256.823	396.38
257.056	418.38
257.289	452.38
257.521	513.38
257.754	468.38
257.987	452.38
258.22	468.38
258.452	450.38
258.685	410.38
258.918	393.38
259.151	398.38
259.383	395.38
259.616	352.38
259.849	359.38
260.081	406.38
260.314	450.38
260.547	482.38
260.779	475.38
261.012	437.38
261.244	410.38
261.477	394.38
261.71	399.38
261.942	400.38
262.175	398.38
262.407	391.38
262.64	380.38
262.872	343.38
263.105	363.38
263.337	376.38
263.57	382.38
263.802	362.38
264.035	372.38
264.267	352.38
264.499	324.38
264.732	360.38
264.964	394.38
265.197	388.38
265.429	434.38
265.661	455.38
265.894	469.38
266.126	494.38
266.358	456.38
266.591	483.38
266.823	495.38
267.055	446.38
267.287	451.38
267.52	448.38
267.752	422.38
267.984	439.38
268.216	473.38
268.448	463.38
268.681	427.38
268.913	418.38
269.145	404.38
269.377	408.38
269.609	461.38
269.841	510.38
270.073	580.38
270.306	604.38
270.538	618.38
270.77	537.38
271.002	487.38
271.234	487.38
271.466	476.38
271.698	528.38
271.93	608.38
272.162	605.38
272.394	551.38
272.626	516.38
272.858	471.38
273.09	404.38
273.322	399.38
273.553	409.38
273.785	401.38
274.017	436.38
274.249	460.38
274.481	426.38
274.713	438.38
274.945	409.38
275.176	422.38
275.408	412.38
275.64	397.38
275.872	412.38
276.104	442.38
276.335	486.38
276.567	537.38
276.799	523.38
277.031	470.38
277.262	476.38
277.494	506.38
277.726	516.38
277.957	500.38
278.189	475.38
278.421	432.38
278.652	399.38
278.884	428.38
279.115	423.38
279.347	439.38
279.579	440.38
279.81	437.38
280.042	486.38
280.273	498.38
280.505	495.38
280.736	508.38
280.968	462.38
281.199	440.38
281.431	410.38
281.662	423.38
281.894	406.38
282.125	432.38
282.356	468.38
282.588	453.38
282.819	468.38
283.051	489.38
283.282	519.38
283.513	494.38
283.745	436.38
283.976	407.38
284.207	430.38
284.439	442.38
284.67	452.38
284.901	456.38
285.132	458.38
285.364	454.38
285.595	449.38
285.826	441.38
286.057	452.38
286.288	447.38
286.52	484.38
286.751	480.38
286.982	492.38
287.213	451.38
287.444	445.38
287.675	442.38
287.906	478.38
288.138	478.38
288.369	473.38
288.6	439.38
288.831	410.38
289.062	434.38
289.293	453.38
289.524	440.38
289.755	473.38
289.986	452.38
290.217	429.38
290.448	427.38
290.679	443.38
290.91	458.38
291.141	466.38
291.371	471.38
291.602	490.38
291.833	473.38
292.064	503.38
292.295	490.38
292.526	516.38
292.757	490.38
292.987	478.38
293.218	485.38
293.449	508.38
293.68	594.38
293.91	575.38
294.141	552.38
294.372	539.38
294.603	549.38
294.833	568.38
295.064	534.38
295.295	496.38
295.525	456.38
295.756	452.38
295.987	446.38
296.217	436.38
296.448	478.38
296.679	454.38
296.909	445.38
297.14	452.38
297.37	463.38
297.601	515.38
297.831	513.38
298.062	519.38
298.292	475.38
298.523	464.38
298.753	456.38
298.984	469.38
299.214	487.38
299.445	480.38
299.675	512.38
299.905	518.38
300.136	479.38
300.366	458.38
300.597	446.38
300.827	465.38
301.057	494.38
301.288	506.38
301.518	513.38
301.748	510.38
301.979	548.38
302.209	566.38
302.439	572.38
302.669	566.38
302.9	541.38
303.13	507.38
303.36	508.38
303.59	538.38
303.82	532.38
304.051	482.38
304.281	511.38
304.511	535.38
304.741	564.38
304.971	611.38
305.201	631.38
305.431	538.38
305.661	469.38
305.891	463.38
306.121	454.38
306.352	483.38
306.582	504.38
306.812	527.38
307.042	562.38
307.272	564.38
307.502	598.38
307.731	605.38
307.961	633.38
308.191	565.38
308.421	511.38
308.651	516.38
308.881	511.38
309.111	512.38
309.341	505.38
309.571	500.38
309.8	514.38
310.03	490.38
310.26	485.38
310.49	494.38
310.72	520.38
310.949	543.38
311.179	538.38
311.409	522.38
311.639	507.38
311.868	511.38
312.098	498.38
312.328	511.38
312.557	507.38
312.787	527.38
313.017	504.38
313.246	516.38
313.476	547.38
313.706	527.38
313.935	503.38
314.165	538.38
314.394	578.38
314.624	596.38
314.853	593.38
315.083	616.38
315.312	618.38
315.542	583.38
315.771	557.38
316.001	544.38
316.23	581.38
316.46	576.38
316.689	556.38
316.919	532.38
317.148	533.38
317.377	527.38
317.607	582.38
317.836	643.38
318.065	623.38
318.295	637.38
318.524	592.38
318.753	564.38
318.983	551.38
319.212	544.38
319.441	555.38
319.67	556.38
319.9	574.38
320.129	588.38
320.358	600.38
320.587	641.38
320.816	608.38
321.046	592.38
321.275	576.38
321.504	609.38
321.733	628.38
321.962	606.38
322.191	574.38
322.42	544.38
322.649	556.38
322.878	565.38
323.108	564.38
323.337	583.38
323.566	541.38
323.795	558.38
324.024	586.38
324.253	560.38
324.482	555.38
324.71	550.38
324.939	540.38
325.168	547.38
325.397	545.38
325.626	565.38
325.855	590.38
326.084	549.38
326.313	575.38
326.542	582.38
326.77	572.38
326.999	587.38
327.228	533.38
327.457	516.38
327.686	530.38
327.914	529.38
328.143	566.38
328.372	556.38
328.6	545.38
328.829	552.38
329.058	532.38
329.287	557.38
329.515	548.38
329.744	582.38
329.972	583.38
330.201	615.38
330.43	598.38
330.658	609.38
330.887	602.38
331.115	602.38
331.344	592.38
331.572	590.38
331.801	578.38
332.03	584.38
332.258	588.38
332.486	599.38
332.715	589.38
332.943	601.38
333.172	599.38
333.4	633.38
333.629	614.38
333.857	690.38
334.085	740.38
334.314	810.38
334.542	861.38
334.771	746.38
334.999	683.38
335.227	633.38
335.455	649.38
335.684	623.38
335.912	676.38
336.14	660.38
336.369	604.38
336.597	596.38
336.825	605.38
337.053	626.38
337.281	675.38
337.51	690.38
337.738	700.38
337.966	656.38
338.194	608.38
338.422	567.38
338.65	598.38
338.878	570.38
339.106	568.38
339.334	573.38
339.562	562.38
339.79	580.38
340.018	621.38
340.246	638.38
340.474	630.38
340.702	615.38
340.93	623.38
341.158	586.38
341.386	628.38
341.614	597.38
341.842	591.38
342.07	596.38
342.298	599.38
342.526	593.38
342.754	590.38
342.981	598.38
343.209	579.38
343.437	593.38
343.665	602.38
343.893	621.38
344.12	618.38
344.348	623.38
344.576	636.38
344.804	579.38
345.031	577.38
345.259	592.38
345.487	585.38
345.714	551.38
345.942	562.38
346.17	568.38
346.397	560.38
346.625	571.38
346.853	516.38
347.08	537.38
347.308	572.38
347.535	573.38
347.763	572.38
347.99	581.38
348.218	532.38
348.445	566.38
348.673	591.38
348.9	589.38
349.128	612.38
349.355	615.38
349.583	603.38
349.81	594.38
350.037	514.38
350.265	526.38
350.492	555.38
350.72	560.38
350.947	555.38
351.174	597.38
351.402	556.38
351.629	520.38
351.856	532.38
352.083	537.38
352.311	541.38
352.538	544.38
352.765	571.38
352.992	564.38
353.22	569.38
353.447	549.38
353.674	581.38
353.901	562.38
354.128	551.38
354.355	559.38
354.583	584.38
354.81	597.38
355.037	596.38
355.264	583.38
355.491	574.38
355.718	576.38
355.945	570.38
356.172	553.38
356.399	549.38
356.626	574.38
356.853	586.38
357.08	634.38
357.307	675.38
357.534	641.38
357.761	565.38
357.988	559.38
358.215	527.38
358.441	540.38
358.668	547.38
358.895	590.38
359.122	623.38
359.349	632.38
359.576	634.38
359.802	569.38
360.029	537.38
360.256	538.38
360.483	579.38
360.709	597.38
360.936	606.38
361.163	614.38
361.39	670.38
361.616	701.38
361.843	697.38
362.07	633.38
362.296	575.38
362.523	575.38
362.749	572.38
362.976	612.38
363.203	605.38
363.429	571.38
363.656	566.38
363.882	603.38
364.109	659.38
364.335	679.38
364.562	613.38
364.788	613.38
365.015	588.38
365.241	576.38
365.468	584.38
365.694	598.38
365.92	600.38
366.147	589.38
366.373	563.38
366.599	582.38
366.826	556.38
367.052	564.38
367.278	555.38
367.505	588.38
367.731	604.38
367.957	597.38
368.184	618.38
368.41	674.38
368.636	652.38
368.862	666.38
369.089	662.38
369.315	637.38
369.541	588.38
369.767	600.38
369.993	587.38
370.219	603.38
370.445	610.38
370.672	630.38
370.898	666.38
371.124	653.38
371.35	644.38
371.576	664.38
371.802	651.38
372.028	635.38
372.254	624.38
372.48	586.38
372.706	600.38
372.932	593.38
373.158	621.38
373.384	619.38
373.61	649.38
373.835	662.38
374.061	634.38
374.287	623.38
374.513	612.38
374.739	620.38
374.965	623.38
375.191	636.38
375.416	641.38
375.642	667.38
375.868	706.38
376.094	719.38
376.319	683.38
376.545	648.38
376.771	661.38
376.997	698.38
377.222	682.38
377.448	685.38
377.674	687.38
377.899	679.38
378.125	716.38
378.35	699.38
378.576	629.38
378.802	633.38
379.027	632.38
379.253	646.38
379.478	626.38
379.704	650.38
379.929	662.38
380.155	649.38
380.38	655.38
380.606	670.38
380.831	650.38
381.057	696.38
381.282	686.38
381.507	710.38
381.733	720.38
381.958	735.38
382.184	693.38
382.409	682.38
382.634	700.38
382.86	698.38
383.085	695.38
383.31	711.38
383.535	787.38
383.761	781.38
383.986	776.38
384.211	708.38
384.436	762.38
384.662	780.38
384.887	779.38
385.112	746.38
385.337	750.38
385.562	738.38
385.787	726.38
386.013	761.38
386.238	758.38
386.463	772.38
386.688	827.38
386.913	862.38
387.138	828.38
387.363	812.38
387.588	757.38
387.813	754.38
388.038	776.38
388.263	799.38
388.488	760.38
388.713	731.38
388.938	715.38
389.163	716.38
389.387	737.38
389.612	718.38
389.837	794.38
390.062	754.38
390.287	767.38
390.512	756.38
390.736	732.38
390.961	722.38
391.186	711.38
391.411	703.38
391.636	734.38
391.86	718.38
392.085	730.38
392.31	750.38
392.534	747.38
392.759	756.38
392.984	764.38
393.208	772.38
393.433	796.38
393.658	827.38
393.882	826.38
394.107	776.38
394.331	782.38
394.556	750.38
394.78	777.38
395.005	826.38
395.229	832.38
395.454	867.38
395.678	855.38
395.903	807.38
396.127	804.38
396.352	822.38
396.576	832.38
396.801	828.38
397.025	824.38
397.249	848.38
397.474	826.38
397.698	846.38
397.922	858.38
398.147	898.38
398.371	896.38
398.595	896.38
398.82	869.38
399.044	896.38
399.268	918.38
399.492	965.38
399.717	1006.38
399.941	958.38
400.165	947.38
400.389	962.38
400.613	1006.38
400.837	1131.38
401.062	1172.38
401.286	1037.38
401.51	964.38
401.734	1006.38
401.958	962.38
402.182	899.38
402.406	893.38
402.63	881.38
402.854	896.38
403.078	873.38
403.302	882.38
403.526	898.38
403.75	919.38
403.974	945.38
404.198	943.38
404.422	994.38
404.645	1003.38
404.869	956.38
405.093	896.38
405.317	897.38
405.541	940.38
405.765	928.38
405.988	942.38
406.212	954.38
406.436	966.38
406.66	1016.38
406.883	1039.38
407.107	1137.38
407.331	1216.38
407.555	1284.38
407.778	1108.38
408.002	966.38
408.226	948.38
408.449	938.38
408.673	969.38
408.896	950.38
409.12	925.38
409.344	931.38
409.567	929.38
409.791	947.38
410.014	965.38
410.238	1048.38
410.461	1064.38
410.685	979.38
410.908	935.38
411.132	936.38
411.355	973.38
411.578	943.38
411.802	938.38
412.025	937.38
412.249	925.38
412.472	920.38
412.695	923.38
412.919	904.38
413.142	908.38
413.365	929.38
413.589	955.38
413.812	985.38
414.035	973.38
414.258	946.38
414.482	930.38
414.705	939.38
414.928	919.38
415.151	884.38
415.374	908.38
415.597	932.38
415.821	938.38
416.044	952.38
416.267	939.38
416.49	902.38
416.713	882.38
416.936	934.38
417.159	1001.38
417.382	943.38
417.605	907.38
417.828	946.38
418.051	917.38
418.274	938.38
418.497	927.38
418.72	959.38
418.943	925.38
419.166	950.38
419.389	994.38
419.611	971.38
419.834	938.38
420.057	950.38
420.28	930.38
420.503	952.38
420.726	962.38
420.948	925.38
421.171	920.38
421.394	933.38
421.617	985.38
421.839	988.38
422.062	967.38
422.285	939.38
422.507	932.38
422.73	878.38
422.953	852.38
423.175	887.38
423.398	909.38
423.621	936.38
423.843	953.38
424.066	948.38
424.288	1011.38
424.511	1048.38
424.733	998.38
424.956	906.38
425.178	921.38
425.401	961.38
425.623	961.38
425.846	923.38
426.068	958.38
426.291	946.38
426.513	960.38
426.735	979.38
426.958	1056.38
427.18	1066.38
427.402	992.38
427.625	1018.38
427.847	981.38
428.069	938.38
428.292	915.38
428.514	899.38
428.736	890.38
428.958	894.38
429.181	940.38
429.403	1075.38
429.625	1206.38
429.847	1042.38
430.069	926.38
430.292	1039.38
430.514	999.38
430.736	995.38
430.958	980.38
431.18	906.38
431.402	861.38
431.624	843.38
431.846	816.38
432.068	730.38
432.29	731.38
432.512	796.38
432.734	880.38
432.956	938.38
433.178	995.38
433.4	958.38
433.622	924.38
433.844	902.38
434.066	828.38
434.287	791.38
434.509	779.38
434.731	830.38
434.953	900.38
435.175	934.38
435.397	905.38
435.618	877.38
435.84	853.38
436.062	834.38
436.284	925.38
436.505	946.38
436.727	932.38
436.949	902.38
437.17	890.38
437.392	865.38
437.614	856.38
437.835	814.38
438.057	823.38
438.278	840.38
438.5	864.38
438.721	909.38
438.943	928.38
439.165	912.38
439.386	923.38
439.608	951.38
439.829	973.38
440.05	966.38
440.272	951.38
440.493	986.38
440.715	973.38
440.936	1026.38
441.158	1050.38
441.379	1041.38
441.6	1043.38
441.822	1027.38
442.043	1023.38
442.264	994.38
442.486	964.38
442.707	926.38
442.928	935.38
443.149	964.38
443.371	1004.38
443.592	1024.38
443.813	984.38
444.034	1054.38
444.255	999.38
444.476	1024.38
444.698	1017.38
444.919	1004.38
445.14	1172.38
445.361	1074.38
445.582	1070.38
445.803	1090.38
446.024	1065.38
446.245	1077.38
446.466	1031.38
446.687	1026.38
446.908	1060.38
447.129	1034.38
447.35	999.38
447.571	982.38
447.792	958.38
448.013	957.38
448.234	963.38
448.455	1003.38
448.675	968.38
448.896	922.38
449.117	902.38
449.338	918.38
449.559	954.38
449.779	1000.38
450	999.38
450.221	1044.38
450.442	1031.38
450.662	926.38
450.883	875.38
451.104	862.38
451.324	873.38
451.545	894.38
451.766	887.38
451.986	844.38
452.207	820.38
452.428	799.38
452.648	798.38
452.869	780.38
453.089	777.38
453.31	768.38
453.53	757.38
453.751	744.38
453.971	718.38
454.192	723.38
454.412	770.38
454.633	772.38
454.853	785.38
455.073	731.38
455.294	763.38
455.514	763.38
455.734	762.38
455.955	767.38
456.175	761.38
456.395	759.38
456.616	747.38
456.836	754.38
457.056	741.38
457.276	729.38
457.497	691.38
457.717	707.38
457.937	732.38
458.157	733.38
458.377	701.38
458.598	679.38
458.818	682.38
459.038	715.38
459.258	714.38
459.478	738.38
459.698	696.38
459.918	733.38
460.138	811.38
460.358	822.38
460.578	836.38
460.798	848.38
461.018	902.38
461.238	853.38
461.458	827.38
461.678	835.38
461.898	808.38
462.118	836.38
462.338	835.38
462.558	855.38
462.777	827.38
462.997	883.38
463.217	898.38
463.437	867.38
463.657	852.38
463.876	859.38
464.096	843.38
464.316	852.38
464.536	860.38
464.755	842.38
464.975	879.38
465.195	828.38
465.414	870.38
465.634	882.38
465.854	869.38
466.073	966.38
466.293	950.38
466.512	857.38
466.732	854.38
466.951	891.38
467.171	902.38
467.391	884.38
467.61	892.38
467.829	887.38
468.049	1005.38
468.268	1027.38
468.488	971.38
468.707	946.38
468.927	930.38
469.146	902.38
469.365	909.38
469.585	936.38
469.804	942.38
470.023	957.38
470.243	922.38
470.462	944.38
470.681	953.38
470.901	938.38
471.12	934.38
471.339	918.38
471.558	934.38
471.777	889.38
471.997	881.38
472.216	856.38
472.435	797.38
472.654	781.38
472.873	772.38
473.092	831.38
473.311	824.38
473.53	800.38
473.749	821.38
473.968	877.38
474.187	850.38
474.406	864.38
474.625	866.38
474.844	882.38
475.063	910.38
475.282	870.38
475.501	822.38
475.72	839.38
475.939	921.38
476.158	868.38
476.377	834.38
476.596	823.38
476.814	843.38
477.033	822.38
477.252	863.38
477.471	902.38
477.69	926.38
477.908	932.38
478.127	1006.38
478.346	990.38
478.564	1020.38
478.783	982.38
479.002	1007.38
479.22	1000.38
479.439	1006.38
479.658	1052.38
479.876	990.38
480.095	907.38
480.313	890.38
480.532	875.38
480.751	861.38
480.969	823.38
481.188	805.38
481.406	776.38
481.624	787.38
481.843	792.38
482.061	826.38
482.28	868.38
482.498	897.38
482.717	868.38
482.935	908.38
483.153	960.38
483.372	1040.38
483.59	1007.38
483.808	960.38
484.027	930.38
484.245	1002.38
484.463	1216.38
484.681	1286.38
484.9	1051.38
485.118	999.38
485.336	919.38
485.554	911.38
485.772	883.38
485.99	882.38
486.209	924.38
486.427	902.38
486.645	950.38
486.863	989.38
487.081	1044.38
487.299	1019.38
487.517	1028.38
487.735	1095.38
487.953	1178.38
488.171	1156.38
488.389	1118.38
488.607	1103.38
488.825	1160.38
489.043	1044.38
489.261	966.38
489.479	1005.38
489.696	1070.38
489.914	1058.38
490.132	1050.38
490.35	1101.38
490.568	1151.38
490.786	1156.38
491.003	1190.38
491.221	1234.38
491.439	1285.38
491.657	1290.38
491.874	1342.38
492.092	1409.38
492.31	1503.38
492.527	1456.38
492.745	1391.38
492.963	1312.38
493.18	1297.38
493.398	1369.38
493.615	1369.38
493.833	1288.38
494.05	1221.38
494.268	1236.38
494.485	1243.38
494.703	1238.38
494.92	1197.38
495.138	1211.38
495.355	1234.38
495.573	1230.38
495.79	1289.38
496.008	1288.38
496.225	1223.38
496.442	1191.38
496.66	1232.38
496.877	1217.38
497.094	1228.38
497.312	1196.38
497.529	1223.38
497.746	1191.38
497.963	1300.38
498.181	1288.38
498.398	1249.38
498.615	1225.38
498.832	1142.38
499.049	1139.38
499.267	1180.38
499.484	1278.38
499.701	1335.38
499.918	1370.38
500.135	1469.38
500.352	1559.38
