Data from WStandard_LampEnergy8_LIBS07252019.E.O._I.C._HRD10591_15-58-58-929.txt Node
Date: Thu Jul 25 15:58:58 EDT 2019
User: cochatt
Spectrometer: HR+D1059
Trigger mode: 1
Integration Time (sec): 1.000000E-1
Scans to average: 1
Electric dark correction enabled: true
Nonlinearity correction enabled: false
Boxcar width: 0
XAxis mode: Wavelengths
Number of Pixels in Spectrum: 2048
>>>>>Begin Spectral Data<<<<<
223.165	-24.88
223.4	-24.88
223.635	-24.88
223.869	-19.88
224.104	-30.88
224.338	-30.88
224.573	-11.88
224.808	-9.88
225.042	-5.88
225.277	3.12
225.511	9.12
225.746	19.12
225.98	13.12
226.215	15.12
226.449	16.12
226.683	20.12
226.918	18.12
227.152	20.12
227.387	24.12
227.621	31.12
227.856	29.12
228.09	51.12
228.324	48.12
228.559	53.12
228.793	105.12
229.027	202.12
229.262	207.12
229.496	214.12
229.73	215.12
229.964	243.12
230.199	261.12
230.433	245.12
230.667	264.12
230.901	280.12
231.136	238.12
231.37	247.12
231.604	246.12
231.838	246.12
232.072	263.12
232.306	259.12
232.541	284.12
232.775	309.12
233.009	335.12
233.243	295.12
233.477	295.12
233.711	296.12
233.945	323.12
234.179	293.12
234.413	335.12
234.647	332.12
234.881	332.12
235.115	288.12
235.349	301.12
235.583	317.12
235.817	312.12
236.051	296.12
236.285	297.12
236.519	333.12
236.753	366.12
236.987	356.12
237.221	343.12
237.455	386.12
237.689	374.12
237.922	351.12
238.156	346.12
238.39	344.12
238.624	373.12
238.858	391.12
239.091	415.12
239.325	418.12
239.559	470.12
239.793	503.12
240.027	518.12
240.26	490.12
240.494	416.12
240.728	364.12
240.961	378.12
241.195	384.12
241.429	436.12
241.662	426.12
241.896	384.12
242.13	382.12
242.363	437.12
242.597	448.12
242.83	442.12
243.064	476.12
243.298	486.12
243.531	459.12
243.765	471.12
243.998	451.12
244.232	432.12
244.465	392.12
244.699	423.12
244.932	461.12
245.166	510.12
245.399	469.12
245.633	449.12
245.866	455.12
246.099	507.12
246.333	503.12
246.566	502.12
246.8	548.12
247.033	610.12
247.266	536.12
247.5	542.12
247.733	533.12
247.966	572.12
248.2	588.12
248.433	627.12
248.666	602.12
248.899	676.12
249.133	768.12
249.366	827.12
249.599	712.12
249.832	598.12
250.066	620.12
250.299	660.12
250.532	582.12
250.765	559.12
250.998	565.12
251.231	610.12
251.465	596.12
251.698	600.12
251.931	606.12
252.164	608.12
252.397	622.12
252.63	614.12
252.863	566.12
253.096	528.12
253.329	562.12
253.562	583.12
253.795	616.12
254.028	615.12
254.261	591.12
254.494	570.12
254.727	556.12
254.96	582.12
255.193	648.12
255.426	723.12
255.659	794.12
255.892	788.12
256.124	673.12
256.357	658.12
256.59	713.12
256.823	693.12
257.056	740.12
257.289	850.12
257.521	921.12
257.754	812.12
257.987	795.12
258.22	841.12
258.452	799.12
258.685	688.12
258.918	673.12
259.151	655.12
259.383	660.12
259.616	575.12
259.849	644.12
260.081	711.12
260.314	786.12
260.547	824.12
260.779	848.12
261.012	747.12
261.244	709.12
261.477	694.12
261.71	715.12
261.942	685.12
262.175	683.12
262.407	690.12
262.64	682.12
262.872	664.12
263.105	632.12
263.337	640.12
263.57	645.12
263.802	621.12
264.035	591.12
264.267	579.12
264.499	570.12
264.732	644.12
264.964	646.12
265.197	693.12
265.429	698.12
265.661	793.12
265.894	853.12
266.126	915.12
266.358	802.12
266.591	826.12
266.823	878.12
267.055	784.12
267.287	791.12
267.52	792.12
267.752	752.12
267.984	810.12
268.216	812.12
268.448	813.12
268.681	793.12
268.913	733.12
269.145	698.12
269.377	703.12
269.609	791.12
269.841	906.12
270.073	1032.12
270.306	1125.12
270.538	1146.12
270.77	986.12
271.002	865.12
271.234	818.12
271.466	840.12
271.698	922.12
271.93	1062.12
272.162	1058.12
272.394	981.12
272.626	920.12
272.858	790.12
273.09	727.12
273.322	723.12
273.553	683.12
273.785	681.12
274.017	722.12
274.249	766.12
274.481	770.12
274.713	732.12
274.945	716.12
275.176	707.12
275.408	726.12
275.64	698.12
275.872	674.12
276.104	750.12
276.335	830.12
276.567	910.12
276.799	920.12
277.031	840.12
277.262	803.12
277.494	848.12
277.726	882.12
277.957	910.12
278.189	813.12
278.421	773.12
278.652	748.12
278.884	750.12
279.115	753.12
279.347	769.12
279.579	726.12
279.81	753.12
280.042	822.12
280.273	898.12
280.505	889.12
280.736	887.12
280.968	838.12
281.199	764.12
281.431	719.12
281.662	722.12
281.894	724.12
282.125	729.12
282.356	807.12
282.588	776.12
282.819	774.12
283.051	863.12
283.282	899.12
283.513	864.12
283.745	762.12
283.976	716.12
284.207	708.12
284.439	726.12
284.67	765.12
284.901	798.12
285.132	767.12
285.364	780.12
285.595	778.12
285.826	759.12
286.057	766.12
286.288	770.12
286.52	824.12
286.751	851.12
286.982	869.12
287.213	772.12
287.444	740.12
287.675	747.12
287.906	805.12
288.138	823.12
288.369	834.12
288.6	761.12
288.831	734.12
289.062	756.12
289.293	762.12
289.524	779.12
289.755	780.12
289.986	777.12
290.217	774.12
290.448	777.12
290.679	776.12
290.91	777.12
291.141	808.12
291.371	826.12
291.602	816.12
291.833	824.12
292.064	862.12
292.295	848.12
292.526	874.12
292.757	867.12
292.987	846.12
293.218	820.12
293.449	902.12
293.68	988.12
293.91	1004.12
294.141	992.12
294.372	912.12
294.603	920.12
294.833	988.12
295.064	909.12
295.295	842.12
295.525	790.12
295.756	784.12
295.987	709.12
296.217	746.12
296.448	770.12
296.679	780.12
296.909	774.12
297.14	786.12
297.37	826.12
297.601	851.12
297.831	910.12
298.062	903.12
298.292	819.12
298.523	774.12
298.753	780.12
298.984	818.12
299.214	836.12
299.445	831.12
299.675	854.12
299.905	838.12
300.136	813.12
300.366	766.12
300.597	773.12
300.827	789.12
301.057	829.12
301.288	852.12
301.518	860.12
301.748	869.12
301.979	915.12
302.209	923.12
302.439	1014.12
302.669	1033.12
302.9	927.12
303.13	858.12
303.36	853.12
303.59	871.12
303.82	896.12
304.051	845.12
304.281	900.12
304.511	890.12
304.741	947.12
304.971	1015.12
305.201	1073.12
305.431	958.12
305.661	818.12
305.891	780.12
306.121	784.12
306.352	806.12
306.582	854.12
306.812	917.12
307.042	951.12
307.272	974.12
307.502	1019.12
307.731	1063.12
307.961	1080.12
308.191	1025.12
308.421	880.12
308.651	886.12
308.881	840.12
309.111	851.12
309.341	839.12
309.571	856.12
309.8	836.12
310.03	833.12
310.26	813.12
310.49	816.12
310.72	855.12
310.949	916.12
311.179	897.12
311.409	853.12
311.639	852.12
311.868	857.12
312.098	840.12
312.328	837.12
312.557	857.12
312.787	862.12
313.017	885.12
313.246	871.12
313.476	908.12
313.706	892.12
313.935	889.12
314.165	899.12
314.394	928.12
314.624	1018.12
314.853	1042.12
315.083	1069.12
315.312	1101.12
315.542	995.12
315.771	893.12
316.001	918.12
316.23	975.12
316.46	946.12
316.689	930.12
316.919	882.12
317.148	858.12
317.377	888.12
317.607	986.12
317.836	1074.12
318.065	1086.12
318.295	1016.12
318.524	1005.12
318.753	972.12
318.983	972.12
319.212	956.12
319.441	942.12
319.67	931.12
319.9	932.12
320.129	973.12
320.358	1071.12
320.587	1064.12
320.816	1034.12
321.046	1038.12
321.275	981.12
321.504	976.12
321.733	1067.12
321.962	982.12
322.191	962.12
322.42	928.12
322.649	910.12
322.878	919.12
323.108	927.12
323.337	960.12
323.566	984.12
323.795	962.12
324.024	963.12
324.253	935.12
324.482	937.12
324.71	919.12
324.939	910.12
325.168	920.12
325.397	920.12
325.626	963.12
325.855	984.12
326.084	946.12
326.313	968.12
326.542	972.12
326.77	960.12
326.999	973.12
327.228	923.12
327.457	896.12
327.686	882.12
327.914	936.12
328.143	930.12
328.372	931.12
328.6	941.12
328.829	922.12
329.058	929.12
329.287	928.12
329.515	942.12
329.744	973.12
329.972	1040.12
330.201	1062.12
330.43	1016.12
330.658	999.12
330.887	980.12
331.115	1016.12
331.344	1016.12
331.572	1016.12
331.801	988.12
332.03	1020.12
332.258	998.12
332.486	1030.12
332.715	1032.12
332.943	1041.12
333.172	1005.12
333.4	1019.12
333.629	1009.12
333.857	1121.12
334.085	1260.12
334.314	1351.12
334.542	1432.12
334.771	1320.12
334.999	1183.12
335.227	1115.12
335.455	1068.12
335.684	1062.12
335.912	1097.12
336.14	1125.12
336.369	1068.12
336.597	1003.12
336.825	1010.12
337.053	1029.12
337.281	1131.12
337.51	1156.12
337.738	1207.12
337.966	1119.12
338.194	1031.12
338.422	996.12
338.65	975.12
338.878	960.12
339.106	950.12
339.334	957.12
339.562	962.12
339.79	971.12
340.018	1015.12
340.246	1022.12
340.474	1045.12
340.702	1046.12
340.93	1020.12
341.158	1047.12
341.386	1010.12
341.614	1008.12
341.842	1004.12
342.07	1008.12
342.298	1018.12
342.526	985.12
342.754	954.12
342.981	970.12
343.209	989.12
343.437	983.12
343.665	988.12
343.893	1006.12
344.12	1092.12
344.348	1048.12
344.576	980.12
344.804	993.12
345.031	994.12
345.259	985.12
345.487	958.12
345.714	885.12
345.942	890.12
346.17	924.12
346.397	948.12
346.625	939.12
346.853	891.12
347.08	901.12
347.308	902.12
347.535	920.12
347.763	950.12
347.99	939.12
348.218	910.12
348.445	922.12
348.673	923.12
348.9	974.12
349.128	1001.12
349.355	1006.12
349.583	984.12
349.81	922.12
350.037	868.12
350.265	839.12
350.492	904.12
350.72	917.12
350.947	944.12
351.174	951.12
351.402	889.12
351.629	864.12
351.856	864.12
352.083	883.12
352.311	862.12
352.538	904.12
352.765	948.12
352.992	979.12
353.22	909.12
353.447	894.12
353.674	926.12
353.901	927.12
354.128	920.12
354.355	932.12
354.583	965.12
354.81	970.12
355.037	986.12
355.264	934.12
355.491	963.12
355.718	966.12
355.945	909.12
356.172	930.12
356.399	901.12
356.626	910.12
356.853	985.12
357.08	1036.12
357.307	1123.12
357.534	1078.12
357.761	966.12
357.988	899.12
358.215	862.12
358.441	927.12
358.668	877.12
358.895	899.12
359.122	982.12
359.349	1088.12
359.576	1031.12
359.802	908.12
360.029	902.12
360.256	875.12
360.483	909.12
360.709	931.12
360.936	969.12
361.163	1050.12
361.39	1142.12
361.616	1190.12
361.843	1130.12
362.07	1068.12
362.296	950.12
362.523	897.12
362.749	908.12
362.976	956.12
363.203	930.12
363.429	957.12
363.656	922.12
363.882	983.12
364.109	1083.12
364.335	1094.12
364.562	1033.12
364.788	971.12
365.015	918.12
365.241	919.12
365.468	963.12
365.694	960.12
365.92	1013.12
366.147	932.12
366.373	900.12
366.599	913.12
366.826	911.12
367.052	878.12
367.278	945.12
367.505	919.12
367.731	959.12
367.957	961.12
368.184	999.12
368.41	1096.12
368.636	1096.12
368.862	1066.12
369.089	1072.12
369.315	1004.12
369.541	978.12
369.767	941.12
369.993	916.12
370.219	920.12
370.445	968.12
370.672	1018.12
370.898	1089.12
371.124	1020.12
371.35	991.12
371.576	1031.12
371.802	1047.12
372.028	994.12
372.254	978.12
372.48	939.12
372.706	964.12
372.932	931.12
373.158	997.12
373.384	1010.12
373.61	1005.12
373.835	1039.12
374.061	994.12
374.287	987.12
374.513	984.12
374.739	999.12
374.965	1016.12
375.191	1035.12
375.416	1018.12
375.642	1020.12
375.868	1122.12
376.094	1132.12
376.319	1052.12
376.545	997.12
376.771	1024.12
376.997	1098.12
377.222	1069.12
377.448	1037.12
377.674	1023.12
377.899	1046.12
378.125	1112.12
378.35	1093.12
378.576	986.12
378.802	962.12
379.027	956.12
379.253	967.12
379.478	988.12
379.704	981.12
379.929	976.12
380.155	1004.12
380.38	990.12
380.606	998.12
380.831	1030.12
381.057	1071.12
381.282	1092.12
381.507	1044.12
381.733	1124.12
381.958	1138.12
382.184	1067.12
382.409	1061.12
382.634	1052.12
382.86	1040.12
383.085	1037.12
383.31	1113.12
383.535	1171.12
383.761	1248.12
383.986	1157.12
384.211	1157.12
384.436	1151.12
384.662	1199.12
384.887	1194.12
385.112	1140.12
385.337	1140.12
385.562	1126.12
385.787	1108.12
386.013	1163.12
386.238	1179.12
386.463	1154.12
386.688	1228.12
386.913	1344.12
387.138	1277.12
387.363	1187.12
387.588	1180.12
387.813	1172.12
388.038	1213.12
388.263	1244.12
388.488	1170.12
388.713	1059.12
388.938	1084.12
389.163	1093.12
389.387	1114.12
389.612	1151.12
389.837	1156.12
390.062	1133.12
390.287	1126.12
390.512	1131.12
390.736	1115.12
390.961	1096.12
391.186	1088.12
391.411	1093.12
391.636	1119.12
391.86	1148.12
392.085	1144.12
392.31	1138.12
392.534	1135.12
392.759	1164.12
392.984	1150.12
393.208	1138.12
393.433	1150.12
393.658	1240.12
393.882	1251.12
394.107	1150.12
394.331	1180.12
394.556	1126.12
394.78	1174.12
395.005	1195.12
395.229	1239.12
395.454	1356.12
395.678	1331.12
395.903	1247.12
396.127	1200.12
396.352	1198.12
396.576	1279.12
396.801	1258.12
397.025	1253.12
397.249	1244.12
397.474	1230.12
397.698	1253.12
397.922	1304.12
398.147	1338.12
398.371	1394.12
398.595	1370.12
398.82	1298.12
399.044	1326.12
399.268	1388.12
399.492	1448.12
399.717	1481.12
399.941	1486.12
400.165	1460.12
400.389	1447.12
400.613	1436.12
400.837	1647.12
401.062	1821.12
401.286	1564.12
401.51	1438.12
401.734	1514.12
401.958	1452.12
402.182	1361.12
402.406	1291.12
402.63	1290.12
402.854	1299.12
403.078	1274.12
403.302	1334.12
403.526	1353.12
403.75	1362.12
403.974	1378.12
404.198	1374.12
404.422	1430.12
404.645	1484.12
404.869	1429.12
405.093	1318.12
405.317	1317.12
405.541	1368.12
405.765	1368.12
405.988	1315.12
406.212	1403.12
406.436	1415.12
406.66	1488.12
406.883	1493.12
407.107	1683.12
407.331	1793.12
407.555	1916.12
407.778	1678.12
408.002	1461.12
408.226	1445.12
408.449	1419.12
408.673	1384.12
408.896	1392.12
409.12	1440.12
409.344	1371.12
409.567	1336.12
409.791	1350.12
410.014	1422.12
410.238	1476.12
410.461	1534.12
410.685	1365.12
410.908	1351.12
411.132	1390.12
411.355	1338.12
411.578	1323.12
411.802	1352.12
412.025	1378.12
412.249	1331.12
412.472	1288.12
412.695	1310.12
412.919	1322.12
413.142	1278.12
413.365	1318.12
413.589	1391.12
413.812	1442.12
414.035	1477.12
414.258	1363.12
414.482	1309.12
414.705	1320.12
414.928	1278.12
415.151	1307.12
415.374	1322.12
415.597	1334.12
415.821	1364.12
416.044	1354.12
416.267	1350.12
416.49	1272.12
416.713	1229.12
416.936	1370.12
417.159	1402.12
417.382	1359.12
417.605	1292.12
417.828	1341.12
418.051	1347.12
418.274	1313.12
418.497	1288.12
418.72	1287.12
418.943	1288.12
419.166	1324.12
419.389	1386.12
419.611	1338.12
419.834	1281.12
420.057	1309.12
420.28	1299.12
420.503	1325.12
420.726	1324.12
420.948	1312.12
421.171	1288.12
421.394	1315.12
421.617	1335.12
421.839	1351.12
422.062	1312.12
422.285	1340.12
422.507	1346.12
422.73	1243.12
422.953	1231.12
423.175	1240.12
423.398	1305.12
423.621	1258.12
423.843	1290.12
424.066	1338.12
424.288	1343.12
424.511	1429.12
424.733	1375.12
424.956	1255.12
425.178	1262.12
425.401	1232.12
425.623	1255.12
425.846	1268.12
426.068	1368.12
426.291	1367.12
426.513	1338.12
426.735	1342.12
426.958	1393.12
427.18	1486.12
427.402	1398.12
427.625	1396.12
427.847	1400.12
428.069	1281.12
428.292	1264.12
428.514	1278.12
428.736	1269.12
428.958	1239.12
429.181	1283.12
429.403	1484.12
429.625	1767.12
429.847	1496.12
430.069	1279.12
430.292	1472.12
430.514	1479.12
430.736	1355.12
430.958	1378.12
431.18	1339.12
431.402	1246.12
431.624	1189.12
431.846	1161.12
432.068	1144.12
432.29	1166.12
432.512	1198.12
432.734	1249.12
432.956	1295.12
433.178	1362.12
433.4	1334.12
433.622	1306.12
433.844	1279.12
434.066	1196.12
434.287	1175.12
434.509	1226.12
434.731	1248.12
434.953	1355.12
435.175	1332.12
435.397	1287.12
435.618	1281.12
435.84	1251.12
436.062	1233.12
436.284	1269.12
436.505	1294.12
436.727	1322.12
436.949	1265.12
437.17	1229.12
437.392	1228.12
437.614	1259.12
437.835	1205.12
438.057	1259.12
438.278	1261.12
438.5	1253.12
438.721	1222.12
438.943	1245.12
439.165	1207.12
439.386	1230.12
439.608	1252.12
439.829	1232.12
440.05	1239.12
440.272	1207.12
440.493	1264.12
440.715	1283.12
440.936	1337.12
441.158	1398.12
441.379	1414.12
441.6	1399.12
441.822	1357.12
442.043	1348.12
442.264	1328.12
442.486	1232.12
442.707	1268.12
442.928	1281.12
443.149	1297.12
443.371	1367.12
443.592	1405.12
443.813	1388.12
444.034	1397.12
444.255	1348.12
444.476	1438.12
444.698	1399.12
444.919	1399.12
445.14	1536.12
445.361	1474.12
445.582	1453.12
445.803	1415.12
446.024	1393.12
446.245	1443.12
446.466	1382.12
446.687	1367.12
446.908	1364.12
447.129	1339.12
447.35	1351.12
447.571	1311.12
447.792	1252.12
448.013	1260.12
448.234	1281.12
448.455	1330.12
448.675	1316.12
448.896	1217.12
449.117	1207.12
449.338	1278.12
449.559	1307.12
449.779	1322.12
450	1410.12
450.221	1507.12
450.442	1481.12
450.662	1279.12
450.883	1190.12
451.104	1172.12
451.324	1204.12
451.545	1234.12
451.766	1178.12
451.986	1164.12
452.207	1118.12
452.428	1108.12
452.648	1086.12
452.869	1171.12
453.089	1154.12
453.31	1140.12
453.53	1154.12
453.751	1102.12
453.971	1048.12
454.192	1125.12
454.412	1153.12
454.633	1098.12
454.853	1120.12
455.073	1085.12
455.294	1093.12
455.514	1067.12
455.734	1087.12
455.955	1129.12
456.175	1077.12
456.395	1098.12
456.616	1111.12
456.836	1100.12
457.056	1051.12
457.276	1096.12
457.497	1080.12
457.717	1027.12
457.937	1075.12
458.157	1062.12
458.377	1079.12
458.598	1006.12
458.818	1070.12
459.038	1116.12
459.258	1143.12
459.478	1168.12
459.698	1117.12
459.918	1143.12
460.138	1230.12
460.358	1285.12
460.578	1250.12
460.798	1322.12
461.018	1366.12
461.238	1324.12
461.458	1293.12
461.678	1256.12
461.898	1228.12
462.118	1213.12
462.338	1278.12
462.558	1267.12
462.777	1292.12
462.997	1322.12
463.217	1368.12
463.437	1341.12
463.657	1285.12
463.876	1261.12
464.096	1266.12
464.316	1279.12
464.536	1309.12
464.755	1309.12
464.975	1332.12
465.195	1290.12
465.414	1317.12
465.634	1306.12
465.854	1294.12
466.073	1409.12
466.293	1345.12
466.512	1224.12
466.732	1212.12
466.951	1262.12
467.171	1252.12
467.391	1205.12
467.61	1172.12
467.829	1254.12
468.049	1302.12
468.268	1456.12
468.488	1346.12
468.707	1266.12
468.927	1233.12
469.146	1228.12
469.365	1223.12
469.585	1224.12
469.804	1232.12
470.023	1249.12
470.243	1280.12
470.462	1250.12
470.681	1202.12
470.901	1216.12
471.12	1233.12
471.339	1213.12
471.558	1214.12
471.777	1208.12
471.997	1213.12
472.216	1200.12
472.435	1124.12
472.654	1140.12
472.873	1171.12
473.092	1262.12
473.311	1224.12
473.53	1134.12
473.749	1138.12
473.968	1158.12
474.187	1243.12
474.406	1267.12
474.625	1205.12
474.844	1235.12
475.063	1256.12
475.282	1232.12
475.501	1196.12
475.72	1239.12
475.939	1308.12
476.158	1278.12
476.377	1215.12
476.596	1224.12
476.814	1230.12
477.033	1226.12
477.252	1276.12
477.471	1308.12
477.69	1297.12
477.908	1283.12
478.127	1377.12
478.346	1448.12
478.564	1426.12
478.783	1387.12
479.002	1463.12
479.22	1411.12
479.439	1477.12
479.658	1566.12
479.876	1530.12
480.095	1393.12
480.313	1365.12
480.532	1317.12
480.751	1303.12
480.969	1290.12
481.188	1280.12
481.406	1239.12
481.624	1234.12
481.843	1266.12
482.061	1319.12
482.28	1315.12
482.498	1341.12
482.717	1330.12
482.935	1292.12
483.153	1362.12
483.372	1382.12
483.59	1356.12
483.808	1364.12
484.027	1402.12
484.245	1463.12
484.463	1772.12
484.681	1901.12
484.9	1477.12
485.118	1391.12
485.336	1338.12
485.554	1406.12
485.772	1398.12
485.99	1375.12
486.209	1406.12
486.427	1414.12
486.645	1404.12
486.863	1408.12
487.081	1451.12
487.299	1478.12
487.517	1440.12
487.735	1438.12
487.953	1550.12
488.171	1519.12
488.389	1467.12
488.607	1440.12
488.825	1613.12
489.043	1558.12
489.261	1406.12
489.479	1486.12
489.696	1465.12
489.914	1494.12
490.132	1428.12
490.35	1432.12
490.568	1525.12
490.786	1545.12
491.003	1470.12
491.221	1546.12
491.439	1600.12
491.657	1588.12
491.874	1597.12
492.092	1685.12
492.31	1719.12
492.527	1666.12
492.745	1645.12
492.963	1583.12
493.18	1621.12
493.398	1727.12
