Data from WStandard_LampEnergy8_LIBS07252019.E.O._I.C._HRD10591_15-59-17-929.txt Node
Date: Thu Jul 25 15:59:17 EDT 2019
User: cochatt
Spectrometer: HR+D1059
Trigger mode: 1
Integration Time (sec): 1.000000E-1
Scans to average: 1
Electric dark correction enabled: true
Nonlinearity correction enabled: false
Boxcar width: 0
XAxis mode: Wavelengths
Number of Pixels in Spectrum: 2048
>>>>>Begin Spectral Data<<<<<
223.165	-3.44
223.4	-3.44
223.635	-3.44
223.869	-24.44
224.104	-25.44
224.338	-19.44
224.573	-33.44
224.808	-11.44
225.042	-12.44
225.277	4.56
225.511	7.56
225.746	6.56
225.98	6.56
226.215	10.56
226.449	15.56
226.683	19.56
226.918	29.56
227.152	29.56
227.387	18.56
227.621	33.56
227.856	40.56
228.09	61.56
228.324	54.56
228.559	51.56
228.793	89.56
229.027	203.56
229.262	200.56
229.496	195.56
229.73	245.56
229.964	241.56
230.199	253.56
230.433	255.56
230.667	265.56
230.901	302.56
231.136	282.56
231.37	264.56
231.604	261.56
231.838	285.56
232.072	271.56
232.306	256.56
232.541	287.56
232.775	307.56
233.009	338.56
233.243	305.56
233.477	293.56
233.711	296.56
233.945	329.56
234.179	292.56
234.413	329.56
234.647	350.56
234.881	313.56
235.115	299.56
235.349	300.56
235.583	312.56
235.817	309.56
236.051	297.56
236.285	324.56
236.519	340.56
236.753	343.56
236.987	338.56
237.221	377.56
237.455	389.56
237.689	366.56
237.922	358.56
238.156	344.56
238.39	370.56
238.624	374.56
238.858	365.56
239.091	401.56
239.325	410.56
239.559	457.56
239.793	488.56
240.027	518.56
240.26	532.56
240.494	393.56
240.728	388.56
240.961	385.56
241.195	391.56
241.429	442.56
241.662	422.56
241.896	390.56
242.13	418.56
242.363	438.56
242.597	469.56
242.83	445.56
243.064	458.56
243.298	482.56
243.531	461.56
243.765	466.56
243.998	461.56
244.232	406.56
244.465	398.56
244.699	428.56
244.932	460.56
245.166	535.56
245.399	537.56
245.633	459.56
245.866	476.56
246.099	470.56
246.333	494.56
246.566	520.56
246.8	570.56
247.033	592.56
247.266	548.56
247.5	519.56
247.733	546.56
247.966	568.56
248.2	628.56
248.433	608.56
248.666	606.56
248.899	699.56
249.133	760.56
249.366	824.56
249.599	701.56
249.832	645.56
250.066	625.56
250.299	629.56
250.532	613.56
250.765	528.56
250.998	577.56
251.231	597.56
251.465	619.56
251.698	596.56
251.931	599.56
252.164	585.56
252.397	648.56
252.63	630.56
252.863	567.56
253.096	553.56
253.329	568.56
253.562	587.56
253.795	624.56
254.028	615.56
254.261	595.56
254.494	574.56
254.727	560.56
254.96	589.56
255.193	682.56
255.426	718.56
255.659	777.56
255.892	793.56
256.124	694.56
256.357	665.56
256.59	694.56
256.823	709.56
257.056	741.56
257.289	841.56
257.521	910.56
257.754	836.56
257.987	770.56
258.22	844.56
258.452	821.56
258.685	680.56
258.918	664.56
259.151	680.56
259.383	638.56
259.616	590.56
259.849	632.56
260.081	691.56
260.314	775.56
260.547	841.56
260.779	824.56
261.012	762.56
261.244	718.56
261.477	685.56
261.71	707.56
261.942	692.56
262.175	688.56
262.407	723.56
262.64	678.56
262.872	656.56
263.105	650.56
263.337	636.56
263.57	649.56
263.802	618.56
264.035	598.56
264.267	565.56
264.499	570.56
264.732	611.56
264.964	640.56
265.197	691.56
265.429	754.56
265.661	801.56
265.894	852.56
266.126	896.56
266.358	805.56
266.591	823.56
266.823	894.56
267.055	800.56
267.287	799.56
267.52	789.56
267.752	775.56
267.984	770.56
268.216	797.56
268.448	809.56
268.681	797.56
268.913	763.56
269.145	734.56
269.377	709.56
269.609	798.56
269.841	876.56
270.073	1018.56
270.306	1104.56
270.538	1145.56
270.77	964.56
271.002	844.56
271.234	814.56
271.466	856.56
271.698	952.56
271.93	1099.56
272.162	1036.56
272.394	958.56
272.626	912.56
272.858	822.56
273.09	723.56
273.322	715.56
273.553	671.56
273.785	695.56
274.017	722.56
274.249	794.56
274.481	761.56
274.713	736.56
274.945	721.56
275.176	703.56
275.408	709.56
275.64	701.56
275.872	695.56
276.104	733.56
276.335	851.56
276.567	938.56
276.799	936.56
277.031	847.56
277.262	826.56
277.494	834.56
277.726	912.56
277.957	911.56
278.189	816.56
278.421	768.56
278.652	749.56
278.884	759.56
279.115	742.56
279.347	762.56
279.579	730.56
279.81	732.56
280.042	824.56
280.273	910.56
280.505	894.56
280.736	914.56
280.968	857.56
281.199	733.56
281.431	726.56
281.662	723.56
281.894	729.56
282.125	766.56
282.356	764.56
282.588	799.56
282.819	789.56
283.051	826.56
283.282	887.56
283.513	885.56
283.745	769.56
283.976	730.56
284.207	744.56
284.439	779.56
284.67	764.56
284.901	797.56
285.132	799.56
285.364	748.56
285.595	789.56
285.826	762.56
286.057	765.56
286.288	758.56
286.52	798.56
286.751	886.56
286.982	870.56
287.213	786.56
287.444	742.56
287.675	762.56
287.906	802.56
288.138	818.56
288.369	813.56
288.6	773.56
288.831	777.56
289.062	760.56
289.293	800.56
289.524	766.56
289.755	800.56
289.986	777.56
290.217	759.56
290.448	773.56
290.679	789.56
290.91	791.56
291.141	804.56
291.371	822.56
291.602	825.56
291.833	839.56
292.064	832.56
292.295	848.56
292.526	873.56
292.757	890.56
292.987	844.56
293.218	828.56
293.449	886.56
293.68	1011.56
293.91	1023.56
294.141	954.56
294.372	970.56
294.603	985.56
294.833	1000.56
295.064	934.56
295.295	829.56
295.525	814.56
295.756	767.56
295.987	725.56
296.217	748.56
296.448	794.56
296.679	768.56
296.909	805.56
297.14	797.56
297.37	800.56
297.601	868.56
297.831	911.56
298.062	910.56
298.292	827.56
298.523	797.56
298.753	815.56
298.984	805.56
299.214	804.56
299.445	829.56
299.675	857.56
299.905	861.56
300.136	853.56
300.366	806.56
300.597	775.56
300.827	817.56
301.057	846.56
301.288	888.56
301.518	892.56
301.748	869.56
301.979	910.56
302.209	943.56
302.439	990.56
302.669	1026.56
302.9	970.56
303.13	898.56
303.36	879.56
303.59	914.56
303.82	866.56
304.051	898.56
304.281	882.56
304.511	883.56
304.741	949.56
304.971	1038.56
305.201	1078.56
305.431	955.56
305.661	828.56
305.891	757.56
306.121	773.56
306.352	795.56
306.582	848.56
306.812	919.56
307.042	964.56
307.272	1003.56
307.502	1028.56
307.731	1082.56
307.961	1126.56
308.191	1040.56
308.421	892.56
308.651	848.56
308.881	844.56
309.111	841.56
309.341	845.56
309.571	844.56
309.8	847.56
310.03	847.56
310.26	843.56
310.49	829.56
310.72	869.56
310.949	908.56
311.179	905.56
311.409	860.56
311.639	833.56
311.868	858.56
312.098	874.56
312.328	871.56
312.557	822.56
312.787	881.56
313.017	882.56
313.246	898.56
313.476	898.56
313.706	888.56
313.935	910.56
314.165	930.56
314.394	929.56
314.624	1006.56
314.853	1042.56
315.083	1080.56
315.312	1084.56
315.542	985.56
315.771	928.56
316.001	920.56
316.23	983.56
316.46	968.56
316.689	927.56
316.919	903.56
317.148	868.56
317.377	904.56
317.607	1008.56
317.836	1078.56
318.065	1121.56
318.295	1064.56
318.524	989.56
318.753	978.56
318.983	954.56
319.212	964.56
319.441	946.56
319.67	957.56
319.9	922.56
320.129	1006.56
320.358	1020.56
320.587	1066.56
320.816	1023.56
321.046	1024.56
321.275	980.56
321.504	1011.56
321.733	1068.56
321.962	1018.56
322.191	958.56
322.42	952.56
322.649	935.56
322.878	947.56
323.108	958.56
323.337	971.56
323.566	986.56
323.795	993.56
324.024	942.56
324.253	955.56
324.482	954.56
324.71	916.56
324.939	878.56
325.168	916.56
325.397	943.56
325.626	962.56
325.855	988.56
326.084	947.56
326.313	962.56
326.542	977.56
326.77	991.56
326.999	992.56
327.228	942.56
327.457	905.56
327.686	871.56
327.914	918.56
328.143	942.56
328.372	951.56
328.6	942.56
328.829	908.56
329.058	911.56
329.287	913.56
329.515	948.56
329.744	964.56
329.972	1016.56
330.201	1093.56
330.43	1020.56
330.658	988.56
330.887	1006.56
331.115	1023.56
331.344	985.56
331.572	976.56
331.801	968.56
332.03	1006.56
332.258	1028.56
332.486	1041.56
332.715	1043.56
332.943	1051.56
333.172	1017.56
333.4	1022.56
333.629	1054.56
333.857	1134.56
334.085	1241.56
334.314	1381.56
334.542	1446.56
334.771	1300.56
334.999	1178.56
335.227	1098.56
335.455	1060.56
335.684	1076.56
335.912	1106.56
336.14	1139.56
336.369	1088.56
336.597	1030.56
336.825	1028.56
337.053	1076.56
337.281	1135.56
337.51	1154.56
337.738	1172.56
337.966	1116.56
338.194	1034.56
338.422	1006.56
338.65	1012.56
338.878	970.56
339.106	974.56
339.334	977.56
339.562	932.56
339.79	977.56
340.018	1042.56
340.246	1054.56
340.474	1044.56
340.702	1061.56
340.93	1049.56
341.158	1001.56
341.386	1031.56
341.614	989.56
341.842	1020.56
342.07	990.56
342.298	1024.56
342.526	1062.56
342.754	1013.56
342.981	996.56
343.209	973.56
343.437	965.56
343.665	994.56
343.893	1013.56
344.12	1056.56
344.348	1051.56
344.576	1016.56
344.804	1010.56
345.031	1004.56
345.259	1017.56
345.487	957.56
345.714	940.56
345.942	921.56
346.17	949.56
346.397	943.56
346.625	962.56
346.853	914.56
347.08	907.56
347.308	907.56
347.535	925.56
347.763	983.56
347.99	928.56
348.218	905.56
348.445	894.56
348.673	941.56
348.9	946.56
349.128	1015.56
349.355	1026.56
349.583	992.56
349.81	921.56
350.037	855.56
350.265	876.56
350.492	908.56
350.72	909.56
350.947	931.56
351.174	944.56
351.402	892.56
351.629	899.56
351.856	863.56
352.083	882.56
352.311	907.56
352.538	909.56
352.765	962.56
352.992	957.56
353.22	930.56
353.447	897.56
353.674	918.56
353.901	932.56
354.128	919.56
354.355	908.56
354.583	939.56
354.81	975.56
355.037	960.56
355.264	953.56
355.491	941.56
355.718	943.56
355.945	953.56
356.172	929.56
356.399	892.56
356.626	914.56
356.853	965.56
357.08	1000.56
357.307	1141.56
357.534	1077.56
357.761	973.56
357.988	896.56
358.215	893.56
358.441	874.56
358.668	869.56
358.895	914.56
359.122	993.56
359.349	1083.56
359.576	1017.56
359.802	957.56
360.029	905.56
360.256	900.56
360.483	918.56
360.709	957.56
360.936	976.56
361.163	1030.56
361.39	1124.56
361.616	1174.56
361.843	1140.56
362.07	1072.56
362.296	914.56
362.523	911.56
362.749	941.56
362.976	983.56
363.203	971.56
363.429	950.56
363.656	887.56
363.882	980.56
364.109	1046.56
364.335	1108.56
364.562	1055.56
364.788	984.56
365.015	956.56
365.241	915.56
365.468	970.56
365.694	969.56
365.92	1024.56
366.147	960.56
366.373	925.56
366.599	935.56
366.826	906.56
367.052	908.56
367.278	921.56
367.505	959.56
367.731	969.56
367.957	976.56
368.184	1032.56
368.41	1063.56
368.636	1066.56
368.862	1096.56
369.089	1080.56
369.315	1000.56
369.541	993.56
369.767	941.56
369.993	944.56
370.219	935.56
370.445	997.56
370.672	1020.56
370.898	1062.56
371.124	1043.56
371.35	1030.56
371.576	1026.56
371.802	1074.56
372.028	1002.56
372.254	959.56
372.48	970.56
372.706	928.56
372.932	945.56
373.158	965.56
373.384	986.56
373.61	1020.56
373.835	1047.56
374.061	997.56
374.287	992.56
374.513	1028.56
374.739	990.56
374.965	996.56
375.191	1025.56
375.416	1040.56
375.642	1040.56
375.868	1114.56
376.094	1141.56
376.319	1081.56
376.545	986.56
376.771	1017.56
376.997	1105.56
377.222	1053.56
377.448	1038.56
377.674	1049.56
377.899	1062.56
378.125	1138.56
378.35	1103.56
378.576	1014.56
378.802	986.56
379.027	942.56
379.253	982.56
379.478	981.56
379.704	1009.56
379.929	967.56
380.155	989.56
380.38	1028.56
380.606	1006.56
380.831	1057.56
381.057	1095.56
381.282	1081.56
381.507	1089.56
381.733	1117.56
381.958	1149.56
382.184	1053.56
382.409	1019.56
382.634	1069.56
382.86	1020.56
383.085	1069.56
383.31	1094.56
383.535	1194.56
383.761	1240.56
383.986	1166.56
384.211	1132.56
384.436	1150.56
384.662	1203.56
384.887	1219.56
385.112	1168.56
385.337	1155.56
385.562	1127.56
385.787	1144.56
386.013	1163.56
386.238	1138.56
386.463	1162.56
386.688	1282.56
386.913	1318.56
387.138	1280.56
387.363	1177.56
387.588	1188.56
387.813	1151.56
388.038	1191.56
388.263	1232.56
388.488	1174.56
388.713	1076.56
388.938	1122.56
389.163	1079.56
389.387	1158.56
389.612	1126.56
389.837	1166.56
390.062	1162.56
390.287	1144.56
390.512	1113.56
390.736	1122.56
390.961	1099.56
391.186	1092.56
391.411	1102.56
391.636	1144.56
391.86	1147.56
392.085	1112.56
392.31	1122.56
392.534	1158.56
392.759	1156.56
392.984	1154.56
393.208	1172.56
393.433	1193.56
393.658	1253.56
393.882	1233.56
394.107	1186.56
394.331	1165.56
394.556	1162.56
394.78	1208.56
395.005	1217.56
395.229	1284.56
395.454	1345.56
395.678	1334.56
395.903	1247.56
396.127	1208.56
396.352	1235.56
396.576	1256.56
396.801	1251.56
397.025	1241.56
397.249	1248.56
397.474	1211.56
397.698	1248.56
397.922	1303.56
398.147	1344.56
398.371	1404.56
398.595	1366.56
398.82	1328.56
399.044	1342.56
399.268	1391.56
399.492	1454.56
399.717	1516.56
399.941	1495.56
400.165	1479.56
400.389	1463.56
400.613	1506.56
400.837	1745.56
401.062	1852.56
401.286	1575.56
401.51	1468.56
401.734	1475.56
401.958	1452.56
402.182	1361.56
402.406	1286.56
402.63	1293.56
402.854	1294.56
403.078	1336.56
403.302	1347.56
403.526	1349.56
403.75	1377.56
403.974	1398.56
404.198	1377.56
404.422	1458.56
404.645	1518.56
404.869	1434.56
405.093	1310.56
405.317	1319.56
405.541	1366.56
405.765	1328.56
405.988	1371.56
406.212	1397.56
406.436	1433.56
406.66	1471.56
406.883	1514.56
407.107	1685.56
407.331	1821.56
407.555	1938.56
407.778	1708.56
408.002	1478.56
408.226	1422.56
408.449	1411.56
408.673	1404.56
408.896	1414.56
409.12	1398.56
409.344	1382.56
409.567	1353.56
409.791	1372.56
410.014	1404.56
410.238	1500.56
410.461	1584.56
410.685	1394.56
410.908	1336.56
411.132	1334.56
411.355	1373.56
411.578	1375.56
411.802	1371.56
412.025	1382.56
412.249	1364.56
412.472	1295.56
412.695	1309.56
412.919	1294.56
413.142	1293.56
413.365	1336.56
413.589	1350.56
413.812	1426.56
414.035	1460.56
414.258	1375.56
414.482	1328.56
414.705	1357.56
414.928	1326.56
415.151	1314.56
415.374	1369.56
415.597	1322.56
415.821	1361.56
416.044	1394.56
416.267	1346.56
416.49	1303.56
416.713	1264.56
416.936	1325.56
417.159	1389.56
417.382	1376.56
417.605	1327.56
417.828	1356.56
418.051	1374.56
418.274	1361.56
418.497	1303.56
418.72	1345.56
418.943	1304.56
419.166	1369.56
419.389	1367.56
419.611	1342.56
419.834	1298.56
420.057	1316.56
420.28	1304.56
420.503	1298.56
420.726	1335.56
420.948	1312.56
421.171	1289.56
421.394	1290.56
421.617	1361.56
421.839	1374.56
422.062	1334.56
422.285	1275.56
422.507	1270.56
422.73	1223.56
422.953	1219.56
423.175	1249.56
423.398	1278.56
423.621	1311.56
423.843	1290.56
424.066	1340.56
424.288	1415.56
424.511	1438.56
424.733	1364.56
424.956	1291.56
425.178	1267.56
425.401	1261.56
425.623	1327.56
425.846	1314.56
426.068	1369.56
426.291	1355.56
426.513	1330.56
426.735	1332.56
426.958	1470.56
427.18	1500.56
427.402	1385.56
427.625	1420.56
427.847	1403.56
428.069	1289.56
428.292	1227.56
428.514	1249.56
428.736	1287.56
428.958	1290.56
429.181	1310.56
429.403	1490.56
429.625	1813.56
429.847	1497.56
430.069	1292.56
430.292	1464.56
430.514	1468.56
430.736	1411.56
430.958	1407.56
431.18	1320.56
431.402	1225.56
431.624	1220.56
431.846	1189.56
432.068	1152.56
432.29	1197.56
432.512	1206.56
432.734	1248.56
432.956	1304.56
433.178	1355.56
433.4	1321.56
433.622	1345.56
433.844	1257.56
434.066	1228.56
434.287	1182.56
434.509	1219.56
434.731	1286.56
434.953	1378.56
435.175	1367.56
435.397	1308.56
435.618	1264.56
435.84	1284.56
436.062	1238.56
436.284	1281.56
436.505	1310.56
436.727	1357.56
436.949	1306.56
437.17	1269.56
437.392	1256.56
437.614	1232.56
437.835	1191.56
438.057	1227.56
438.278	1280.56
438.5	1253.56
438.721	1233.56
438.943	1234.56
439.165	1244.56
439.386	1248.56
439.608	1273.56
439.829	1264.56
440.05	1297.56
440.272	1284.56
440.493	1248.56
440.715	1301.56
440.936	1376.56
441.158	1458.56
441.379	1408.56
441.6	1400.56
441.822	1353.56
442.043	1332.56
442.264	1321.56
442.486	1265.56
442.707	1262.56
442.928	1264.56
443.149	1302.56
443.371	1376.56
443.592	1419.56
443.813	1394.56
444.034	1389.56
444.255	1393.56
444.476	1386.56
444.698	1422.56
444.919	1430.56
445.14	1488.56
445.361	1461.56
445.582	1503.56
445.803	1458.56
446.024	1399.56
446.245	1439.56
446.466	1372.56
446.687	1321.56
446.908	1372.56
447.129	1326.56
447.35	1298.56
447.571	1307.56
447.792	1283.56
448.013	1255.56
448.234	1282.56
448.455	1337.56
448.675	1328.56
448.896	1211.56
449.117	1224.56
449.338	1244.56
449.559	1281.56
449.779	1337.56
450	1423.56
450.221	1501.56
450.442	1445.56
450.662	1312.56
450.883	1185.56
451.104	1159.56
451.324	1224.56
451.545	1209.56
451.766	1206.56
451.986	1187.56
452.207	1154.56
452.428	1119.56
452.648	1112.56
452.869	1157.56
453.089	1170.56
453.31	1196.56
453.53	1186.56
453.751	1143.56
453.971	1079.56
454.192	1101.56
454.412	1192.56
454.633	1146.56
454.853	1116.56
455.073	1088.56
455.294	1084.56
455.514	1070.56
455.734	1096.56
455.955	1077.56
456.175	1063.56
456.395	1094.56
456.616	1125.56
456.836	1117.56
457.056	1105.56
457.276	1101.56
457.497	1073.56
457.717	1056.56
457.937	1056.56
458.157	1035.56
458.377	1044.56
458.598	1040.56
458.818	1038.56
459.038	1112.56
459.258	1185.56
459.478	1161.56
459.698	1124.56
459.918	1162.56
460.138	1247.56
460.358	1238.56
460.578	1284.56
460.798	1305.56
461.018	1371.56
461.238	1297.56
461.458	1222.56
461.678	1287.56
461.898	1232.56
462.118	1218.56
462.338	1264.56
462.558	1245.56
462.777	1255.56
462.997	1315.56
463.217	1406.56
463.437	1367.56
463.657	1274.56
463.876	1263.56
464.096	1259.56
464.316	1308.56
464.536	1353.56
464.755	1310.56
464.975	1308.56
465.195	1317.56
465.414	1363.56
465.634	1322.56
465.854	1306.56
466.073	1398.56
466.293	1360.56
466.512	1178.56
466.732	1194.56
466.951	1262.56
467.171	1264.56
467.391	1207.56
467.61	1212.56
467.829	1262.56
468.049	1331.56
468.268	1495.56
468.488	1344.56
468.707	1282.56
468.927	1217.56
469.146	1214.56
469.365	1253.56
469.585	1263.56
469.804	1224.56
470.023	1273.56
470.243	1277.56
470.462	1262.56
470.681	1224.56
470.901	1257.56
471.12	1279.56
471.339	1223.56
471.558	1208.56
471.777	1202.56
471.997	1239.56
472.216	1214.56
472.435	1123.56
472.654	1112.56
472.873	1170.56
473.092	1238.56
473.311	1208.56
473.53	1161.56
473.749	1166.56
473.968	1200.56
474.187	1242.56
474.406	1249.56
474.625	1230.56
474.844	1209.56
475.063	1216.56
475.282	1256.56
475.501	1214.56
475.72	1236.56
475.939	1333.56
476.158	1244.56
476.377	1237.56
476.596	1250.56
476.814	1234.56
477.033	1243.56
477.252	1304.56
477.471	1321.56
477.69	1279.56
477.908	1278.56
478.127	1364.56
478.346	1483.56
478.564	1418.56
478.783	1427.56
479.002	1458.56
479.22	1466.56
479.439	1476.56
479.658	1627.56
479.876	1562.56
480.095	1412.56
480.313	1337.56
480.532	1352.56
480.751	1337.56
480.969	1320.56
481.188	1270.56
481.406	1260.56
481.624	1228.56
481.843	1284.56
482.061	1280.56
482.28	1362.56
482.498	1365.56
482.717	1309.56
482.935	1313.56
483.153	1388.56
483.372	1399.56
483.59	1352.56
483.808	1388.56
484.027	1396.56
484.245	1473.56
484.463	1783.56
484.681	1906.56
484.9	1488.56
485.118	1388.56
485.336	1360.56
485.554	1393.56
485.772	1416.56
485.99	1372.56
486.209	1418.56
486.427	1434.56
486.645	1422.56
486.863	1417.56
487.081	1470.56
487.299	1494.56
487.517	1448.56
487.735	1468.56
487.953	1514.56
488.171	1493.56
488.389	1496.56
488.607	1461.56
488.825	1591.56
489.043	1588.56
489.261	1436.56
489.479	1516.56
489.696	1486.56
489.914	1477.56
490.132	1489.56
490.35	1461.56
490.568	1584.56
490.786	1511.56
491.003	1503.56
491.221	1549.56
491.439	1573.56
491.657	1604.56
491.874	1665.56
492.092	1680.56
492.31	1714.56
492.527	1692.56
492.745	1635.56
492.963	1642.56
493.18	1627.56
493.398	1724.56
