Data from WStandard_LampEnergy5.5LIBS07252019.E.O._I.C._HRD10591_16-06-49-919.txt Node
Date: Thu Jul 25 16:06:49 EDT 2019
User: cochatt
Spectrometer: HR+D1059
Trigger mode: 1
Integration Time (sec): 1.000000E-1
Scans to average: 1
Electric dark correction enabled: true
Nonlinearity correction enabled: false
Boxcar width: 0
XAxis mode: Wavelengths
Number of Pixels in Spectrum: 2048
>>>>>Begin Spectral Data<<<<<
223.165	-9.62
223.4	-9.62
223.635	-9.62
223.869	-9.62
224.104	-11.62
224.338	-13.62
224.573	-15.62
224.808	-18.62
225.042	-11.62
225.277	-13.62
225.511	13.38
225.746	-0.62
225.98	5.38
226.215	5.38
226.449	13.38
226.683	6.38
226.918	32.38
227.152	28.38
227.387	45.38
227.621	42.38
227.856	40.38
228.09	41.38
228.324	48.38
228.559	43.38
228.793	151.38
229.027	372.38
229.262	381.38
229.496	383.38
229.73	413.38
229.964	438.38
230.199	460.38
230.433	458.38
230.667	504.38
230.901	564.38
231.136	490.38
231.37	450.38
231.604	475.38
231.838	461.38
232.072	475.38
232.306	443.38
232.541	495.38
232.775	545.38
233.009	614.38
233.243	577.38
233.477	548.38
233.711	533.38
233.945	583.38
234.179	545.38
234.413	596.38
234.647	655.38
234.881	604.38
235.115	528.38
235.349	544.38
235.583	586.38
235.817	544.38
236.051	545.38
236.285	557.38
236.519	579.38
236.753	705.38
236.987	705.38
237.221	667.38
237.455	760.38
237.689	725.38
237.922	694.38
238.156	668.38
238.39	682.38
238.624	733.38
238.858	752.38
239.091	768.38
239.325	804.38
239.559	956.38
239.793	961.38
240.027	1078.38
240.26	1059.38
240.494	774.38
240.728	717.38
240.961	740.38
241.195	763.38
241.429	813.38
241.662	844.38
241.896	765.38
242.13	776.38
242.363	876.38
242.597	913.38
242.83	888.38
243.064	882.38
243.298	981.38
243.531	934.38
243.765	928.38
243.998	931.38
244.232	834.38
244.465	788.38
244.699	792.38
244.932	901.38
245.166	1084.38
245.399	1003.38
245.633	917.38
245.866	913.38
246.099	962.38
246.333	945.38
246.566	982.38
246.8	1072.38
247.033	1184.38
247.266	1082.38
247.5	1091.38
247.733	1061.38
247.966	1146.38
248.2	1248.38
248.433	1218.38
248.666	1242.38
248.899	1357.38
249.133	1552.38
249.366	1816.38
249.599	1447.38
249.832	1271.38
250.066	1306.38
250.299	1322.38
250.532	1211.38
250.765	1099.38
250.998	1146.38
251.231	1214.38
251.465	1243.38
251.698	1187.38
251.931	1192.38
252.164	1216.38
252.397	1286.38
252.63	1288.38
252.863	1127.38
253.096	1133.38
253.329	1165.38
253.562	1206.38
253.795	1300.38
254.028	1302.38
254.261	1192.38
254.494	1192.38
254.727	1117.38
254.96	1176.38
255.193	1263.38
255.426	1422.38
255.659	1668.38
255.892	1713.38
256.124	1417.38
256.357	1370.38
256.59	1467.38
256.823	1427.38
257.056	1442.38
257.289	1740.38
257.521	1960.38
257.754	1709.38
257.987	1610.38
258.22	1812.38
258.452	1796.38
258.685	1438.38
258.918	1401.38
259.151	1394.38
259.383	1347.38
259.616	1184.38
259.849	1244.38
260.081	1406.38
260.314	1566.38
260.547	1706.38
260.779	1732.38
261.012	1630.38
261.244	1448.38
261.477	1367.38
261.71	1449.38
261.942	1398.38
262.175	1380.38
262.407	1485.38
262.64	1387.38
262.872	1311.38
263.105	1238.38
263.337	1298.38
263.57	1313.38
263.802	1318.38
264.035	1259.38
264.267	1172.38
264.499	1121.38
264.732	1208.38
264.964	1324.38
265.197	1365.38
265.429	1416.38
265.661	1552.38
265.894	1753.38
266.126	1808.38
266.358	1590.38
266.591	1656.38
266.823	1824.38
267.055	1639.38
267.287	1592.38
267.52	1603.38
267.752	1575.38
267.984	1528.38
268.216	1624.38
268.448	1673.38
268.681	1661.38
268.913	1545.38
269.145	1407.38
269.377	1408.38
269.609	1516.38
269.841	1789.38
270.073	2094.38
270.306	2290.38
270.538	2499.38
270.77	2104.38
271.002	1735.38
271.234	1633.38
271.466	1639.38
271.698	1852.38
271.93	2262.38
272.162	2226.38
272.394	1976.38
272.626	1920.38
272.858	1687.38
273.09	1456.38
273.322	1446.38
273.553	1417.38
273.785	1397.38
274.017	1436.38
274.249	1588.38
274.481	1606.38
274.713	1476.38
274.945	1413.38
275.176	1430.38
275.408	1407.38
275.64	1370.38
275.872	1358.38
276.104	1459.38
276.335	1659.38
276.567	1914.38
276.799	1945.38
277.031	1716.38
277.262	1626.38
277.494	1651.38
277.726	1854.38
277.957	1877.38
278.189	1655.38
278.421	1548.38
278.652	1484.38
278.884	1474.38
279.115	1478.38
279.347	1536.38
279.579	1473.38
279.81	1418.38
280.042	1605.38
280.273	1788.38
280.505	1783.38
280.736	1844.38
280.968	1746.38
281.199	1522.38
281.431	1476.38
281.662	1467.38
281.894	1432.38
282.125	1481.38
282.356	1557.38
282.588	1556.38
282.819	1534.38
283.051	1683.38
283.282	1795.38
283.513	1694.38
283.745	1529.38
283.976	1411.38
284.207	1439.38
284.439	1450.38
284.67	1507.38
284.901	1547.38
285.132	1546.38
285.364	1529.38
285.595	1575.38
285.826	1529.38
286.057	1494.38
286.288	1504.38
286.52	1542.38
286.751	1678.38
286.982	1777.38
287.213	1603.38
287.444	1450.38
287.675	1434.38
287.906	1551.38
288.138	1630.38
288.369	1593.38
288.6	1531.38
288.831	1434.38
289.062	1494.38
289.293	1498.38
289.524	1472.38
289.755	1560.38
289.986	1555.38
290.217	1426.38
290.448	1476.38
290.679	1579.38
290.91	1529.38
291.141	1545.38
291.371	1653.38
291.602	1650.38
291.833	1609.38
292.064	1626.38
292.295	1597.38
292.526	1666.38
292.757	1761.38
292.987	1618.38
293.218	1548.38
293.449	1673.38
293.68	1848.38
293.91	2052.38
294.141	1923.38
294.372	1789.38
294.603	1830.38
294.833	1901.38
295.064	1833.38
295.295	1674.38
295.525	1616.38
295.756	1484.38
295.987	1393.38
296.217	1436.38
296.448	1450.38
296.679	1464.38
296.909	1448.38
297.14	1498.38
297.37	1491.38
297.601	1587.38
297.831	1773.38
298.062	1757.38
298.292	1603.38
298.523	1512.38
298.753	1520.38
298.984	1562.38
299.214	1513.38
299.445	1594.38
299.675	1657.38
299.905	1612.38
300.136	1578.38
300.366	1556.38
300.597	1486.38
300.827	1500.38
301.057	1528.38
301.288	1634.38
301.518	1646.38
301.748	1646.38
301.979	1752.38
302.209	1723.38
302.439	1865.38
302.669	1971.38
302.9	1848.38
303.13	1662.38
303.36	1650.38
303.59	1679.38
303.82	1675.38
304.051	1641.38
304.281	1647.38
304.511	1656.38
304.741	1731.38
304.971	1904.38
305.201	2091.38
305.431	1962.38
305.661	1568.38
305.891	1482.38
306.121	1433.38
306.352	1469.38
306.582	1547.38
306.812	1683.38
307.042	1834.38
307.272	1808.38
307.502	1853.38
307.731	1958.38
307.961	2196.38
308.191	2004.38
308.421	1739.38
308.651	1592.38
308.881	1586.38
309.111	1576.38
309.341	1598.38
309.571	1556.38
309.8	1573.38
310.03	1570.38
310.26	1521.38
310.49	1550.38
310.72	1596.38
310.949	1658.38
311.179	1694.38
311.409	1620.38
311.639	1641.38
311.868	1605.38
312.098	1627.38
312.328	1604.38
312.557	1591.38
312.787	1604.38
313.017	1697.38
313.246	1665.38
313.476	1637.38
313.706	1683.38
313.935	1674.38
314.165	1653.38
314.394	1756.38
314.624	1856.38
314.853	1968.38
315.083	2004.38
315.312	2082.38
315.542	1934.38
315.771	1682.38
316.001	1664.38
316.23	1815.38
316.46	1794.38
316.689	1771.38
316.919	1670.38
317.148	1657.38
317.377	1651.38
317.607	1774.38
317.836	1964.38
318.065	2054.38
318.295	1960.38
318.524	1876.38
318.753	1797.38
318.983	1768.38
319.212	1738.38
319.441	1711.38
319.67	1697.38
319.9	1739.38
320.129	1838.38
320.358	1900.38
320.587	1982.38
320.816	1950.38
321.046	1929.38
321.275	1792.38
321.504	1782.38
321.733	1924.38
321.962	1939.38
322.191	1759.38
322.42	1735.38
322.649	1674.38
322.878	1724.38
323.108	1710.38
323.337	1827.38
323.566	1809.38
323.795	1805.38
324.024	1792.38
324.253	1708.38
324.482	1786.38
324.71	1704.38
324.939	1625.38
325.168	1673.38
325.397	1732.38
325.626	1824.38
325.855	1806.38
326.084	1730.38
326.313	1720.38
326.542	1734.38
326.77	1799.38
326.999	1830.38
327.228	1765.38
327.457	1666.38
327.686	1614.38
327.914	1662.38
328.143	1721.38
328.372	1726.38
328.6	1748.38
328.829	1673.38
329.058	1660.38
329.287	1688.38
329.515	1746.38
329.744	1766.38
329.972	1840.38
330.201	1934.38
330.43	1877.38
330.658	1835.38
330.887	1848.38
331.115	1819.38
331.344	1846.38
331.572	1833.38
331.801	1790.38
332.03	1786.38
332.258	1848.38
332.486	1860.38
332.715	1860.38
332.943	1847.38
333.172	1849.38
333.4	1827.38
333.629	1850.38
333.857	1992.38
334.085	2212.38
334.314	2474.38
334.542	2773.38
334.771	2622.38
334.999	2214.38
335.227	2058.38
335.455	1984.38
335.684	1956.38
335.912	1987.38
336.14	2067.38
336.369	2018.38
336.597	1851.38
336.825	1813.38
337.053	1917.38
337.281	2036.38
337.51	2070.38
337.738	2226.38
337.966	2138.38
338.194	1921.38
338.422	1837.38
338.65	1804.38
338.878	1799.38
339.106	1729.38
339.334	1728.38
339.562	1697.38
339.79	1691.38
340.018	1876.38
340.246	1962.38
340.474	1976.38
340.702	1899.38
340.93	1880.38
341.158	1842.38
341.386	1797.38
341.614	1810.38
341.842	1802.38
342.07	1769.38
342.298	1830.38
342.526	1834.38
342.754	1736.38
342.981	1761.38
343.209	1744.38
343.437	1733.38
343.665	1746.38
343.893	1832.38
344.12	1894.38
344.348	1999.38
344.576	1884.38
344.804	1815.38
345.031	1796.38
345.259	1806.38
345.487	1800.38
345.714	1699.38
345.942	1629.38
346.17	1651.38
346.397	1689.38
346.625	1724.38
346.853	1620.38
347.08	1564.38
347.308	1626.38
347.535	1647.38
347.763	1731.38
347.99	1724.38
348.218	1612.38
348.445	1594.38
348.673	1687.38
348.9	1730.38
349.128	1759.38
349.355	1830.38
349.583	1757.38
349.81	1700.38
350.037	1581.38
350.265	1571.38
350.492	1557.38
350.72	1592.38
350.947	1674.38
351.174	1736.38
351.402	1641.38
351.629	1556.38
351.856	1560.38
352.083	1516.38
352.311	1545.38
352.538	1609.38
352.765	1669.38
352.992	1726.38
353.22	1653.38
353.447	1595.38
353.674	1612.38
353.901	1639.38
354.128	1642.38
354.355	1621.38
354.583	1684.38
354.81	1684.38
355.037	1709.38
355.264	1728.38
355.491	1700.38
355.718	1718.38
355.945	1664.38
356.172	1638.38
356.399	1601.38
356.626	1623.38
356.853	1675.38
357.08	1748.38
357.307	1970.38
357.534	2021.38
357.761	1730.38
357.988	1602.38
358.215	1517.38
358.441	1598.38
358.668	1578.38
358.895	1554.38
359.122	1665.38
359.349	1852.38
359.576	1829.38
359.802	1650.38
360.029	1618.38
360.256	1564.38
360.483	1620.38
360.709	1660.38
360.936	1705.38
361.163	1772.38
361.39	1940.38
361.616	2108.38
361.843	2006.38
362.07	1936.38
362.296	1701.38
362.523	1636.38
362.749	1658.38
362.976	1668.38
363.203	1686.38
363.429	1636.38
363.656	1567.38
363.882	1648.38
364.109	1801.38
364.335	1998.38
364.562	1874.38
364.788	1766.38
365.015	1705.38
365.241	1564.38
365.468	1650.38
365.694	1707.38
365.92	1814.38
366.147	1725.38
366.373	1609.38
366.599	1589.38
366.826	1608.38
367.052	1597.38
367.278	1618.38
367.505	1642.38
367.731	1661.38
367.957	1680.38
368.184	1693.38
368.41	1838.38
368.636	1853.38
368.862	1838.38
369.089	1856.38
369.315	1824.38
369.541	1746.38
369.767	1687.38
369.993	1667.38
370.219	1634.38
370.445	1678.38
370.672	1733.38
370.898	1858.38
371.124	1827.38
371.35	1734.38
371.576	1742.38
371.802	1850.38
372.028	1797.38
372.254	1703.38
372.48	1642.38
372.706	1642.38
372.932	1626.38
373.158	1677.38
373.384	1705.38
373.61	1737.38
373.835	1863.38
374.061	1732.38
374.287	1753.38
374.513	1746.38
374.739	1722.38
374.965	1780.38
375.191	1748.38
375.416	1749.38
375.642	1769.38
375.868	1844.38
376.094	1948.38
376.319	1850.38
376.545	1722.38
376.771	1761.38
376.997	1838.38
377.222	1877.38
377.448	1777.38
377.674	1801.38
377.899	1771.38
378.125	1875.38
378.35	1892.38
378.576	1726.38
378.802	1672.38
379.027	1666.38
379.253	1682.38
379.478	1710.38
379.704	1724.38
379.929	1705.38
380.155	1686.38
380.38	1692.38
380.606	1746.38
380.831	1745.38
381.057	1827.38
381.282	1891.38
381.507	1772.38
381.733	1901.38
381.958	1981.38
382.184	1842.38
382.409	1814.38
382.634	1825.38
382.86	1831.38
383.085	1812.38
383.31	1828.38
383.535	1993.38
383.761	2126.38
383.986	2050.38
384.211	1962.38
384.436	1927.38
384.662	1996.38
384.887	2124.38
385.112	1984.38
385.337	1992.38
385.562	1994.38
385.787	1960.38
386.013	2003.38
386.238	2008.38
386.463	2006.38
386.688	2107.38
386.913	2253.38
387.138	2219.38
387.363	2090.38
387.588	2037.38
387.813	1985.38
388.038	2032.38
388.263	2111.38
388.488	2028.38
388.713	1866.38
388.938	1897.38
389.163	1901.38
389.387	1974.38
389.612	1904.38
389.837	1981.38
390.062	2042.38
390.287	1950.38
390.512	1985.38
390.736	1907.38
390.961	1905.38
391.186	1843.38
391.411	1889.38
391.636	1947.38
391.86	1955.38
392.085	1949.38
392.31	1949.38
392.534	1961.38
392.759	1995.38
392.984	1961.38
393.208	1987.38
393.433	2096.38
393.658	2139.38
393.882	2165.38
394.107	2049.38
394.331	1993.38
394.556	1953.38
394.78	1980.38
395.005	2004.38
395.229	2088.38
395.454	2231.38
395.678	2278.38
395.903	2199.38
396.127	2101.38
396.352	2076.38
396.576	2159.38
396.801	2184.38
397.025	2155.38
397.249	2170.38
397.474	2102.38
397.698	2118.38
397.922	2213.38
398.147	2248.38
398.371	2336.38
398.595	2319.38
398.82	2269.38
399.044	2282.38
399.268	2377.38
399.492	2524.38
399.717	2601.38
399.941	2653.38
400.165	2610.38
400.389	2505.38
400.613	2448.38
400.837	2688.38
401.062	3158.38
401.286	2742.38
401.51	2455.38
401.734	2584.38
401.958	2552.38
402.182	2314.38
402.406	2243.38
402.63	2235.38
402.854	2248.38
403.078	2265.38
403.302	2340.38
403.526	2338.38
403.75	2365.38
403.974	2354.38
404.198	2302.38
404.422	2400.38
404.645	2518.38
404.869	2507.38
405.093	2301.38
405.317	2277.38
405.541	2370.38
405.765	2406.38
405.988	2345.38
406.212	2402.38
406.436	2403.38
406.66	2518.38
406.883	2556.38
407.107	2820.38
407.331	3047.38
407.555	3252.38
407.778	3030.38
408.002	2560.38
408.226	2482.38
408.449	2461.38
408.673	2367.38
408.896	2404.38
409.12	2444.38
409.344	2385.38
409.567	2312.38
409.791	2400.38
410.014	2385.38
410.238	2494.38
410.461	2616.38
410.685	2417.38
410.908	2295.38
411.132	2344.38
411.355	2315.38
411.578	2268.38
411.802	2279.38
412.025	2345.38
412.249	2332.38
412.472	2223.38
412.695	2204.38
412.919	2216.38
413.142	2223.38
413.365	2218.38
413.589	2309.38
413.812	2386.38
414.035	2496.38
414.258	2260.38
414.482	2262.38
414.705	2316.38
414.928	2224.38
415.151	2206.38
415.374	2204.38
415.597	2296.38
415.821	2280.38
416.044	2357.38
416.267	2340.38
416.49	2143.38
416.713	2149.38
416.936	2248.38
417.159	2314.38
417.382	2321.38
417.605	2207.38
417.828	2276.38
418.051	2279.38
418.274	2236.38
418.497	2162.38
418.72	2163.38
418.943	2122.38
419.166	2290.38
419.389	2424.38
419.611	2277.38
419.834	2221.38
420.057	2265.38
420.28	2146.38
420.503	2139.38
420.726	2193.38
420.948	2215.38
421.171	2128.38
421.394	2145.38
421.617	2228.38
421.839	2200.38
422.062	2156.38
422.285	2141.38
422.507	2143.38
422.73	2096.38
422.953	2068.38
423.175	2103.38
423.398	2133.38
423.621	2149.38
423.843	2119.38
424.066	2204.38
424.288	2268.38
424.511	2278.38
424.733	2254.38
424.956	2049.38
425.178	2048.38
425.401	2051.38
425.623	2135.38
425.846	2084.38
426.068	2209.38
426.291	2237.38
426.513	2169.38
426.735	2200.38
426.958	2301.38
427.18	2498.38
427.402	2241.38
427.625	2342.38
427.847	2365.38
428.069	2206.38
428.292	2117.38
428.514	2039.38
428.736	2029.38
428.958	2103.38
429.181	2096.38
429.403	2338.38
429.625	2921.38
429.847	2605.38
430.069	2184.38
430.292	2352.38
430.514	2452.38
430.736	2221.38
430.958	2366.38
431.18	2270.38
431.402	2109.38
431.624	2069.38
431.846	2059.38
432.068	2028.38
432.29	2073.38
432.512	2104.38
432.734	2150.38
432.956	2188.38
433.178	2269.38
433.4	2228.38
433.622	2274.38
433.844	2108.38
434.066	2075.38
434.287	2060.38
434.509	2151.38
434.731	2277.38
434.953	2391.38
435.175	2348.38
435.397	2214.38
435.618	2212.38
435.84	2187.38
436.062	2175.38
436.284	2153.38
436.505	2234.38
436.727	2235.38
436.949	2187.38
437.17	2075.38
437.392	2107.38
437.614	2126.38
437.835	2088.38
438.057	2174.38
438.278	2294.38
438.5	2104.38
438.721	2117.38
438.943	2062.38
439.165	2066.38
439.386	2033.38
439.608	2073.38
439.829	2063.38
440.05	2099.38
440.272	2036.38
440.493	2025.38
440.715	2084.38
440.936	2211.38
441.158	2425.38
441.379	2405.38
441.6	2308.38
441.822	2250.38
442.043	2257.38
442.264	2224.38
442.486	2041.38
442.707	2055.38
442.928	2048.38
443.149	2153.38
443.371	2291.38
443.592	2352.38
443.813	2300.38
444.034	2284.38
444.255	2304.38
444.476	2304.38
444.698	2408.38
444.919	2340.38
445.14	2437.38
445.361	2398.38
445.582	2454.38
445.803	2376.38
446.024	2264.38
446.245	2424.38
446.466	2284.38
446.687	2168.38
446.908	2194.38
447.129	2107.38
447.35	2164.38
447.571	2097.38
447.792	2054.38
448.013	2041.38
448.234	2106.38
448.455	2193.38
448.675	2194.38
448.896	2002.38
449.117	1970.38
449.338	2035.38
449.559	2126.38
449.779	2225.38
450	2462.38
450.221	2671.38
450.442	2593.38
450.662	2248.38
450.883	1975.38
451.104	1971.38
451.324	1994.38
451.545	2091.38
451.766	2057.38
451.986	1940.38
452.207	1922.38
452.428	1904.38
452.648	1841.38
452.869	1890.38
453.089	2026.38
453.31	2062.38
453.53	2106.38
453.751	2052.38
453.971	1880.38
454.192	1936.38
454.412	2091.38
454.633	1998.38
454.853	1942.38
455.073	1819.38
455.294	1815.38
455.514	1814.38
455.734	1817.38
455.955	1891.38
456.175	1852.38
456.395	1860.38
456.616	1950.38
456.836	1959.38
457.056	1897.38
457.276	1905.38
457.497	1855.38
457.717	1773.38
457.937	1809.38
458.157	1937.38
458.377	1894.38
458.598	1877.38
458.818	1836.38
459.038	1982.38
459.258	2147.38
459.478	2181.38
459.698	2051.38
459.918	2076.38
460.138	2213.38
460.358	2227.38
460.578	2232.38
460.798	2311.38
461.018	2484.38
461.238	2335.38
461.458	2198.38
461.678	2222.38
461.898	2181.38
462.118	2134.38
462.338	2224.38
462.558	2203.38
462.777	2199.38
462.997	2339.38
463.217	2470.38
463.437	2493.38
463.657	2262.38
463.876	2258.38
464.096	2251.38
464.316	2219.38
464.536	2336.38
464.755	2316.38
464.975	2435.38
465.195	2262.38
465.414	2393.38
465.634	2376.38
465.854	2278.38
466.073	2394.38
466.293	2299.38
466.512	2043.38
466.732	2047.38
466.951	2129.38
467.171	2120.38
467.391	2010.38
467.61	1964.38
467.829	2035.38
468.049	2169.38
468.268	2464.38
468.488	2314.38
468.707	2156.38
468.927	2075.38
469.146	2081.38
469.365	1996.38
469.585	2101.38
469.804	2014.38
470.023	2065.38
470.243	2049.38
470.462	2007.38
470.681	1984.38
470.901	2032.38
471.12	2004.38
471.339	1989.38
471.558	1966.38
471.777	1944.38
471.997	2035.38
472.216	1995.38
472.435	1917.38
472.654	1993.38
472.873	2121.38
473.092	2190.38
473.311	2111.38
473.53	1992.38
473.749	1954.38
473.968	2040.38
474.187	2122.38
474.406	2244.38
474.625	2085.38
474.844	2054.38
475.063	2025.38
475.282	2111.38
475.501	2085.38
475.72	2080.38
475.939	2219.38
476.158	2102.38
476.377	2088.38
476.596	2110.38
476.814	2127.38
477.033	2131.38
477.252	2210.38
477.471	2289.38
477.69	2189.38
477.908	2171.38
478.127	2260.38
478.346	2475.38
478.564	2446.38
478.783	2444.38
479.002	2544.38
479.22	2458.38
479.439	2583.38
479.658	2864.38
479.876	2840.38
480.095	2472.38
480.313	2385.38
480.532	2250.38
480.751	2280.38
480.969	2370.38
481.188	2341.38
481.406	2272.38
481.624	2176.38
481.843	2258.38
482.061	2344.38
482.28	2341.38
482.498	2401.38
482.717	2380.38
482.935	2281.38
483.153	2261.38
483.372	2282.38
483.59	2254.38
483.808	2276.38
484.027	2334.38
484.245	2462.38
484.463	2841.38
484.681	3324.38
484.9	2556.38
485.118	2370.38
485.336	2310.38
485.554	2408.38
485.772	2528.38
485.99	2439.38
486.209	2459.38
486.427	2431.38
486.645	2392.38
486.863	2430.38
487.081	2456.38
487.299	2534.38
487.517	2552.38
