Data from WStandard_LampEnergy10_LIBS07252019.E.O._I.C._HRD10591_15-54-15-928.txt Node
Date: Thu Jul 25 15:54:15 EDT 2019
User: cochatt
Spectrometer: HR+D1059
Trigger mode: 1
Integration Time (sec): 1.000000E-1
Scans to average: 1
Electric dark correction enabled: true
Nonlinearity correction enabled: false
Boxcar width: 0
XAxis mode: Wavelengths
Number of Pixels in Spectrum: 2048
>>>>>Begin Spectral Data<<<<<
223.165	-16.19
223.4	-16.19
223.635	-16.19
223.869	-20.19
224.104	-17.19
224.338	-14.19
224.573	-3.19
224.808	-11.19
225.042	-9.19
225.277	2.81
225.511	-5.19
225.746	-2.19
225.98	-0.19
226.215	9.81
226.449	7.81
226.683	21.81
226.918	30.81
227.152	25.81
227.387	35.81
227.621	40.81
227.856	33.81
228.09	57.81
228.324	60.81
228.559	59.81
228.793	93.81
229.027	151.81
229.262	151.81
229.496	150.81
229.73	150.81
229.964	165.81
230.199	158.81
230.433	177.81
230.667	179.81
230.901	179.81
231.136	178.81
231.37	168.81
231.604	173.81
231.838	178.81
232.072	191.81
232.306	165.81
232.541	182.81
232.775	204.81
233.009	201.81
233.243	206.81
233.477	189.81
233.711	212.81
233.945	207.81
234.179	198.81
234.413	224.81
234.647	226.81
234.881	214.81
235.115	196.81
235.349	194.81
235.583	205.81
235.817	194.81
236.051	195.81
236.285	210.81
236.519	202.81
236.753	229.81
236.987	235.81
237.221	227.81
237.455	229.81
237.689	223.81
237.922	216.81
238.156	216.81
238.39	228.81
238.624	245.81
238.858	245.81
239.091	257.81
239.325	271.81
239.559	305.81
239.793	294.81
240.027	318.81
240.26	294.81
240.494	234.81
240.728	233.81
240.961	244.81
241.195	253.81
241.429	252.81
241.662	259.81
241.896	247.81
242.13	261.81
242.363	264.81
242.597	279.81
242.83	277.81
243.064	273.81
243.298	295.81
243.531	283.81
243.765	280.81
243.998	266.81
244.232	261.81
244.465	233.81
244.699	257.81
244.932	286.81
245.166	311.81
245.399	305.81
245.633	285.81
245.866	284.81
246.099	307.81
246.333	297.81
246.566	295.81
246.8	314.81
247.033	353.81
247.266	335.81
247.5	325.81
247.733	322.81
247.966	337.81
248.2	341.81
248.433	363.81
248.666	365.81
248.899	395.81
249.133	427.81
249.366	463.81
249.599	409.81
249.832	370.81
250.066	369.81
250.299	372.81
250.532	356.81
250.765	321.81
250.998	327.81
251.231	384.81
251.465	365.81
251.698	353.81
251.931	348.81
252.164	351.81
252.397	385.81
252.63	361.81
252.863	342.81
253.096	341.81
253.329	337.81
253.562	364.81
253.795	375.81
254.028	361.81
254.261	342.81
254.494	322.81
254.727	338.81
254.96	337.81
255.193	381.81
255.426	418.81
255.659	467.81
255.892	451.81
256.124	410.81
256.357	399.81
256.59	411.81
256.823	411.81
257.056	431.81
257.289	481.81
257.521	518.81
257.754	478.81
257.987	451.81
258.22	498.81
258.452	468.81
258.685	411.81
258.918	400.81
259.151	400.81
259.383	390.81
259.616	372.81
259.849	369.81
260.081	421.81
260.314	464.81
260.547	471.81
260.779	469.81
261.012	444.81
261.244	399.81
261.477	393.81
261.71	419.81
261.942	406.81
262.175	398.81
262.407	413.81
262.64	385.81
262.872	372.81
263.105	368.81
263.337	383.81
263.57	367.81
263.802	379.81
264.035	348.81
264.267	351.81
264.499	336.81
264.732	372.81
264.964	385.81
265.197	403.81
265.429	397.81
265.661	470.81
265.894	476.81
266.126	509.81
266.358	459.81
266.591	454.81
266.823	473.81
267.055	481.81
267.287	447.81
267.52	463.81
267.752	466.81
267.984	465.81
268.216	479.81
268.448	473.81
268.681	459.81
268.913	451.81
269.145	417.81
269.377	404.81
269.609	475.81
269.841	511.81
270.073	587.81
270.306	637.81
270.538	652.81
270.77	549.81
271.002	478.81
271.234	469.81
271.466	487.81
271.698	528.81
271.93	603.81
272.162	588.81
272.394	551.81
272.626	513.81
272.858	482.81
273.09	415.81
273.322	428.81
273.553	385.81
273.785	417.81
274.017	424.81
274.249	435.81
274.481	461.81
274.713	423.81
274.945	407.81
275.176	420.81
275.408	413.81
275.64	401.81
275.872	426.81
276.104	454.81
276.335	493.81
276.567	531.81
276.799	535.81
277.031	473.81
277.262	489.81
277.494	491.81
277.726	525.81
277.957	501.81
278.189	452.81
278.421	424.81
278.652	432.81
278.884	435.81
279.115	444.81
279.347	423.81
279.579	410.81
279.81	440.81
280.042	481.81
280.273	528.81
280.505	524.81
280.736	513.81
280.968	478.81
281.199	425.81
281.431	423.81
281.662	421.81
281.894	420.81
282.125	452.81
282.356	453.81
282.588	463.81
282.819	463.81
283.051	493.81
283.282	522.81
283.513	510.81
283.745	444.81
283.976	422.81
284.207	441.81
284.439	442.81
284.67	461.81
284.901	446.81
285.132	481.81
285.364	465.81
285.595	466.81
285.826	462.81
286.057	464.81
286.288	454.81
286.52	469.81
286.751	510.81
286.982	499.81
287.213	447.81
287.444	441.81
287.675	433.81
287.906	462.81
288.138	488.81
288.369	476.81
288.6	456.81
288.831	418.81
289.062	442.81
289.293	457.81
289.524	469.81
289.755	433.81
289.986	451.81
290.217	442.81
290.448	443.81
290.679	462.81
290.91	464.81
291.141	484.81
291.371	482.81
291.602	509.81
291.833	491.81
292.064	497.81
292.295	515.81
292.526	511.81
292.757	518.81
292.987	488.81
293.218	473.81
293.449	533.81
293.68	599.81
293.91	593.81
294.141	556.81
294.372	553.81
294.603	579.81
294.833	571.81
295.064	540.81
295.295	499.81
295.525	478.81
295.756	455.81
295.987	457.81
296.217	454.81
296.448	452.81
296.679	483.81
296.909	457.81
297.14	461.81
297.37	482.81
297.601	517.81
297.831	533.81
298.062	515.81
298.292	499.81
298.523	466.81
298.753	471.81
298.984	490.81
299.214	491.81
299.445	489.81
299.675	522.81
299.905	507.81
300.136	473.81
300.366	475.81
300.597	470.81
300.827	469.81
301.057	484.81
301.288	501.81
301.518	523.81
301.748	508.81
301.979	553.81
302.209	572.81
302.439	582.81
302.669	600.81
302.9	539.81
303.13	495.81
303.36	518.81
303.59	515.81
303.82	516.81
304.051	509.81
304.281	513.81
304.511	527.81
304.741	582.81
304.971	623.81
305.201	632.81
305.431	553.81
305.661	459.81
305.891	461.81
306.121	456.81
306.352	514.81
306.582	521.81
306.812	543.81
307.042	567.81
307.272	595.81
307.502	610.81
307.731	618.81
307.961	647.81
308.191	570.81
308.421	509.81
308.651	527.81
308.881	494.81
309.111	475.81
309.341	489.81
309.571	485.81
309.8	498.81
310.03	479.81
310.26	473.81
310.49	488.81
310.72	494.81
310.949	532.81
311.179	539.81
311.409	509.81
311.639	527.81
311.868	486.81
312.098	519.81
312.328	518.81
312.557	514.81
312.787	522.81
313.017	524.81
313.246	531.81
313.476	555.81
313.706	504.81
313.935	537.81
314.165	534.81
314.394	573.81
314.624	606.81
314.853	655.81
315.083	622.81
315.312	601.81
315.542	593.81
315.771	541.81
316.001	550.81
316.23	575.81
316.46	577.81
316.689	531.81
316.919	525.81
317.148	518.81
317.377	553.81
317.607	585.81
317.836	650.81
318.065	650.81
318.295	610.81
318.524	587.81
318.753	579.81
318.983	562.81
319.212	556.81
319.441	573.81
319.67	549.81
319.9	576.81
320.129	593.81
320.358	624.81
320.587	619.81
320.816	609.81
321.046	592.81
321.275	580.81
321.504	598.81
321.733	633.81
321.962	621.81
322.191	569.81
322.42	572.81
322.649	571.81
322.878	552.81
323.108	574.81
323.337	569.81
323.566	583.81
323.795	579.81
324.024	581.81
324.253	573.81
324.482	561.81
324.71	538.81
324.939	522.81
325.168	551.81
325.397	539.81
325.626	576.81
325.855	580.81
326.084	574.81
326.313	555.81
326.542	571.81
326.77	603.81
326.999	579.81
327.228	573.81
327.457	526.81
327.686	538.81
327.914	541.81
328.143	573.81
328.372	587.81
328.6	539.81
328.829	565.81
329.058	550.81
329.287	566.81
329.515	586.81
329.744	586.81
329.972	604.81
330.201	620.81
330.43	611.81
330.658	591.81
330.887	618.81
331.115	588.81
331.344	591.81
331.572	604.81
331.801	591.81
332.03	590.81
332.258	613.81
332.486	627.81
332.715	594.81
332.943	617.81
333.172	601.81
333.4	604.81
333.629	626.81
333.857	674.81
334.085	738.81
334.314	832.81
334.542	850.81
334.771	746.81
334.999	691.81
335.227	638.81
335.455	647.81
335.684	638.81
335.912	673.81
336.14	657.81
336.369	629.81
336.597	614.81
336.825	607.81
337.053	632.81
337.281	692.81
337.51	697.81
337.738	718.81
337.966	654.81
338.194	618.81
338.422	594.81
338.65	587.81
338.878	575.81
339.106	562.81
339.334	575.81
339.562	552.81
339.79	580.81
340.018	618.81
340.246	638.81
340.474	633.81
340.702	602.81
340.93	617.81
341.158	608.81
341.386	607.81
341.614	598.81
341.842	612.81
342.07	598.81
342.298	628.81
342.526	607.81
342.754	582.81
342.981	591.81
343.209	588.81
343.437	589.81
343.665	625.81
343.893	613.81
344.12	637.81
344.348	638.81
344.576	607.81
344.804	606.81
345.031	598.81
345.259	618.81
345.487	602.81
345.714	586.81
345.942	547.81
346.17	561.81
346.397	580.81
346.625	589.81
346.853	545.81
347.08	548.81
347.308	538.81
347.535	586.81
347.763	566.81
347.99	555.81
348.218	562.81
348.445	554.81
348.673	585.81
348.9	571.81
349.128	602.81
349.355	628.81
349.583	596.81
349.81	568.81
350.037	535.81
350.265	522.81
350.492	553.81
350.72	561.81
350.947	563.81
351.174	595.81
351.402	550.81
351.629	542.81
351.856	551.81
352.083	520.81
352.311	559.81
352.538	570.81
352.765	587.81
352.992	591.81
353.22	558.81
353.447	544.81
353.674	577.81
353.901	565.81
354.128	558.81
354.355	549.81
354.583	581.81
354.81	585.81
355.037	598.81
355.264	583.81
355.491	549.81
355.718	566.81
355.945	567.81
356.172	572.81
356.399	542.81
356.626	539.81
356.853	585.81
357.08	628.81
357.307	693.81
357.534	642.81
357.761	596.81
357.988	535.81
358.215	533.81
358.441	537.81
358.668	541.81
358.895	546.81
359.122	619.81
359.349	677.81
359.576	610.81
359.802	575.81
360.029	565.81
360.256	554.81
360.483	553.81
360.709	589.81
360.936	632.81
361.163	626.81
361.39	670.81
361.616	705.81
361.843	697.81
362.07	647.81
362.296	598.81
362.523	559.81
362.749	567.81
362.976	588.81
363.203	592.81
363.429	542.81
363.656	550.81
363.882	630.81
364.109	669.81
364.335	649.81
364.562	647.81
364.788	589.81
365.015	571.81
365.241	568.81
365.468	572.81
365.694	612.81
365.92	615.81
366.147	600.81
366.373	547.81
366.599	561.81
366.826	572.81
367.052	563.81
367.278	575.81
367.505	588.81
367.731	625.81
367.957	599.81
368.184	637.81
368.41	672.81
368.636	647.81
368.862	670.81
369.089	677.81
369.315	627.81
369.541	628.81
369.767	597.81
369.993	555.81
370.219	599.81
370.445	625.81
370.672	659.81
370.898	678.81
371.124	667.81
371.35	636.81
371.576	639.81
371.802	668.81
372.028	621.81
372.254	626.81
372.48	599.81
372.706	608.81
372.932	604.81
373.158	607.81
373.384	645.81
373.61	650.81
373.835	667.81
374.061	647.81
374.287	623.81
374.513	636.81
374.739	627.81
374.965	630.81
375.191	647.81
375.416	662.81
375.642	683.81
375.868	719.81
376.094	703.81
376.319	665.81
376.545	656.81
376.771	700.81
376.997	684.81
377.222	690.81
377.448	689.81
377.674	681.81
377.899	678.81
378.125	721.81
378.35	702.81
378.576	628.81
378.802	598.81
379.027	621.81
379.253	635.81
379.478	643.81
379.704	632.81
379.929	643.81
380.155	655.81
380.38	687.81
380.606	669.81
380.831	665.81
381.057	737.81
381.282	715.81
381.507	709.81
381.733	740.81
381.958	737.81
382.184	682.81
382.409	682.81
382.634	670.81
382.86	678.81
383.085	709.81
383.31	730.81
383.535	772.81
383.761	811.81
383.986	765.81
384.211	712.81
384.436	761.81
384.662	747.81
384.887	783.81
385.112	762.81
385.337	729.81
385.562	748.81
385.787	743.81
386.013	748.81
386.238	773.81
386.463	764.81
386.688	838.81
386.913	857.81
387.138	839.81
387.363	788.81
387.588	771.81
387.813	762.81
388.038	763.81
388.263	801.81
388.488	748.81
388.713	729.81
388.938	730.81
389.163	730.81
389.387	733.81
389.612	757.81
389.837	723.81
390.062	759.81
390.287	731.81
390.512	790.81
390.736	741.81
390.961	727.81
391.186	733.81
391.411	735.81
391.636	733.81
391.86	762.81
392.085	758.81
392.31	738.81
392.534	769.81
392.759	758.81
392.984	782.81
393.208	791.81
393.433	806.81
393.658	823.81
393.882	815.81
394.107	761.81
394.331	779.81
394.556	779.81
394.78	779.81
395.005	804.81
395.229	834.81
395.454	877.81
395.678	856.81
395.903	811.81
396.127	799.81
396.352	821.81
396.576	846.81
396.801	820.81
397.025	856.81
397.249	830.81
397.474	800.81
397.698	853.81
397.922	876.81
398.147	888.81
398.371	901.81
398.595	908.81
398.82	859.81
399.044	891.81
399.268	909.81
399.492	967.81
399.717	1009.81
399.941	991.81
400.165	997.81
400.389	958.81
400.613	1012.81
400.837	1116.81
401.062	1203.81
401.286	1039.81
401.51	990.81
401.734	994.81
401.958	945.81
402.182	916.81
402.406	889.81
402.63	870.81
402.854	887.81
403.078	874.81
403.302	917.81
403.526	938.81
403.75	930.81
403.974	915.81
404.198	927.81
404.422	986.81
404.645	1026.81
404.869	995.81
405.093	914.81
405.317	896.81
405.541	915.81
405.765	924.81
405.988	919.81
406.212	942.81
406.436	949.81
406.66	996.81
406.883	1012.81
407.107	1150.81
407.331	1215.81
407.555	1283.81
407.778	1111.81
408.002	973.81
408.226	948.81
408.449	943.81
408.673	957.81
408.896	939.81
409.12	961.81
409.344	945.81
409.567	930.81
409.791	956.81
410.014	984.81
410.238	1011.81
410.461	1068.81
410.685	987.81
410.908	930.81
411.132	955.81
411.355	938.81
411.578	897.81
411.802	942.81
412.025	936.81
412.249	929.81
412.472	910.81
412.695	893.81
412.919	911.81
413.142	904.81
413.365	922.81
413.589	966.81
413.812	1029.81
414.035	1031.81
414.258	943.81
414.482	917.81
414.705	925.81
414.928	915.81
415.151	910.81
415.374	911.81
415.597	930.81
415.821	970.81
416.044	945.81
416.267	943.81
416.49	932.81
416.713	901.81
416.936	931.81
417.159	986.81
417.382	988.81
417.605	948.81
417.828	935.81
418.051	962.81
418.274	957.81
418.497	931.81
418.72	938.81
418.943	905.81
419.166	964.81
419.389	979.81
419.611	982.81
419.834	954.81
420.057	938.81
420.28	953.81
420.503	961.81
420.726	966.81
420.948	967.81
421.171	947.81
421.394	947.81
421.617	1001.81
421.839	1001.81
422.062	980.81
422.285	936.81
422.507	920.81
422.73	902.81
422.953	885.81
423.175	860.81
423.398	923.81
423.621	903.81
423.843	949.81
424.066	979.81
424.288	1052.81
424.511	1061.81
424.733	1031.81
424.956	925.81
425.178	931.81
425.401	946.81
425.623	935.81
425.846	947.81
426.068	1006.81
426.291	986.81
426.513	953.81
426.735	959.81
426.958	1075.81
427.18	1070.81
427.402	1015.81
427.625	1070.81
427.847	982.81
428.069	916.81
428.292	948.81
428.514	893.81
428.736	924.81
428.958	927.81
429.181	947.81
429.403	1091.81
429.625	1261.81
429.847	1053.81
430.069	961.81
430.292	1041.81
430.514	1032.81
430.736	984.81
430.958	965.81
431.18	906.81
431.402	886.81
431.624	847.81
431.846	787.81
432.068	719.81
432.29	724.81
432.512	819.81
432.734	872.81
432.956	921.81
433.178	947.81
433.4	983.81
433.622	971.81
433.844	907.81
434.066	862.81
434.287	787.81
434.509	773.81
434.731	818.81
434.953	934.81
435.175	921.81
435.397	901.81
435.618	893.81
435.84	828.81
436.062	854.81
436.284	897.81
436.505	948.81
436.727	959.81
436.949	931.81
437.17	906.81
437.392	894.81
437.614	842.81
437.835	801.81
438.057	802.81
438.278	842.81
438.5	846.81
438.721	896.81
438.943	917.81
439.165	921.81
439.386	927.81
439.608	974.81
439.829	974.81
440.05	965.81
440.272	975.81
440.493	978.81
440.715	969.81
440.936	1011.81
441.158	1068.81
441.379	1051.81
441.6	1049.81
441.822	1006.81
442.043	998.81
442.264	990.81
442.486	963.81
442.707	940.81
442.928	966.81
443.149	997.81
443.371	996.81
443.592	1034.81
443.813	983.81
444.034	999.81
444.255	1016.81
444.476	1014.81
444.698	1025.81
444.919	1051.81
445.14	1129.81
445.361	1084.81
445.582	1122.81
445.803	1053.81
446.024	1030.81
446.245	1075.81
446.466	1055.81
446.687	1037.81
446.908	1044.81
447.129	1020.81
447.35	1002.81
447.571	1015.81
447.792	966.81
448.013	951.81
448.234	970.81
448.455	996.81
448.675	990.81
448.896	922.81
449.117	901.81
449.338	927.81
449.559	962.81
449.779	983.81
450	1007.81
450.221	1063.81
450.442	1030.81
450.662	943.81
450.883	867.81
451.104	860.81
451.324	857.81
451.545	884.81
451.766	856.81
451.986	827.81
452.207	836.81
452.428	814.81
452.648	812.81
452.869	783.81
453.089	796.81
453.31	813.81
453.53	755.81
453.751	731.81
453.971	713.81
454.192	709.81
454.412	785.81
454.633	765.81
454.853	774.81
455.073	778.81
455.294	784.81
455.514	785.81
455.734	786.81
455.955	772.81
456.175	732.81
456.395	731.81
456.616	765.81
456.836	742.81
457.056	723.81
457.276	718.81
457.497	713.81
457.717	691.81
457.937	693.81
458.157	725.81
458.377	699.81
458.598	668.81
458.818	676.81
459.038	707.81
459.258	690.81
459.478	707.81
459.698	661.81
459.918	735.81
460.138	807.81
460.358	833.81
460.578	826.81
460.798	873.81
461.018	904.81
461.238	854.81
461.458	887.81
461.678	843.81
461.898	819.81
462.118	822.81
462.338	851.81
462.558	859.81
462.777	851.81
462.997	877.81
463.217	905.81
463.437	889.81
463.657	842.81
463.876	828.81
464.096	852.81
464.316	834.81
464.536	877.81
464.755	870.81
464.975	889.81
465.195	901.81
465.414	898.81
465.634	890.81
465.854	892.81
466.073	988.81
466.293	949.81
466.512	852.81
466.732	889.81
466.951	905.81
467.171	895.81
467.391	901.81
467.61	895.81
467.829	909.81
468.049	984.81
468.268	1029.81
468.488	974.81
468.707	911.81
468.927	903.81
469.146	873.81
469.365	918.81
469.585	945.81
469.804	919.81
470.023	936.81
470.243	962.81
470.462	962.81
470.681	926.81
470.901	912.81
471.12	922.81
471.339	934.81
471.558	926.81
471.777	899.81
471.997	887.81
472.216	835.81
472.435	811.81
472.654	778.81
472.873	786.81
473.092	834.81
473.311	814.81
473.53	813.81
473.749	813.81
473.968	858.81
474.187	867.81
474.406	855.81
474.625	852.81
474.844	899.81
475.063	864.81
475.282	848.81
475.501	821.81
475.72	838.81
475.939	902.81
476.158	905.81
476.377	876.81
476.596	825.81
476.814	831.81
477.033	822.81
477.252	838.81
477.471	922.81
477.69	919.81
477.908	938.81
478.127	979.81
478.346	1004.81
478.564	994.81
478.783	985.81
479.002	1025.81
479.22	1025.81
479.439	1055.81
479.658	1044.81
479.876	998.81
480.095	920.81
480.313	890.81
480.532	875.81
480.751	877.81
480.969	819.81
481.188	811.81
481.406	755.81
481.624	791.81
481.843	814.81
482.061	837.81
482.28	875.81
482.498	888.81
482.717	859.81
482.935	877.81
483.153	987.81
483.372	1016.81
483.59	995.81
483.808	938.81
484.027	945.81
484.245	983.81
484.463	1213.81
484.681	1316.81
484.9	1065.81
485.118	984.81
485.336	959.81
485.554	894.81
485.772	869.81
485.99	868.81
486.209	903.81
486.427	918.81
486.645	945.81
486.863	1021.81
487.081	1059.81
487.299	998.81
487.517	999.81
487.735	1114.81
487.953	1198.81
488.171	1203.81
488.389	1126.81
488.607	1075.81
488.825	1161.81
489.043	1081.81
489.261	993.81
489.479	1057.81
489.696	1064.81
489.914	1024.81
490.132	1054.81
490.35	1079.81
490.568	1163.81
490.786	1176.81
491.003	1210.81
491.221	1271.81
491.439	1295.81
491.657	1314.81
491.874	1389.81
492.092	1436.81
492.31	1522.81
492.527	1454.81
492.745	1363.81
492.963	1309.81
493.18	1307.81
493.398	1343.81
493.615	1309.81
493.833	1258.81
494.05	1271.81
494.268	1244.81
494.485	1242.81
494.703	1230.81
494.92	1229.81
495.138	1231.81
495.355	1217.81
495.573	1259.81
495.79	1316.81
496.008	1283.81
496.225	1218.81
496.442	1256.81
496.66	1223.81
496.877	1219.81
497.094	1257.81
497.312	1214.81
497.529	1158.81
497.746	1202.81
497.963	1274.81
498.181	1318.81
498.398	1271.81
498.615	1205.81
498.832	1168.81
499.049	1158.81
499.267	1164.81
499.484	1254.81
499.701	1344.81
499.918	1374.81
500.135	1487.81
500.352	1585.81
