Data from WStandard_LampEnergy8_LIBS07252019.E.O._I.C._HRD10591_15-58-55-929.txt Node
Date: Thu Jul 25 15:58:55 EDT 2019
User: cochatt
Spectrometer: HR+D1059
Trigger mode: 1
Integration Time (sec): 1.000000E-1
Scans to average: 1
Electric dark correction enabled: true
Nonlinearity correction enabled: false
Boxcar width: 0
XAxis mode: Wavelengths
Number of Pixels in Spectrum: 2048
>>>>>Begin Spectral Data<<<<<
223.165	-16.75
223.4	-16.75
223.635	-16.75
223.869	-23.75
224.104	-15.75
224.338	-10.75
224.573	-19.75
224.808	-8.75
225.042	-18.75
225.277	-7.75
225.511	10.25
225.746	-0.75
225.98	5.25
226.215	20.25
226.449	25.25
226.683	15.25
226.918	20.25
227.152	26.25
227.387	34.25
227.621	34.25
227.856	58.25
228.09	47.25
228.324	63.25
228.559	56.25
228.793	95.25
229.027	188.25
229.262	209.25
229.496	204.25
229.73	218.25
229.964	256.25
230.199	251.25
230.433	260.25
230.667	279.25
230.901	282.25
231.136	272.25
231.37	255.25
231.604	251.25
231.838	263.25
232.072	256.25
232.306	258.25
232.541	281.25
232.775	310.25
233.009	330.25
233.243	322.25
233.477	279.25
233.711	303.25
233.945	306.25
234.179	302.25
234.413	312.25
234.647	335.25
234.881	308.25
235.115	283.25
235.349	307.25
235.583	316.25
235.817	314.25
236.051	294.25
236.285	310.25
236.519	328.25
236.753	344.25
236.987	369.25
237.221	346.25
237.455	395.25
237.689	355.25
237.922	360.25
238.156	346.25
238.39	337.25
238.624	379.25
238.858	393.25
239.091	403.25
239.325	405.25
239.559	460.25
239.793	483.25
240.027	501.25
240.26	507.25
240.494	388.25
240.728	353.25
240.961	374.25
241.195	377.25
241.429	412.25
241.662	410.25
241.896	388.25
242.13	394.25
242.363	438.25
242.597	440.25
242.83	440.25
243.064	441.25
243.298	484.25
243.531	480.25
243.765	484.25
243.998	470.25
244.232	415.25
244.465	384.25
244.699	423.25
244.932	449.25
245.166	511.25
245.399	510.25
245.633	461.25
245.866	484.25
246.099	467.25
246.333	494.25
246.566	474.25
246.8	529.25
247.033	585.25
247.266	539.25
247.5	525.25
247.733	546.25
247.966	576.25
248.2	620.25
248.433	627.25
248.666	631.25
248.899	663.25
249.133	753.25
249.366	796.25
249.599	655.25
249.832	607.25
250.066	631.25
250.299	600.25
250.532	591.25
250.765	531.25
250.998	577.25
251.231	584.25
251.465	586.25
251.698	580.25
251.931	580.25
252.164	606.25
252.397	611.25
252.63	610.25
252.863	570.25
253.096	577.25
253.329	587.25
253.562	573.25
253.795	620.25
254.028	602.25
254.261	560.25
254.494	599.25
254.727	569.25
254.96	597.25
255.193	632.25
255.426	707.25
255.659	793.25
255.892	769.25
256.124	652.25
256.357	665.25
256.59	695.25
256.823	704.25
257.056	719.25
257.289	823.25
257.521	889.25
257.754	797.25
257.987	754.25
258.22	815.25
258.452	808.25
258.685	668.25
258.918	681.25
259.151	668.25
259.383	635.25
259.616	596.25
259.849	602.25
260.081	678.25
260.314	773.25
260.547	815.25
260.779	793.25
261.012	756.25
261.244	687.25
261.477	687.25
261.71	676.25
261.942	681.25
262.175	665.25
262.407	714.25
262.64	665.25
262.872	648.25
263.105	607.25
263.337	641.25
263.57	647.25
263.802	635.25
264.035	586.25
264.267	569.25
264.499	583.25
264.732	617.25
264.964	659.25
265.197	691.25
265.429	702.25
265.661	791.25
265.894	849.25
266.126	859.25
266.358	794.25
266.591	802.25
266.823	855.25
267.055	784.25
267.287	783.25
267.52	769.25
267.752	746.25
267.984	773.25
268.216	799.25
268.448	809.25
268.681	798.25
268.913	715.25
269.145	705.25
269.377	682.25
269.609	738.25
269.841	885.25
270.073	998.25
270.306	1080.25
270.538	1143.25
270.77	961.25
271.002	867.25
271.234	831.25
271.466	852.25
271.698	918.25
271.93	1069.25
272.162	1054.25
272.394	949.25
272.626	895.25
272.858	798.25
273.09	710.25
273.322	689.25
273.553	688.25
273.785	672.25
274.017	709.25
274.249	761.25
274.481	772.25
274.713	727.25
274.945	693.25
275.176	707.25
275.408	691.25
275.64	679.25
275.872	665.25
276.104	751.25
276.335	834.25
276.567	940.25
276.799	917.25
277.031	838.25
277.262	819.25
277.494	875.25
277.726	917.25
277.957	859.25
278.189	807.25
278.421	738.25
278.652	711.25
278.884	736.25
279.115	711.25
279.347	723.25
279.579	744.25
279.81	758.25
280.042	835.25
280.273	868.25
280.505	865.25
280.736	907.25
280.968	795.25
281.199	745.25
281.431	727.25
281.662	696.25
281.894	709.25
282.125	741.25
282.356	770.25
282.588	789.25
282.819	781.25
283.051	831.25
283.282	856.25
283.513	833.25
283.745	770.25
283.976	699.25
284.207	716.25
284.439	748.25
284.67	760.25
284.901	788.25
285.132	781.25
285.364	756.25
285.595	774.25
285.826	791.25
286.057	751.25
286.288	759.25
286.52	786.25
286.751	879.25
286.982	864.25
287.213	806.25
287.444	724.25
287.675	755.25
287.906	764.25
288.138	840.25
288.369	809.25
288.6	774.25
288.831	759.25
289.062	753.25
289.293	776.25
289.524	775.25
289.755	773.25
289.986	807.25
290.217	748.25
290.448	760.25
290.679	783.25
290.91	782.25
291.141	807.25
291.371	827.25
291.602	823.25
291.833	796.25
292.064	856.25
292.295	835.25
292.526	861.25
292.757	884.25
292.987	810.25
293.218	793.25
293.449	874.25
293.68	981.25
293.91	1021.25
294.141	921.25
294.372	897.25
294.603	919.25
294.833	999.25
295.064	918.25
295.295	841.25
295.525	811.25
295.756	753.25
295.987	726.25
296.217	753.25
296.448	772.25
296.679	794.25
296.909	781.25
297.14	771.25
297.37	810.25
297.601	825.25
297.831	908.25
298.062	883.25
298.292	843.25
298.523	780.25
298.753	765.25
298.984	805.25
299.214	801.25
299.445	835.25
299.675	843.25
299.905	832.25
300.136	797.25
300.366	807.25
300.597	774.25
300.827	775.25
301.057	829.25
301.288	857.25
301.518	852.25
301.748	870.25
301.979	898.25
302.209	950.25
302.439	1004.25
302.669	1030.25
302.9	945.25
303.13	839.25
303.36	879.25
303.59	873.25
303.82	859.25
304.051	854.25
304.281	866.25
304.511	871.25
304.741	963.25
304.971	1036.25
305.201	1060.25
305.431	946.25
305.661	820.25
305.891	775.25
306.121	769.25
306.352	800.25
306.582	852.25
306.812	922.25
307.042	959.25
307.272	944.25
307.502	1017.25
307.731	1052.25
307.961	1084.25
308.191	1001.25
308.421	902.25
308.651	865.25
308.881	830.25
309.111	851.25
309.341	832.25
309.571	850.25
309.8	835.25
310.03	810.25
310.26	790.25
310.49	812.25
310.72	841.25
310.949	873.25
311.179	888.25
311.409	854.25
311.639	864.25
311.868	860.25
312.098	875.25
312.328	857.25
312.557	835.25
312.787	875.25
313.017	876.25
313.246	873.25
313.476	883.25
313.706	895.25
313.935	906.25
314.165	894.25
314.394	925.25
314.624	963.25
314.853	1018.25
315.083	1045.25
315.312	1064.25
315.542	999.25
315.771	899.25
316.001	922.25
316.23	945.25
316.46	947.25
316.689	953.25
316.919	896.25
317.148	865.25
317.377	899.25
317.607	962.25
317.836	1099.25
318.065	1075.25
318.295	1026.25
318.524	999.25
318.753	955.25
318.983	965.25
319.212	923.25
319.441	934.25
319.67	940.25
319.9	941.25
320.129	984.25
320.358	1018.25
320.587	1051.25
320.816	1014.25
321.046	1010.25
321.275	977.25
321.504	993.25
321.733	1036.25
321.962	981.25
322.191	959.25
322.42	939.25
322.649	907.25
322.878	929.25
323.108	921.25
323.337	964.25
323.566	975.25
323.795	978.25
324.024	950.25
324.253	945.25
324.482	934.25
324.71	903.25
324.939	891.25
325.168	908.25
325.397	936.25
325.626	978.25
325.855	992.25
326.084	937.25
326.313	953.25
326.542	957.25
326.77	954.25
326.999	970.25
327.228	917.25
327.457	888.25
327.686	866.25
327.914	892.25
328.143	929.25
328.372	923.25
328.6	923.25
328.829	915.25
329.058	916.25
329.287	930.25
329.515	949.25
329.744	960.25
329.972	1002.25
330.201	1019.25
330.43	1041.25
330.658	985.25
330.887	999.25
331.115	980.25
331.344	969.25
331.572	1011.25
331.801	992.25
332.03	1000.25
332.258	978.25
332.486	982.25
332.715	1035.25
332.943	985.25
333.172	972.25
333.4	1015.25
333.629	1043.25
333.857	1103.25
334.085	1226.25
334.314	1386.25
334.542	1411.25
334.771	1295.25
334.999	1176.25
335.227	1087.25
335.455	1095.25
335.684	1091.25
335.912	1115.25
336.14	1105.25
336.369	1059.25
336.597	1050.25
336.825	1001.25
337.053	1076.25
337.281	1122.25
337.51	1161.25
337.738	1172.25
337.966	1085.25
338.194	999.25
338.422	975.25
338.65	1001.25
338.878	998.25
339.106	961.25
339.334	952.25
339.562	964.25
339.79	989.25
340.018	986.25
340.246	1064.25
340.474	1046.25
340.702	1014.25
340.93	1042.25
341.158	1011.25
341.386	1017.25
341.614	971.25
341.842	1004.25
342.07	1007.25
342.298	1014.25
342.526	1002.25
342.754	973.25
342.981	990.25
343.209	988.25
343.437	975.25
343.665	989.25
343.893	1010.25
344.12	1051.25
344.348	1046.25
344.576	993.25
344.804	978.25
345.031	1000.25
345.259	984.25
345.487	937.25
345.714	877.25
345.942	922.25
346.17	925.25
346.397	970.25
346.625	919.25
346.853	890.25
347.08	899.25
347.308	898.25
347.535	932.25
347.763	954.25
347.99	917.25
348.218	929.25
348.445	903.25
348.673	954.25
348.9	956.25
349.128	984.25
349.355	1012.25
349.583	965.25
349.81	935.25
350.037	841.25
350.265	882.25
350.492	877.25
350.72	917.25
350.947	918.25
351.174	964.25
351.402	917.25
351.629	875.25
351.856	855.25
352.083	869.25
352.311	876.25
352.538	908.25
352.765	945.25
352.992	957.25
353.22	913.25
353.447	892.25
353.674	909.25
353.901	941.25
354.128	889.25
354.355	885.25
354.583	980.25
354.81	966.25
355.037	983.25
355.264	979.25
355.491	943.25
355.718	952.25
355.945	909.25
356.172	915.25
356.399	899.25
356.626	907.25
356.853	933.25
357.08	1057.25
357.307	1102.25
357.534	1076.25
357.761	969.25
357.988	894.25
358.215	872.25
358.441	881.25
358.668	885.25
358.895	904.25
359.122	992.25
359.349	1050.25
359.576	999.25
359.802	932.25
360.029	911.25
360.256	866.25
360.483	919.25
360.709	959.25
360.936	1001.25
361.163	1054.25
361.39	1115.25
361.616	1170.25
361.843	1156.25
362.07	1052.25
362.296	947.25
362.523	911.25
362.749	948.25
362.976	935.25
363.203	947.25
363.429	931.25
363.656	883.25
363.882	989.25
364.109	1070.25
364.335	1112.25
364.562	1048.25
364.788	986.25
365.015	945.25
365.241	915.25
365.468	943.25
365.694	974.25
365.92	1009.25
366.147	973.25
366.373	907.25
366.599	884.25
366.826	896.25
367.052	911.25
367.278	917.25
367.505	928.25
367.731	962.25
367.957	1000.25
368.184	1018.25
368.41	1095.25
368.636	1075.25
368.862	1087.25
369.089	1076.25
369.315	1013.25
369.541	959.25
369.767	932.25
369.993	914.25
370.219	936.25
370.445	962.25
370.672	1043.25
370.898	1027.25
371.124	1036.25
371.35	1012.25
371.576	1031.25
371.802	1039.25
372.028	992.25
372.254	957.25
372.48	956.25
372.706	952.25
372.932	946.25
373.158	949.25
373.384	984.25
373.61	997.25
373.835	1028.25
374.061	983.25
374.287	993.25
374.513	958.25
374.739	969.25
374.965	1012.25
375.191	1025.25
375.416	1014.25
375.642	1036.25
375.868	1119.25
376.094	1144.25
376.319	1077.25
376.545	1033.25
376.771	1032.25
376.997	1087.25
377.222	1077.25
377.448	1066.25
377.674	1044.25
377.899	1055.25
378.125	1130.25
378.35	1092.25
378.576	1008.25
378.802	958.25
379.027	971.25
379.253	997.25
379.478	985.25
379.704	975.25
379.929	989.25
380.155	997.25
380.38	1024.25
380.606	1009.25
380.831	1026.25
381.057	1083.25
381.282	1056.25
381.507	1055.25
381.733	1143.25
381.958	1146.25
382.184	1069.25
382.409	1045.25
382.634	1051.25
382.86	1025.25
383.085	1066.25
383.31	1100.25
383.535	1169.25
383.761	1242.25
383.986	1191.25
384.211	1154.25
384.436	1114.25
384.662	1183.25
384.887	1209.25
385.112	1127.25
385.337	1149.25
385.562	1143.25
385.787	1132.25
386.013	1171.25
386.238	1195.25
386.463	1172.25
386.688	1265.25
386.913	1341.25
387.138	1289.25
387.363	1214.25
387.588	1184.25
387.813	1193.25
388.038	1206.25
388.263	1241.25
388.488	1156.25
388.713	1084.25
388.938	1076.25
389.163	1076.25
389.387	1127.25
389.612	1113.25
389.837	1146.25
390.062	1123.25
390.287	1118.25
390.512	1119.25
390.736	1115.25
390.961	1086.25
391.186	1106.25
391.411	1080.25
391.636	1147.25
391.86	1137.25
392.085	1148.25
392.31	1137.25
392.534	1120.25
392.759	1151.25
392.984	1131.25
393.208	1147.25
393.433	1169.25
393.658	1261.25
393.882	1232.25
394.107	1150.25
394.331	1145.25
394.556	1142.25
394.78	1186.25
395.005	1192.25
395.229	1250.25
395.454	1322.25
395.678	1327.25
395.903	1253.25
396.127	1187.25
396.352	1208.25
396.576	1249.25
396.801	1260.25
397.025	1263.25
397.249	1256.25
397.474	1235.25
397.698	1228.25
397.922	1281.25
398.147	1329.25
398.371	1370.25
398.595	1375.25
398.82	1313.25
399.044	1336.25
399.268	1394.25
399.492	1458.25
399.717	1485.25
399.941	1484.25
400.165	1456.25
400.389	1419.25
400.613	1471.25
400.837	1696.25
401.062	1822.25
401.286	1511.25
401.51	1404.25
401.734	1482.25
401.958	1446.25
402.182	1332.25
402.406	1322.25
402.63	1304.25
402.854	1315.25
403.078	1345.25
403.302	1338.25
403.526	1331.25
403.75	1340.25
403.974	1376.25
404.198	1380.25
404.422	1430.25
404.645	1490.25
404.869	1448.25
405.093	1331.25
405.317	1317.25
405.541	1379.25
405.765	1376.25
405.988	1404.25
406.212	1420.25
406.436	1414.25
406.66	1441.25
406.883	1532.25
407.107	1669.25
407.331	1828.25
407.555	1948.25
407.778	1731.25
408.002	1447.25
408.226	1421.25
408.449	1410.25
408.673	1400.25
408.896	1378.25
409.12	1411.25
409.344	1373.25
409.567	1334.25
409.791	1378.25
410.014	1425.25
410.238	1491.25
410.461	1553.25
410.685	1414.25
410.908	1359.25
411.132	1363.25
411.355	1320.25
411.578	1347.25
411.802	1372.25
412.025	1364.25
412.249	1370.25
412.472	1311.25
412.695	1322.25
412.919	1328.25
413.142	1312.25
413.365	1335.25
413.589	1346.25
413.812	1485.25
414.035	1464.25
414.258	1356.25
414.482	1330.25
414.705	1348.25
414.928	1344.25
415.151	1279.25
415.374	1322.25
415.597	1339.25
415.821	1364.25
416.044	1378.25
416.267	1328.25
416.49	1251.25
416.713	1265.25
416.936	1349.25
417.159	1387.25
417.382	1399.25
417.605	1339.25
417.828	1335.25
418.051	1359.25
418.274	1314.25
418.497	1281.25
418.72	1299.25
418.943	1323.25
419.166	1352.25
419.389	1401.25
419.611	1319.25
419.834	1277.25
420.057	1324.25
420.28	1286.25
420.503	1315.25
420.726	1338.25
420.948	1316.25
421.171	1268.25
421.394	1293.25
421.617	1348.25
421.839	1330.25
422.062	1307.25
422.285	1258.25
422.507	1282.25
422.73	1241.25
422.953	1228.25
423.175	1214.25
423.398	1303.25
423.621	1246.25
423.843	1305.25
424.066	1337.25
424.288	1393.25
424.511	1407.25
424.733	1354.25
424.956	1253.25
425.178	1228.25
425.401	1235.25
425.623	1289.25
425.846	1257.25
426.068	1337.25
426.291	1341.25
426.513	1339.25
426.735	1325.25
426.958	1459.25
427.18	1507.25
427.402	1398.25
427.625	1428.25
427.847	1395.25
428.069	1286.25
428.292	1269.25
428.514	1244.25
428.736	1250.25
428.958	1256.25
429.181	1293.25
429.403	1512.25
429.625	1771.25
429.847	1502.25
430.069	1301.25
430.292	1453.25
430.514	1441.25
430.736	1337.25
430.958	1361.25
431.18	1324.25
431.402	1247.25
431.624	1204.25
431.846	1199.25
432.068	1143.25
432.29	1171.25
432.512	1199.25
432.734	1281.25
432.956	1281.25
433.178	1340.25
433.4	1349.25
433.622	1306.25
433.844	1267.25
434.066	1192.25
434.287	1191.25
434.509	1230.25
434.731	1292.25
434.953	1415.25
435.175	1317.25
435.397	1297.25
435.618	1272.25
435.84	1226.25
436.062	1218.25
436.284	1271.25
436.505	1325.25
436.727	1325.25
436.949	1274.25
437.17	1262.25
437.392	1238.25
437.614	1225.25
437.835	1159.25
438.057	1206.25
438.278	1245.25
438.5	1223.25
438.721	1220.25
438.943	1275.25
439.165	1212.25
439.386	1203.25
439.608	1280.25
439.829	1273.25
440.05	1260.25
440.272	1249.25
440.493	1258.25
440.715	1275.25
440.936	1315.25
441.158	1427.25
441.379	1402.25
441.6	1416.25
441.822	1348.25
442.043	1359.25
442.264	1346.25
442.486	1314.25
442.707	1274.25
442.928	1265.25
443.149	1294.25
443.371	1386.25
443.592	1395.25
443.813	1382.25
444.034	1353.25
444.255	1390.25
444.476	1391.25
444.698	1430.25
444.919	1400.25
445.14	1497.25
445.361	1488.25
445.582	1479.25
445.803	1435.25
446.024	1394.25
446.245	1446.25
446.466	1381.25
446.687	1356.25
446.908	1344.25
447.129	1293.25
447.35	1319.25
447.571	1316.25
447.792	1236.25
448.013	1256.25
448.234	1304.25
448.455	1325.25
448.675	1329.25
448.896	1243.25
449.117	1211.25
449.338	1229.25
449.559	1269.25
449.779	1331.25
450	1422.25
450.221	1478.25
450.442	1463.25
450.662	1306.25
450.883	1189.25
451.104	1155.25
451.324	1204.25
451.545	1231.25
451.766	1209.25
451.986	1146.25
452.207	1137.25
452.428	1115.25
452.648	1109.25
452.869	1113.25
453.089	1166.25
453.31	1183.25
453.53	1183.25
453.751	1122.25
453.971	1049.25
454.192	1100.25
454.412	1186.25
454.633	1181.25
454.853	1108.25
455.073	1039.25
455.294	1046.25
455.514	1089.25
455.734	1092.25
455.955	1099.25
456.175	1112.25
456.395	1052.25
456.616	1085.25
456.836	1112.25
457.056	1067.25
457.276	1076.25
457.497	1035.25
457.717	1004.25
457.937	1041.25
458.157	1059.25
458.377	1068.25
458.598	1030.25
458.818	1048.25
459.038	1121.25
459.258	1174.25
459.478	1145.25
459.698	1107.25
459.918	1143.25
460.138	1243.25
460.358	1224.25
460.578	1223.25
460.798	1253.25
461.018	1348.25
461.238	1331.25
461.458	1247.25
461.678	1265.25
461.898	1219.25
462.118	1220.25
462.338	1266.25
462.558	1250.25
462.777	1247.25
462.997	1322.25
463.217	1371.25
463.437	1331.25
463.657	1281.25
463.876	1248.25
464.096	1251.25
464.316	1263.25
464.536	1301.25
464.755	1312.25
464.975	1338.25
465.195	1288.25
465.414	1304.25
465.634	1328.25
465.854	1293.25
466.073	1395.25
466.293	1355.25
466.512	1210.25
466.732	1190.25
466.951	1251.25
467.171	1239.25
467.391	1193.25
467.61	1164.25
467.829	1243.25
468.049	1343.25
468.268	1447.25
468.488	1338.25
468.707	1285.25
468.927	1236.25
469.146	1208.25
469.365	1244.25
469.585	1244.25
469.804	1245.25
470.023	1240.25
470.243	1248.25
470.462	1215.25
470.681	1202.25
470.901	1248.25
471.12	1205.25
471.339	1251.25
471.558	1227.25
471.777	1211.25
471.997	1229.25
472.216	1177.25
472.435	1144.25
472.654	1177.25
472.873	1201.25
473.092	1236.25
473.311	1204.25
473.53	1152.25
473.749	1111.25
473.968	1175.25
474.187	1216.25
474.406	1252.25
474.625	1234.25
474.844	1224.25
475.063	1182.25
475.282	1231.25
475.501	1213.25
475.72	1236.25
475.939	1322.25
476.158	1244.25
476.377	1233.25
476.596	1239.25
476.814	1234.25
477.033	1201.25
477.252	1269.25
477.471	1315.25
477.69	1299.25
477.908	1287.25
478.127	1329.25
478.346	1456.25
478.564	1412.25
478.783	1384.25
479.002	1447.25
479.22	1385.25
479.439	1440.25
479.658	1592.25
479.876	1546.25
480.095	1411.25
480.313	1371.25
480.532	1320.25
480.751	1332.25
480.969	1313.25
481.188	1257.25
481.406	1243.25
481.624	1229.25
481.843	1244.25
482.061	1297.25
482.28	1321.25
482.498	1333.25
482.717	1317.25
482.935	1308.25
483.153	1363.25
483.372	1405.25
483.59	1358.25
483.808	1374.25
484.027	1372.25
484.245	1474.25
484.463	1795.25
484.681	1900.25
484.9	1494.25
485.118	1379.25
485.336	1338.25
485.554	1365.25
485.772	1374.25
485.99	1385.25
486.209	1411.25
486.427	1388.25
486.645	1384.25
486.863	1411.25
487.081	1471.25
487.299	1436.25
487.517	1424.25
487.735	1459.25
487.953	1500.25
488.171	1493.25
488.389	1456.25
488.607	1459.25
488.825	1627.25
489.043	1588.25
489.261	1429.25
489.479	1444.25
489.696	1515.25
489.914	1457.25
490.132	1455.25
490.35	1469.25
490.568	1551.25
490.786	1542.25
491.003	1452.25
491.221	1563.25
491.439	1576.25
491.657	1602.25
491.874	1648.25
492.092	1700.25
492.31	1681.25
492.527	1689.25
492.745	1603.25
492.963	1572.25
493.18	1629.25
493.398	1707.25
