Data from WStandard_LampEnergy5.5LIBS07252019.E.O._I.C._HRD10591_16-06-43-919.txt Node
Date: Thu Jul 25 16:06:43 EDT 2019
User: cochatt
Spectrometer: HR+D1059
Trigger mode: 1
Integration Time (sec): 1.000000E-1
Scans to average: 1
Electric dark correction enabled: true
Nonlinearity correction enabled: false
Boxcar width: 0
XAxis mode: Wavelengths
Number of Pixels in Spectrum: 2048
>>>>>Begin Spectral Data<<<<<
223.165	-25.62
223.4	-25.62
223.635	-25.62
223.869	-33.62
224.104	-20.62
224.338	-12.62
224.573	-26.62
224.808	-0.62
225.042	-7.62
225.277	2.38
225.511	7.38
225.746	0.38
225.98	1.38
226.215	9.38
226.449	23.38
226.683	26.38
226.918	31.38
227.152	25.38
227.387	39.38
227.621	33.38
227.856	50.38
228.09	50.38
228.324	63.38
228.559	62.38
228.793	152.38
229.027	376.38
229.262	372.38
229.496	385.38
229.73	385.38
229.964	442.38
230.199	459.38
230.433	464.38
230.667	483.38
230.901	502.38
231.136	474.38
231.37	473.38
231.604	435.38
231.838	467.38
232.072	459.38
232.306	453.38
232.541	450.38
232.775	546.38
233.009	620.38
233.243	576.38
233.477	522.38
233.711	550.38
233.945	553.38
234.179	535.38
234.413	583.38
234.647	643.38
234.881	619.38
235.115	550.38
235.349	562.38
235.583	586.38
235.817	565.38
236.051	545.38
236.285	550.38
236.519	575.38
236.753	651.38
236.987	698.38
237.221	652.38
237.455	749.38
237.689	755.38
237.922	682.38
238.156	658.38
238.39	656.38
238.624	715.38
238.858	712.38
239.091	770.38
239.325	793.38
239.559	902.38
239.793	958.38
240.027	1046.38
240.26	1013.38
240.494	773.38
240.728	727.38
240.961	732.38
241.195	722.38
241.429	803.38
241.662	814.38
241.896	734.38
242.13	742.38
242.363	855.38
242.597	917.38
242.83	902.38
243.064	886.38
243.298	950.38
243.531	918.38
243.765	921.38
243.998	917.38
244.232	800.38
244.465	772.38
244.699	771.38
244.932	884.38
245.166	1033.38
245.399	952.38
245.633	880.38
245.866	883.38
246.099	928.38
246.333	958.38
246.566	971.38
246.8	1052.38
247.033	1190.38
247.266	1090.38
247.5	1059.38
247.733	1061.38
247.966	1092.38
248.2	1235.38
248.433	1158.38
248.666	1213.38
248.899	1302.38
249.133	1494.38
249.366	1706.38
249.599	1400.38
249.832	1214.38
250.066	1293.38
250.299	1297.38
250.532	1196.38
250.765	1072.38
250.998	1135.38
251.231	1194.38
251.465	1239.38
251.698	1192.38
251.931	1155.38
252.164	1179.38
252.397	1235.38
252.63	1212.38
252.863	1060.38
253.096	1111.38
253.329	1135.38
253.562	1186.38
253.795	1305.38
254.028	1273.38
254.261	1206.38
254.494	1161.38
254.727	1115.38
254.96	1139.38
255.193	1238.38
255.426	1402.38
255.659	1616.38
255.892	1692.38
256.124	1369.38
256.357	1338.38
256.59	1414.38
256.823	1406.38
257.056	1394.38
257.289	1675.38
257.521	1890.38
257.754	1668.38
257.987	1575.38
258.22	1802.38
258.452	1755.38
258.685	1373.38
258.918	1332.38
259.151	1358.38
259.383	1331.38
259.616	1164.38
259.849	1254.38
260.081	1376.38
260.314	1510.38
260.547	1688.38
260.779	1665.38
261.012	1604.38
261.244	1428.38
261.477	1356.38
261.71	1390.38
261.942	1396.38
262.175	1387.38
262.407	1448.38
262.64	1365.38
262.872	1304.38
263.105	1222.38
263.337	1274.38
263.57	1283.38
263.802	1294.38
264.035	1214.38
264.267	1196.38
264.499	1111.38
264.732	1200.38
264.964	1292.38
265.197	1348.38
265.429	1393.38
265.661	1548.38
265.894	1699.38
266.126	1753.38
266.358	1558.38
266.591	1622.38
266.823	1795.38
267.055	1581.38
267.287	1580.38
267.52	1589.38
267.752	1531.38
267.984	1564.38
268.216	1626.38
268.448	1591.38
268.681	1632.38
268.913	1515.38
269.145	1413.38
269.377	1368.38
269.609	1488.38
269.841	1729.38
270.073	2000.38
270.306	2265.38
270.538	2390.38
270.77	2043.38
271.002	1692.38
271.234	1647.38
271.466	1634.38
271.698	1777.38
271.93	2194.38
272.162	2192.38
272.394	1972.38
272.626	1890.38
272.858	1630.38
273.09	1464.38
273.322	1416.38
273.553	1376.38
273.785	1369.38
274.017	1423.38
274.249	1554.38
274.481	1594.38
274.713	1419.38
274.945	1367.38
275.176	1418.38
275.408	1386.38
275.64	1351.38
275.872	1332.38
276.104	1420.38
276.335	1655.38
276.567	1822.38
276.799	1937.38
277.031	1690.38
277.262	1568.38
277.494	1618.38
277.726	1836.38
277.957	1823.38
278.189	1650.38
278.421	1515.38
278.652	1470.38
278.884	1446.38
279.115	1459.38
279.347	1521.38
279.579	1458.38
279.81	1434.38
280.042	1611.38
280.273	1744.38
280.505	1752.38
280.736	1791.38
280.968	1715.38
281.199	1508.38
281.431	1398.38
281.662	1422.38
281.894	1408.38
282.125	1441.38
282.356	1544.38
282.588	1554.38
282.819	1518.38
283.051	1670.38
283.282	1791.38
283.513	1720.38
283.745	1474.38
283.976	1378.38
284.207	1391.38
284.439	1432.38
284.67	1450.38
284.901	1487.38
285.132	1520.38
285.364	1542.38
285.595	1512.38
285.826	1476.38
286.057	1476.38
286.288	1472.38
286.52	1542.38
286.751	1680.38
286.982	1707.38
287.213	1536.38
287.444	1434.38
287.675	1425.38
287.906	1497.38
288.138	1636.38
288.369	1556.38
288.6	1502.38
288.831	1456.38
289.062	1491.38
289.293	1486.38
289.524	1508.38
289.755	1563.38
289.986	1553.38
290.217	1449.38
290.448	1471.38
290.679	1498.38
290.91	1495.38
291.141	1562.38
291.371	1593.38
291.602	1579.38
291.833	1565.38
292.064	1613.38
292.295	1592.38
292.526	1632.38
292.757	1732.38
292.987	1618.38
293.218	1520.38
293.449	1645.38
293.68	1832.38
293.91	2018.38
294.141	1852.38
294.372	1741.38
294.603	1778.38
294.833	1884.38
295.064	1804.38
295.295	1604.38
295.525	1582.38
295.756	1496.38
295.987	1394.38
296.217	1419.38
296.448	1455.38
296.679	1480.38
296.909	1478.38
297.14	1441.38
297.37	1481.38
297.601	1582.38
297.831	1711.38
298.062	1736.38
298.292	1598.38
298.523	1512.38
298.753	1499.38
298.984	1504.38
299.214	1511.38
299.445	1549.38
299.675	1599.38
299.905	1544.38
300.136	1574.38
300.366	1508.38
300.597	1435.38
300.827	1478.38
301.057	1512.38
301.288	1599.38
301.518	1601.38
301.748	1600.38
301.979	1686.38
302.209	1713.38
302.439	1848.38
302.669	1954.38
302.9	1778.38
303.13	1621.38
303.36	1634.38
303.59	1624.38
303.82	1640.38
304.051	1577.38
304.281	1624.38
304.511	1616.38
304.741	1674.38
304.971	1881.38
305.201	2068.38
305.431	1934.38
305.661	1578.38
305.891	1470.38
306.121	1426.38
306.352	1483.38
306.582	1513.38
306.812	1640.38
307.042	1822.38
307.272	1780.38
307.502	1800.38
307.731	1971.38
307.961	2138.38
308.191	1970.38
308.421	1685.38
308.651	1607.38
308.881	1582.38
309.111	1582.38
309.341	1503.38
309.571	1556.38
309.8	1587.38
310.03	1578.38
310.26	1514.38
310.49	1537.38
310.72	1583.38
310.949	1610.38
311.179	1693.38
311.409	1609.38
311.639	1580.38
311.868	1585.38
312.098	1584.38
312.328	1629.38
312.557	1572.38
312.787	1594.38
313.017	1613.38
313.246	1640.38
313.476	1606.38
313.706	1678.38
313.935	1662.38
314.165	1652.38
314.394	1745.38
314.624	1811.38
314.853	1880.38
315.083	1979.38
315.312	2048.38
315.542	1894.38
315.771	1695.38
316.001	1678.38
316.23	1774.38
316.46	1817.38
316.689	1743.38
316.919	1644.38
317.148	1616.38
317.377	1618.38
317.607	1686.38
317.836	1967.38
318.065	2005.38
318.295	1922.38
318.524	1841.38
318.753	1778.38
318.983	1804.38
319.212	1728.38
319.441	1670.38
319.67	1691.38
319.9	1708.38
320.129	1816.38
320.358	1821.38
320.587	1947.38
320.816	1887.38
321.046	1874.38
321.275	1750.38
321.504	1792.38
321.733	1951.38
321.962	1916.38
322.191	1722.38
322.42	1718.38
322.649	1681.38
322.878	1718.38
323.108	1698.38
323.337	1764.38
323.566	1782.38
323.795	1742.38
324.024	1812.38
324.253	1746.38
324.482	1746.38
324.71	1714.38
324.939	1630.38
325.168	1623.38
325.397	1680.38
325.626	1762.38
325.855	1792.38
326.084	1669.38
326.313	1686.38
326.542	1761.38
326.77	1761.38
326.999	1800.38
327.228	1717.38
327.457	1633.38
327.686	1636.38
327.914	1687.38
328.143	1726.38
328.372	1727.38
328.6	1737.38
328.829	1699.38
329.058	1664.38
329.287	1667.38
329.515	1715.38
329.744	1729.38
329.972	1790.38
330.201	1932.38
330.43	1859.38
330.658	1804.38
330.887	1842.38
331.115	1825.38
331.344	1810.38
331.572	1822.38
331.801	1771.38
332.03	1794.38
332.258	1812.38
332.486	1835.38
332.715	1859.38
332.943	1859.38
333.172	1815.38
333.4	1825.38
333.629	1877.38
333.857	1944.38
334.085	2177.38
334.314	2458.38
334.542	2743.38
334.771	2513.38
334.999	2167.38
335.227	2061.38
335.455	1978.38
335.684	1959.38
335.912	1952.38
336.14	2060.38
336.369	1990.38
336.597	1867.38
336.825	1812.38
337.053	1887.38
337.281	1986.38
337.51	2052.38
337.738	2168.38
337.966	2044.38
338.194	1855.38
338.422	1786.38
338.65	1801.38
338.878	1767.38
339.106	1724.38
339.334	1722.38
339.562	1696.38
339.79	1711.38
340.018	1792.38
340.246	1928.38
340.474	1924.38
340.702	1850.38
340.93	1872.38
341.158	1879.38
341.386	1823.38
341.614	1819.38
341.842	1817.38
342.07	1796.38
342.298	1802.38
342.526	1809.38
342.754	1747.38
342.981	1790.38
343.209	1745.38
343.437	1721.38
343.665	1743.38
343.893	1824.38
344.12	1881.38
344.348	1954.38
344.576	1860.38
344.804	1756.38
345.031	1800.38
345.259	1806.38
345.487	1738.38
345.714	1655.38
345.942	1623.38
346.17	1635.38
346.397	1656.38
346.625	1696.38
346.853	1615.38
347.08	1595.38
347.308	1608.38
347.535	1631.38
347.763	1686.38
347.99	1691.38
348.218	1647.38
348.445	1659.38
348.673	1662.38
348.9	1670.38
349.128	1750.38
349.355	1822.38
349.583	1769.38
349.81	1683.38
350.037	1587.38
350.265	1587.38
350.492	1591.38
350.72	1579.38
350.947	1649.38
351.174	1732.38
351.402	1596.38
351.629	1544.38
351.856	1562.38
352.083	1550.38
352.311	1536.38
352.538	1575.38
352.765	1660.38
352.992	1701.38
353.22	1642.38
353.447	1604.38
353.674	1577.38
353.901	1657.38
354.128	1609.38
354.355	1574.38
354.583	1672.38
354.81	1701.38
355.037	1708.38
355.264	1699.38
355.491	1641.38
355.718	1685.38
355.945	1632.38
356.172	1613.38
356.399	1571.38
356.626	1584.38
356.853	1646.38
357.08	1740.38
357.307	1934.38
357.534	1940.38
357.761	1719.38
357.988	1584.38
358.215	1529.38
358.441	1522.38
358.668	1573.38
358.895	1574.38
359.122	1692.38
359.349	1827.38
359.576	1830.38
359.802	1662.38
360.029	1567.38
360.256	1567.38
360.483	1582.38
360.709	1664.38
360.936	1714.38
361.163	1737.38
361.39	1902.38
361.616	2051.38
361.843	1981.38
362.07	1938.38
362.296	1654.38
362.523	1596.38
362.749	1602.38
362.976	1701.38
363.203	1689.38
363.429	1636.38
363.656	1563.38
363.882	1624.38
364.109	1781.38
364.335	1986.38
364.562	1847.38
364.788	1736.38
365.015	1640.38
365.241	1559.38
365.468	1614.38
365.694	1686.38
365.92	1775.38
366.147	1686.38
366.373	1592.38
366.599	1610.38
366.826	1582.38
367.052	1585.38
367.278	1570.38
367.505	1625.38
367.731	1657.38
367.957	1687.38
368.184	1705.38
368.41	1759.38
368.636	1867.38
368.862	1834.38
369.089	1877.38
369.315	1794.38
369.541	1699.38
369.767	1688.38
369.993	1612.38
370.219	1602.38
370.445	1660.38
370.672	1748.38
370.898	1823.38
371.124	1846.38
371.35	1706.38
371.576	1754.38
371.802	1823.38
372.028	1744.38
372.254	1714.38
372.48	1632.38
372.706	1652.38
372.932	1649.38
373.158	1671.38
373.384	1675.38
373.61	1783.38
373.835	1872.38
374.061	1711.38
374.287	1704.38
374.513	1738.38
374.739	1672.38
374.965	1735.38
375.191	1753.38
375.416	1747.38
375.642	1741.38
375.868	1850.38
376.094	1910.38
376.319	1809.38
376.545	1720.38
376.771	1744.38
376.997	1785.38
377.222	1790.38
377.448	1746.38
377.674	1808.38
377.899	1787.38
378.125	1928.38
378.35	1895.38
378.576	1726.38
378.802	1661.38
379.027	1635.38
379.253	1641.38
379.478	1694.38
379.704	1694.38
379.929	1686.38
380.155	1671.38
380.38	1743.38
380.606	1759.38
380.831	1709.38
381.057	1803.38
381.282	1807.38
381.507	1791.38
381.733	1879.38
381.958	1985.38
382.184	1812.38
382.409	1753.38
382.634	1764.38
382.86	1794.38
383.085	1759.38
383.31	1802.38
383.535	1951.38
383.761	2077.38
383.986	1989.38
384.211	1941.38
384.436	1850.38
384.662	1980.38
384.887	2068.38
385.112	1977.38
385.337	2019.38
385.562	1975.38
385.787	1942.38
386.013	2009.38
386.238	2006.38
386.463	2002.38
386.688	2083.38
386.913	2246.38
387.138	2184.38
387.363	2020.38
387.588	1979.38
387.813	2015.38
388.038	2017.38
388.263	2100.38
388.488	2056.38
388.713	1865.38
388.938	1874.38
389.163	1874.38
389.387	1901.38
389.612	1913.38
389.837	1955.38
390.062	1972.38
390.287	1984.38
390.512	1936.38
390.736	1882.38
390.961	1868.38
391.186	1853.38
391.411	1870.38
391.636	1921.38
391.86	1956.38
392.085	1958.38
392.31	1969.38
392.534	1980.38
392.759	1957.38
392.984	1938.38
393.208	1972.38
393.433	2041.38
393.658	2173.38
393.882	2123.38
394.107	1991.38
394.331	1923.38
394.556	1923.38
394.78	1966.38
395.005	2020.38
395.229	2046.38
395.454	2258.38
395.678	2213.38
395.903	2144.38
396.127	2078.38
396.352	2044.38
396.576	2165.38
396.801	2116.38
397.025	2149.38
397.249	2136.38
397.474	2095.38
397.698	2113.38
397.922	2158.38
398.147	2225.38
398.371	2345.38
398.595	2333.38
398.82	2210.38
399.044	2255.38
399.268	2354.38
399.492	2519.38
399.717	2630.38
399.941	2646.38
400.165	2559.38
400.389	2442.38
400.613	2462.38
400.837	2684.38
401.062	3112.38
401.286	2677.38
401.51	2408.38
401.734	2571.38
401.958	2461.38
402.182	2287.38
402.406	2256.38
402.63	2218.38
402.854	2215.38
403.078	2235.38
403.302	2300.38
403.526	2330.38
403.75	2315.38
403.974	2311.38
404.198	2324.38
404.422	2383.38
404.645	2483.38
404.869	2462.38
405.093	2292.38
405.317	2229.38
405.541	2301.38
405.765	2362.38
405.988	2334.38
406.212	2374.38
406.436	2474.38
406.66	2484.38
406.883	2483.38
407.107	2786.38
407.331	3006.38
407.555	3244.38
407.778	3015.38
408.002	2551.38
408.226	2418.38
408.449	2460.38
408.673	2370.38
408.896	2406.38
409.12	2392.38
409.344	2379.38
409.567	2269.38
409.791	2291.38
410.014	2361.38
410.238	2416.38
410.461	2648.38
410.685	2381.38
410.908	2247.38
411.132	2352.38
411.355	2336.38
411.578	2229.38
411.802	2231.38
412.025	2277.38
412.249	2280.38
412.472	2157.38
412.695	2198.38
412.919	2199.38
413.142	2231.38
413.365	2229.38
413.589	2254.38
413.812	2356.38
414.035	2448.38
414.258	2265.38
414.482	2180.38
414.705	2188.38
414.928	2216.38
415.151	2203.38
415.374	2216.38
415.597	2248.38
415.821	2239.38
416.044	2328.38
416.267	2374.38
416.49	2107.38
416.713	2136.38
416.936	2185.38
417.159	2283.38
417.382	2313.38
417.605	2142.38
417.828	2207.38
418.051	2252.38
418.274	2204.38
418.497	2115.38
418.72	2134.38
418.943	2144.38
419.166	2293.38
419.389	2351.38
419.611	2237.38
419.834	2192.38
420.057	2267.38
420.28	2138.38
420.503	2138.38
420.726	2157.38
420.948	2173.38
421.171	2058.38
421.394	2131.38
421.617	2224.38
421.839	2176.38
422.062	2172.38
422.285	2109.38
422.507	2070.38
422.73	2102.38
422.953	2025.38
423.175	2056.38
423.398	2074.38
423.621	2131.38
423.843	2129.38
424.066	2151.38
424.288	2238.38
424.511	2306.38
424.733	2229.38
424.956	2033.38
425.178	2025.38
425.401	2050.38
425.623	2057.38
425.846	2051.38
426.068	2144.38
426.291	2239.38
426.513	2176.38
426.735	2172.38
426.958	2295.38
427.18	2513.38
427.402	2291.38
427.625	2294.38
427.847	2368.38
428.069	2142.38
428.292	2082.38
428.514	2035.38
428.736	2047.38
428.958	2038.38
429.181	2110.38
429.403	2364.38
429.625	2895.38
429.847	2558.38
430.069	2127.38
430.292	2305.38
430.514	2422.38
430.736	2200.38
430.958	2342.38
431.18	2234.38
431.402	2053.38
431.624	2012.38
431.846	2069.38
432.068	1978.38
432.29	2073.38
432.512	2076.38
432.734	2129.38
432.956	2158.38
433.178	2258.38
433.4	2226.38
433.622	2212.38
433.844	2109.38
434.066	2030.38
434.287	2006.38
434.509	2098.38
434.731	2226.38
434.953	2366.38
435.175	2300.38
435.397	2172.38
435.618	2160.38
435.84	2169.38
436.062	2151.38
436.284	2145.38
436.505	2161.38
436.727	2194.38
436.949	2113.38
437.17	2096.38
437.392	2066.38
437.614	2084.38
437.835	2003.38
438.057	2125.38
438.278	2233.38
438.5	2110.38
438.721	2080.38
438.943	2073.38
439.165	2052.38
439.386	2006.38
439.608	2053.38
439.829	1998.38
440.05	2080.38
440.272	2039.38
440.493	1976.38
440.715	2059.38
440.936	2172.38
441.158	2420.38
441.379	2330.38
441.6	2261.38
441.822	2262.38
442.043	2180.38
442.264	2155.38
442.486	2053.38
442.707	2043.38
442.928	2024.38
443.149	2115.38
443.371	2227.38
443.592	2339.38
443.813	2212.38
444.034	2259.38
444.255	2236.38
444.476	2297.38
444.698	2347.38
444.919	2304.38
445.14	2395.38
445.361	2382.38
445.582	2439.38
445.803	2345.38
446.024	2256.38
446.245	2344.38
446.466	2256.38
446.687	2163.38
446.908	2198.38
447.129	2115.38
447.35	2128.38
447.571	2127.38
447.792	2019.38
448.013	1994.38
448.234	2057.38
448.455	2191.38
448.675	2177.38
448.896	2000.38
449.117	1968.38
449.338	2024.38
449.559	2102.38
449.779	2242.38
450	2447.38
450.221	2652.38
450.442	2554.38
450.662	2219.38
450.883	1962.38
451.104	1981.38
451.324	1985.38
451.545	2027.38
451.766	2031.38
451.986	1960.38
452.207	1929.38
452.428	1857.38
452.648	1798.38
452.869	1896.38
453.089	2042.38
453.31	1997.38
453.53	2112.38
453.751	2003.38
453.971	1889.38
454.192	1903.38
454.412	2071.38
454.633	2019.38
454.853	1910.38
455.073	1808.38
455.294	1804.38
455.514	1782.38
455.734	1800.38
455.955	1825.38
456.175	1846.38
456.395	1827.38
456.616	1876.38
456.836	1944.38
457.056	1868.38
457.276	1854.38
457.497	1849.38
457.717	1768.38
457.937	1805.38
458.157	1843.38
458.377	1850.38
458.598	1846.38
458.818	1841.38
459.038	1969.38
459.258	2056.38
459.478	2105.38
459.698	2018.38
459.918	2059.38
460.138	2164.38
460.358	2222.38
460.578	2183.38
460.798	2277.38
461.018	2424.38
461.238	2294.38
461.458	2173.38
461.678	2214.38
461.898	2158.38
462.118	2083.38
462.338	2192.38
462.558	2219.38
462.777	2198.38
462.997	2295.38
463.217	2449.38
463.437	2425.38
463.657	2239.38
463.876	2222.38
464.096	2176.38
464.316	2192.38
464.536	2320.38
464.755	2294.38
464.975	2331.38
465.195	2262.38
465.414	2330.38
465.634	2330.38
465.854	2191.38
466.073	2330.38
466.293	2319.38
466.512	2042.38
466.732	1997.38
466.951	2143.38
467.171	2092.38
467.391	2022.38
467.61	1952.38
467.829	1984.38
468.049	2127.38
468.268	2416.38
468.488	2258.38
468.707	2129.38
468.927	2065.38
469.146	2039.38
469.365	1975.38
469.585	1987.38
469.804	2018.38
470.023	1992.38
470.243	2080.38
470.462	2027.38
470.681	1950.38
470.901	2026.38
471.12	2003.38
471.339	2007.38
471.558	1939.38
471.777	1924.38
471.997	1967.38
472.216	2010.38
472.435	1874.38
472.654	1936.38
472.873	2033.38
473.092	2152.38
473.311	2083.38
473.53	1939.38
473.749	1908.38
473.968	1963.38
474.187	2115.38
474.406	2232.38
474.625	2130.38
474.844	2015.38
475.063	2052.38
475.282	2128.38
475.501	2015.38
475.72	1987.38
475.939	2159.38
476.158	2058.38
476.377	2026.38
476.596	2050.38
476.814	2113.38
477.033	2098.38
477.252	2196.38
477.471	2270.38
477.69	2168.38
477.908	2107.38
478.127	2234.38
478.346	2383.38
478.564	2416.38
478.783	2399.38
479.002	2502.38
479.22	2434.38
479.439	2503.38
479.658	2852.38
479.876	2796.38
480.095	2431.38
480.313	2359.38
480.532	2267.38
480.751	2274.38
480.969	2338.38
481.188	2272.38
481.406	2244.38
481.624	2195.38
481.843	2226.38
482.061	2274.38
482.28	2322.38
482.498	2352.38
482.717	2321.38
482.935	2228.38
483.153	2222.38
483.372	2234.38
483.59	2235.38
483.808	2254.38
484.027	2322.38
484.245	2392.38
484.463	2838.38
484.681	3206.38
484.9	2514.38
485.118	2291.38
485.336	2263.38
485.554	2328.38
485.772	2474.38
485.99	2381.38
486.209	2473.38
486.427	2380.38
486.645	2379.38
486.863	2370.38
487.081	2422.38
487.299	2512.38
487.517	2459.38
