Data from WStandard_LampEnergy5.5LIBS07252019.E.O._I.C._HRD10591_16-08-50-920.txt Node
Date: Thu Jul 25 16:08:50 EDT 2019
User: cochatt
Spectrometer: HR+D1059
Trigger mode: 1
Integration Time (sec): 1.000000E-1
Scans to average: 1
Electric dark correction enabled: true
Nonlinearity correction enabled: false
Boxcar width: 0
XAxis mode: Wavelengths
Number of Pixels in Spectrum: 2048
>>>>>Begin Spectral Data<<<<<
223.165	-7.94
223.4	-7.94
223.635	-7.94
223.869	-4.94
224.104	-7.94
224.338	-26.94
224.573	-23.94
224.808	-15.94
225.042	-12.94
225.277	-1.94
225.511	7.06
225.746	7.06
225.98	10.06
226.215	5.06
226.449	12.06
226.683	18.06
226.918	23.06
227.152	20.06
227.387	28.06
227.621	41.06
227.856	60.06
228.09	47.06
228.324	38.06
228.559	52.06
228.793	137.06
229.027	334.06
229.262	347.06
229.496	381.06
229.73	379.06
229.964	424.06
230.199	441.06
230.433	454.06
230.667	483.06
230.901	536.06
231.136	474.06
231.37	465.06
231.604	441.06
231.838	463.06
232.072	472.06
232.306	428.06
232.541	476.06
232.775	526.06
233.009	581.06
233.243	556.06
233.477	498.06
233.711	532.06
233.945	546.06
234.179	528.06
234.413	568.06
234.647	594.06
234.881	574.06
235.115	538.06
235.349	557.06
235.583	552.06
235.817	535.06
236.051	510.06
236.285	533.06
236.519	576.06
236.753	646.06
236.987	633.06
237.221	634.06
237.455	715.06
237.689	711.06
237.922	641.06
238.156	641.06
238.39	650.06
238.624	678.06
238.858	707.06
239.091	758.06
239.325	769.06
239.559	904.06
239.793	896.06
240.027	1014.06
240.26	990.06
240.494	732.06
240.728	673.06
240.961	700.06
241.195	726.06
241.429	778.06
241.662	792.06
241.896	729.06
242.13	736.06
242.363	768.06
242.597	866.06
242.83	835.06
243.064	853.06
243.298	920.06
243.531	894.06
243.765	895.06
243.998	902.06
244.232	773.06
244.465	760.06
244.699	765.06
244.932	854.06
245.166	996.06
245.399	926.06
245.633	889.06
245.866	854.06
246.099	892.06
246.333	920.06
246.566	920.06
246.8	996.06
247.033	1114.06
247.266	1006.06
247.5	994.06
247.733	1004.06
247.966	1089.06
248.2	1187.06
248.433	1123.06
248.666	1163.06
248.899	1267.06
249.133	1453.06
249.366	1674.06
249.599	1377.06
249.832	1186.06
250.066	1256.06
250.299	1264.06
250.532	1156.06
250.765	1026.06
250.998	1097.06
251.231	1171.06
251.465	1188.06
251.698	1114.06
251.931	1116.06
252.164	1133.06
252.397	1206.06
252.63	1185.06
252.863	1037.06
253.096	1047.06
253.329	1096.06
253.562	1135.06
253.795	1225.06
254.028	1196.06
254.261	1121.06
254.494	1128.06
254.727	1042.06
254.96	1102.06
255.193	1187.06
255.426	1351.06
255.659	1540.06
255.892	1599.06
256.124	1317.06
256.357	1284.06
256.59	1349.06
256.823	1354.06
257.056	1322.06
257.289	1606.06
257.521	1798.06
257.754	1626.06
257.987	1544.06
258.22	1685.06
258.452	1698.06
258.685	1368.06
258.918	1298.06
259.151	1308.06
259.383	1257.06
259.616	1109.06
259.849	1188.06
260.081	1321.06
260.314	1468.06
260.547	1623.06
260.779	1660.06
261.012	1509.06
261.244	1368.06
261.477	1319.06
261.71	1341.06
261.942	1334.06
262.175	1315.06
262.407	1411.06
262.64	1318.06
262.872	1236.06
263.105	1185.06
263.337	1216.06
263.57	1201.06
263.802	1273.06
264.035	1168.06
264.267	1094.06
264.499	1065.06
264.732	1183.06
264.964	1222.06
265.197	1284.06
265.429	1362.06
265.661	1503.06
265.894	1666.06
266.126	1718.06
266.358	1523.06
266.591	1584.06
266.823	1721.06
267.055	1535.06
267.287	1525.06
267.52	1492.06
267.752	1515.06
267.984	1491.06
268.216	1524.06
268.448	1611.06
268.681	1580.06
268.913	1456.06
269.145	1387.06
269.377	1303.06
269.609	1464.06
269.841	1697.06
270.073	1952.06
270.306	2149.06
270.538	2342.06
270.77	1988.06
271.002	1661.06
271.234	1611.06
271.466	1517.06
271.698	1733.06
271.93	2119.06
272.162	2141.06
272.394	1873.06
272.626	1838.06
272.858	1593.06
273.09	1392.06
273.322	1340.06
273.553	1356.06
273.785	1299.06
274.017	1374.06
274.249	1481.06
274.481	1512.06
274.713	1401.06
274.945	1361.06
275.176	1378.06
275.408	1341.06
275.64	1305.06
275.872	1295.06
276.104	1397.06
276.335	1624.06
276.567	1797.06
276.799	1822.06
277.031	1622.06
277.262	1549.06
277.494	1586.06
277.726	1799.06
277.957	1766.06
278.189	1628.06
278.421	1476.06
278.652	1415.06
278.884	1412.06
279.115	1408.06
279.347	1453.06
279.579	1384.06
279.81	1364.06
280.042	1548.06
280.273	1712.06
280.505	1697.06
280.736	1749.06
280.968	1651.06
281.199	1430.06
281.431	1378.06
281.662	1370.06
281.894	1416.06
282.125	1395.06
282.356	1476.06
282.588	1469.06
282.819	1463.06
283.051	1551.06
283.282	1709.06
283.513	1666.06
283.745	1480.06
283.976	1374.06
284.207	1369.06
284.439	1429.06
284.67	1424.06
284.901	1476.06
285.132	1487.06
285.364	1461.06
285.595	1461.06
285.826	1427.06
286.057	1437.06
286.288	1425.06
286.52	1467.06
286.751	1595.06
286.982	1689.06
287.213	1548.06
287.444	1412.06
287.675	1400.06
287.906	1461.06
288.138	1585.06
288.369	1550.06
288.6	1463.06
288.831	1404.06
289.062	1413.06
289.293	1455.06
289.524	1472.06
289.755	1495.06
289.986	1504.06
290.217	1382.06
290.448	1428.06
290.679	1458.06
290.91	1444.06
291.141	1495.06
291.371	1560.06
291.602	1578.06
291.833	1531.06
292.064	1583.06
292.295	1531.06
292.526	1595.06
292.757	1699.06
292.987	1570.06
293.218	1473.06
293.449	1596.06
293.68	1782.06
293.91	1926.06
294.141	1791.06
294.372	1668.06
294.603	1747.06
294.833	1841.06
295.064	1743.06
295.295	1557.06
295.525	1545.06
295.756	1430.06
295.987	1368.06
296.217	1386.06
296.448	1454.06
296.679	1453.06
296.909	1460.06
297.14	1418.06
297.37	1482.06
297.601	1518.06
297.831	1662.06
298.062	1678.06
298.292	1524.06
298.523	1476.06
298.753	1447.06
298.984	1456.06
299.214	1435.06
299.445	1466.06
299.675	1510.06
299.905	1556.06
300.136	1549.06
300.366	1482.06
300.597	1401.06
300.827	1401.06
301.057	1494.06
301.288	1558.06
301.518	1539.06
301.748	1586.06
301.979	1626.06
302.209	1653.06
302.439	1786.06
302.669	1882.06
302.9	1738.06
303.13	1547.06
303.36	1569.06
303.59	1604.06
303.82	1571.06
304.051	1568.06
304.281	1573.06
304.511	1542.06
304.741	1628.06
304.971	1829.06
305.201	1961.06
305.431	1876.06
305.661	1545.06
305.891	1398.06
306.121	1382.06
306.352	1419.06
306.582	1484.06
306.812	1621.06
307.042	1791.06
307.272	1736.06
307.502	1767.06
307.731	1928.06
307.961	2094.06
308.191	1912.06
308.421	1644.06
308.651	1558.06
308.881	1516.06
309.111	1512.06
309.341	1513.06
309.571	1514.06
309.8	1519.06
310.03	1496.06
310.26	1490.06
310.49	1526.06
310.72	1554.06
310.949	1617.06
311.179	1623.06
311.409	1583.06
311.639	1559.06
311.868	1539.06
312.098	1546.06
312.328	1542.06
312.557	1537.06
312.787	1564.06
313.017	1615.06
313.246	1633.06
313.476	1555.06
313.706	1670.06
313.935	1600.06
314.165	1621.06
314.394	1664.06
314.624	1726.06
314.853	1826.06
315.083	1856.06
315.312	1934.06
315.542	1857.06
315.771	1616.06
316.001	1611.06
316.23	1742.06
316.46	1690.06
316.689	1691.06
316.919	1590.06
317.148	1541.06
317.377	1556.06
317.607	1672.06
317.836	1867.06
318.065	1959.06
318.295	1873.06
318.524	1767.06
318.753	1677.06
318.983	1706.06
319.212	1683.06
319.441	1657.06
319.67	1650.06
319.9	1662.06
320.129	1720.06
320.358	1799.06
320.587	1830.06
320.816	1855.06
321.046	1802.06
321.275	1738.06
321.504	1722.06
321.733	1828.06
321.962	1846.06
322.191	1688.06
322.42	1655.06
322.649	1673.06
322.878	1645.06
323.108	1637.06
323.337	1724.06
323.566	1716.06
323.795	1695.06
324.024	1728.06
324.253	1656.06
324.482	1660.06
324.71	1615.06
324.939	1560.06
325.168	1606.06
325.397	1643.06
325.626	1707.06
325.855	1688.06
326.084	1644.06
326.313	1684.06
326.542	1708.06
326.77	1699.06
326.999	1709.06
327.228	1659.06
327.457	1562.06
327.686	1595.06
327.914	1586.06
328.143	1660.06
328.372	1661.06
328.6	1685.06
328.829	1678.06
329.058	1630.06
329.287	1608.06
329.515	1660.06
329.744	1723.06
329.972	1777.06
330.201	1830.06
330.43	1785.06
330.658	1760.06
330.887	1757.06
331.115	1748.06
331.344	1783.06
331.572	1724.06
331.801	1722.06
332.03	1723.06
332.258	1784.06
332.486	1770.06
332.715	1780.06
332.943	1783.06
333.172	1727.06
333.4	1827.06
333.629	1813.06
333.857	1889.06
334.085	2098.06
334.314	2329.06
334.542	2578.06
334.771	2381.06
334.999	2122.06
335.227	1996.06
335.455	1891.06
335.684	1844.06
335.912	1891.06
336.14	1942.06
336.369	1890.06
336.597	1800.06
336.825	1763.06
337.053	1782.06
337.281	1933.06
337.51	1988.06
337.738	2094.06
337.966	2020.06
338.194	1846.06
338.422	1734.06
338.65	1741.06
338.878	1776.06
339.106	1708.06
339.334	1646.06
339.562	1640.06
339.79	1665.06
340.018	1753.06
340.246	1840.06
340.474	1888.06
340.702	1802.06
340.93	1816.06
341.158	1763.06
341.386	1762.06
341.614	1725.06
341.842	1684.06
342.07	1734.06
342.298	1766.06
342.526	1727.06
342.754	1678.06
342.981	1701.06
343.209	1740.06
343.437	1719.06
343.665	1678.06
343.893	1769.06
344.12	1799.06
344.348	1854.06
344.576	1760.06
344.804	1696.06
345.031	1733.06
345.259	1749.06
345.487	1674.06
345.714	1624.06
345.942	1597.06
346.17	1638.06
346.397	1641.06
346.625	1647.06
346.853	1558.06
347.08	1564.06
347.308	1562.06
347.535	1560.06
347.763	1680.06
347.99	1633.06
348.218	1566.06
348.445	1587.06
348.673	1614.06
348.9	1646.06
349.128	1684.06
349.355	1750.06
349.583	1755.06
349.81	1680.06
350.037	1520.06
350.265	1523.06
350.492	1479.06
350.72	1557.06
350.947	1636.06
351.174	1657.06
351.402	1579.06
351.629	1522.06
351.856	1471.06
352.083	1476.06
352.311	1479.06
352.538	1522.06
352.765	1627.06
352.992	1656.06
353.22	1582.06
353.447	1509.06
353.674	1548.06
353.901	1594.06
354.128	1541.06
354.355	1551.06
354.583	1588.06
354.81	1659.06
355.037	1669.06
355.264	1614.06
355.491	1577.06
355.718	1581.06
355.945	1548.06
356.172	1563.06
356.399	1517.06
356.626	1540.06
356.853	1600.06
357.08	1692.06
357.307	1904.06
357.534	1880.06
357.761	1676.06
357.988	1507.06
358.215	1496.06
358.441	1505.06
358.668	1522.06
358.895	1541.06
359.122	1623.06
359.349	1730.06
359.576	1753.06
359.802	1588.06
360.029	1524.06
360.256	1515.06
360.483	1520.06
360.709	1612.06
360.936	1660.06
361.163	1670.06
361.39	1840.06
361.616	1997.06
361.843	1966.06
362.07	1874.06
362.296	1629.06
362.523	1559.06
362.749	1574.06
362.976	1598.06
363.203	1630.06
363.429	1565.06
363.656	1560.06
363.882	1578.06
364.109	1732.06
364.335	1900.06
364.562	1788.06
364.788	1666.06
365.015	1612.06
365.241	1529.06
365.468	1588.06
365.694	1697.06
365.92	1712.06
366.147	1643.06
366.373	1549.06
366.599	1541.06
366.826	1564.06
367.052	1561.06
367.278	1579.06
367.505	1586.06
367.731	1587.06
367.957	1633.06
368.184	1682.06
368.41	1704.06
368.636	1792.06
368.862	1748.06
369.089	1804.06
369.315	1725.06
369.541	1672.06
369.767	1656.06
369.993	1575.06
370.219	1552.06
370.445	1624.06
370.672	1681.06
370.898	1802.06
371.124	1734.06
371.35	1707.06
371.576	1723.06
371.802	1801.06
372.028	1706.06
372.254	1665.06
372.48	1615.06
372.706	1650.06
372.932	1605.06
373.158	1637.06
373.384	1634.06
373.61	1641.06
373.835	1781.06
374.061	1674.06
374.287	1696.06
374.513	1662.06
374.739	1645.06
374.965	1694.06
375.191	1686.06
375.416	1685.06
375.642	1741.06
375.868	1793.06
376.094	1850.06
376.319	1806.06
376.545	1652.06
376.771	1701.06
376.997	1766.06
377.222	1748.06
377.448	1699.06
377.674	1745.06
377.899	1710.06
378.125	1856.06
378.35	1846.06
378.576	1671.06
378.802	1594.06
379.027	1614.06
379.253	1645.06
379.478	1642.06
379.704	1688.06
379.929	1658.06
380.155	1669.06
380.38	1698.06
380.606	1689.06
380.831	1656.06
381.057	1778.06
381.282	1750.06
381.507	1705.06
381.733	1829.06
381.958	1916.06
382.184	1773.06
382.409	1736.06
382.634	1761.06
382.86	1761.06
383.085	1740.06
383.31	1765.06
383.535	1895.06
383.761	2023.06
383.986	1954.06
384.211	1863.06
384.436	1865.06
384.662	1904.06
384.887	2029.06
385.112	1902.06
385.337	1919.06
385.562	1887.06
385.787	1918.06
386.013	1943.06
386.238	1916.06
386.463	1918.06
386.688	2045.06
386.913	2140.06
387.138	2112.06
387.363	1977.06
387.588	1923.06
387.813	1936.06
388.038	2001.06
388.263	2008.06
388.488	1975.06
388.713	1860.06
388.938	1811.06
389.163	1844.06
389.387	1886.06
389.612	1876.06
389.837	1907.06
390.062	1944.06
390.287	1922.06
390.512	1869.06
390.736	1915.06
390.961	1829.06
391.186	1836.06
391.411	1809.06
391.636	1883.06
391.86	1902.06
392.085	1847.06
392.31	1890.06
392.534	1916.06
392.759	1922.06
392.984	1928.06
393.208	1919.06
393.433	1958.06
393.658	2007.06
393.882	2058.06
394.107	1959.06
394.331	1900.06
394.556	1871.06
394.78	1885.06
395.005	1972.06
395.229	2036.06
395.454	2165.06
395.678	2189.06
395.903	2084.06
396.127	1968.06
396.352	1992.06
396.576	2074.06
396.801	2096.06
397.025	2055.06
397.249	2096.06
397.474	2042.06
397.698	2015.06
397.922	2093.06
398.147	2176.06
398.371	2298.06
398.595	2261.06
398.82	2153.06
399.044	2232.06
399.268	2292.06
399.492	2414.06
399.717	2525.06
399.941	2529.06
400.165	2486.06
400.389	2432.06
400.613	2418.06
400.837	2580.06
401.062	3017.06
401.286	2608.06
401.51	2372.06
401.734	2451.06
401.958	2395.06
402.182	2256.06
402.406	2153.06
402.63	2120.06
402.854	2153.06
403.078	2204.06
403.302	2201.06
403.526	2268.06
403.75	2271.06
403.974	2249.06
404.198	2261.06
404.422	2341.06
404.645	2409.06
404.869	2379.06
405.093	2268.06
405.317	2156.06
405.541	2234.06
405.765	2333.06
405.988	2298.06
406.212	2334.06
406.436	2373.06
406.66	2417.06
406.883	2430.06
407.107	2688.06
407.331	2882.06
407.555	3192.06
407.778	2940.06
408.002	2455.06
408.226	2347.06
408.449	2373.06
408.673	2312.06
408.896	2276.06
409.12	2324.06
409.344	2305.06
409.567	2216.06
409.791	2276.06
410.014	2320.06
410.238	2412.06
410.461	2523.06
410.685	2313.06
410.908	2214.06
411.132	2272.06
411.355	2217.06
411.578	2186.06
411.802	2229.06
412.025	2240.06
412.249	2196.06
412.472	2157.06
412.695	2127.06
412.919	2122.06
413.142	2174.06
413.365	2151.06
413.589	2231.06
413.812	2286.06
414.035	2397.06
414.258	2225.06
414.482	2140.06
414.705	2198.06
414.928	2111.06
415.151	2132.06
415.374	2150.06
415.597	2163.06
415.821	2214.06
416.044	2266.06
416.267	2320.06
416.49	2102.06
416.713	2094.06
416.936	2124.06
417.159	2211.06
417.382	2256.06
417.605	2113.06
417.828	2149.06
418.051	2250.06
418.274	2140.06
418.497	2043.06
418.72	2123.06
418.943	2082.06
419.166	2211.06
419.389	2372.06
419.611	2172.06
419.834	2157.06
420.057	2158.06
420.28	2111.06
420.503	2080.06
420.726	2125.06
420.948	2113.06
421.171	2058.06
421.394	2083.06
421.617	2178.06
421.839	2168.06
422.062	2078.06
422.285	2068.06
422.507	2047.06
422.73	2012.06
422.953	1965.06
423.175	2004.06
423.398	2078.06
423.621	2076.06
423.843	2133.06
424.066	2118.06
424.288	2177.06
424.511	2224.06
424.733	2187.06
424.956	1988.06
425.178	1933.06
425.401	1996.06
425.623	2044.06
425.846	2033.06
426.068	2121.06
426.291	2183.06
426.513	2117.06
426.735	2089.06
426.958	2237.06
427.18	2370.06
427.402	2157.06
427.625	2185.06
427.847	2196.06
428.069	2063.06
428.292	2011.06
428.514	1976.06
428.736	1948.06
428.958	2003.06
429.181	2077.06
429.403	2269.06
429.625	2794.06
429.847	2463.06
430.069	2067.06
430.292	2218.06
430.514	2363.06
430.736	2155.06
430.958	2286.06
431.18	2154.06
431.402	2043.06
431.624	2028.06
431.846	1997.06
432.068	1972.06
432.29	1993.06
432.512	2052.06
432.734	2086.06
432.956	2080.06
433.178	2166.06
433.4	2148.06
433.622	2146.06
433.844	2052.06
434.066	1995.06
434.287	1993.06
434.509	2057.06
434.731	2172.06
434.953	2296.06
435.175	2273.06
435.397	2107.06
435.618	2106.06
435.84	2155.06
436.062	2100.06
436.284	2099.06
436.505	2125.06
436.727	2121.06
436.949	2079.06
437.17	2016.06
437.392	2027.06
437.614	2016.06
437.835	1987.06
438.057	2129.06
438.278	2217.06
438.5	2048.06
438.721	2027.06
438.943	2034.06
439.165	1998.06
439.386	1982.06
439.608	1994.06
439.829	2000.06
440.05	1988.06
440.272	1970.06
440.493	1955.06
440.715	1992.06
440.936	2100.06
441.158	2360.06
441.379	2273.06
441.6	2238.06
441.822	2197.06
442.043	2213.06
442.264	2108.06
442.486	1998.06
442.707	1997.06
442.928	2016.06
443.149	2050.06
443.371	2212.06
443.592	2304.06
443.813	2225.06
444.034	2197.06
444.255	2218.06
444.476	2264.06
444.698	2290.06
444.919	2241.06
445.14	2329.06
445.361	2312.06
445.582	2376.06
445.803	2254.06
446.024	2210.06
446.245	2263.06
446.466	2244.06
446.687	2095.06
446.908	2087.06
447.129	2040.06
447.35	2038.06
447.571	2070.06
447.792	1963.06
448.013	1963.06
448.234	1965.06
448.455	2071.06
448.675	2117.06
448.896	1934.06
449.117	1901.06
449.338	1982.06
449.559	2044.06
449.779	2166.06
450	2388.06
450.221	2568.06
450.442	2444.06
450.662	2152.06
450.883	1958.06
451.104	1861.06
451.324	1934.06
451.545	1984.06
451.766	1950.06
451.986	1853.06
452.207	1878.06
452.428	1803.06
452.648	1765.06
452.869	1856.06
453.089	2027.06
453.31	1997.06
453.53	2021.06
453.751	1928.06
453.971	1828.06
454.192	1870.06
454.412	1994.06
454.633	1923.06
454.853	1849.06
455.073	1769.06
455.294	1706.06
455.514	1746.06
455.734	1741.06
455.955	1748.06
456.175	1792.06
456.395	1793.06
456.616	1828.06
456.836	1919.06
457.056	1877.06
457.276	1873.06
457.497	1757.06
457.717	1734.06
457.937	1769.06
458.157	1795.06
458.377	1800.06
458.598	1812.06
458.818	1773.06
459.038	1940.06
459.258	2061.06
459.478	2026.06
459.698	1955.06
459.918	2007.06
460.138	2120.06
460.358	2131.06
460.578	2137.06
460.798	2196.06
461.018	2388.06
461.238	2284.06
461.458	2120.06
461.678	2164.06
461.898	2131.06
462.118	2032.06
462.338	2143.06
462.558	2124.06
462.777	2161.06
462.997	2228.06
463.217	2424.06
463.437	2396.06
463.657	2218.06
463.876	2163.06
464.096	2176.06
464.316	2131.06
464.536	2214.06
464.755	2210.06
464.975	2273.06
465.195	2206.06
465.414	2289.06
465.634	2256.06
465.854	2142.06
466.073	2287.06
466.293	2216.06
466.512	2027.06
466.732	1984.06
466.951	2056.06
467.171	2005.06
467.391	1944.06
467.61	1932.06
467.829	1928.06
468.049	2074.06
468.268	2324.06
468.488	2199.06
468.707	2075.06
468.927	1985.06
469.146	1999.06
469.365	1917.06
469.585	1934.06
469.804	1933.06
470.023	1968.06
470.243	1979.06
470.462	1985.06
470.681	1912.06
470.901	1946.06
471.12	1976.06
471.339	1950.06
471.558	1908.06
471.777	1851.06
471.997	1934.06
472.216	1909.06
472.435	1851.06
472.654	1914.06
472.873	1985.06
473.092	2111.06
473.311	2012.06
473.53	1909.06
473.749	1897.06
473.968	1944.06
474.187	2038.06
474.406	2116.06
474.625	2002.06
474.844	1971.06
475.063	1960.06
475.282	2038.06
475.501	2004.06
475.72	1991.06
475.939	2085.06
476.158	2054.06
476.377	1976.06
476.596	1978.06
476.814	2113.06
477.033	2035.06
477.252	2176.06
477.471	2215.06
477.69	2086.06
477.908	2109.06
478.127	2178.06
478.346	2384.06
478.564	2414.06
478.783	2307.06
479.002	2407.06
479.22	2352.06
479.439	2439.06
479.658	2792.06
479.876	2746.06
480.095	2359.06
480.313	2301.06
480.532	2165.06
480.751	2223.06
480.969	2284.06
481.188	2246.06
481.406	2236.06
481.624	2175.06
481.843	2182.06
482.061	2209.06
482.28	2297.06
482.498	2290.06
482.717	2284.06
482.935	2188.06
483.153	2174.06
483.372	2176.06
483.59	2157.06
483.808	2198.06
484.027	2251.06
484.245	2409.06
484.463	2719.06
484.681	3089.06
484.9	2443.06
485.118	2291.06
485.336	2217.06
485.554	2310.06
485.772	2422.06
485.99	2390.06
486.209	2393.06
486.427	2381.06
486.645	2386.06
486.863	2310.06
487.081	2383.06
487.299	2486.06
487.517	2392.06
