Data from WStandard_LampEnergy10_LIBS07252019.E.O._I.C._HRD10591_15-55-12-928.txt Node
Date: Thu Jul 25 15:55:12 EDT 2019
User: cochatt
Spectrometer: HR+D1059
Trigger mode: 1
Integration Time (sec): 1.000000E-1
Scans to average: 1
Electric dark correction enabled: true
Nonlinearity correction enabled: false
Boxcar width: 0
XAxis mode: Wavelengths
Number of Pixels in Spectrum: 2048
>>>>>Begin Spectral Data<<<<<
223.165	-23.75
223.4	-23.75
223.635	-23.75
223.869	-21.75
224.104	-10.75
224.338	1.25
224.573	-11.75
224.808	-9.75
225.042	-10.75
225.277	-5.75
225.511	-1.75
225.746	3.25
225.98	6.25
226.215	5.25
226.449	24.25
226.683	11.25
226.918	15.25
227.152	29.25
227.387	22.25
227.621	49.25
227.856	34.25
228.09	48.25
228.324	57.25
228.559	44.25
228.793	81.25
229.027	124.25
229.262	128.25
229.496	141.25
229.73	153.25
229.964	150.25
230.199	174.25
230.433	161.25
230.667	186.25
230.901	185.25
231.136	169.25
231.37	177.25
231.604	181.25
231.838	178.25
232.072	163.25
232.306	187.25
232.541	177.25
232.775	188.25
233.009	190.25
233.243	205.25
233.477	191.25
233.711	189.25
233.945	195.25
234.179	189.25
234.413	190.25
234.647	225.25
234.881	202.25
235.115	208.25
235.349	201.25
235.583	199.25
235.817	198.25
236.051	179.25
236.285	207.25
236.519	214.25
236.753	226.25
236.987	235.25
237.221	218.25
237.455	237.25
237.689	227.25
237.922	220.25
238.156	213.25
238.39	220.25
238.624	229.25
238.858	232.25
239.091	238.25
239.325	248.25
239.559	289.25
239.793	301.25
240.027	318.25
240.26	293.25
240.494	243.25
240.728	234.25
240.961	232.25
241.195	217.25
241.429	270.25
241.662	239.25
241.896	228.25
242.13	246.25
242.363	275.25
242.597	273.25
242.83	266.25
243.064	268.25
243.298	292.25
243.531	279.25
243.765	277.25
243.998	258.25
244.232	251.25
244.465	248.25
244.699	272.25
244.932	252.25
245.166	310.25
245.399	299.25
245.633	274.25
245.866	278.25
246.099	286.25
246.333	266.25
246.566	302.25
246.8	300.25
247.033	333.25
247.266	312.25
247.5	310.25
247.733	333.25
247.966	327.25
248.2	353.25
248.433	353.25
248.666	365.25
248.899	406.25
249.133	411.25
249.366	453.25
249.599	389.25
249.832	354.25
250.066	345.25
250.299	371.25
250.532	333.25
250.765	331.25
250.998	345.25
251.231	333.25
251.465	345.25
251.698	346.25
251.931	341.25
252.164	350.25
252.397	358.25
252.63	342.25
252.863	314.25
253.096	319.25
253.329	335.25
253.562	366.25
253.795	372.25
254.028	349.25
254.261	337.25
254.494	339.25
254.727	334.25
254.96	341.25
255.193	387.25
255.426	393.25
255.659	440.25
255.892	424.25
256.124	391.25
256.357	394.25
256.59	402.25
256.823	403.25
257.056	417.25
257.289	467.25
257.521	507.25
257.754	460.25
257.987	432.25
258.22	462.25
258.452	456.25
258.685	387.25
258.918	382.25
259.151	395.25
259.383	379.25
259.616	345.25
259.849	377.25
260.081	413.25
260.314	449.25
260.547	481.25
260.779	469.25
261.012	427.25
261.244	395.25
261.477	386.25
261.71	389.25
261.942	408.25
262.175	396.25
262.407	412.25
262.64	370.25
262.872	366.25
263.105	380.25
263.337	371.25
263.57	375.25
263.802	360.25
264.035	353.25
264.267	341.25
264.499	323.25
264.732	376.25
264.964	387.25
265.197	387.25
265.429	405.25
265.661	459.25
265.894	479.25
266.126	477.25
266.358	458.25
266.591	466.25
266.823	477.25
267.055	463.25
267.287	448.25
267.52	451.25
267.752	460.25
267.984	451.25
268.216	467.25
268.448	463.25
268.681	445.25
268.913	419.25
269.145	410.25
269.377	389.25
269.609	456.25
269.841	540.25
270.073	573.25
270.306	597.25
270.538	588.25
270.77	527.25
271.002	478.25
271.234	463.25
271.466	489.25
271.698	514.25
271.93	579.25
272.162	597.25
272.394	563.25
272.626	497.25
272.858	468.25
273.09	398.25
273.322	388.25
273.553	374.25
273.785	395.25
274.017	399.25
274.249	420.25
274.481	431.25
274.713	409.25
274.945	411.25
275.176	422.25
275.408	400.25
275.64	396.25
275.872	387.25
276.104	452.25
276.335	509.25
276.567	538.25
276.799	489.25
277.031	479.25
277.262	467.25
277.494	493.25
277.726	525.25
277.957	501.25
278.189	445.25
278.421	434.25
278.652	447.25
278.884	429.25
279.115	462.25
279.347	444.25
279.579	466.25
279.81	457.25
280.042	472.25
280.273	539.25
280.505	515.25
280.736	494.25
280.968	464.25
281.199	432.25
281.431	424.25
281.662	427.25
281.894	422.25
282.125	430.25
282.356	466.25
282.588	459.25
282.819	476.25
283.051	481.25
283.282	504.25
283.513	501.25
283.745	417.25
283.976	414.25
284.207	428.25
284.439	440.25
284.67	441.25
284.901	453.25
285.132	449.25
285.364	473.25
285.595	438.25
285.826	423.25
286.057	427.25
286.288	438.25
286.52	467.25
286.751	469.25
286.982	499.25
287.213	458.25
287.444	427.25
287.675	433.25
287.906	470.25
288.138	488.25
288.369	457.25
288.6	447.25
288.831	434.25
289.062	450.25
289.293	464.25
289.524	462.25
289.755	465.25
289.986	461.25
290.217	429.25
290.448	457.25
290.679	450.25
290.91	451.25
291.141	453.25
291.371	487.25
291.602	476.25
291.833	477.25
292.064	494.25
292.295	478.25
292.526	482.25
292.757	508.25
292.987	475.25
293.218	458.25
293.449	520.25
293.68	541.25
293.91	585.25
294.141	547.25
294.372	538.25
294.603	566.25
294.833	571.25
295.064	541.25
295.295	497.25
295.525	459.25
295.756	428.25
295.987	465.25
296.217	464.25
296.448	450.25
296.679	470.25
296.909	469.25
297.14	466.25
297.37	470.25
297.601	510.25
297.831	520.25
298.062	532.25
298.292	480.25
298.523	463.25
298.753	466.25
298.984	493.25
299.214	477.25
299.445	483.25
299.675	490.25
299.905	503.25
300.136	473.25
300.366	475.25
300.597	474.25
300.827	473.25
301.057	491.25
301.288	504.25
301.518	497.25
301.748	545.25
301.979	572.25
302.209	569.25
302.439	563.25
302.669	577.25
302.9	541.25
303.13	513.25
303.36	503.25
303.59	499.25
303.82	511.25
304.051	520.25
304.281	520.25
304.511	543.25
304.741	563.25
304.971	592.25
305.201	628.25
305.431	543.25
305.661	499.25
305.891	478.25
306.121	450.25
306.352	461.25
306.582	498.25
306.812	533.25
307.042	568.25
307.272	561.25
307.502	590.25
307.731	607.25
307.961	620.25
308.191	577.25
308.421	515.25
308.651	497.25
308.881	508.25
309.111	499.25
309.341	493.25
309.571	500.25
309.8	505.25
310.03	497.25
310.26	510.25
310.49	505.25
310.72	485.25
310.949	521.25
311.179	536.25
311.409	526.25
311.639	511.25
311.868	514.25
312.098	487.25
312.328	509.25
312.557	523.25
312.787	520.25
313.017	510.25
313.246	515.25
313.476	523.25
313.706	553.25
313.935	502.25
314.165	560.25
314.394	563.25
314.624	606.25
314.853	609.25
315.083	601.25
315.312	618.25
315.542	558.25
315.771	566.25
316.001	583.25
316.23	565.25
316.46	581.25
316.689	553.25
316.919	513.25
317.148	506.25
317.377	534.25
317.607	579.25
317.836	639.25
318.065	630.25
318.295	586.25
318.524	595.25
318.753	577.25
318.983	567.25
319.212	542.25
319.441	535.25
319.67	540.25
319.9	546.25
320.129	582.25
320.358	642.25
320.587	620.25
320.816	594.25
321.046	612.25
321.275	592.25
321.504	594.25
321.733	620.25
321.962	588.25
322.191	561.25
322.42	557.25
322.649	564.25
322.878	558.25
323.108	547.25
323.337	585.25
323.566	553.25
323.795	584.25
324.024	580.25
324.253	568.25
324.482	575.25
324.71	549.25
324.939	545.25
325.168	552.25
325.397	562.25
325.626	567.25
325.855	567.25
326.084	557.25
326.313	563.25
326.542	579.25
326.77	598.25
326.999	582.25
327.228	545.25
327.457	519.25
327.686	542.25
327.914	567.25
328.143	549.25
328.372	562.25
328.6	567.25
328.829	554.25
329.058	539.25
329.287	536.25
329.515	572.25
329.744	585.25
329.972	599.25
330.201	607.25
330.43	606.25
330.658	587.25
330.887	595.25
331.115	577.25
331.344	580.25
331.572	590.25
331.801	609.25
332.03	588.25
332.258	586.25
332.486	600.25
332.715	614.25
332.943	610.25
333.172	601.25
333.4	582.25
333.629	619.25
333.857	669.25
334.085	739.25
334.314	788.25
334.542	853.25
334.771	744.25
334.999	686.25
335.227	631.25
335.455	649.25
335.684	635.25
335.912	658.25
336.14	664.25
336.369	631.25
336.597	605.25
336.825	609.25
337.053	622.25
337.281	665.25
337.51	683.25
337.738	696.25
337.966	652.25
338.194	619.25
338.422	585.25
338.65	601.25
338.878	575.25
339.106	578.25
339.334	580.25
339.562	551.25
339.79	577.25
340.018	638.25
340.246	639.25
340.474	628.25
340.702	630.25
340.93	619.25
341.158	606.25
341.386	610.25
341.614	604.25
341.842	595.25
342.07	583.25
342.298	603.25
342.526	609.25
342.754	591.25
342.981	570.25
343.209	572.25
343.437	599.25
343.665	610.25
343.893	632.25
344.12	659.25
344.348	633.25
344.576	600.25
344.804	585.25
345.031	597.25
345.259	597.25
345.487	591.25
345.714	539.25
345.942	544.25
346.17	596.25
346.397	579.25
346.625	568.25
346.853	550.25
347.08	525.25
347.308	539.25
347.535	566.25
347.763	573.25
347.99	574.25
348.218	539.25
348.445	563.25
348.673	575.25
348.9	579.25
349.128	592.25
349.355	614.25
349.583	615.25
349.81	565.25
350.037	547.25
350.265	535.25
350.492	549.25
350.72	569.25
350.947	595.25
351.174	590.25
351.402	561.25
351.629	553.25
351.856	519.25
352.083	529.25
352.311	523.25
352.538	548.25
352.765	577.25
352.992	595.25
353.22	554.25
353.447	534.25
353.674	565.25
353.901	559.25
354.128	550.25
354.355	584.25
354.583	591.25
354.81	583.25
355.037	587.25
355.264	582.25
355.491	589.25
355.718	569.25
355.945	575.25
356.172	545.25
356.399	559.25
356.626	556.25
356.853	585.25
357.08	649.25
357.307	689.25
357.534	653.25
357.761	601.25
357.988	582.25
358.215	551.25
358.441	557.25
358.668	538.25
358.895	543.25
359.122	599.25
359.349	642.25
359.576	617.25
359.802	579.25
360.029	544.25
360.256	541.25
360.483	548.25
360.709	576.25
360.936	622.25
361.163	663.25
361.39	689.25
361.616	711.25
361.843	708.25
362.07	664.25
362.296	579.25
362.523	561.25
362.749	562.25
362.976	595.25
363.203	581.25
363.429	553.25
363.656	555.25
363.882	593.25
364.109	649.25
364.335	662.25
364.562	645.25
364.788	627.25
365.015	563.25
365.241	554.25
365.468	574.25
365.694	625.25
365.92	635.25
366.147	595.25
366.373	544.25
366.599	565.25
366.826	573.25
367.052	573.25
367.278	594.25
367.505	579.25
367.731	603.25
367.957	591.25
368.184	642.25
368.41	650.25
368.636	679.25
368.862	683.25
369.089	661.25
369.315	647.25
369.541	611.25
369.767	613.25
369.993	595.25
370.219	613.25
370.445	610.25
370.672	693.25
370.898	675.25
371.124	648.25
371.35	641.25
371.576	650.25
371.802	654.25
372.028	635.25
372.254	633.25
372.48	606.25
372.706	609.25
372.932	612.25
373.158	607.25
373.384	635.25
373.61	642.25
373.835	676.25
374.061	647.25
374.287	633.25
374.513	625.25
374.739	614.25
374.965	643.25
375.191	641.25
375.416	628.25
375.642	646.25
375.868	717.25
376.094	720.25
376.319	675.25
376.545	661.25
376.771	678.25
376.997	696.25
377.222	674.25
377.448	656.25
377.674	669.25
377.899	678.25
378.125	729.25
378.35	691.25
378.576	644.25
378.802	623.25
379.027	627.25
379.253	635.25
379.478	636.25
379.704	621.25
379.929	647.25
380.155	661.25
380.38	656.25
380.606	656.25
380.831	648.25
381.057	712.25
381.282	699.25
381.507	702.25
381.733	751.25
381.958	714.25
382.184	693.25
382.409	677.25
382.634	672.25
382.86	688.25
383.085	695.25
383.31	720.25
383.535	793.25
383.761	790.25
383.986	789.25
384.211	732.25
384.436	751.25
384.662	757.25
384.887	763.25
385.112	750.25
385.337	751.25
385.562	735.25
385.787	724.25
386.013	738.25
386.238	762.25
386.463	753.25
386.688	827.25
386.913	850.25
387.138	845.25
387.363	767.25
387.588	771.25
387.813	750.25
388.038	779.25
388.263	810.25
388.488	793.25
388.713	716.25
388.938	729.25
389.163	732.25
389.387	734.25
389.612	756.25
389.837	789.25
390.062	762.25
390.287	769.25
390.512	763.25
390.736	752.25
390.961	724.25
391.186	705.25
391.411	723.25
391.636	759.25
391.86	759.25
392.085	745.25
392.31	743.25
392.534	751.25
392.759	759.25
392.984	771.25
393.208	770.25
393.433	804.25
393.658	831.25
393.882	834.25
394.107	777.25
394.331	779.25
394.556	793.25
394.78	787.25
395.005	823.25
395.229	837.25
395.454	887.25
395.678	866.25
395.903	823.25
396.127	817.25
396.352	821.25
396.576	830.25
396.801	862.25
397.025	825.25
397.249	828.25
397.474	845.25
397.698	835.25
397.922	860.25
398.147	871.25
398.371	898.25
398.595	876.25
398.82	861.25
399.044	878.25
399.268	931.25
399.492	967.25
399.717	969.25
399.941	1006.25
400.165	990.25
400.389	967.25
400.613	1001.25
400.837	1142.25
401.062	1196.25
401.286	1033.25
401.51	961.25
401.734	984.25
401.958	957.25
402.182	917.25
402.406	894.25
402.63	871.25
402.854	900.25
403.078	875.25
403.302	921.25
403.526	918.25
403.75	930.25
403.974	940.25
404.198	922.25
404.422	996.25
404.645	1030.25
404.869	959.25
405.093	933.25
405.317	896.25
405.541	932.25
405.765	921.25
405.988	922.25
406.212	955.25
406.436	951.25
406.66	1005.25
406.883	1035.25
407.107	1150.25
407.331	1237.25
407.555	1265.25
407.778	1108.25
408.002	976.25
408.226	985.25
408.449	988.25
408.673	942.25
408.896	968.25
409.12	935.25
409.344	937.25
409.567	938.25
409.791	959.25
410.014	961.25
410.238	1046.25
410.461	1039.25
410.685	954.25
410.908	947.25
411.132	979.25
411.355	918.25
411.578	934.25
411.802	934.25
412.025	931.25
412.249	937.25
412.472	915.25
412.695	904.25
412.919	910.25
413.142	927.25
413.365	919.25
413.589	952.25
413.812	976.25
414.035	972.25
414.258	929.25
414.482	919.25
414.705	949.25
414.928	926.25
415.151	923.25
415.374	934.25
415.597	926.25
415.821	933.25
416.044	957.25
416.267	963.25
416.49	909.25
416.713	884.25
416.936	955.25
417.159	968.25
417.382	940.25
417.605	947.25
417.828	921.25
418.051	965.25
418.274	939.25
418.497	905.25
418.72	914.25
418.943	913.25
419.166	938.25
419.389	987.25
419.611	934.25
419.834	917.25
420.057	945.25
420.28	935.25
420.503	955.25
420.726	939.25
420.948	957.25
421.171	916.25
421.394	908.25
421.617	956.25
421.839	987.25
422.062	990.25
422.285	934.25
422.507	953.25
422.73	893.25
422.953	862.25
423.175	858.25
423.398	928.25
423.621	921.25
423.843	941.25
424.066	973.25
424.288	1023.25
424.511	1034.25
424.733	1013.25
424.956	953.25
425.178	923.25
425.401	938.25
425.623	967.25
425.846	921.25
426.068	989.25
426.291	965.25
426.513	951.25
426.735	949.25
426.958	1037.25
427.18	1078.25
427.402	990.25
427.625	1024.25
427.847	973.25
428.069	935.25
428.292	896.25
428.514	897.25
428.736	863.25
428.958	917.25
429.181	939.25
429.403	1089.25
429.625	1227.25
429.847	1037.25
430.069	957.25
430.292	1046.25
430.514	1043.25
430.736	1007.25
430.958	974.25
431.18	917.25
431.402	873.25
431.624	876.25
431.846	796.25
432.068	727.25
432.29	735.25
432.512	809.25
432.734	881.25
432.956	945.25
433.178	971.25
433.4	935.25
433.622	931.25
433.844	895.25
434.066	852.25
434.287	785.25
434.509	794.25
434.731	839.25
434.953	888.25
435.175	941.25
435.397	889.25
435.618	875.25
435.84	837.25
436.062	853.25
436.284	890.25
436.505	933.25
436.727	950.25
436.949	937.25
437.17	886.25
437.392	868.25
437.614	845.25
437.835	789.25
438.057	804.25
438.278	844.25
438.5	863.25
438.721	879.25
438.943	909.25
439.165	925.25
439.386	919.25
439.608	972.25
439.829	939.25
440.05	983.25
440.272	952.25
440.493	951.25
440.715	983.25
440.936	1014.25
441.158	1053.25
441.379	1030.25
441.6	1033.25
441.822	1012.25
442.043	994.25
442.264	1010.25
442.486	950.25
442.707	949.25
442.928	938.25
443.149	956.25
443.371	995.25
443.592	1019.25
443.813	1021.25
444.034	1033.25
444.255	1022.25
444.476	1005.25
444.698	1042.25
444.919	1071.25
445.14	1160.25
445.361	1149.25
445.582	1057.25
445.803	1051.25
446.024	1038.25
446.245	1052.25
446.466	1068.25
446.687	1046.25
446.908	1056.25
447.129	1037.25
447.35	1013.25
447.571	998.25
447.792	945.25
448.013	967.25
448.234	956.25
448.455	987.25
448.675	965.25
448.896	916.25
449.117	897.25
449.338	947.25
449.559	936.25
449.779	953.25
450	1019.25
450.221	1041.25
450.442	1004.25
450.662	972.25
450.883	852.25
451.104	859.25
451.324	853.25
451.545	866.25
451.766	878.25
451.986	835.25
452.207	822.25
452.428	815.25
452.648	787.25
452.869	762.25
453.089	775.25
453.31	785.25
453.53	774.25
453.751	733.25
453.971	692.25
454.192	750.25
454.412	774.25
454.633	761.25
454.853	797.25
455.073	760.25
455.294	781.25
455.514	779.25
455.734	748.25
455.955	768.25
456.175	749.25
456.395	715.25
456.616	726.25
456.836	745.25
457.056	731.25
457.276	721.25
457.497	700.25
457.717	693.25
457.937	709.25
458.157	707.25
458.377	682.25
458.598	687.25
458.818	654.25
459.038	715.25
459.258	733.25
459.478	713.25
459.698	713.25
459.918	732.25
460.138	811.25
460.358	856.25
460.578	852.25
460.798	871.25
461.018	885.25
461.238	861.25
461.458	857.25
461.678	837.25
461.898	825.25
462.118	802.25
462.338	826.25
462.558	855.25
462.777	852.25
462.997	850.25
463.217	884.25
463.437	876.25
463.657	853.25
463.876	836.25
464.096	832.25
464.316	858.25
464.536	892.25
464.755	877.25
464.975	887.25
465.195	853.25
465.414	861.25
465.634	862.25
465.854	900.25
466.073	967.25
466.293	950.25
466.512	867.25
466.732	857.25
466.951	887.25
467.171	876.25
467.391	889.25
467.61	883.25
467.829	920.25
468.049	992.25
468.268	1040.25
468.488	964.25
468.707	955.25
468.927	901.25
469.146	913.25
469.365	920.25
469.585	894.25
469.804	930.25
470.023	945.25
470.243	920.25
470.462	938.25
470.681	937.25
470.901	939.25
471.12	930.25
471.339	935.25
471.558	906.25
471.777	903.25
471.997	895.25
472.216	832.25
472.435	789.25
472.654	773.25
472.873	798.25
473.092	834.25
473.311	806.25
473.53	802.25
473.749	838.25
473.968	843.25
474.187	859.25
474.406	855.25
474.625	840.25
474.844	889.25
475.063	872.25
475.282	862.25
475.501	819.25
475.72	865.25
475.939	913.25
476.158	889.25
476.377	884.25
476.596	870.25
476.814	845.25
477.033	821.25
477.252	846.25
477.471	911.25
477.69	929.25
477.908	916.25
478.127	979.25
478.346	1000.25
478.564	993.25
478.783	986.25
479.002	1053.25
479.22	1006.25
479.439	1051.25
479.658	1037.25
479.876	956.25
480.095	882.25
480.313	894.25
480.532	899.25
480.751	873.25
480.969	852.25
481.188	789.25
481.406	767.25
481.624	746.25
481.843	800.25
482.061	847.25
482.28	894.25
482.498	895.25
482.717	857.25
482.935	888.25
483.153	954.25
483.372	1046.25
483.59	1015.25
483.808	993.25
484.027	932.25
484.245	1014.25
484.463	1240.25
484.681	1285.25
484.9	1021.25
485.118	968.25
485.336	926.25
485.554	893.25
485.772	896.25
485.99	901.25
486.209	857.25
486.427	860.25
486.645	964.25
486.863	1031.25
487.081	1066.25
487.299	1011.25
487.517	1010.25
487.735	1076.25
487.953	1203.25
488.171	1206.25
488.389	1162.25
488.607	1077.25
488.825	1173.25
489.043	1095.25
489.261	993.25
489.479	1036.25
489.696	1045.25
489.914	1044.25
490.132	1051.25
490.35	1091.25
490.568	1167.25
490.786	1161.25
491.003	1151.25
491.221	1257.25
491.439	1310.25
491.657	1294.25
491.874	1377.25
492.092	1442.25
492.31	1513.25
492.527	1442.25
492.745	1373.25
492.963	1337.25
493.18	1292.25
493.398	1355.25
493.615	1304.25
493.833	1277.25
494.05	1213.25
494.268	1234.25
494.485	1230.25
494.703	1244.25
494.92	1210.25
495.138	1206.25
495.355	1238.25
495.573	1235.25
495.79	1281.25
496.008	1261.25
496.225	1231.25
496.442	1230.25
496.66	1207.25
496.877	1201.25
497.094	1225.25
497.312	1255.25
497.529	1201.25
497.746	1213.25
497.963	1268.25
498.181	1293.25
498.398	1267.25
498.615	1202.25
498.832	1166.25
499.049	1148.25
499.267	1180.25
499.484	1257.25
499.701	1366.25
499.918	1390.25
500.135	1470.25
500.352	1562.25
