Data from WStandard_LampEnergy10_LIBS07252019.E.O._I.C._HRD10591_15-54-00-928.txt Node
Date: Thu Jul 25 15:54:00 EDT 2019
User: cochatt
Spectrometer: HR+D1059
Trigger mode: 1
Integration Time (sec): 1.000000E-1
Scans to average: 1
Electric dark correction enabled: true
Nonlinearity correction enabled: false
Boxcar width: 0
XAxis mode: Wavelengths
Number of Pixels in Spectrum: 2048
>>>>>Begin Spectral Data<<<<<
223.165	-24.81
223.4	-24.81
223.635	-24.81
223.869	-12.81
224.104	-25.81
224.338	-13.81
224.573	-15.81
224.808	-29.81
225.042	-4.81
225.277	1.19
225.511	-1.81
225.746	0.19
225.98	10.19
226.215	17.19
226.449	10.19
226.683	35.19
226.918	19.19
227.152	36.19
227.387	34.19
227.621	36.19
227.856	29.19
228.09	49.19
228.324	42.19
228.559	40.19
228.793	76.19
229.027	132.19
229.262	152.19
229.496	147.19
229.73	167.19
229.964	160.19
230.199	164.19
230.433	175.19
230.667	189.19
230.901	200.19
231.136	182.19
231.37	168.19
231.604	161.19
231.838	194.19
232.072	193.19
232.306	175.19
232.541	188.19
232.775	203.19
233.009	194.19
233.243	217.19
233.477	202.19
233.711	208.19
233.945	197.19
234.179	194.19
234.413	203.19
234.647	198.19
234.881	198.19
235.115	196.19
235.349	196.19
235.583	189.19
235.817	195.19
236.051	211.19
236.285	193.19
236.519	208.19
236.753	240.19
236.987	237.19
237.221	214.19
237.455	239.19
237.689	227.19
237.922	220.19
238.156	223.19
238.39	232.19
238.624	223.19
238.858	253.19
239.091	249.19
239.325	269.19
239.559	300.19
239.793	288.19
240.027	293.19
240.26	302.19
240.494	246.19
240.728	235.19
240.961	233.19
241.195	255.19
241.429	277.19
241.662	258.19
241.896	245.19
242.13	254.19
242.363	287.19
242.597	287.19
242.83	277.19
243.064	272.19
243.298	274.19
243.531	284.19
243.765	309.19
243.998	288.19
244.232	255.19
244.465	264.19
244.699	262.19
244.932	270.19
245.166	314.19
245.399	314.19
245.633	296.19
245.866	295.19
246.099	294.19
246.333	290.19
246.566	308.19
246.8	322.19
247.033	327.19
247.266	317.19
247.5	339.19
247.733	326.19
247.966	335.19
248.2	374.19
248.433	361.19
248.666	380.19
248.899	392.19
249.133	436.19
249.366	476.19
249.599	408.19
249.832	389.19
250.066	383.19
250.299	379.19
250.532	359.19
250.765	326.19
250.998	358.19
251.231	367.19
251.465	354.19
251.698	350.19
251.931	339.19
252.164	361.19
252.397	350.19
252.63	356.19
252.863	347.19
253.096	346.19
253.329	326.19
253.562	344.19
253.795	354.19
254.028	382.19
254.261	344.19
254.494	354.19
254.727	338.19
254.96	358.19
255.193	375.19
255.426	419.19
255.659	463.19
255.892	461.19
256.124	407.19
256.357	382.19
256.59	398.19
256.823	409.19
257.056	446.19
257.289	489.19
257.521	510.19
257.754	462.19
257.987	464.19
258.22	487.19
258.452	455.19
258.685	406.19
258.918	402.19
259.151	398.19
259.383	396.19
259.616	347.19
259.849	356.19
260.081	406.19
260.314	456.19
260.547	475.19
260.779	491.19
261.012	441.19
261.244	408.19
261.477	404.19
261.71	404.19
261.942	397.19
262.175	409.19
262.407	414.19
262.64	384.19
262.872	375.19
263.105	371.19
263.337	365.19
263.57	372.19
263.802	380.19
264.035	350.19
264.267	340.19
264.499	351.19
264.732	389.19
264.964	383.19
265.197	398.19
265.429	420.19
265.661	447.19
265.894	495.19
266.126	502.19
266.358	487.19
266.591	472.19
266.823	507.19
267.055	458.19
267.287	484.19
267.52	459.19
267.752	444.19
267.984	451.19
268.216	468.19
268.448	484.19
268.681	471.19
268.913	424.19
269.145	446.19
269.377	424.19
269.609	446.19
269.841	512.19
270.073	593.19
270.306	662.19
270.538	631.19
270.77	542.19
271.002	500.19
271.234	459.19
271.466	496.19
271.698	554.19
271.93	622.19
272.162	606.19
272.394	547.19
272.626	518.19
272.858	482.19
273.09	413.19
273.322	422.19
273.553	412.19
273.785	396.19
274.017	419.19
274.249	448.19
274.481	439.19
274.713	416.19
274.945	421.19
275.176	438.19
275.408	424.19
275.64	406.19
275.872	422.19
276.104	442.19
276.335	487.19
276.567	540.19
276.799	520.19
277.031	491.19
277.262	489.19
277.494	505.19
277.726	540.19
277.957	494.19
278.189	478.19
278.421	464.19
278.652	440.19
278.884	410.19
279.115	449.19
279.347	442.19
279.579	430.19
279.81	457.19
280.042	493.19
280.273	515.19
280.505	501.19
280.736	524.19
280.968	478.19
281.199	427.19
281.431	440.19
281.662	416.19
281.894	438.19
282.125	414.19
282.356	474.19
282.588	464.19
282.819	483.19
283.051	523.19
283.282	525.19
283.513	510.19
283.745	454.19
283.976	435.19
284.207	414.19
284.439	456.19
284.67	442.19
284.901	453.19
285.132	450.19
285.364	462.19
285.595	464.19
285.826	455.19
286.057	475.19
286.288	456.19
286.52	474.19
286.751	512.19
286.982	498.19
287.213	486.19
287.444	444.19
287.675	448.19
287.906	477.19
288.138	511.19
288.369	460.19
288.6	469.19
288.831	452.19
289.062	444.19
289.293	461.19
289.524	464.19
289.755	472.19
289.986	456.19
290.217	431.19
290.448	459.19
290.679	468.19
290.91	467.19
291.141	475.19
291.371	498.19
291.602	504.19
291.833	482.19
292.064	495.19
292.295	477.19
292.526	514.19
292.757	509.19
292.987	489.19
293.218	495.19
293.449	544.19
293.68	562.19
293.91	589.19
294.141	568.19
294.372	577.19
294.603	567.19
294.833	576.19
295.064	543.19
295.295	487.19
295.525	474.19
295.756	477.19
295.987	438.19
296.217	451.19
296.448	466.19
296.679	465.19
296.909	460.19
297.14	464.19
297.37	502.19
297.601	507.19
297.831	545.19
298.062	539.19
298.292	485.19
298.523	450.19
298.753	469.19
298.984	467.19
299.214	485.19
299.445	483.19
299.675	522.19
299.905	498.19
300.136	469.19
300.366	483.19
300.597	463.19
300.827	504.19
301.057	499.19
301.288	503.19
301.518	518.19
301.748	542.19
301.979	558.19
302.209	571.19
302.439	594.19
302.669	593.19
302.9	568.19
303.13	514.19
303.36	518.19
303.59	522.19
303.82	528.19
304.051	512.19
304.281	531.19
304.511	544.19
304.741	569.19
304.971	602.19
305.201	619.19
305.431	568.19
305.661	493.19
305.891	454.19
306.121	476.19
306.352	482.19
306.582	523.19
306.812	549.19
307.042	589.19
307.272	593.19
307.502	592.19
307.731	649.19
307.961	636.19
308.191	604.19
308.421	524.19
308.651	524.19
308.881	518.19
309.111	527.19
309.341	486.19
309.571	500.19
309.8	489.19
310.03	473.19
310.26	494.19
310.49	514.19
310.72	521.19
310.949	546.19
311.179	524.19
311.409	536.19
311.639	511.19
311.868	515.19
312.098	522.19
312.328	508.19
312.557	496.19
312.787	531.19
313.017	555.19
313.246	543.19
313.476	526.19
313.706	535.19
313.935	554.19
314.165	547.19
314.394	570.19
314.624	568.19
314.853	630.19
315.083	650.19
315.312	619.19
315.542	580.19
315.771	536.19
316.001	556.19
316.23	584.19
316.46	566.19
316.689	566.19
316.919	546.19
317.148	543.19
317.377	531.19
317.607	572.19
317.836	615.19
318.065	650.19
318.295	629.19
318.524	587.19
318.753	572.19
318.983	551.19
319.212	582.19
319.441	581.19
319.67	557.19
319.9	583.19
320.129	612.19
320.358	614.19
320.587	625.19
320.816	618.19
321.046	616.19
321.275	608.19
321.504	582.19
321.733	634.19
321.962	584.19
322.191	564.19
322.42	547.19
322.649	541.19
322.878	565.19
323.108	570.19
323.337	571.19
323.566	567.19
323.795	582.19
324.024	575.19
324.253	582.19
324.482	581.19
324.71	525.19
324.939	532.19
325.168	568.19
325.397	559.19
325.626	572.19
325.855	581.19
326.084	583.19
326.313	575.19
326.542	546.19
326.77	582.19
326.999	569.19
327.228	563.19
327.457	538.19
327.686	542.19
327.914	565.19
328.143	587.19
328.372	600.19
328.6	554.19
328.829	546.19
329.058	550.19
329.287	543.19
329.515	574.19
329.744	608.19
329.972	644.19
330.201	629.19
330.43	603.19
330.658	586.19
330.887	605.19
331.115	584.19
331.344	593.19
331.572	611.19
331.801	585.19
332.03	607.19
332.258	620.19
332.486	633.19
332.715	617.19
332.943	606.19
333.172	582.19
333.4	593.19
333.629	634.19
333.857	695.19
334.085	754.19
334.314	816.19
334.542	844.19
334.771	785.19
334.999	713.19
335.227	674.19
335.455	654.19
335.684	610.19
335.912	665.19
336.14	651.19
336.369	629.19
336.597	628.19
336.825	624.19
337.053	654.19
337.281	674.19
337.51	720.19
337.738	703.19
337.966	668.19
338.194	618.19
338.422	588.19
338.65	599.19
338.878	592.19
339.106	581.19
339.334	559.19
339.562	575.19
339.79	591.19
340.018	649.19
340.246	632.19
340.474	627.19
340.702	628.19
340.93	618.19
341.158	626.19
341.386	609.19
341.614	613.19
341.842	614.19
342.07	623.19
342.298	598.19
342.526	619.19
342.754	584.19
342.981	591.19
343.209	613.19
343.437	600.19
343.665	612.19
343.893	620.19
344.12	647.19
344.348	650.19
344.576	652.19
344.804	606.19
345.031	621.19
345.259	611.19
345.487	562.19
345.714	546.19
345.942	560.19
346.17	565.19
346.397	598.19
346.625	571.19
346.853	564.19
347.08	542.19
347.308	569.19
347.535	589.19
347.763	589.19
347.99	550.19
348.218	552.19
348.445	570.19
348.673	602.19
348.9	600.19
349.128	622.19
349.355	620.19
349.583	611.19
349.81	581.19
350.037	549.19
350.265	550.19
350.492	534.19
350.72	556.19
350.947	552.19
351.174	586.19
351.402	556.19
351.629	539.19
351.856	524.19
352.083	540.19
352.311	567.19
352.538	557.19
352.765	600.19
352.992	577.19
353.22	575.19
353.447	547.19
353.674	546.19
353.901	577.19
354.128	562.19
354.355	568.19
354.583	607.19
354.81	574.19
355.037	614.19
355.264	591.19
355.491	588.19
355.718	571.19
355.945	560.19
356.172	566.19
356.399	550.19
356.626	558.19
356.853	583.19
357.08	653.19
357.307	669.19
357.534	659.19
357.761	591.19
357.988	559.19
358.215	547.19
358.441	555.19
358.668	555.19
358.895	556.19
359.122	628.19
359.349	638.19
359.576	616.19
359.802	579.19
360.029	564.19
360.256	563.19
360.483	576.19
360.709	590.19
360.936	628.19
361.163	646.19
361.39	711.19
361.616	706.19
361.843	702.19
362.07	638.19
362.296	581.19
362.523	559.19
362.749	579.19
362.976	598.19
363.203	597.19
363.429	570.19
363.656	574.19
363.882	620.19
364.109	667.19
364.335	679.19
364.562	644.19
364.788	607.19
365.015	582.19
365.241	588.19
365.468	606.19
365.694	604.19
365.92	640.19
366.147	608.19
366.373	565.19
366.599	558.19
366.826	582.19
367.052	582.19
367.278	543.19
367.505	606.19
367.731	605.19
367.957	615.19
368.184	657.19
368.41	661.19
368.636	675.19
368.862	680.19
369.089	676.19
369.315	655.19
369.541	612.19
369.767	607.19
369.993	585.19
370.219	614.19
370.445	603.19
370.672	655.19
370.898	671.19
371.124	655.19
371.35	640.19
371.576	661.19
371.802	657.19
372.028	636.19
372.254	622.19
372.48	613.19
372.706	607.19
372.932	614.19
373.158	646.19
373.384	629.19
373.61	632.19
373.835	676.19
374.061	636.19
374.287	636.19
374.513	651.19
374.739	626.19
374.965	644.19
375.191	662.19
375.416	680.19
375.642	678.19
375.868	720.19
376.094	696.19
376.319	685.19
376.545	630.19
376.771	675.19
376.997	710.19
377.222	700.19
377.448	686.19
377.674	674.19
377.899	697.19
378.125	713.19
378.35	697.19
378.576	643.19
378.802	635.19
379.027	631.19
379.253	649.19
379.478	637.19
379.704	670.19
379.929	662.19
380.155	669.19
380.38	675.19
380.606	659.19
380.831	673.19
381.057	723.19
381.282	700.19
381.507	694.19
381.733	748.19
381.958	759.19
382.184	672.19
382.409	680.19
382.634	699.19
382.86	686.19
383.085	703.19
383.31	739.19
383.535	822.19
383.761	806.19
383.986	767.19
384.211	724.19
384.436	733.19
384.662	797.19
384.887	802.19
385.112	740.19
385.337	775.19
385.562	739.19
385.787	741.19
386.013	761.19
386.238	788.19
386.463	755.19
386.688	847.19
386.913	846.19
387.138	804.19
387.363	818.19
387.588	790.19
387.813	780.19
388.038	789.19
388.263	804.19
388.488	758.19
388.713	734.19
388.938	726.19
389.163	755.19
389.387	733.19
389.612	776.19
389.837	758.19
390.062	762.19
390.287	770.19
390.512	735.19
390.736	759.19
390.961	750.19
391.186	727.19
391.411	744.19
391.636	746.19
391.86	746.19
392.085	749.19
392.31	741.19
392.534	785.19
392.759	784.19
392.984	772.19
393.208	783.19
393.433	796.19
393.658	854.19
393.882	830.19
394.107	775.19
394.331	778.19
394.556	792.19
394.78	796.19
395.005	811.19
395.229	834.19
395.454	867.19
395.678	878.19
395.903	846.19
396.127	821.19
396.352	832.19
396.576	853.19
396.801	872.19
397.025	851.19
397.249	815.19
397.474	838.19
397.698	824.19
397.922	864.19
398.147	901.19
398.371	917.19
398.595	892.19
398.82	883.19
399.044	891.19
399.268	926.19
399.492	1007.19
399.717	989.19
399.941	1007.19
400.165	1014.19
400.389	938.19
400.613	997.19
400.837	1133.19
401.062	1217.19
401.286	1041.19
401.51	990.19
401.734	991.19
401.958	926.19
402.182	904.19
402.406	856.19
402.63	870.19
402.854	896.19
403.078	911.19
403.302	933.19
403.526	930.19
403.75	959.19
403.974	955.19
404.198	955.19
404.422	980.19
404.645	1035.19
404.869	1005.19
405.093	934.19
405.317	907.19
405.541	920.19
405.765	910.19
405.988	925.19
406.212	967.19
406.436	957.19
406.66	1031.19
406.883	1050.19
407.107	1156.19
407.331	1206.19
407.555	1278.19
407.778	1114.19
408.002	996.19
408.226	974.19
408.449	984.19
408.673	922.19
408.896	971.19
409.12	958.19
409.344	947.19
409.567	939.19
409.791	970.19
410.014	987.19
410.238	1035.19
410.461	1083.19
410.685	969.19
410.908	964.19
411.132	954.19
411.355	912.19
411.578	937.19
411.802	921.19
412.025	990.19
412.249	929.19
412.472	919.19
412.695	934.19
412.919	903.19
413.142	927.19
413.365	940.19
413.589	971.19
413.812	1015.19
414.035	1019.19
414.258	968.19
414.482	940.19
414.705	930.19
414.928	933.19
415.151	932.19
415.374	944.19
415.597	955.19
415.821	946.19
416.044	943.19
416.267	946.19
416.49	916.19
416.713	934.19
416.936	932.19
417.159	1007.19
417.382	977.19
417.605	928.19
417.828	962.19
418.051	960.19
418.274	935.19
418.497	922.19
418.72	925.19
418.943	917.19
419.166	932.19
419.389	984.19
419.611	974.19
419.834	963.19
420.057	967.19
420.28	948.19
420.503	963.19
420.726	989.19
420.948	922.19
421.171	948.19
421.394	949.19
421.617	1003.19
421.839	1004.19
422.062	966.19
422.285	922.19
422.507	931.19
422.73	870.19
422.953	910.19
423.175	914.19
423.398	938.19
423.621	932.19
423.843	963.19
424.066	979.19
424.288	1068.19
424.511	1047.19
424.733	1030.19
424.956	953.19
425.178	926.19
425.401	939.19
425.623	971.19
425.846	954.19
426.068	983.19
426.291	970.19
426.513	944.19
426.735	954.19
426.958	1055.19
427.18	1100.19
427.402	1038.19
427.625	1034.19
427.847	997.19
428.069	941.19
428.292	927.19
428.514	882.19
428.736	909.19
428.958	915.19
429.181	937.19
429.403	1102.19
429.625	1258.19
429.847	1038.19
430.069	950.19
430.292	1054.19
430.514	1040.19
430.736	1038.19
430.958	990.19
431.18	909.19
431.402	897.19
431.624	894.19
431.846	814.19
432.068	742.19
432.29	764.19
432.512	806.19
432.734	896.19
432.956	931.19
433.178	982.19
433.4	997.19
433.622	942.19
433.844	928.19
434.066	876.19
434.287	822.19
434.509	790.19
434.731	846.19
434.953	912.19
435.175	938.19
435.397	914.19
435.618	894.19
435.84	830.19
436.062	866.19
436.284	908.19
436.505	937.19
436.727	954.19
436.949	927.19
437.17	905.19
437.392	898.19
437.614	875.19
437.835	793.19
438.057	828.19
438.278	847.19
438.5	880.19
438.721	926.19
438.943	932.19
439.165	942.19
439.386	927.19
439.608	948.19
439.829	954.19
440.05	965.19
440.272	985.19
440.493	950.19
440.715	984.19
440.936	1032.19
441.158	1064.19
441.379	1018.19
441.6	1044.19
441.822	1055.19
442.043	1045.19
442.264	1035.19
442.486	983.19
442.707	1004.19
442.928	974.19
443.149	990.19
443.371	1000.19
443.592	1045.19
443.813	1038.19
444.034	1017.19
444.255	1027.19
444.476	1040.19
444.698	1067.19
444.919	1076.19
445.14	1146.19
445.361	1093.19
445.582	1076.19
445.803	1072.19
446.024	1074.19
446.245	1088.19
446.466	1064.19
446.687	1018.19
446.908	1072.19
447.129	1050.19
447.35	1026.19
447.571	996.19
447.792	969.19
448.013	958.19
448.234	979.19
448.455	1017.19
448.675	998.19
448.896	930.19
449.117	907.19
449.338	983.19
449.559	976.19
449.779	956.19
450	1026.19
450.221	1059.19
450.442	1031.19
450.662	953.19
450.883	898.19
451.104	871.19
451.324	901.19
451.545	892.19
451.766	909.19
451.986	860.19
452.207	841.19
452.428	807.19
452.648	799.19
452.869	807.19
453.089	822.19
453.31	770.19
453.53	776.19
453.751	733.19
453.971	696.19
454.192	726.19
454.412	775.19
454.633	782.19
454.853	787.19
455.073	738.19
455.294	786.19
455.514	805.19
455.734	792.19
455.955	760.19
456.175	766.19
456.395	738.19
456.616	762.19
456.836	749.19
457.056	724.19
457.276	736.19
457.497	707.19
457.717	696.19
457.937	691.19
458.157	687.19
458.377	682.19
458.598	692.19
458.818	682.19
459.038	715.19
459.258	722.19
459.478	716.19
459.698	686.19
459.918	742.19
460.138	805.19
460.358	848.19
460.578	854.19
460.798	866.19
461.018	897.19
461.238	894.19
461.458	871.19
461.678	853.19
461.898	816.19
462.118	823.19
462.338	873.19
462.558	842.19
462.777	873.19
462.997	875.19
463.217	890.19
463.437	898.19
463.657	879.19
463.876	859.19
464.096	847.19
464.316	849.19
464.536	893.19
464.755	875.19
464.975	886.19
465.195	876.19
465.414	910.19
465.634	872.19
465.854	875.19
466.073	955.19
466.293	975.19
466.512	904.19
466.732	896.19
466.951	907.19
467.171	923.19
467.391	871.19
467.61	889.19
467.829	911.19
468.049	986.19
468.268	1038.19
468.488	971.19
468.707	950.19
468.927	920.19
469.146	896.19
469.365	950.19
469.585	935.19
469.804	930.19
470.023	916.19
470.243	962.19
470.462	960.19
470.681	964.19
470.901	942.19
471.12	928.19
471.339	958.19
471.558	932.19
471.777	912.19
471.997	930.19
472.216	870.19
472.435	797.19
472.654	772.19
472.873	802.19
473.092	838.19
473.311	841.19
473.53	834.19
473.749	843.19
473.968	841.19
474.187	845.19
474.406	868.19
474.625	877.19
474.844	895.19
475.063	901.19
475.282	868.19
475.501	824.19
475.72	862.19
475.939	909.19
476.158	906.19
476.377	867.19
476.596	862.19
476.814	836.19
477.033	840.19
477.252	850.19
477.471	894.19
477.69	943.19
477.908	936.19
478.127	1010.19
478.346	995.19
478.564	1042.19
478.783	1036.19
479.002	1037.19
479.22	1021.19
479.439	1052.19
479.658	1095.19
479.876	1002.19
480.095	925.19
480.313	908.19
480.532	911.19
480.751	852.19
480.969	850.19
481.188	797.19
481.406	794.19
481.624	782.19
481.843	792.19
482.061	822.19
482.28	896.19
482.498	912.19
482.717	847.19
482.935	914.19
483.153	968.19
483.372	1027.19
483.59	1008.19
483.808	987.19
484.027	940.19
484.245	999.19
484.463	1234.19
484.681	1355.19
484.9	1060.19
485.118	995.19
485.336	940.19
485.554	906.19
485.772	908.19
485.99	860.19
486.209	906.19
486.427	926.19
486.645	932.19
486.863	1015.19
487.081	1051.19
487.299	1012.19
487.517	1037.19
487.735	1115.19
487.953	1225.19
488.171	1179.19
488.389	1164.19
488.607	1105.19
488.825	1152.19
489.043	1074.19
489.261	1007.19
489.479	1065.19
489.696	1092.19
489.914	1077.19
490.132	1047.19
490.35	1097.19
490.568	1166.19
490.786	1167.19
491.003	1238.19
491.221	1284.19
491.439	1284.19
491.657	1341.19
491.874	1376.19
492.092	1446.19
492.31	1528.19
492.527	1458.19
492.745	1375.19
492.963	1349.19
493.18	1335.19
493.398	1372.19
493.615	1320.19
493.833	1296.19
494.05	1251.19
494.268	1236.19
494.485	1226.19
494.703	1216.19
494.92	1241.19
495.138	1248.19
495.355	1287.19
495.573	1285.19
495.79	1296.19
496.008	1290.19
496.225	1246.19
496.442	1241.19
496.66	1229.19
496.877	1215.19
497.094	1266.19
497.312	1250.19
497.529	1207.19
497.746	1207.19
497.963	1287.19
498.181	1326.19
498.398	1266.19
498.615	1206.19
498.832	1138.19
499.049	1136.19
499.267	1166.19
499.484	1247.19
499.701	1348.19
499.918	1403.19
500.135	1472.19
