Data from WStandard_LampEnergy8_LIBS07252019.E.O._I.C._HRD10591_15-58-42-929.txt Node
Date: Thu Jul 25 15:58:42 EDT 2019
User: cochatt
Spectrometer: HR+D1059
Trigger mode: 1
Integration Time (sec): 1.000000E-1
Scans to average: 1
Electric dark correction enabled: true
Nonlinearity correction enabled: false
Boxcar width: 0
XAxis mode: Wavelengths
Number of Pixels in Spectrum: 2048
>>>>>Begin Spectral Data<<<<<
223.165	-25.5
223.4	-25.5
223.635	-25.5
223.869	-24.5
224.104	-2.5
224.338	-20.5
224.573	-3.5
224.808	-3.5
225.042	-10.5
225.277	-10.5
225.511	1.5
225.746	10.5
225.98	9.5
226.215	6.5
226.449	11.5
226.683	16.5
226.918	18.5
227.152	26.5
227.387	45.5
227.621	39.5
227.856	42.5
228.09	41.5
228.324	42.5
228.559	64.5
228.793	107.5
229.027	213.5
229.262	216.5
229.496	208.5
229.73	214.5
229.964	229.5
230.199	248.5
230.433	251.5
230.667	268.5
230.901	266.5
231.136	262.5
231.37	261.5
231.604	275.5
231.838	286.5
232.072	263.5
232.306	261.5
232.541	281.5
232.775	313.5
233.009	333.5
233.243	315.5
233.477	305.5
233.711	276.5
233.945	317.5
234.179	311.5
234.413	310.5
234.647	351.5
234.881	329.5
235.115	281.5
235.349	306.5
235.583	291.5
235.817	292.5
236.051	306.5
236.285	301.5
236.519	331.5
236.753	342.5
236.987	363.5
237.221	358.5
237.455	378.5
237.689	371.5
237.922	366.5
238.156	334.5
238.39	360.5
238.624	374.5
238.858	409.5
239.091	386.5
239.325	435.5
239.559	467.5
239.793	494.5
240.027	521.5
240.26	485.5
240.494	411.5
240.728	377.5
240.961	379.5
241.195	378.5
241.429	412.5
241.662	417.5
241.896	382.5
242.13	379.5
242.363	463.5
242.597	471.5
242.83	454.5
243.064	447.5
243.298	466.5
243.531	458.5
243.765	441.5
243.998	454.5
244.232	406.5
244.465	410.5
244.699	421.5
244.932	462.5
245.166	529.5
245.399	486.5
245.633	448.5
245.866	475.5
246.099	480.5
246.333	489.5
246.566	503.5
246.8	534.5
247.033	539.5
247.266	530.5
247.5	543.5
247.733	541.5
247.966	545.5
248.2	598.5
248.433	605.5
248.666	621.5
248.899	673.5
249.133	761.5
249.366	812.5
249.599	701.5
249.832	612.5
250.066	620.5
250.299	613.5
250.532	593.5
250.765	558.5
250.998	579.5
251.231	589.5
251.465	586.5
251.698	588.5
251.931	595.5
252.164	617.5
252.397	604.5
252.63	616.5
252.863	554.5
253.096	537.5
253.329	561.5
253.562	606.5
253.795	627.5
254.028	612.5
254.261	581.5
254.494	574.5
254.727	565.5
254.96	589.5
255.193	636.5
255.426	710.5
255.659	795.5
255.892	781.5
256.124	667.5
256.357	651.5
256.59	689.5
256.823	696.5
257.056	719.5
257.289	829.5
257.521	868.5
257.754	808.5
257.987	769.5
258.22	850.5
258.452	813.5
258.685	663.5
258.918	681.5
259.151	675.5
259.383	645.5
259.616	598.5
259.849	613.5
260.081	670.5
260.314	771.5
260.547	827.5
260.779	842.5
261.012	780.5
261.244	688.5
261.477	661.5
261.71	699.5
261.942	696.5
262.175	657.5
262.407	693.5
262.64	673.5
262.872	628.5
263.105	606.5
263.337	639.5
263.57	631.5
263.802	648.5
264.035	625.5
264.267	576.5
264.499	563.5
264.732	622.5
264.964	655.5
265.197	679.5
265.429	709.5
265.661	773.5
265.894	839.5
266.126	846.5
266.358	787.5
266.591	820.5
266.823	870.5
267.055	787.5
267.287	793.5
267.52	780.5
267.752	740.5
267.984	740.5
268.216	794.5
268.448	825.5
268.681	785.5
268.913	709.5
269.145	701.5
269.377	695.5
269.609	765.5
269.841	889.5
270.073	1003.5
270.306	1082.5
270.538	1089.5
270.77	950.5
271.002	850.5
271.234	800.5
271.466	799.5
271.698	973.5
271.93	1045.5
272.162	1031.5
272.394	938.5
272.626	911.5
272.858	819.5
273.09	729.5
273.322	714.5
273.553	672.5
273.785	703.5
274.017	722.5
274.249	771.5
274.481	745.5
274.713	724.5
274.945	710.5
275.176	712.5
275.408	685.5
275.64	696.5
275.872	685.5
276.104	738.5
276.335	827.5
276.567	923.5
276.799	918.5
277.031	836.5
277.262	819.5
277.494	857.5
277.726	906.5
277.957	855.5
278.189	823.5
278.421	784.5
278.652	720.5
278.884	732.5
279.115	714.5
279.347	738.5
279.579	747.5
279.81	730.5
280.042	827.5
280.273	876.5
280.505	890.5
280.736	899.5
280.968	833.5
281.199	746.5
281.431	738.5
281.662	732.5
281.894	758.5
282.125	739.5
282.356	767.5
282.588	793.5
282.819	779.5
283.051	847.5
283.282	906.5
283.513	849.5
283.745	777.5
283.976	713.5
284.207	749.5
284.439	737.5
284.67	774.5
284.901	782.5
285.132	796.5
285.364	783.5
285.595	794.5
285.826	793.5
286.057	771.5
286.288	762.5
286.52	810.5
286.751	841.5
286.982	860.5
287.213	789.5
287.444	740.5
287.675	744.5
287.906	765.5
288.138	833.5
288.369	803.5
288.6	762.5
288.831	737.5
289.062	747.5
289.293	772.5
289.524	779.5
289.755	795.5
289.986	782.5
290.217	749.5
290.448	779.5
290.679	783.5
290.91	770.5
291.141	821.5
291.371	843.5
291.602	834.5
291.833	808.5
292.064	855.5
292.295	857.5
292.526	842.5
292.757	874.5
292.987	828.5
293.218	812.5
293.449	891.5
293.68	959.5
293.91	985.5
294.141	936.5
294.372	918.5
294.603	933.5
294.833	973.5
295.064	909.5
295.295	842.5
295.525	806.5
295.756	760.5
295.987	747.5
296.217	777.5
296.448	797.5
296.679	781.5
296.909	778.5
297.14	766.5
297.37	772.5
297.601	833.5
297.831	895.5
298.062	878.5
298.292	825.5
298.523	781.5
298.753	784.5
298.984	789.5
299.214	787.5
299.445	819.5
299.675	857.5
299.905	816.5
300.136	815.5
300.366	798.5
300.597	765.5
300.827	770.5
301.057	855.5
301.288	842.5
301.518	862.5
301.748	891.5
301.979	913.5
302.209	950.5
302.439	1004.5
302.669	1005.5
302.9	921.5
303.13	889.5
303.36	871.5
303.59	875.5
303.82	868.5
304.051	889.5
304.281	903.5
304.511	894.5
304.741	961.5
304.971	1039.5
305.201	1054.5
305.431	971.5
305.661	836.5
305.891	759.5
306.121	785.5
306.352	833.5
306.582	841.5
306.812	899.5
307.042	989.5
307.272	972.5
307.502	989.5
307.731	1063.5
307.961	1073.5
308.191	984.5
308.421	895.5
308.651	851.5
308.881	834.5
309.111	831.5
309.341	834.5
309.571	812.5
309.8	822.5
310.03	825.5
310.26	825.5
310.49	839.5
310.72	852.5
310.949	900.5
311.179	894.5
311.409	873.5
311.639	846.5
311.868	862.5
312.098	845.5
312.328	814.5
312.557	877.5
312.787	866.5
313.017	900.5
313.246	866.5
313.476	888.5
313.706	903.5
313.935	903.5
314.165	883.5
314.394	939.5
314.624	978.5
314.853	1045.5
315.083	1054.5
315.312	1048.5
315.542	976.5
315.771	921.5
316.001	915.5
316.23	942.5
316.46	989.5
316.689	923.5
316.919	893.5
317.148	892.5
317.377	902.5
317.607	966.5
317.836	1048.5
318.065	1069.5
318.295	1026.5
318.524	982.5
318.753	949.5
318.983	969.5
319.212	942.5
319.441	914.5
319.67	935.5
319.9	945.5
320.129	991.5
320.358	1011.5
320.587	1051.5
320.816	1021.5
321.046	1033.5
321.275	958.5
321.504	1004.5
321.733	1047.5
321.962	982.5
322.191	941.5
322.42	934.5
322.649	909.5
322.878	944.5
323.108	908.5
323.337	981.5
323.566	960.5
323.795	953.5
324.024	984.5
324.253	949.5
324.482	952.5
324.71	928.5
324.939	907.5
325.168	883.5
325.397	946.5
325.626	976.5
325.855	917.5
326.084	937.5
326.313	935.5
326.542	957.5
326.77	972.5
326.999	966.5
327.228	961.5
327.457	901.5
327.686	909.5
327.914	903.5
328.143	931.5
328.372	905.5
328.6	922.5
328.829	933.5
329.058	866.5
329.287	921.5
329.515	919.5
329.744	966.5
329.972	1033.5
330.201	1038.5
330.43	1002.5
330.658	962.5
330.887	1003.5
331.115	989.5
331.344	947.5
331.572	977.5
331.801	965.5
332.03	971.5
332.258	1033.5
332.486	1037.5
332.715	1012.5
332.943	1024.5
333.172	967.5
333.4	978.5
333.629	1037.5
333.857	1105.5
334.085	1182.5
334.314	1363.5
334.542	1441.5
334.771	1313.5
334.999	1197.5
335.227	1095.5
335.455	1035.5
335.684	1064.5
335.912	1101.5
336.14	1106.5
336.369	1045.5
336.597	1029.5
336.825	994.5
337.053	1029.5
337.281	1133.5
337.51	1193.5
337.738	1157.5
337.966	1101.5
338.194	1013.5
338.422	963.5
338.65	989.5
338.878	985.5
339.106	910.5
339.334	936.5
339.562	927.5
339.79	958.5
340.018	1016.5
340.246	1044.5
340.474	1046.5
340.702	1026.5
340.93	1060.5
341.158	1036.5
341.386	1035.5
341.614	979.5
341.842	984.5
342.07	982.5
342.298	986.5
342.526	1007.5
342.754	941.5
342.981	989.5
343.209	965.5
343.437	964.5
343.665	975.5
343.893	1034.5
344.12	1061.5
344.348	1062.5
344.576	1039.5
344.804	994.5
345.031	1006.5
345.259	963.5
345.487	942.5
345.714	917.5
345.942	897.5
346.17	900.5
346.397	932.5
346.625	919.5
346.853	863.5
347.08	893.5
347.308	911.5
347.535	944.5
347.763	949.5
347.99	928.5
348.218	910.5
348.445	915.5
348.673	945.5
348.9	964.5
349.128	975.5
349.355	1012.5
349.583	1000.5
349.81	928.5
350.037	874.5
350.265	854.5
350.492	875.5
350.72	899.5
350.947	937.5
351.174	962.5
351.402	886.5
351.629	879.5
351.856	889.5
352.083	860.5
352.311	884.5
352.538	894.5
352.765	952.5
352.992	962.5
353.22	930.5
353.447	910.5
353.674	930.5
353.901	923.5
354.128	899.5
354.355	933.5
354.583	964.5
354.81	964.5
355.037	966.5
355.264	1000.5
355.491	956.5
355.718	949.5
355.945	932.5
356.172	901.5
356.399	917.5
356.626	924.5
356.853	949.5
357.08	1033.5
357.307	1119.5
357.534	1073.5
357.761	953.5
357.988	883.5
358.215	917.5
358.441	890.5
358.668	894.5
358.895	912.5
359.122	991.5
359.349	1044.5
359.576	1024.5
359.802	942.5
360.029	891.5
360.256	889.5
360.483	914.5
360.709	960.5
360.936	989.5
361.163	1008.5
361.39	1100.5
361.616	1151.5
361.843	1131.5
362.07	1063.5
362.296	958.5
362.523	912.5
362.749	940.5
362.976	946.5
363.203	972.5
363.429	933.5
363.656	896.5
363.882	968.5
364.109	1070.5
364.335	1078.5
364.562	1003.5
364.788	974.5
365.015	946.5
365.241	908.5
365.468	955.5
365.694	998.5
365.92	1009.5
366.147	976.5
366.373	905.5
366.599	906.5
366.826	907.5
367.052	920.5
367.278	922.5
367.505	940.5
367.731	976.5
367.957	969.5
368.184	1019.5
368.41	1096.5
368.636	1077.5
368.862	1078.5
369.089	1028.5
369.315	1022.5
369.541	949.5
369.767	953.5
369.993	919.5
370.219	929.5
370.445	982.5
370.672	1037.5
370.898	1081.5
371.124	1041.5
371.35	996.5
371.576	1039.5
371.802	1056.5
372.028	1011.5
372.254	973.5
372.48	957.5
372.706	934.5
372.932	950.5
373.158	969.5
373.384	993.5
373.61	1025.5
373.835	1054.5
374.061	1013.5
374.287	998.5
374.513	1013.5
374.739	976.5
374.965	1010.5
375.191	1040.5
375.416	1021.5
375.642	1037.5
375.868	1082.5
376.094	1105.5
376.319	1062.5
376.545	1007.5
376.771	1034.5
376.997	1107.5
377.222	1066.5
377.448	1073.5
377.674	1045.5
377.899	1068.5
378.125	1101.5
378.35	1051.5
378.576	1011.5
378.802	956.5
379.027	956.5
379.253	973.5
379.478	999.5
379.704	983.5
379.929	1000.5
380.155	984.5
380.38	1001.5
380.606	1025.5
380.831	999.5
381.057	1066.5
381.282	1052.5
381.507	1062.5
381.733	1119.5
381.958	1153.5
382.184	1057.5
382.409	1026.5
382.634	1054.5
382.86	1002.5
383.085	1032.5
383.31	1109.5
383.535	1192.5
383.761	1231.5
383.986	1149.5
384.211	1115.5
384.436	1126.5
384.662	1190.5
384.887	1201.5
385.112	1128.5
385.337	1131.5
385.562	1140.5
385.787	1151.5
386.013	1182.5
386.238	1187.5
386.463	1205.5
386.688	1242.5
386.913	1319.5
387.138	1249.5
387.363	1199.5
387.588	1158.5
387.813	1185.5
388.038	1178.5
388.263	1216.5
388.488	1151.5
388.713	1068.5
388.938	1099.5
389.163	1112.5
389.387	1118.5
389.612	1123.5
389.837	1130.5
390.062	1119.5
390.287	1147.5
390.512	1155.5
390.736	1110.5
390.961	1080.5
391.186	1096.5
391.411	1088.5
391.636	1116.5
391.86	1102.5
392.085	1114.5
392.31	1109.5
392.534	1147.5
392.759	1165.5
392.984	1118.5
393.208	1151.5
393.433	1217.5
393.658	1225.5
393.882	1279.5
394.107	1165.5
394.331	1144.5
394.556	1120.5
394.78	1187.5
395.005	1186.5
395.229	1237.5
395.454	1335.5
395.678	1301.5
395.903	1206.5
396.127	1215.5
396.352	1229.5
396.576	1266.5
396.801	1261.5
397.025	1245.5
397.249	1187.5
397.474	1226.5
397.698	1220.5
397.922	1241.5
398.147	1344.5
398.371	1421.5
398.595	1338.5
398.82	1309.5
399.044	1361.5
399.268	1375.5
399.492	1461.5
399.717	1447.5
399.941	1498.5
400.165	1444.5
400.389	1435.5
400.613	1483.5
400.837	1693.5
401.062	1789.5
401.286	1549.5
401.51	1477.5
401.734	1479.5
401.958	1397.5
402.182	1337.5
402.406	1325.5
402.63	1322.5
402.854	1305.5
403.078	1319.5
403.302	1336.5
403.526	1342.5
403.75	1338.5
403.974	1364.5
404.198	1373.5
404.422	1451.5
404.645	1493.5
404.869	1403.5
405.093	1337.5
405.317	1302.5
405.541	1311.5
405.765	1362.5
405.988	1369.5
406.212	1394.5
406.436	1404.5
406.66	1452.5
406.883	1518.5
407.107	1659.5
407.331	1816.5
407.555	1886.5
407.778	1692.5
408.002	1443.5
408.226	1408.5
408.449	1425.5
408.673	1379.5
408.896	1386.5
409.12	1444.5
409.344	1407.5
409.567	1361.5
409.791	1361.5
410.014	1417.5
410.238	1483.5
410.461	1537.5
410.685	1369.5
410.908	1356.5
411.132	1367.5
411.355	1372.5
411.578	1368.5
411.802	1355.5
412.025	1394.5
412.249	1366.5
412.472	1316.5
412.695	1312.5
412.919	1308.5
413.142	1279.5
413.365	1313.5
413.589	1319.5
413.812	1446.5
414.035	1439.5
414.258	1338.5
414.482	1277.5
414.705	1354.5
414.928	1319.5
415.151	1278.5
415.374	1323.5
415.597	1350.5
415.821	1350.5
416.044	1332.5
416.267	1318.5
416.49	1269.5
416.713	1281.5
416.936	1290.5
417.159	1381.5
417.382	1374.5
417.605	1319.5
417.828	1312.5
418.051	1327.5
418.274	1284.5
418.497	1293.5
418.72	1285.5
418.943	1283.5
419.166	1353.5
419.389	1405.5
419.611	1338.5
419.834	1297.5
420.057	1321.5
420.28	1305.5
420.503	1295.5
420.726	1329.5
420.948	1307.5
421.171	1266.5
421.394	1314.5
421.617	1327.5
421.839	1326.5
422.062	1343.5
422.285	1268.5
422.507	1296.5
422.73	1268.5
422.953	1231.5
423.175	1252.5
423.398	1282.5
423.621	1299.5
423.843	1281.5
424.066	1339.5
424.288	1409.5
424.511	1417.5
424.733	1355.5
424.956	1243.5
425.178	1221.5
425.401	1258.5
425.623	1306.5
425.846	1281.5
426.068	1333.5
426.291	1364.5
426.513	1337.5
426.735	1336.5
426.958	1434.5
427.18	1494.5
427.402	1368.5
427.625	1440.5
427.847	1397.5
428.069	1260.5
428.292	1252.5
428.514	1243.5
428.736	1244.5
428.958	1238.5
429.181	1259.5
429.403	1507.5
429.625	1812.5
429.847	1453.5
430.069	1360.5
430.292	1466.5
430.514	1469.5
430.736	1321.5
430.958	1409.5
431.18	1307.5
431.402	1213.5
431.624	1223.5
431.846	1180.5
432.068	1161.5
432.29	1165.5
432.512	1187.5
432.734	1254.5
432.956	1313.5
433.178	1360.5
433.4	1311.5
433.622	1333.5
433.844	1265.5
434.066	1194.5
434.287	1213.5
434.509	1205.5
434.731	1267.5
434.953	1380.5
435.175	1333.5
435.397	1305.5
435.618	1263.5
435.84	1249.5
436.062	1207.5
436.284	1253.5
436.505	1288.5
436.727	1326.5
436.949	1270.5
437.17	1230.5
437.392	1234.5
437.614	1203.5
437.835	1161.5
438.057	1239.5
438.278	1267.5
438.5	1225.5
438.721	1236.5
438.943	1228.5
439.165	1247.5
439.386	1234.5
439.608	1256.5
439.829	1258.5
440.05	1248.5
440.272	1251.5
440.493	1245.5
440.715	1293.5
440.936	1378.5
441.158	1438.5
441.379	1427.5
441.6	1375.5
441.822	1357.5
442.043	1330.5
442.264	1322.5
442.486	1241.5
442.707	1283.5
442.928	1269.5
443.149	1298.5
443.371	1317.5
443.592	1391.5
443.813	1388.5
444.034	1364.5
444.255	1343.5
444.476	1423.5
444.698	1397.5
444.919	1397.5
445.14	1465.5
445.361	1444.5
445.582	1443.5
445.803	1399.5
446.024	1382.5
446.245	1431.5
446.466	1409.5
446.687	1315.5
446.908	1332.5
447.129	1301.5
447.35	1352.5
447.571	1292.5
447.792	1287.5
448.013	1253.5
448.234	1297.5
448.455	1332.5
448.675	1313.5
448.896	1209.5
449.117	1184.5
449.338	1247.5
449.559	1295.5
449.779	1299.5
450	1438.5
450.221	1493.5
450.442	1454.5
450.662	1285.5
450.883	1169.5
451.104	1166.5
451.324	1201.5
451.545	1219.5
451.766	1179.5
451.986	1127.5
452.207	1143.5
452.428	1130.5
452.648	1093.5
452.869	1105.5
453.089	1162.5
453.31	1135.5
453.53	1150.5
453.751	1151.5
453.971	1061.5
454.192	1100.5
454.412	1154.5
454.633	1140.5
454.853	1084.5
455.073	1061.5
455.294	1082.5
455.514	1059.5
455.734	1085.5
455.955	1097.5
456.175	1075.5
456.395	1070.5
456.616	1100.5
456.836	1123.5
457.056	1118.5
457.276	1051.5
457.497	1068.5
457.717	1036.5
457.937	1067.5
458.157	1057.5
458.377	1030.5
458.598	1027.5
458.818	1076.5
459.038	1124.5
459.258	1141.5
459.478	1156.5
459.698	1141.5
459.918	1177.5
460.138	1211.5
460.358	1263.5
460.578	1253.5
460.798	1277.5
461.018	1346.5
461.238	1316.5
461.458	1301.5
461.678	1246.5
461.898	1239.5
462.118	1222.5
462.338	1233.5
462.558	1254.5
462.777	1292.5
462.997	1299.5
463.217	1373.5
463.437	1345.5
463.657	1298.5
463.876	1251.5
464.096	1270.5
464.316	1277.5
464.536	1308.5
464.755	1277.5
464.975	1318.5
465.195	1260.5
465.414	1320.5
465.634	1306.5
465.854	1301.5
466.073	1437.5
466.293	1334.5
466.512	1185.5
466.732	1196.5
466.951	1246.5
467.171	1229.5
467.391	1179.5
467.61	1184.5
467.829	1214.5
468.049	1332.5
468.268	1459.5
468.488	1351.5
468.707	1256.5
468.927	1239.5
469.146	1222.5
469.365	1204.5
469.585	1253.5
469.804	1191.5
470.023	1228.5
470.243	1237.5
470.462	1220.5
470.681	1223.5
470.901	1229.5
471.12	1239.5
471.339	1217.5
471.558	1205.5
471.777	1176.5
471.997	1222.5
472.216	1165.5
472.435	1121.5
472.654	1143.5
472.873	1172.5
473.092	1231.5
473.311	1189.5
473.53	1133.5
473.749	1141.5
473.968	1180.5
474.187	1209.5
474.406	1246.5
474.625	1205.5
474.844	1209.5
475.063	1226.5
475.282	1222.5
475.501	1217.5
475.72	1209.5
475.939	1298.5
476.158	1259.5
476.377	1187.5
476.596	1242.5
476.814	1236.5
477.033	1187.5
477.252	1237.5
477.471	1287.5
477.69	1282.5
477.908	1282.5
478.127	1353.5
478.346	1461.5
478.564	1415.5
478.783	1396.5
479.002	1455.5
479.22	1437.5
479.439	1474.5
479.658	1574.5
479.876	1491.5
480.095	1390.5
480.313	1331.5
480.532	1312.5
480.751	1320.5
480.969	1272.5
481.188	1288.5
481.406	1282.5
481.624	1240.5
481.843	1266.5
482.061	1281.5
482.28	1339.5
482.498	1343.5
482.717	1281.5
482.935	1311.5
483.153	1341.5
483.372	1368.5
483.59	1385.5
483.808	1370.5
484.027	1374.5
484.245	1444.5
484.463	1748.5
484.681	1863.5
484.9	1463.5
485.118	1382.5
485.336	1327.5
485.554	1357.5
485.772	1418.5
485.99	1374.5
486.209	1401.5
486.427	1365.5
486.645	1409.5
486.863	1443.5
487.081	1462.5
487.299	1476.5
487.517	1482.5
487.735	1475.5
487.953	1536.5
488.171	1511.5
488.389	1465.5
488.607	1453.5
488.825	1650.5
489.043	1542.5
489.261	1437.5
489.479	1464.5
489.696	1472.5
489.914	1451.5
490.132	1439.5
490.35	1428.5
490.568	1538.5
490.786	1525.5
491.003	1482.5
491.221	1535.5
491.439	1585.5
491.657	1596.5
491.874	1647.5
492.092	1667.5
492.31	1681.5
492.527	1714.5
492.745	1614.5
492.963	1608.5
493.18	1636.5
493.398	1755.5
493.615	1722.5
493.833	1565.5
494.05	1579.5
494.268	1547.5
494.485	1543.5
494.703	1574.5
494.92	1542.5
495.138	1546.5
495.355	1549.5
495.573	1574.5
495.79	1675.5
496.008	1669.5
496.225	1590.5
496.442	1618.5
496.66	1613.5
496.877	1607.5
497.094	1653.5
497.312	1645.5
497.529	1664.5
497.746	1684.5
497.963	1871.5
498.181	1951.5
498.398	1935.5
498.615	1874.5
498.832	1765.5
499.049	1759.5
499.267	1761.5
499.484	1880.5
499.701	2009.5
499.918	2059.5
500.135	2226.5
500.352	2367.5
500.569	2363.5
500.786	2518.5
501.003	2289.5
501.22	2121.5
501.437	2061.5
501.654	2121.5
501.871	1989.5
502.088	1790.5
502.305	1795.5
502.522	1723.5
502.739	1598.5
502.956	1600.5
503.172	1596.5
503.389	1516.5
503.606	1461.5
503.823	1477.5
504.04	1476.5
504.256	1480.5
504.473	1505.5
504.69	1505.5
504.907	1459.5
505.123	1415.5
505.34	1532.5
505.557	2034.5
505.773	1649.5
505.99	1418.5
506.207	1305.5
506.423	1297.5
506.64	1291.5
506.856	1326.5
507.073	1507.5
507.289	1615.5
507.506	1514.5
507.722	1323.5
507.939	1252.5
508.155	1223.5
508.372	1265.5
508.588	1201.5
508.805	1175.5
509.021	1148.5
509.238	1183.5
509.454	1143.5
509.67	1160.5
509.887	1141.5
