Data from WStandard_LampEnergy5.5LIBS07252019.E.O._I.C._HRD10591_16-07-28-920.txt Node
Date: Thu Jul 25 16:07:28 EDT 2019
User: cochatt
Spectrometer: HR+D1059
Trigger mode: 1
Integration Time (sec): 1.000000E-1
Scans to average: 1
Electric dark correction enabled: true
Nonlinearity correction enabled: false
Boxcar width: 0
XAxis mode: Wavelengths
Number of Pixels in Spectrum: 2048
>>>>>Begin Spectral Data<<<<<
223.165	-8.81
223.4	-8.81
223.635	-8.81
223.869	-19.81
224.104	-14.81
224.338	-22.81
224.573	-18.81
224.808	-1.81
225.042	-10.81
225.277	-0.81
225.511	4.19
225.746	-1.81
225.98	-2.81
226.215	8.19
226.449	18.19
226.683	27.19
226.918	26.19
227.152	19.19
227.387	30.19
227.621	36.19
227.856	41.19
228.09	40.19
228.324	45.19
228.559	56.19
228.793	155.19
229.027	364.19
229.262	393.19
229.496	404.19
229.73	408.19
229.964	441.19
230.199	488.19
230.433	488.19
230.667	514.19
230.901	536.19
231.136	498.19
231.37	478.19
231.604	462.19
231.838	489.19
232.072	477.19
232.306	457.19
232.541	485.19
232.775	574.19
233.009	613.19
233.243	583.19
233.477	551.19
233.711	558.19
233.945	572.19
234.179	560.19
234.413	614.19
234.647	690.19
234.881	594.19
235.115	544.19
235.349	546.19
235.583	574.19
235.817	586.19
236.051	548.19
236.285	550.19
236.519	600.19
236.753	664.19
236.987	715.19
237.221	674.19
237.455	773.19
237.689	731.19
237.922	687.19
238.156	664.19
238.39	671.19
238.624	698.19
238.858	761.19
239.091	809.19
239.325	822.19
239.559	950.19
239.793	1009.19
240.027	1074.19
240.26	1082.19
240.494	788.19
240.728	766.19
240.961	747.19
241.195	778.19
241.429	858.19
241.662	846.19
241.896	759.19
242.13	809.19
242.363	845.19
242.597	948.19
242.83	920.19
243.064	917.19
243.298	1012.19
243.531	967.19
243.765	925.19
243.998	959.19
244.232	857.19
244.465	790.19
244.699	798.19
244.932	922.19
245.166	1070.19
245.399	1004.19
245.633	916.19
245.866	926.19
246.099	934.19
246.333	992.19
246.566	992.19
246.8	1080.19
247.033	1184.19
247.266	1089.19
247.5	1088.19
247.733	1078.19
247.966	1136.19
248.2	1296.19
248.433	1220.19
248.666	1264.19
248.899	1363.19
249.133	1560.19
249.366	1822.19
249.599	1490.19
249.832	1297.19
250.066	1340.19
250.299	1346.19
250.532	1266.19
250.765	1117.19
250.998	1181.19
251.231	1223.19
251.465	1294.19
251.698	1230.19
251.931	1212.19
252.164	1248.19
252.397	1297.19
252.63	1303.19
252.863	1135.19
253.096	1112.19
253.329	1202.19
253.562	1236.19
253.795	1334.19
254.028	1350.19
254.261	1248.19
254.494	1192.19
254.727	1124.19
254.96	1193.19
255.193	1322.19
255.426	1457.19
255.659	1708.19
255.892	1733.19
256.124	1426.19
256.357	1364.19
256.59	1465.19
256.823	1477.19
257.056	1447.19
257.289	1791.19
257.521	1973.19
257.754	1742.19
257.987	1665.19
258.22	1840.19
258.452	1794.19
258.685	1446.19
258.918	1399.19
259.151	1443.19
259.383	1397.19
259.616	1225.19
259.849	1267.19
260.081	1408.19
260.314	1596.19
260.547	1744.19
260.779	1793.19
261.012	1671.19
261.244	1477.19
261.477	1396.19
261.71	1469.19
261.942	1459.19
262.175	1419.19
262.407	1518.19
262.64	1432.19
262.872	1326.19
263.105	1260.19
263.337	1344.19
263.57	1312.19
263.802	1346.19
264.035	1255.19
264.267	1194.19
264.499	1190.19
264.732	1248.19
264.964	1332.19
265.197	1408.19
265.429	1454.19
265.661	1677.19
265.894	1796.19
266.126	1865.19
266.358	1631.19
266.591	1725.19
266.823	1826.19
267.055	1669.19
267.287	1638.19
267.52	1652.19
267.752	1601.19
267.984	1637.19
268.216	1687.19
268.448	1735.19
268.681	1696.19
268.913	1549.19
269.145	1486.19
269.377	1453.19
269.609	1544.19
269.841	1826.19
270.073	2140.19
270.306	2346.19
270.538	2563.19
270.77	2110.19
271.002	1794.19
271.234	1731.19
271.466	1686.19
271.698	1914.19
271.93	2292.19
272.162	2317.19
272.394	2055.19
272.626	1967.19
272.858	1714.19
273.09	1515.19
273.322	1472.19
273.553	1400.19
273.785	1432.19
274.017	1501.19
274.249	1585.19
274.481	1614.19
274.713	1477.19
274.945	1446.19
275.176	1473.19
275.408	1474.19
275.64	1435.19
275.872	1407.19
276.104	1521.19
276.335	1679.19
276.567	1946.19
276.799	1968.19
277.031	1789.19
277.262	1630.19
277.494	1721.19
277.726	1889.19
277.957	1930.19
278.189	1720.19
278.421	1570.19
278.652	1522.19
278.884	1525.19
279.115	1544.19
279.347	1556.19
279.579	1477.19
279.81	1483.19
280.042	1661.19
280.273	1816.19
280.505	1816.19
280.736	1893.19
280.968	1763.19
281.199	1539.19
281.431	1524.19
281.662	1508.19
281.894	1468.19
282.125	1512.19
282.356	1582.19
282.588	1602.19
282.819	1610.19
283.051	1729.19
283.282	1842.19
283.513	1789.19
283.745	1547.19
283.976	1448.19
284.207	1469.19
284.439	1536.19
284.67	1520.19
284.901	1587.19
285.132	1598.19
285.364	1568.19
285.595	1588.19
285.826	1567.19
286.057	1580.19
286.288	1529.19
286.52	1596.19
286.751	1741.19
286.982	1825.19
287.213	1665.19
287.444	1502.19
287.675	1495.19
287.906	1596.19
288.138	1673.19
288.369	1658.19
288.6	1553.19
288.831	1496.19
289.062	1528.19
289.293	1552.19
289.524	1562.19
289.755	1626.19
289.986	1596.19
290.217	1478.19
290.448	1518.19
290.679	1574.19
290.91	1576.19
291.141	1612.19
291.371	1653.19
291.602	1699.19
291.833	1635.19
292.064	1694.19
292.295	1673.19
292.526	1696.19
292.757	1781.19
292.987	1700.19
293.218	1608.19
293.449	1722.19
293.68	1922.19
293.91	2100.19
294.141	1951.19
294.372	1850.19
294.603	1874.19
294.833	1983.19
295.064	1862.19
295.295	1683.19
295.525	1677.19
295.756	1549.19
295.987	1438.19
296.217	1494.19
296.448	1517.19
296.679	1577.19
296.909	1554.19
297.14	1495.19
297.37	1499.19
297.601	1646.19
297.831	1753.19
298.062	1808.19
298.292	1642.19
298.523	1570.19
298.753	1546.19
298.984	1608.19
299.214	1609.19
299.445	1614.19
299.675	1671.19
299.905	1694.19
300.136	1640.19
300.366	1584.19
300.597	1513.19
300.827	1510.19
301.057	1561.19
301.288	1684.19
301.518	1684.19
301.748	1679.19
301.979	1766.19
302.209	1784.19
302.439	1938.19
302.669	1998.19
302.9	1850.19
303.13	1674.19
303.36	1705.19
303.59	1731.19
303.82	1742.19
304.051	1677.19
304.281	1706.19
304.511	1670.19
304.741	1765.19
304.971	1959.19
305.201	2145.19
305.431	1995.19
305.661	1656.19
305.891	1461.19
306.121	1488.19
306.352	1559.19
306.582	1613.19
306.812	1722.19
307.042	1850.19
307.272	1867.19
307.502	1921.19
307.731	2082.19
307.961	2229.19
308.191	2041.19
308.421	1750.19
308.651	1625.19
308.881	1600.19
309.111	1652.19
309.341	1606.19
309.571	1604.19
309.8	1641.19
310.03	1592.19
310.26	1590.19
310.49	1639.19
310.72	1646.19
310.949	1732.19
311.179	1713.19
311.409	1706.19
311.639	1685.19
311.868	1650.19
312.098	1638.19
312.328	1630.19
312.557	1637.19
312.787	1625.19
313.017	1699.19
313.246	1708.19
313.476	1694.19
313.706	1765.19
313.935	1690.19
314.165	1719.19
314.394	1752.19
314.624	1890.19
314.853	1932.19
315.083	2063.19
315.312	2104.19
315.542	1962.19
315.771	1755.19
316.001	1749.19
316.23	1848.19
316.46	1843.19
316.689	1829.19
316.919	1739.19
317.148	1615.19
317.377	1664.19
317.607	1787.19
317.836	1994.19
318.065	2118.19
318.295	2045.19
318.524	1919.19
318.753	1850.19
318.983	1824.19
319.212	1814.19
319.441	1778.19
319.67	1754.19
319.9	1809.19
320.129	1907.19
320.358	1957.19
320.587	2025.19
320.816	1980.19
321.046	1976.19
321.275	1825.19
321.504	1831.19
321.733	2021.19
321.962	1948.19
322.191	1770.19
322.42	1806.19
322.649	1785.19
322.878	1753.19
323.108	1784.19
323.337	1845.19
323.566	1814.19
323.795	1861.19
324.024	1840.19
324.253	1808.19
324.482	1808.19
324.71	1780.19
324.939	1708.19
325.168	1730.19
325.397	1762.19
325.626	1800.19
325.855	1808.19
326.084	1760.19
326.313	1763.19
326.542	1802.19
326.77	1849.19
326.999	1855.19
327.228	1838.19
327.457	1672.19
327.686	1653.19
327.914	1704.19
328.143	1802.19
328.372	1754.19
328.6	1777.19
328.829	1762.19
329.058	1743.19
329.287	1743.19
329.515	1796.19
329.744	1806.19
329.972	1881.19
330.201	1982.19
330.43	1938.19
330.658	1871.19
330.887	1886.19
331.115	1876.19
331.344	1836.19
331.572	1892.19
331.801	1839.19
332.03	1839.19
332.258	1889.19
332.486	1893.19
332.715	1952.19
332.943	1925.19
333.172	1869.19
333.4	1866.19
333.629	1940.19
333.857	2046.19
334.085	2256.19
334.314	2548.19
334.542	2786.19
334.771	2593.19
334.999	2256.19
335.227	2143.19
335.455	2002.19
335.684	1984.19
335.912	2014.19
336.14	2096.19
336.369	2059.19
336.597	1940.19
336.825	1875.19
337.053	1953.19
337.281	2074.19
337.51	2133.19
337.738	2246.19
337.966	2168.19
338.194	1922.19
338.422	1873.19
338.65	1848.19
338.878	1865.19
339.106	1816.19
339.334	1772.19
339.562	1738.19
339.79	1811.19
340.018	1891.19
340.246	1980.19
340.474	1997.19
340.702	1926.19
340.93	1929.19
341.158	1911.19
341.386	1862.19
341.614	1908.19
341.842	1856.19
342.07	1829.19
342.298	1898.19
342.526	1852.19
342.754	1837.19
342.981	1758.19
343.209	1855.19
343.437	1842.19
343.665	1844.19
343.893	1938.19
344.12	1983.19
344.348	2018.19
344.576	1909.19
344.804	1848.19
345.031	1831.19
345.259	1842.19
345.487	1798.19
345.714	1720.19
345.942	1721.19
346.17	1685.19
346.397	1757.19
346.625	1765.19
346.853	1697.19
347.08	1641.19
347.308	1646.19
347.535	1690.19
347.763	1772.19
347.99	1753.19
348.218	1656.19
348.445	1666.19
348.673	1713.19
348.9	1758.19
349.128	1802.19
349.355	1892.19
349.583	1809.19
349.81	1738.19
350.037	1649.19
350.265	1604.19
350.492	1626.19
350.72	1674.19
350.947	1703.19
351.174	1820.19
351.402	1694.19
351.629	1610.19
351.856	1593.19
352.083	1610.19
352.311	1620.19
352.538	1645.19
352.765	1752.19
352.992	1790.19
353.22	1672.19
353.447	1686.19
353.674	1693.19
353.901	1720.19
354.128	1666.19
354.355	1638.19
354.583	1737.19
354.81	1744.19
355.037	1726.19
355.264	1762.19
355.491	1680.19
355.718	1761.19
355.945	1690.19
356.172	1660.19
356.399	1617.19
356.626	1636.19
356.853	1665.19
357.08	1813.19
357.307	2000.19
357.534	2062.19
357.761	1821.19
357.988	1664.19
358.215	1597.19
358.441	1630.19
358.668	1623.19
358.895	1616.19
359.122	1717.19
359.349	1920.19
359.576	1908.19
359.802	1709.19
360.029	1647.19
360.256	1600.19
360.483	1642.19
360.709	1697.19
360.936	1765.19
361.163	1805.19
361.39	1994.19
361.616	2158.19
361.843	2113.19
362.07	1959.19
362.296	1727.19
362.523	1676.19
362.749	1687.19
362.976	1728.19
363.203	1716.19
363.429	1677.19
363.656	1667.19
363.882	1676.19
364.109	1855.19
364.335	2030.19
364.562	1885.19
364.788	1829.19
365.015	1709.19
365.241	1678.19
365.468	1679.19
365.694	1782.19
365.92	1836.19
366.147	1781.19
366.373	1637.19
366.599	1636.19
366.826	1649.19
367.052	1634.19
367.278	1686.19
367.505	1664.19
367.731	1720.19
367.957	1718.19
368.184	1793.19
368.41	1879.19
368.636	1887.19
368.862	1876.19
369.089	1928.19
369.315	1887.19
369.541	1786.19
369.767	1716.19
369.993	1666.19
370.219	1692.19
370.445	1696.19
370.672	1772.19
370.898	1902.19
371.124	1932.19
371.35	1808.19
371.576	1832.19
371.802	1884.19
372.028	1822.19
372.254	1741.19
372.48	1689.19
372.706	1705.19
372.932	1675.19
373.158	1720.19
373.384	1768.19
373.61	1789.19
373.835	1897.19
374.061	1792.19
374.287	1753.19
374.513	1762.19
374.739	1779.19
374.965	1799.19
375.191	1803.19
375.416	1822.19
375.642	1815.19
375.868	1913.19
376.094	1999.19
376.319	1924.19
376.545	1795.19
376.771	1808.19
376.997	1894.19
377.222	1893.19
377.448	1810.19
377.674	1833.19
377.899	1806.19
378.125	1916.19
378.35	1948.19
378.576	1804.19
378.802	1723.19
379.027	1719.19
379.253	1769.19
379.478	1802.19
379.704	1785.19
379.929	1745.19
380.155	1769.19
380.38	1785.19
380.606	1840.19
380.831	1765.19
381.057	1896.19
381.282	1885.19
381.507	1876.19
381.733	1966.19
381.958	2073.19
382.184	1905.19
382.409	1827.19
382.634	1906.19
382.86	1849.19
383.085	1879.19
383.31	1885.19
383.535	2010.19
383.761	2171.19
383.986	2079.19
384.211	2010.19
384.436	2014.19
384.662	2076.19
384.887	2150.19
385.112	2058.19
385.337	2072.19
385.562	2023.19
385.787	2018.19
386.013	2063.19
386.238	2108.19
386.463	2071.19
386.688	2163.19
386.913	2319.19
387.138	2322.19
387.363	2116.19
387.588	2120.19
387.813	2060.19
388.038	2139.19
388.263	2153.19
388.488	2108.19
388.713	1938.19
388.938	1933.19
389.163	1941.19
389.387	1951.19
389.612	1987.19
389.837	2040.19
390.062	2029.19
390.287	2037.19
390.512	2017.19
390.736	2000.19
390.961	1973.19
391.186	1929.19
391.411	1965.19
391.636	1964.19
391.86	2024.19
392.085	1998.19
392.31	1988.19
392.534	2013.19
392.759	2052.19
392.984	2033.19
393.208	2076.19
393.433	2080.19
393.658	2146.19
393.882	2220.19
394.107	2027.19
394.331	2017.19
394.556	1992.19
394.78	2063.19
395.005	2092.19
395.229	2160.19
395.454	2322.19
395.678	2350.19
395.903	2240.19
396.127	2124.19
396.352	2128.19
396.576	2201.19
396.801	2255.19
397.025	2231.19
397.249	2196.19
397.474	2171.19
397.698	2163.19
397.922	2245.19
398.147	2308.19
398.371	2413.19
398.595	2400.19
398.82	2338.19
399.044	2368.19
399.268	2458.19
399.492	2616.19
399.717	2737.19
399.941	2777.19
400.165	2680.19
400.389	2584.19
400.613	2599.19
400.837	2796.19
401.062	3259.19
401.286	2772.19
401.51	2540.19
401.734	2672.19
401.958	2596.19
402.182	2379.19
402.406	2300.19
402.63	2313.19
402.854	2293.19
403.078	2346.19
403.302	2393.19
403.526	2384.19
403.75	2440.19
403.974	2448.19
404.198	2384.19
404.422	2481.19
404.645	2585.19
404.869	2597.19
405.093	2395.19
405.317	2352.19
405.541	2445.19
405.765	2452.19
405.988	2406.19
406.212	2444.19
406.436	2533.19
406.66	2568.19
406.883	2530.19
407.107	2890.19
407.331	3159.19
407.555	3358.19
407.778	3132.19
408.002	2668.19
408.226	2541.19
408.449	2537.19
408.673	2446.19
408.896	2455.19
409.12	2537.19
409.344	2443.19
409.567	2328.19
409.791	2400.19
410.014	2474.19
410.238	2517.19
410.461	2724.19
410.685	2465.19
410.908	2340.19
411.132	2434.19
411.355	2366.19
411.578	2311.19
411.802	2376.19
412.025	2425.19
412.249	2348.19
412.472	2301.19
412.695	2272.19
412.919	2263.19
413.142	2279.19
413.365	2272.19
413.589	2364.19
413.812	2469.19
414.035	2522.19
414.258	2355.19
414.482	2285.19
414.705	2294.19
414.928	2294.19
415.151	2262.19
415.374	2313.19
415.597	2304.19
415.821	2308.19
416.044	2416.19
416.267	2422.19
416.49	2240.19
416.713	2169.19
416.936	2281.19
417.159	2348.19
417.382	2339.19
417.605	2249.19
417.828	2293.19
418.051	2378.19
418.274	2308.19
418.497	2204.19
418.72	2200.19
418.943	2233.19
419.166	2356.19
419.389	2466.19
419.611	2308.19
419.834	2206.19
420.057	2307.19
420.28	2202.19
420.503	2186.19
420.726	2253.19
420.948	2260.19
421.171	2177.19
421.394	2224.19
421.617	2321.19
421.839	2304.19
422.062	2242.19
422.285	2186.19
422.507	2185.19
422.73	2148.19
422.953	2145.19
423.175	2120.19
423.398	2213.19
423.621	2224.19
423.843	2200.19
424.066	2261.19
424.288	2322.19
424.511	2321.19
424.733	2320.19
424.956	2120.19
425.178	2088.19
425.401	2193.19
425.623	2132.19
425.846	2117.19
426.068	2247.19
426.291	2351.19
426.513	2284.19
426.735	2259.19
426.958	2413.19
427.18	2560.19
427.402	2332.19
427.625	2408.19
427.847	2444.19
428.069	2256.19
428.292	2164.19
428.514	2109.19
428.736	2108.19
428.958	2130.19
429.181	2131.19
429.403	2393.19
429.625	2988.19
429.847	2656.19
430.069	2241.19
430.292	2375.19
430.514	2483.19
430.736	2323.19
430.958	2432.19
431.18	2304.19
431.402	2192.19
431.624	2106.19
431.846	2135.19
432.068	2066.19
432.29	2098.19
432.512	2172.19
432.734	2188.19
432.956	2251.19
433.178	2349.19
433.4	2306.19
433.622	2314.19
433.844	2209.19
434.066	2118.19
434.287	2154.19
434.509	2210.19
434.731	2286.19
434.953	2458.19
435.175	2387.19
435.397	2279.19
435.618	2288.19
435.84	2242.19
436.062	2254.19
436.284	2257.19
436.505	2285.19
436.727	2278.19
436.949	2249.19
437.17	2173.19
437.392	2147.19
437.614	2180.19
437.835	2098.19
438.057	2214.19
438.278	2317.19
438.5	2229.19
438.721	2100.19
438.943	2162.19
439.165	2145.19
439.386	2099.19
439.608	2069.19
439.829	2129.19
440.05	2152.19
440.272	2080.19
440.493	2059.19
440.715	2127.19
440.936	2274.19
441.158	2485.19
441.379	2423.19
441.6	2352.19
441.822	2316.19
442.043	2265.19
442.264	2220.19
442.486	2144.19
442.707	2121.19
442.928	2095.19
443.149	2194.19
443.371	2374.19
443.592	2433.19
443.813	2344.19
444.034	2356.19
444.255	2340.19
444.476	2434.19
444.698	2416.19
444.919	2445.19
445.14	2470.19
445.361	2508.19
445.582	2558.19
445.803	2455.19
446.024	2304.19
446.245	2475.19
446.466	2373.19
446.687	2228.19
446.908	2246.19
447.129	2151.19
447.35	2179.19
447.571	2220.19
447.792	2107.19
448.013	2081.19
448.234	2172.19
448.455	2252.19
448.675	2237.19
448.896	2019.19
449.117	2037.19
449.338	2144.19
449.559	2145.19
449.779	2279.19
450	2517.19
450.221	2754.19
450.442	2621.19
450.662	2312.19
450.883	2056.19
451.104	2004.19
451.324	2049.19
451.545	2167.19
451.766	2090.19
451.986	1964.19
452.207	1972.19
452.428	1879.19
452.648	1872.19
452.869	1984.19
453.089	2064.19
453.31	2102.19
453.53	2192.19
453.751	2051.19
453.971	1972.19
454.192	2003.19
454.412	2137.19
454.633	2102.19
454.853	2049.19
455.073	1870.19
455.294	1845.19
455.514	1892.19
455.734	1851.19
455.955	1913.19
456.175	1929.19
456.395	1917.19
456.616	1982.19
456.836	1982.19
457.056	1941.19
457.276	1981.19
457.497	1937.19
457.717	1827.19
457.937	1865.19
458.157	1931.19
458.377	1892.19
458.598	1888.19
458.818	1902.19
459.038	2038.19
459.258	2209.19
459.478	2146.19
459.698	2107.19
459.918	2208.19
460.138	2264.19
460.358	2293.19
460.578	2265.19
460.798	2419.19
461.018	2520.19
461.238	2370.19
461.458	2267.19
461.678	2319.19
461.898	2290.19
462.118	2159.19
462.338	2301.19
462.558	2329.19
462.777	2303.19
462.997	2393.19
463.217	2551.19
463.437	2532.19
463.657	2354.19
463.876	2262.19
464.096	2301.19
464.316	2263.19
464.536	2395.19
464.755	2342.19
464.975	2437.19
465.195	2345.19
465.414	2466.19
465.634	2451.19
465.854	2312.19
466.073	2408.19
466.293	2429.19
466.512	2128.19
466.732	2102.19
466.951	2173.19
467.171	2164.19
467.391	2094.19
467.61	2015.19
467.829	2064.19
468.049	2239.19
468.268	2496.19
468.488	2380.19
468.707	2244.19
468.927	2113.19
469.146	2086.19
469.365	2067.19
469.585	2110.19
469.804	2048.19
470.023	2058.19
470.243	2110.19
470.462	2071.19
470.681	2026.19
470.901	2124.19
471.12	2089.19
471.339	2058.19
471.558	2066.19
471.777	2003.19
471.997	2071.19
472.216	2032.19
472.435	2002.19
472.654	2026.19
472.873	2096.19
473.092	2233.19
473.311	2140.19
473.53	2022.19
473.749	1994.19
473.968	2087.19
474.187	2203.19
474.406	2266.19
474.625	2131.19
474.844	2090.19
475.063	2086.19
475.282	2184.19
475.501	2136.19
475.72	2116.19
475.939	2201.19
476.158	2200.19
476.377	2102.19
476.596	2144.19
476.814	2190.19
477.033	2230.19
477.252	2276.19
477.471	2344.19
477.69	2220.19
477.908	2241.19
478.127	2318.19
478.346	2531.19
478.564	2600.19
478.783	2498.19
479.002	2588.19
479.22	2501.19
479.439	2596.19
479.658	2929.19
479.876	2887.19
480.095	2564.19
480.313	2467.19
480.532	2366.19
480.751	2419.19
480.969	2454.19
481.188	2361.19
481.406	2346.19
481.624	2259.19
481.843	2342.19
482.061	2377.19
482.28	2428.19
482.498	2464.19
482.717	2406.19
482.935	2336.19
483.153	2338.19
483.372	2358.19
483.59	2292.19
483.808	2344.19
484.027	2397.19
484.245	2531.19
484.463	2945.19
484.681	3385.19
484.9	2612.19
485.118	2395.19
485.336	2394.19
485.554	2442.19
485.772	2590.19
485.99	2549.19
486.209	2532.19
486.427	2473.19
486.645	2520.19
486.863	2478.19
487.081	2528.19
487.299	2617.19
