Data from WStandard_LampEnergy8_LIBS07252019.E.O._I.C._HRD10591_16-00-39-929.txt Node
Date: Thu Jul 25 16:00:39 EDT 2019
User: cochatt
Spectrometer: HR+D1059
Trigger mode: 1
Integration Time (sec): 1.000000E-1
Scans to average: 1
Electric dark correction enabled: true
Nonlinearity correction enabled: false
Boxcar width: 0
XAxis mode: Wavelengths
Number of Pixels in Spectrum: 2048
>>>>>Begin Spectral Data<<<<<
223.165	-20.94
223.4	-20.94
223.635	-20.94
223.869	-10.94
224.104	-16.94
224.338	-11.94
224.573	-10.94
224.808	-9.94
225.042	-12.94
225.277	-13.94
225.511	-2.94
225.746	4.06
225.98	9.06
226.215	5.06
226.449	13.06
226.683	19.06
226.918	33.06
227.152	28.06
227.387	39.06
227.621	27.06
227.856	47.06
228.09	54.06
228.324	57.06
228.559	45.06
228.793	105.06
229.027	198.06
229.262	209.06
229.496	207.06
229.73	214.06
229.964	237.06
230.199	267.06
230.433	264.06
230.667	273.06
230.901	280.06
231.136	269.06
231.37	254.06
231.604	249.06
231.838	251.06
232.072	258.06
232.306	261.06
232.541	251.06
232.775	295.06
233.009	306.06
233.243	309.06
233.477	276.06
233.711	294.06
233.945	287.06
234.179	269.06
234.413	321.06
234.647	322.06
234.881	307.06
235.115	281.06
235.349	303.06
235.583	299.06
235.817	302.06
236.051	289.06
236.285	305.06
236.519	313.06
236.753	341.06
236.987	345.06
237.221	355.06
237.455	385.06
237.689	362.06
237.922	342.06
238.156	343.06
238.39	349.06
238.624	360.06
238.858	373.06
239.091	388.06
239.325	404.06
239.559	447.06
239.793	472.06
240.027	489.06
240.26	456.06
240.494	358.06
240.728	359.06
240.961	363.06
241.195	399.06
241.429	403.06
241.662	390.06
241.896	363.06
242.13	378.06
242.363	421.06
242.597	453.06
242.83	443.06
243.064	423.06
243.298	466.06
243.531	450.06
243.765	459.06
243.998	454.06
244.232	398.06
244.465	390.06
244.699	403.06
244.932	442.06
245.166	499.06
245.399	490.06
245.633	431.06
245.866	442.06
246.099	442.06
246.333	461.06
246.566	478.06
246.8	523.06
247.033	543.06
247.266	522.06
247.5	506.06
247.733	504.06
247.966	554.06
248.2	575.06
248.433	571.06
248.666	599.06
248.899	633.06
249.133	707.06
249.366	771.06
249.599	655.06
249.832	575.06
250.066	622.06
250.299	606.06
250.532	551.06
250.765	524.06
250.998	553.06
251.231	561.06
251.465	563.06
251.698	574.06
251.931	547.06
252.164	553.06
252.397	585.06
252.63	591.06
252.863	539.06
253.096	519.06
253.329	544.06
253.562	561.06
253.795	617.06
254.028	588.06
254.261	543.06
254.494	542.06
254.727	533.06
254.96	569.06
255.193	609.06
255.426	678.06
255.659	743.06
255.892	746.06
256.124	637.06
256.357	619.06
256.59	663.06
256.823	685.06
257.056	691.06
257.289	797.06
257.521	871.06
257.754	755.06
257.987	734.06
258.22	789.06
258.452	775.06
258.685	645.06
258.918	631.06
259.151	615.06
259.383	608.06
259.616	565.06
259.849	626.06
260.081	674.06
260.314	728.06
260.547	769.06
260.779	792.06
261.012	726.06
261.244	680.06
261.477	637.06
261.71	655.06
261.942	665.06
262.175	637.06
262.407	690.06
262.64	643.06
262.872	598.06
263.105	616.06
263.337	602.06
263.57	614.06
263.802	617.06
264.035	553.06
264.267	573.06
264.499	557.06
264.732	606.06
264.964	641.06
265.197	637.06
265.429	682.06
265.661	734.06
265.894	807.06
266.126	807.06
266.358	753.06
266.591	774.06
266.823	825.06
267.055	751.06
267.287	750.06
267.52	726.06
267.752	747.06
267.984	728.06
268.216	765.06
268.448	810.06
268.681	775.06
268.913	720.06
269.145	665.06
269.377	649.06
269.609	734.06
269.841	867.06
270.073	975.06
270.306	1051.06
270.538	1066.06
270.77	926.06
271.002	794.06
271.234	793.06
271.466	786.06
271.698	890.06
271.93	1025.06
272.162	997.06
272.394	911.06
272.626	881.06
272.858	775.06
273.09	683.06
273.322	667.06
273.553	647.06
273.785	665.06
274.017	695.06
274.249	712.06
274.481	699.06
274.713	692.06
274.945	671.06
275.176	671.06
275.408	666.06
275.64	650.06
275.872	672.06
276.104	745.06
276.335	805.06
276.567	872.06
276.799	871.06
277.031	807.06
277.262	757.06
277.494	805.06
277.726	885.06
277.957	856.06
278.189	797.06
278.421	739.06
278.652	689.06
278.884	705.06
279.115	691.06
279.347	703.06
279.579	681.06
279.81	684.06
280.042	790.06
280.273	849.06
280.505	863.06
280.736	859.06
280.968	813.06
281.199	706.06
281.431	693.06
281.662	706.06
281.894	724.06
282.125	721.06
282.356	768.06
282.588	751.06
282.819	751.06
283.051	771.06
283.282	852.06
283.513	837.06
283.745	727.06
283.976	713.06
284.207	691.06
284.439	724.06
284.67	736.06
284.901	769.06
285.132	745.06
285.364	717.06
285.595	722.06
285.826	742.06
286.057	718.06
286.288	733.06
286.52	787.06
286.751	817.06
286.982	831.06
287.213	765.06
287.444	725.06
287.675	712.06
287.906	773.06
288.138	804.06
288.369	798.06
288.6	760.06
288.831	723.06
289.062	730.06
289.293	750.06
289.524	730.06
289.755	777.06
289.986	780.06
290.217	682.06
290.448	715.06
290.679	729.06
290.91	782.06
291.141	795.06
291.371	787.06
291.602	825.06
291.833	802.06
292.064	825.06
292.295	827.06
292.526	831.06
292.757	821.06
292.987	799.06
293.218	790.06
293.449	831.06
293.68	932.06
293.91	948.06
294.141	907.06
294.372	875.06
294.603	922.06
294.833	966.06
295.064	897.06
295.295	789.06
295.525	787.06
295.756	734.06
295.987	726.06
296.217	747.06
296.448	760.06
296.679	744.06
296.909	757.06
297.14	745.06
297.37	771.06
297.601	820.06
297.831	867.06
298.062	853.06
298.292	790.06
298.523	773.06
298.753	769.06
298.984	746.06
299.214	762.06
299.445	801.06
299.675	822.06
299.905	777.06
300.136	776.06
300.366	742.06
300.597	740.06
300.827	753.06
301.057	787.06
301.288	826.06
301.518	832.06
301.748	848.06
301.979	877.06
302.209	907.06
302.439	898.06
302.669	949.06
302.9	907.06
303.13	825.06
303.36	831.06
303.59	804.06
303.82	828.06
304.051	858.06
304.281	841.06
304.511	867.06
304.741	890.06
304.971	1001.06
305.201	1031.06
305.431	917.06
305.661	783.06
305.891	747.06
306.121	759.06
306.352	770.06
306.582	830.06
306.812	883.06
307.042	933.06
307.272	921.06
307.502	950.06
307.731	981.06
307.961	1051.06
308.191	970.06
308.421	857.06
308.651	811.06
308.881	798.06
309.111	777.06
309.341	829.06
309.571	810.06
309.8	810.06
310.03	805.06
310.26	795.06
310.49	799.06
310.72	810.06
310.949	870.06
311.179	845.06
311.409	830.06
311.639	821.06
311.868	815.06
312.098	847.06
312.328	808.06
312.557	809.06
312.787	818.06
313.017	845.06
313.246	837.06
313.476	846.06
313.706	844.06
313.935	865.06
314.165	855.06
314.394	901.06
314.624	945.06
314.853	980.06
315.083	1007.06
315.312	1025.06
315.542	968.06
315.771	869.06
316.001	933.06
316.23	933.06
316.46	935.06
316.689	890.06
316.919	843.06
317.148	877.06
317.377	847.06
317.607	917.06
317.836	1003.06
318.065	1057.06
318.295	1015.06
318.524	957.06
318.753	925.06
318.983	931.06
319.212	905.06
319.441	892.06
319.67	890.06
319.9	898.06
320.129	959.06
320.358	978.06
320.587	1002.06
320.816	1014.06
321.046	995.06
321.275	948.06
321.504	948.06
321.733	1023.06
321.962	967.06
322.191	933.06
322.42	904.06
322.649	903.06
322.878	889.06
323.108	903.06
323.337	936.06
323.566	938.06
323.795	933.06
324.024	886.06
324.253	923.06
324.482	938.06
324.71	877.06
324.939	836.06
325.168	878.06
325.397	884.06
325.626	923.06
325.855	903.06
326.084	904.06
326.313	913.06
326.542	960.06
326.77	930.06
326.999	938.06
327.228	894.06
327.457	852.06
327.686	858.06
327.914	878.06
328.143	915.06
328.372	911.06
328.6	907.06
328.829	887.06
329.058	907.06
329.287	884.06
329.515	913.06
329.744	940.06
329.972	1013.06
330.201	1043.06
330.43	983.06
330.658	955.06
330.887	967.06
331.115	979.06
331.344	969.06
331.572	950.06
331.801	956.06
332.03	937.06
332.258	939.06
332.486	981.06
332.715	970.06
332.943	983.06
333.172	970.06
333.4	969.06
333.629	993.06
333.857	1083.06
334.085	1198.06
334.314	1335.06
334.542	1395.06
334.771	1251.06
334.999	1116.06
335.227	1046.06
335.455	1051.06
335.684	1051.06
335.912	1034.06
336.14	1053.06
336.369	1023.06
336.597	979.06
336.825	991.06
337.053	1025.06
337.281	1074.06
337.51	1103.06
337.738	1167.06
337.966	1066.06
338.194	988.06
338.422	939.06
338.65	966.06
338.878	953.06
339.106	909.06
339.334	901.06
339.562	905.06
339.79	943.06
340.018	1005.06
340.246	1033.06
340.474	1043.06
340.702	1002.06
340.93	997.06
341.158	978.06
341.386	966.06
341.614	935.06
341.842	961.06
342.07	955.06
342.298	979.06
342.526	947.06
342.754	955.06
342.981	964.06
343.209	942.06
343.437	933.06
343.665	952.06
343.893	989.06
344.12	1025.06
344.348	1026.06
344.576	976.06
344.804	940.06
345.031	963.06
345.259	957.06
345.487	925.06
345.714	898.06
345.942	887.06
346.17	896.06
346.397	935.06
346.625	919.06
346.853	866.06
347.08	852.06
347.308	856.06
347.535	911.06
347.763	931.06
347.99	885.06
348.218	874.06
348.445	893.06
348.673	905.06
348.9	927.06
349.128	980.06
349.355	951.06
349.583	964.06
349.81	912.06
350.037	866.06
350.265	858.06
350.492	848.06
350.72	895.06
350.947	915.06
351.174	910.06
351.402	876.06
351.629	869.06
351.856	844.06
352.083	851.06
352.311	862.06
352.538	857.06
352.765	923.06
352.992	913.06
353.22	881.06
353.447	863.06
353.674	893.06
353.901	893.06
354.128	859.06
354.355	870.06
354.583	926.06
354.81	910.06
355.037	927.06
355.264	941.06
355.491	893.06
355.718	899.06
355.945	893.06
356.172	870.06
356.399	867.06
356.626	884.06
356.853	932.06
357.08	1011.06
357.307	1095.06
357.534	1045.06
357.761	924.06
357.988	872.06
358.215	868.06
358.441	863.06
358.668	879.06
358.895	901.06
359.122	938.06
359.349	1007.06
359.576	966.06
359.802	895.06
360.029	909.06
360.256	863.06
360.483	886.06
360.709	926.06
360.936	958.06
361.163	987.06
361.39	1070.06
361.616	1110.06
361.843	1127.06
362.07	1001.06
362.296	896.06
362.523	883.06
362.749	880.06
362.976	895.06
363.203	910.06
363.429	903.06
363.656	869.06
363.882	953.06
364.109	1033.06
364.335	1069.06
364.562	992.06
364.788	929.06
365.015	905.06
365.241	888.06
365.468	925.06
365.694	961.06
365.92	970.06
366.147	919.06
366.373	866.06
366.599	863.06
366.826	893.06
367.052	906.06
367.278	905.06
367.505	937.06
367.731	931.06
367.957	929.06
368.184	964.06
368.41	1036.06
368.636	1006.06
368.862	1028.06
369.089	1000.06
369.315	973.06
369.541	941.06
369.767	937.06
369.993	935.06
370.219	918.06
370.445	947.06
370.672	1009.06
370.898	1028.06
371.124	987.06
371.35	974.06
371.576	1012.06
371.802	1037.06
372.028	945.06
372.254	948.06
372.48	921.06
372.706	927.06
372.932	922.06
373.158	918.06
373.384	940.06
373.61	983.06
373.835	1032.06
374.061	975.06
374.287	952.06
374.513	967.06
374.739	941.06
374.965	971.06
375.191	957.06
375.416	960.06
375.642	1010.06
375.868	1050.06
376.094	1099.06
376.319	1039.06
376.545	997.06
376.771	1000.06
376.997	1064.06
377.222	1025.06
377.448	999.06
377.674	1009.06
377.899	1020.06
378.125	1083.06
378.35	1086.06
378.576	945.06
378.802	947.06
379.027	943.06
379.253	959.06
379.478	994.06
379.704	964.06
379.929	1000.06
380.155	964.06
380.38	1003.06
380.606	982.06
380.831	985.06
381.057	1016.06
381.282	1035.06
381.507	1033.06
381.733	1100.06
381.958	1120.06
382.184	1039.06
382.409	1009.06
382.634	1016.06
382.86	1009.06
383.085	1029.06
383.31	1050.06
383.535	1157.06
383.761	1189.06
383.986	1141.06
384.211	1065.06
384.436	1097.06
384.662	1161.06
384.887	1174.06
385.112	1130.06
385.337	1100.06
385.562	1073.06
385.787	1111.06
386.013	1137.06
386.238	1131.06
386.463	1092.06
386.688	1198.06
386.913	1255.06
387.138	1201.06
387.363	1153.06
387.588	1116.06
387.813	1141.06
388.038	1125.06
388.263	1194.06
388.488	1113.06
388.713	1049.06
388.938	1071.06
389.163	1082.06
389.387	1081.06
389.612	1099.06
389.837	1108.06
390.062	1108.06
390.287	1117.06
390.512	1063.06
390.736	1091.06
390.961	1061.06
391.186	1049.06
391.411	1070.06
391.636	1082.06
391.86	1092.06
392.085	1116.06
392.31	1085.06
392.534	1081.06
392.759	1103.06
392.984	1106.06
393.208	1117.06
393.433	1151.06
393.658	1185.06
393.882	1168.06
394.107	1122.06
394.331	1139.06
394.556	1125.06
394.78	1117.06
395.005	1167.06
395.229	1203.06
395.454	1285.06
395.678	1264.06
395.903	1193.06
396.127	1182.06
396.352	1195.06
396.576	1226.06
396.801	1210.06
397.025	1225.06
397.249	1212.06
397.474	1196.06
397.698	1235.06
397.922	1245.06
398.147	1276.06
398.371	1316.06
398.595	1315.06
398.82	1293.06
399.044	1276.06
399.268	1329.06
399.492	1411.06
399.717	1471.06
399.941	1462.06
400.165	1448.06
400.389	1405.06
400.613	1399.06
400.837	1604.06
401.062	1742.06
401.286	1482.06
401.51	1399.06
401.734	1412.06
401.958	1344.06
402.182	1295.06
402.406	1257.06
402.63	1256.06
402.854	1225.06
403.078	1274.06
403.302	1311.06
403.526	1323.06
403.75	1333.06
403.974	1295.06
404.198	1324.06
404.422	1404.06
404.645	1466.06
404.869	1390.06
405.093	1304.06
405.317	1261.06
405.541	1286.06
405.765	1317.06
405.988	1327.06
406.212	1345.06
406.436	1365.06
406.66	1408.06
406.883	1429.06
407.107	1643.06
407.331	1773.06
407.555	1845.06
407.778	1651.06
408.002	1411.06
408.226	1359.06
408.449	1363.06
408.673	1308.06
408.896	1364.06
409.12	1366.06
409.344	1341.06
409.567	1303.06
409.791	1321.06
410.014	1345.06
410.238	1447.06
410.461	1455.06
410.685	1347.06
410.908	1266.06
411.132	1337.06
411.355	1284.06
411.578	1274.06
411.802	1310.06
412.025	1337.06
412.249	1283.06
412.472	1273.06
412.695	1289.06
412.919	1261.06
413.142	1251.06
413.365	1299.06
413.589	1349.06
413.812	1400.06
414.035	1419.06
414.258	1320.06
414.482	1329.06
414.705	1270.06
414.928	1274.06
415.151	1244.06
415.374	1259.06
415.597	1321.06
415.821	1298.06
416.044	1304.06
416.267	1309.06
416.49	1247.06
416.713	1249.06
416.936	1324.06
417.159	1374.06
417.382	1313.06
417.605	1275.06
417.828	1299.06
418.051	1319.06
418.274	1252.06
418.497	1261.06
418.72	1235.06
418.943	1240.06
419.166	1306.06
419.389	1320.06
419.611	1273.06
419.834	1295.06
420.057	1288.06
420.28	1241.06
420.503	1292.06
420.726	1299.06
420.948	1260.06
421.171	1222.06
421.394	1254.06
421.617	1297.06
421.839	1315.06
422.062	1264.06
422.285	1237.06
422.507	1269.06
422.73	1229.06
422.953	1209.06
423.175	1175.06
423.398	1259.06
423.621	1212.06
423.843	1245.06
424.066	1275.06
424.288	1339.06
424.511	1358.06
424.733	1359.06
424.956	1221.06
425.178	1225.06
425.401	1215.06
425.623	1230.06
425.846	1242.06
426.068	1326.06
426.291	1311.06
426.513	1278.06
426.735	1306.06
426.958	1380.06
427.18	1449.06
427.402	1315.06
427.625	1340.06
427.847	1329.06
428.069	1223.06
428.292	1221.06
428.514	1180.06
428.736	1183.06
428.958	1236.06
429.181	1254.06
429.403	1451.06
429.625	1733.06
429.847	1426.06
430.069	1281.06
430.292	1420.06
430.514	1374.06
430.736	1303.06
430.958	1352.06
431.18	1270.06
431.402	1190.06
431.624	1205.06
431.846	1139.06
432.068	1108.06
432.29	1114.06
432.512	1170.06
432.734	1221.06
432.956	1240.06
433.178	1278.06
433.4	1287.06
433.622	1269.06
433.844	1218.06
434.066	1177.06
434.287	1128.06
434.509	1175.06
434.731	1249.06
434.953	1337.06
435.175	1291.06
435.397	1262.06
435.618	1227.06
435.84	1230.06
436.062	1186.06
436.284	1271.06
436.505	1258.06
436.727	1275.06
436.949	1272.06
437.17	1177.06
437.392	1203.06
437.614	1186.06
437.835	1131.06
438.057	1205.06
438.278	1198.06
438.5	1192.06
438.721	1201.06
438.943	1173.06
439.165	1209.06
439.386	1197.06
439.608	1226.06
439.829	1205.06
440.05	1235.06
440.272	1213.06
440.493	1209.06
440.715	1238.06
440.936	1335.06
441.158	1371.06
441.379	1386.06
441.6	1359.06
441.822	1317.06
442.043	1344.06
442.264	1290.06
442.486	1238.06
442.707	1221.06
442.928	1235.06
443.149	1235.06
443.371	1314.06
443.592	1341.06
443.813	1331.06
444.034	1307.06
444.255	1317.06
444.476	1343.06
444.698	1357.06
444.919	1380.06
445.14	1483.06
445.361	1381.06
445.582	1409.06
445.803	1359.06
446.024	1339.06
446.245	1395.06
446.466	1359.06
446.687	1261.06
446.908	1324.06
447.129	1283.06
447.35	1270.06
447.571	1283.06
447.792	1191.06
448.013	1209.06
448.234	1244.06
448.455	1266.06
448.675	1279.06
448.896	1157.06
449.117	1161.06
449.338	1212.06
449.559	1221.06
449.779	1286.06
450	1374.06
450.221	1457.06
450.442	1386.06
450.662	1239.06
450.883	1145.06
451.104	1112.06
451.324	1177.06
451.545	1193.06
451.766	1177.06
451.986	1121.06
452.207	1109.06
452.428	1089.06
452.648	1073.06
452.869	1074.06
453.089	1127.06
453.31	1114.06
453.53	1103.06
453.751	1064.06
453.971	1046.06
454.192	1073.06
454.412	1125.06
454.633	1108.06
454.853	1106.06
455.073	1022.06
455.294	1063.06
455.514	1059.06
455.734	1018.06
455.955	1067.06
456.175	1037.06
456.395	1034.06
456.616	1090.06
456.836	1054.06
457.056	1088.06
457.276	1054.06
457.497	1027.06
457.717	974.06
457.937	1021.06
458.157	1031.06
458.377	1003.06
458.598	1013.06
458.818	1055.06
459.038	1071.06
459.258	1117.06
459.478	1113.06
459.698	1090.06
459.918	1121.06
460.138	1195.06
460.358	1205.06
460.578	1203.06
460.798	1237.06
461.018	1285.06
461.238	1276.06
461.458	1244.06
461.678	1231.06
461.898	1205.06
462.118	1163.06
462.338	1242.06
462.558	1243.06
462.777	1243.06
462.997	1324.06
463.217	1315.06
463.437	1303.06
463.657	1234.06
463.876	1230.06
464.096	1218.06
464.316	1242.06
464.536	1268.06
464.755	1288.06
464.975	1259.06
465.195	1222.06
465.414	1285.06
465.634	1260.06
465.854	1229.06
466.073	1303.06
466.293	1287.06
466.512	1183.06
466.732	1181.06
466.951	1248.06
467.171	1203.06
467.391	1158.06
467.61	1145.06
467.829	1206.06
468.049	1315.06
468.268	1420.06
468.488	1301.06
468.707	1218.06
468.927	1222.06
469.146	1181.06
469.365	1173.06
469.585	1176.06
469.804	1195.06
470.023	1237.06
470.243	1241.06
470.462	1217.06
470.681	1191.06
470.901	1201.06
471.12	1205.06
471.339	1193.06
471.558	1166.06
471.777	1147.06
471.997	1165.06
472.216	1146.06
472.435	1087.06
472.654	1089.06
472.873	1128.06
473.092	1174.06
473.311	1173.06
473.53	1121.06
473.749	1118.06
473.968	1161.06
474.187	1189.06
474.406	1175.06
474.625	1171.06
474.844	1166.06
475.063	1189.06
475.282	1208.06
475.501	1155.06
475.72	1180.06
475.939	1237.06
476.158	1207.06
476.377	1186.06
476.596	1147.06
476.814	1213.06
477.033	1205.06
477.252	1214.06
477.471	1275.06
477.69	1260.06
477.908	1253.06
478.127	1297.06
478.346	1399.06
478.564	1385.06
478.783	1354.06
479.002	1413.06
479.22	1391.06
479.439	1411.06
479.658	1513.06
479.876	1497.06
480.095	1381.06
480.313	1300.06
480.532	1294.06
480.751	1278.06
480.969	1285.06
481.188	1229.06
481.406	1207.06
481.624	1175.06
481.843	1207.06
482.061	1241.06
482.28	1307.06
482.498	1336.06
482.717	1277.06
482.935	1281.06
483.153	1347.06
483.372	1346.06
483.59	1325.06
483.808	1316.06
484.027	1355.06
484.245	1401.06
484.463	1705.06
484.681	1839.06
484.9	1428.06
485.118	1349.06
485.336	1321.06
485.554	1309.06
485.772	1376.06
485.99	1335.06
486.209	1387.06
486.427	1365.06
486.645	1380.06
486.863	1402.06
487.081	1414.06
487.299	1405.06
487.517	1355.06
487.735	1425.06
487.953	1501.06
488.171	1462.06
488.389	1393.06
488.607	1429.06
488.825	1568.06
489.043	1508.06
489.261	1381.06
489.479	1446.06
489.696	1423.06
489.914	1451.06
490.132	1398.06
490.35	1423.06
490.568	1484.06
490.786	1452.06
491.003	1421.06
491.221	1497.06
491.439	1559.06
491.657	1536.06
491.874	1604.06
492.092	1654.06
492.31	1653.06
492.527	1630.06
492.745	1585.06
492.963	1577.06
493.18	1571.06
493.398	1668.06
493.615	1649.06
493.833	1546.06
494.05	1518.06
