Data from WStandard_LampEnergy8_LIBS07252019.E.O._I.C._HRD10591_16-00-34-930.txt Node
Date: Thu Jul 25 16:00:34 EDT 2019
User: cochatt
Spectrometer: HR+D1059
Trigger mode: 1
Integration Time (sec): 1.000000E-1
Scans to average: 1
Electric dark correction enabled: true
Nonlinearity correction enabled: false
Boxcar width: 0
XAxis mode: Wavelengths
Number of Pixels in Spectrum: 2048
>>>>>Begin Spectral Data<<<<<
223.165	-5.19
223.4	-5.19
223.635	-5.19
223.869	-24.19
224.104	-19.19
224.338	-12.19
224.573	-11.19
224.808	-17.19
225.042	-7.19
225.277	-4.19
225.511	-10.19
225.746	-4.19
225.98	20.81
226.215	15.81
226.449	-4.19
226.683	13.81
226.918	30.81
227.152	37.81
227.387	33.81
227.621	29.81
227.856	50.81
228.09	50.81
228.324	39.81
228.559	64.81
228.793	106.81
229.027	194.81
229.262	196.81
229.496	218.81
229.73	199.81
229.964	234.81
230.199	254.81
230.433	259.81
230.667	287.81
230.901	292.81
231.136	269.81
231.37	253.81
231.604	275.81
231.838	263.81
232.072	265.81
232.306	254.81
232.541	290.81
232.775	302.81
233.009	310.81
233.243	308.81
233.477	288.81
233.711	313.81
233.945	296.81
234.179	285.81
234.413	321.81
234.647	319.81
234.881	302.81
235.115	296.81
235.349	306.81
235.583	290.81
235.817	308.81
236.051	293.81
236.285	303.81
236.519	335.81
236.753	321.81
236.987	335.81
237.221	354.81
237.455	356.81
237.689	365.81
237.922	341.81
238.156	317.81
238.39	343.81
238.624	350.81
238.858	375.81
239.091	393.81
239.325	427.81
239.559	457.81
239.793	490.81
240.027	507.81
240.26	496.81
240.494	391.81
240.728	368.81
240.961	365.81
241.195	390.81
241.429	416.81
241.662	419.81
241.896	384.81
242.13	382.81
242.363	426.81
242.597	456.81
242.83	422.81
243.064	454.81
243.298	465.81
243.531	448.81
243.765	448.81
243.998	456.81
244.232	406.81
244.465	410.81
244.699	395.81
244.932	455.81
245.166	488.81
245.399	461.81
245.633	463.81
245.866	449.81
246.099	470.81
246.333	461.81
246.566	465.81
246.8	537.81
247.033	568.81
247.266	506.81
247.5	503.81
247.733	531.81
247.966	545.81
248.2	587.81
248.433	580.81
248.666	615.81
248.899	646.81
249.133	723.81
249.366	810.81
249.599	664.81
249.832	606.81
250.066	618.81
250.299	637.81
250.532	590.81
250.765	549.81
250.998	557.81
251.231	573.81
251.465	563.81
251.698	573.81
251.931	578.81
252.164	578.81
252.397	609.81
252.63	594.81
252.863	513.81
253.096	512.81
253.329	553.81
253.562	590.81
253.795	604.81
254.028	596.81
254.261	569.81
254.494	562.81
254.727	531.81
254.96	577.81
255.193	610.81
255.426	705.81
255.659	763.81
255.892	789.81
256.124	655.81
256.357	619.81
256.59	673.81
256.823	699.81
257.056	708.81
257.289	814.81
257.521	866.81
257.754	793.81
257.987	779.81
258.22	819.81
258.452	797.81
258.685	675.81
258.918	645.81
259.151	664.81
259.383	638.81
259.616	585.81
259.849	605.81
260.081	661.81
260.314	761.81
260.547	805.81
260.779	791.81
261.012	739.81
261.244	689.81
261.477	653.81
261.71	651.81
261.942	661.81
262.175	660.81
262.407	671.81
262.64	655.81
262.872	613.81
263.105	593.81
263.337	623.81
263.57	625.81
263.802	618.81
264.035	584.81
264.267	567.81
264.499	551.81
264.732	631.81
264.964	641.81
265.197	649.81
265.429	670.81
265.661	807.81
265.894	838.81
266.126	823.81
266.358	761.81
266.591	801.81
266.823	837.81
267.055	765.81
267.287	769.81
267.52	742.81
267.752	739.81
267.984	729.81
268.216	779.81
268.448	788.81
268.681	763.81
268.913	738.81
269.145	678.81
269.377	696.81
269.609	737.81
269.841	846.81
270.073	979.81
270.306	1083.81
270.538	1077.81
270.77	937.81
271.002	835.81
271.234	795.81
271.466	825.81
271.698	888.81
271.93	1027.81
272.162	983.81
272.394	909.81
272.626	869.81
272.858	803.81
273.09	710.81
273.322	683.81
273.553	658.81
273.785	667.81
274.017	702.81
274.249	747.81
274.481	771.81
274.713	702.81
274.945	687.81
275.176	681.81
275.408	673.81
275.64	655.81
275.872	688.81
276.104	696.81
276.335	803.81
276.567	910.81
276.799	894.81
277.031	829.81
277.262	790.81
277.494	813.81
277.726	865.81
277.957	866.81
278.189	792.81
278.421	735.81
278.652	711.81
278.884	689.81
279.115	720.81
279.347	736.81
279.579	714.81
279.81	723.81
280.042	805.81
280.273	842.81
280.505	869.81
280.736	881.81
280.968	809.81
281.199	745.81
281.431	696.81
281.662	694.81
281.894	712.81
282.125	732.81
282.356	739.81
282.588	776.81
282.819	751.81
283.051	818.81
283.282	898.81
283.513	824.81
283.745	720.81
283.976	713.81
284.207	729.81
284.439	715.81
284.67	739.81
284.901	763.81
285.132	753.81
285.364	748.81
285.595	767.81
285.826	751.81
286.057	718.81
286.288	737.81
286.52	795.81
286.751	839.81
286.982	849.81
287.213	776.81
287.444	718.81
287.675	738.81
287.906	779.81
288.138	798.81
288.369	793.81
288.6	754.81
288.831	739.81
289.062	734.81
289.293	742.81
289.524	778.81
289.755	774.81
289.986	766.81
290.217	728.81
290.448	755.81
290.679	761.81
290.91	773.81
291.141	778.81
291.371	801.81
291.602	811.81
291.833	787.81
292.064	837.81
292.295	821.81
292.526	831.81
292.757	872.81
292.987	814.81
293.218	806.81
293.449	868.81
293.68	969.81
293.91	988.81
294.141	951.81
294.372	892.81
294.603	917.81
294.833	955.81
295.064	907.81
295.295	845.81
295.525	808.81
295.756	733.81
295.987	706.81
296.217	758.81
296.448	733.81
296.679	773.81
296.909	761.81
297.14	791.81
297.37	773.81
297.601	838.81
297.831	872.81
298.062	859.81
298.292	774.81
298.523	755.81
298.753	779.81
298.984	774.81
299.214	779.81
299.445	799.81
299.675	839.81
299.905	827.81
300.136	814.81
300.366	756.81
300.597	780.81
300.827	779.81
301.057	783.81
301.288	827.81
301.518	821.81
301.748	873.81
301.979	898.81
302.209	899.81
302.439	974.81
302.669	978.81
302.9	909.81
303.13	832.81
303.36	849.81
303.59	843.81
303.82	834.81
304.051	833.81
304.281	856.81
304.511	863.81
304.741	926.81
304.971	999.81
305.201	1047.81
305.431	963.81
305.661	837.81
305.891	772.81
306.121	736.81
306.352	788.81
306.582	851.81
306.812	899.81
307.042	937.81
307.272	940.81
307.502	1019.81
307.731	1058.81
307.961	1045.81
308.191	1002.81
308.421	882.81
308.651	807.81
308.881	802.81
309.111	786.81
309.341	831.81
309.571	806.81
309.8	821.81
310.03	804.81
310.26	790.81
310.49	819.81
310.72	845.81
310.949	885.81
311.179	891.81
311.409	867.81
311.639	835.81
311.868	824.81
312.098	856.81
312.328	840.81
312.557	804.81
312.787	830.81
313.017	836.81
313.246	879.81
313.476	856.81
313.706	861.81
313.935	907.81
314.165	885.81
314.394	933.81
314.624	958.81
314.853	1042.81
315.083	1035.81
315.312	1026.81
315.542	951.81
315.771	880.81
316.001	906.81
316.23	914.81
316.46	937.81
316.689	914.81
316.919	848.81
317.148	853.81
317.377	879.81
317.607	950.81
317.836	1038.81
318.065	1037.81
318.295	1008.81
318.524	953.81
318.753	938.81
318.983	933.81
319.212	910.81
319.441	911.81
319.67	887.81
319.9	895.81
320.129	961.81
320.358	1001.81
320.587	1025.81
320.816	1001.81
321.046	982.81
321.275	938.81
321.504	974.81
321.733	1034.81
321.962	981.81
322.191	932.81
322.42	890.81
322.649	902.81
322.878	907.81
323.108	927.81
323.337	914.81
323.566	962.81
323.795	971.81
324.024	903.81
324.253	880.81
324.482	945.81
324.71	916.81
324.939	857.81
325.168	891.81
325.397	919.81
325.626	943.81
325.855	954.81
326.084	890.81
326.313	919.81
326.542	933.81
326.77	953.81
326.999	935.81
327.228	922.81
327.457	882.81
327.686	860.81
327.914	890.81
328.143	915.81
328.372	922.81
328.6	920.81
328.829	868.81
329.058	895.81
329.287	921.81
329.515	933.81
329.744	939.81
329.972	979.81
330.201	1000.81
330.43	989.81
330.658	973.81
330.887	981.81
331.115	975.81
331.344	962.81
331.572	944.81
331.801	990.81
332.03	969.81
332.258	970.81
332.486	998.81
332.715	982.81
332.943	1010.81
333.172	957.81
333.4	993.81
333.629	1026.81
333.857	1071.81
334.085	1229.81
334.314	1340.81
334.542	1363.81
334.771	1266.81
334.999	1117.81
335.227	1060.81
335.455	1061.81
335.684	1051.81
335.912	1045.81
336.14	1069.81
336.369	1066.81
336.597	999.81
336.825	1010.81
337.053	1054.81
337.281	1089.81
337.51	1135.81
337.738	1140.81
337.966	1103.81
338.194	1025.81
338.422	996.81
338.65	981.81
338.878	952.81
339.106	935.81
339.334	901.81
339.562	916.81
339.79	921.81
340.018	1002.81
340.246	1031.81
340.474	1032.81
340.702	1018.81
340.93	998.81
341.158	988.81
341.386	1010.81
341.614	989.81
341.842	979.81
342.07	977.81
342.298	977.81
342.526	984.81
342.754	969.81
342.981	960.81
343.209	968.81
343.437	960.81
343.665	954.81
343.893	1026.81
344.12	1037.81
344.348	1055.81
344.576	1018.81
344.804	969.81
345.031	974.81
345.259	962.81
345.487	925.81
345.714	922.81
345.942	925.81
346.17	893.81
346.397	943.81
346.625	926.81
346.853	888.81
347.08	849.81
347.308	883.81
347.535	895.81
347.763	921.81
347.99	893.81
348.218	890.81
348.445	899.81
348.673	915.81
348.9	961.81
349.128	979.81
349.355	997.81
349.583	959.81
349.81	912.81
350.037	851.81
350.265	874.81
350.492	884.81
350.72	891.81
350.947	929.81
351.174	900.81
351.402	881.81
351.629	847.81
351.856	841.81
352.083	881.81
352.311	872.81
352.538	888.81
352.765	932.81
352.992	939.81
353.22	892.81
353.447	860.81
353.674	885.81
353.901	897.81
354.128	892.81
354.355	911.81
354.583	957.81
354.81	957.81
355.037	974.81
355.264	946.81
355.491	913.81
355.718	885.81
355.945	916.81
356.172	886.81
356.399	871.81
356.626	897.81
356.853	931.81
357.08	1045.81
357.307	1099.81
357.534	1042.81
357.761	941.81
357.988	897.81
358.215	831.81
358.441	851.81
358.668	872.81
358.895	897.81
359.122	957.81
359.349	1053.81
359.576	974.81
359.802	919.81
360.029	898.81
360.256	887.81
360.483	887.81
360.709	963.81
360.936	969.81
361.163	981.81
361.39	1083.81
361.616	1142.81
361.843	1115.81
362.07	1041.81
362.296	921.81
362.523	890.81
362.749	895.81
362.976	920.81
363.203	936.81
363.429	888.81
363.656	884.81
363.882	950.81
364.109	1048.81
364.335	1077.81
364.562	1017.81
364.788	955.81
365.015	904.81
365.241	890.81
365.468	918.81
365.694	953.81
365.92	987.81
366.147	958.81
366.373	910.81
366.599	901.81
366.826	881.81
367.052	879.81
367.278	891.81
367.505	921.81
367.731	961.81
367.957	923.81
368.184	1009.81
368.41	1049.81
368.636	1034.81
368.862	1022.81
369.089	1031.81
369.315	1003.81
369.541	958.81
369.767	960.81
369.993	924.81
370.219	915.81
370.445	923.81
370.672	1009.81
370.898	1040.81
371.124	1036.81
371.35	1021.81
371.576	1017.81
371.802	1027.81
372.028	982.81
372.254	935.81
372.48	924.81
372.706	906.81
372.932	944.81
373.158	961.81
373.384	991.81
373.61	1032.81
373.835	1021.81
374.061	1001.81
374.287	981.81
374.513	972.81
374.739	956.81
374.965	982.81
375.191	986.81
375.416	1004.81
375.642	984.81
375.868	1081.81
376.094	1079.81
376.319	1066.81
376.545	982.81
376.771	1015.81
376.997	1066.81
377.222	1035.81
377.448	1001.81
377.674	1016.81
377.899	1033.81
378.125	1074.81
378.35	1045.81
378.576	999.81
378.802	948.81
379.027	937.81
379.253	977.81
379.478	953.81
379.704	953.81
379.929	992.81
380.155	1026.81
380.38	987.81
380.606	999.81
380.831	1031.81
381.057	1070.81
381.282	1047.81
381.507	1042.81
381.733	1105.81
381.958	1101.81
382.184	1031.81
382.409	1024.81
382.634	1021.81
382.86	990.81
383.085	1027.81
383.31	1073.81
383.535	1152.81
383.761	1227.81
383.986	1133.81
384.211	1105.81
384.436	1111.81
384.662	1163.81
384.887	1215.81
385.112	1126.81
385.337	1128.81
385.562	1120.81
385.787	1109.81
386.013	1157.81
386.238	1131.81
386.463	1165.81
386.688	1243.81
386.913	1293.81
387.138	1238.81
387.363	1163.81
387.588	1176.81
387.813	1136.81
388.038	1159.81
388.263	1199.81
388.488	1135.81
388.713	1058.81
388.938	1069.81
389.163	1085.81
389.387	1146.81
389.612	1094.81
389.837	1098.81
390.062	1125.81
390.287	1099.81
390.512	1092.81
390.736	1103.81
390.961	1058.81
391.186	1070.81
391.411	1091.81
391.636	1097.81
391.86	1112.81
392.085	1118.81
392.31	1108.81
392.534	1099.81
392.759	1127.81
392.984	1106.81
393.208	1144.81
393.433	1191.81
393.658	1184.81
393.882	1192.81
394.107	1124.81
394.331	1106.81
394.556	1116.81
394.78	1122.81
395.005	1214.81
395.229	1228.81
395.454	1285.81
395.678	1319.81
395.903	1222.81
396.127	1200.81
396.352	1213.81
396.576	1223.81
396.801	1221.81
397.025	1221.81
397.249	1230.81
397.474	1198.81
397.698	1197.81
397.922	1258.81
398.147	1295.81
398.371	1359.81
398.595	1335.81
398.82	1301.81
399.044	1289.81
399.268	1378.81
399.492	1410.81
399.717	1483.81
399.941	1455.81
400.165	1458.81
400.389	1409.81
400.613	1474.81
400.837	1634.81
401.062	1739.81
401.286	1526.81
401.51	1445.81
401.734	1430.81
401.958	1407.81
402.182	1313.81
402.406	1285.81
402.63	1255.81
402.854	1257.81
403.078	1286.81
403.302	1312.81
403.526	1318.81
403.75	1338.81
403.974	1354.81
404.198	1365.81
404.422	1397.81
404.645	1449.81
404.869	1395.81
405.093	1305.81
405.317	1288.81
405.541	1338.81
405.765	1317.81
405.988	1335.81
406.212	1358.81
406.436	1361.81
406.66	1422.81
406.883	1452.81
407.107	1631.81
407.331	1777.81
407.555	1880.81
407.778	1624.81
408.002	1427.81
408.226	1406.81
408.449	1397.81
408.673	1309.81
408.896	1372.81
409.12	1363.81
409.344	1356.81
409.567	1312.81
409.791	1347.81
410.014	1361.81
410.238	1448.81
410.461	1498.81
410.685	1368.81
410.908	1342.81
411.132	1327.81
411.355	1317.81
411.578	1310.81
411.802	1305.81
412.025	1361.81
412.249	1348.81
412.472	1271.81
412.695	1263.81
412.919	1280.81
413.142	1264.81
413.365	1276.81
413.589	1347.81
413.812	1350.81
414.035	1391.81
414.258	1307.81
414.482	1290.81
414.705	1278.81
414.928	1277.81
415.151	1252.81
415.374	1279.81
415.597	1316.81
415.821	1315.81
416.044	1373.81
416.267	1302.81
416.49	1250.81
416.713	1256.81
416.936	1304.81
417.159	1362.81
417.382	1327.81
417.605	1255.81
417.828	1315.81
418.051	1346.81
418.274	1306.81
418.497	1253.81
418.72	1242.81
418.943	1229.81
419.166	1320.81
419.389	1366.81
419.611	1303.81
419.834	1301.81
420.057	1315.81
420.28	1242.81
420.503	1254.81
420.726	1307.81
420.948	1290.81
421.171	1239.81
421.394	1287.81
421.617	1327.81
421.839	1297.81
422.062	1340.81
422.285	1267.81
422.507	1259.81
422.73	1215.81
422.953	1210.81
423.175	1201.81
423.398	1230.81
423.621	1233.81
423.843	1230.81
424.066	1289.81
424.288	1334.81
424.511	1378.81
424.733	1331.81
424.956	1227.81
425.178	1226.81
425.401	1225.81
425.623	1243.81
425.846	1248.81
426.068	1320.81
426.291	1347.81
426.513	1315.81
426.735	1280.81
426.958	1413.81
427.18	1442.81
427.402	1364.81
427.625	1368.81
427.847	1335.81
428.069	1285.81
428.292	1239.81
428.514	1204.81
428.736	1183.81
428.958	1217.81
429.181	1231.81
429.403	1474.81
429.625	1683.81
429.847	1443.81
430.069	1280.81
430.292	1432.81
430.514	1426.81
430.736	1341.81
430.958	1364.81
431.18	1280.81
431.402	1194.81
431.624	1199.81
431.846	1167.81
432.068	1101.81
432.29	1114.81
432.512	1178.81
432.734	1231.81
432.956	1272.81
433.178	1318.81
433.4	1288.81
433.622	1310.81
433.844	1220.81
434.066	1167.81
434.287	1153.81
434.509	1189.81
434.731	1211.81
434.953	1341.81
435.175	1287.81
435.397	1263.81
435.618	1262.81
435.84	1225.81
436.062	1194.81
436.284	1257.81
436.505	1277.81
436.727	1292.81
436.949	1240.81
437.17	1238.81
437.392	1214.81
437.614	1213.81
437.835	1137.81
438.057	1199.81
438.278	1239.81
438.5	1217.81
438.721	1213.81
438.943	1224.81
439.165	1219.81
439.386	1206.81
439.608	1283.81
439.829	1208.81
440.05	1233.81
440.272	1192.81
440.493	1207.81
440.715	1254.81
440.936	1312.81
441.158	1425.81
441.379	1352.81
441.6	1391.81
441.822	1347.81
442.043	1331.81
442.264	1299.81
442.486	1268.81
442.707	1232.81
442.928	1207.81
443.149	1283.81
443.371	1316.81
443.592	1362.81
443.813	1370.81
444.034	1315.81
444.255	1341.81
444.476	1344.81
444.698	1414.81
444.919	1394.81
445.14	1443.81
445.361	1451.81
445.582	1410.81
445.803	1395.81
446.024	1374.81
446.245	1418.81
446.466	1351.81
446.687	1342.81
446.908	1359.81
447.129	1321.81
447.35	1288.81
447.571	1280.81
447.792	1244.81
448.013	1241.81
448.234	1257.81
448.455	1273.81
448.675	1309.81
448.896	1199.81
449.117	1197.81
449.338	1223.81
449.559	1250.81
449.779	1307.81
450	1401.81
450.221	1469.81
450.442	1429.81
450.662	1257.81
450.883	1155.81
451.104	1140.81
451.324	1168.81
451.545	1205.81
451.766	1149.81
451.986	1143.81
452.207	1100.81
452.428	1061.81
452.648	1096.81
452.869	1094.81
453.089	1100.81
453.31	1139.81
453.53	1110.81
453.751	1075.81
453.971	1067.81
454.192	1056.81
454.412	1142.81
454.633	1122.81
454.853	1116.81
455.073	1050.81
455.294	1077.81
455.514	1048.81
455.734	1045.81
455.955	1062.81
456.175	1034.81
456.395	1043.81
456.616	1083.81
456.836	1083.81
457.056	1100.81
457.276	1073.81
457.497	1026.81
457.717	1000.81
457.937	1057.81
458.157	1057.81
458.377	1025.81
458.598	1022.81
458.818	1025.81
459.038	1114.81
459.258	1125.81
459.478	1100.81
459.698	1092.81
459.918	1135.81
460.138	1198.81
460.358	1190.81
460.578	1239.81
460.798	1282.81
461.018	1344.81
461.238	1287.81
461.458	1268.81
461.678	1243.81
461.898	1203.81
462.118	1197.81
462.338	1246.81
462.558	1230.81
462.777	1231.81
462.997	1279.81
463.217	1327.81
463.437	1310.81
463.657	1254.81
463.876	1240.81
464.096	1223.81
464.316	1237.81
464.536	1255.81
464.755	1283.81
464.975	1335.81
465.195	1268.81
465.414	1318.81
465.634	1271.81
465.854	1255.81
466.073	1382.81
466.293	1316.81
466.512	1184.81
466.732	1179.81
466.951	1226.81
467.171	1227.81
467.391	1163.81
467.61	1187.81
467.829	1205.81
468.049	1304.81
468.268	1413.81
468.488	1304.81
468.707	1248.81
468.927	1237.81
469.146	1187.81
469.365	1173.81
469.585	1216.81
469.804	1223.81
470.023	1227.81
470.243	1209.81
470.462	1186.81
470.681	1194.81
470.901	1205.81
471.12	1239.81
471.339	1263.81
471.558	1189.81
471.777	1153.81
471.997	1176.81
472.216	1176.81
472.435	1089.81
472.654	1123.81
472.873	1153.81
473.092	1209.81
473.311	1193.81
473.53	1143.81
473.749	1113.81
473.968	1142.81
474.187	1214.81
474.406	1222.81
474.625	1179.81
474.844	1183.81
475.063	1204.81
475.282	1222.81
475.501	1139.81
475.72	1201.81
475.939	1278.81
476.158	1221.81
476.377	1144.81
476.596	1161.81
476.814	1209.81
477.033	1190.81
477.252	1262.81
477.471	1303.81
477.69	1231.81
477.908	1283.81
478.127	1322.81
478.346	1418.81
478.564	1411.81
478.783	1395.81
479.002	1425.81
479.22	1416.81
479.439	1434.81
479.658	1573.81
479.876	1525.81
480.095	1360.81
480.313	1293.81
480.532	1285.81
480.751	1297.81
480.969	1264.81
481.188	1274.81
481.406	1251.81
481.624	1223.81
481.843	1220.81
482.061	1250.81
482.28	1302.81
482.498	1320.81
482.717	1277.81
482.935	1277.81
483.153	1323.81
483.372	1346.81
483.59	1355.81
483.808	1333.81
484.027	1323.81
484.245	1410.81
484.463	1671.81
484.681	1857.81
484.9	1476.81
485.118	1320.81
485.336	1306.81
485.554	1362.81
485.772	1367.81
485.99	1371.81
486.209	1390.81
486.427	1377.81
486.645	1383.81
486.863	1412.81
487.081	1457.81
487.299	1437.81
487.517	1425.81
487.735	1458.81
487.953	1467.81
488.171	1480.81
488.389	1459.81
488.607	1422.81
488.825	1584.81
489.043	1523.81
489.261	1387.81
489.479	1454.81
489.696	1453.81
489.914	1427.81
490.132	1439.81
490.35	1448.81
490.568	1487.81
490.786	1465.81
491.003	1467.81
491.221	1507.81
491.439	1570.81
491.657	1593.81
491.874	1564.81
492.092	1651.81
492.31	1693.81
492.527	1633.81
492.745	1594.81
492.963	1569.81
493.18	1565.81
493.398	1701.81
493.615	1689.81
493.833	1565.81
