Data from WStandard_LampEnergy10_LIBS07252019.E.O._I.C._HRD10591_15-55-20-928.txt Node
Date: Thu Jul 25 15:55:20 EDT 2019
User: cochatt
Spectrometer: HR+D1059
Trigger mode: 1
Integration Time (sec): 1.000000E-1
Scans to average: 1
Electric dark correction enabled: true
Nonlinearity correction enabled: false
Boxcar width: 0
XAxis mode: Wavelengths
Number of Pixels in Spectrum: 2048
>>>>>Begin Spectral Data<<<<<
223.165	-20.25
223.4	-20.25
223.635	-20.25
223.869	-20.25
224.104	-28.25
224.338	-10.25
224.573	-17.25
224.808	-6.25
225.042	-24.25
225.277	-13.25
225.511	8.75
225.746	-2.25
225.98	15.75
226.215	22.75
226.449	17.75
226.683	33.75
226.918	14.75
227.152	28.75
227.387	48.75
227.621	38.75
227.856	56.75
228.09	59.75
228.324	60.75
228.559	72.75
228.793	90.75
229.027	140.75
229.262	143.75
229.496	142.75
229.73	153.75
229.964	185.75
230.199	167.75
230.433	164.75
230.667	186.75
230.901	181.75
231.136	174.75
231.37	178.75
231.604	186.75
231.838	194.75
232.072	180.75
232.306	168.75
232.541	173.75
232.775	187.75
233.009	211.75
233.243	191.75
233.477	185.75
233.711	194.75
233.945	195.75
234.179	194.75
234.413	200.75
234.647	197.75
234.881	204.75
235.115	167.75
235.349	189.75
235.583	186.75
235.817	199.75
236.051	201.75
236.285	209.75
236.519	226.75
236.753	228.75
236.987	223.75
237.221	221.75
237.455	244.75
237.689	233.75
237.922	222.75
238.156	214.75
238.39	226.75
238.624	237.75
238.858	244.75
239.091	253.75
239.325	256.75
239.559	268.75
239.793	289.75
240.027	330.75
240.26	284.75
240.494	249.75
240.728	218.75
240.961	242.75
241.195	245.75
241.429	255.75
241.662	234.75
241.896	252.75
242.13	257.75
242.363	265.75
242.597	282.75
242.83	278.75
243.064	285.75
243.298	287.75
243.531	279.75
243.765	278.75
243.998	273.75
244.232	257.75
244.465	245.75
244.699	261.75
244.932	283.75
245.166	311.75
245.399	309.75
245.633	300.75
245.866	264.75
246.099	287.75
246.333	281.75
246.566	290.75
246.8	315.75
247.033	348.75
247.266	327.75
247.5	317.75
247.733	324.75
247.966	338.75
248.2	361.75
248.433	343.75
248.666	377.75
248.899	388.75
249.133	432.75
249.366	460.75
249.599	408.75
249.832	364.75
250.066	361.75
250.299	366.75
250.532	327.75
250.765	329.75
250.998	333.75
251.231	349.75
251.465	356.75
251.698	347.75
251.931	351.75
252.164	358.75
252.397	360.75
252.63	342.75
252.863	355.75
253.096	320.75
253.329	332.75
253.562	326.75
253.795	353.75
254.028	349.75
254.261	329.75
254.494	339.75
254.727	327.75
254.96	333.75
255.193	351.75
255.426	399.75
255.659	441.75
255.892	444.75
256.124	394.75
256.357	363.75
256.59	390.75
256.823	402.75
257.056	425.75
257.289	476.75
257.521	501.75
257.754	452.75
257.987	448.75
258.22	466.75
258.452	453.75
258.685	397.75
258.918	396.75
259.151	400.75
259.383	356.75
259.616	364.75
259.849	367.75
260.081	410.75
260.314	432.75
260.547	473.75
260.779	474.75
261.012	461.75
261.244	394.75
261.477	383.75
261.71	397.75
261.942	393.75
262.175	395.75
262.407	418.75
262.64	394.75
262.872	379.75
263.105	366.75
263.337	381.75
263.57	395.75
263.802	383.75
264.035	349.75
264.267	333.75
264.499	347.75
264.732	373.75
264.964	374.75
265.197	387.75
265.429	428.75
265.661	452.75
265.894	516.75
266.126	493.75
266.358	463.75
266.591	486.75
266.823	485.75
267.055	452.75
267.287	441.75
267.52	447.75
267.752	430.75
267.984	455.75
268.216	463.75
268.448	459.75
268.681	440.75
268.913	410.75
269.145	406.75
269.377	425.75
269.609	446.75
269.841	516.75
270.073	592.75
270.306	610.75
270.538	622.75
270.77	534.75
271.002	460.75
271.234	475.75
271.466	484.75
271.698	550.75
271.93	606.75
272.162	570.75
272.394	525.75
272.626	511.75
272.858	469.75
273.09	417.75
273.322	400.75
273.553	392.75
273.785	412.75
274.017	436.75
274.249	445.75
274.481	412.75
274.713	398.75
274.945	413.75
275.176	388.75
275.408	397.75
275.64	406.75
275.872	395.75
276.104	442.75
276.335	491.75
276.567	524.75
276.799	537.75
277.031	460.75
277.262	474.75
277.494	508.75
277.726	528.75
277.957	499.75
278.189	458.75
278.421	436.75
278.652	419.75
278.884	428.75
279.115	432.75
279.347	422.75
279.579	420.75
279.81	438.75
280.042	484.75
280.273	504.75
280.505	499.75
280.736	502.75
280.968	466.75
281.199	431.75
281.431	457.75
281.662	407.75
281.894	415.75
282.125	462.75
282.356	456.75
282.588	461.75
282.819	458.75
283.051	469.75
283.282	506.75
283.513	474.75
283.745	415.75
283.976	413.75
284.207	439.75
284.439	440.75
284.67	460.75
284.901	470.75
285.132	451.75
285.364	477.75
285.595	436.75
285.826	456.75
286.057	444.75
286.288	421.75
286.52	485.75
286.751	495.75
286.982	506.75
287.213	441.75
287.444	452.75
287.675	435.75
287.906	465.75
288.138	495.75
288.369	465.75
288.6	429.75
288.831	427.75
289.062	436.75
289.293	450.75
289.524	446.75
289.755	453.75
289.986	455.75
290.217	455.75
290.448	456.75
290.679	465.75
290.91	459.75
291.141	482.75
291.371	511.75
291.602	476.75
291.833	486.75
292.064	495.75
292.295	489.75
292.526	505.75
292.757	510.75
292.987	496.75
293.218	475.75
293.449	517.75
293.68	555.75
293.91	570.75
294.141	564.75
294.372	511.75
294.603	550.75
294.833	532.75
295.064	521.75
295.295	466.75
295.525	463.75
295.756	472.75
295.987	441.75
296.217	461.75
296.448	468.75
296.679	452.75
296.909	463.75
297.14	462.75
297.37	470.75
297.601	514.75
297.831	508.75
298.062	516.75
298.292	493.75
298.523	451.75
298.753	476.75
298.984	451.75
299.214	476.75
299.445	492.75
299.675	495.75
299.905	485.75
300.136	467.75
300.366	465.75
300.597	462.75
300.827	475.75
301.057	464.75
301.288	504.75
301.518	529.75
301.748	503.75
301.979	533.75
302.209	550.75
302.439	557.75
302.669	566.75
302.9	540.75
303.13	504.75
303.36	515.75
303.59	542.75
303.82	506.75
304.051	498.75
304.281	498.75
304.511	516.75
304.741	578.75
304.971	615.75
305.201	602.75
305.431	564.75
305.661	503.75
305.891	447.75
306.121	450.75
306.352	489.75
306.582	522.75
306.812	536.75
307.042	556.75
307.272	536.75
307.502	562.75
307.731	618.75
307.961	606.75
308.191	576.75
308.421	502.75
308.651	512.75
308.881	486.75
309.111	501.75
309.341	495.75
309.571	500.75
309.8	491.75
310.03	500.75
310.26	490.75
310.49	484.75
310.72	517.75
310.949	541.75
311.179	522.75
311.409	511.75
311.639	506.75
311.868	505.75
312.098	509.75
312.328	516.75
312.557	514.75
312.787	526.75
313.017	512.75
313.246	504.75
313.476	520.75
313.706	546.75
313.935	551.75
314.165	544.75
314.394	573.75
314.624	593.75
314.853	626.75
315.083	642.75
315.312	629.75
315.542	574.75
315.771	539.75
316.001	535.75
316.23	551.75
316.46	583.75
316.689	536.75
316.919	500.75
317.148	522.75
317.377	548.75
317.607	592.75
317.836	634.75
318.065	626.75
318.295	606.75
318.524	595.75
318.753	602.75
318.983	585.75
319.212	552.75
319.441	541.75
319.67	556.75
319.9	576.75
320.129	585.75
320.358	612.75
320.587	623.75
320.816	606.75
321.046	596.75
321.275	603.75
321.504	573.75
321.733	619.75
321.962	587.75
322.191	565.75
322.42	539.75
322.649	567.75
322.878	575.75
323.108	578.75
323.337	578.75
323.566	556.75
323.795	559.75
324.024	575.75
324.253	560.75
324.482	566.75
324.71	564.75
324.939	532.75
325.168	526.75
325.397	568.75
325.626	570.75
325.855	558.75
326.084	549.75
326.313	550.75
326.542	575.75
326.77	579.75
326.999	553.75
327.228	546.75
327.457	534.75
327.686	532.75
327.914	553.75
328.143	570.75
328.372	532.75
328.6	549.75
328.829	539.75
329.058	543.75
329.287	560.75
329.515	577.75
329.744	562.75
329.972	604.75
330.201	618.75
330.43	589.75
330.658	595.75
330.887	597.75
331.115	603.75
331.344	620.75
331.572	582.75
331.801	582.75
332.03	584.75
332.258	606.75
332.486	588.75
332.715	581.75
332.943	605.75
333.172	584.75
333.4	575.75
333.629	623.75
333.857	640.75
334.085	736.75
334.314	806.75
334.542	841.75
334.771	756.75
334.999	662.75
335.227	650.75
335.455	610.75
335.684	622.75
335.912	649.75
336.14	621.75
336.369	654.75
336.597	611.75
336.825	621.75
337.053	630.75
337.281	662.75
337.51	706.75
337.738	701.75
337.966	649.75
338.194	587.75
338.422	568.75
338.65	584.75
338.878	591.75
339.106	583.75
339.334	573.75
339.562	556.75
339.79	607.75
340.018	593.75
340.246	619.75
340.474	614.75
340.702	618.75
340.93	593.75
341.158	621.75
341.386	629.75
341.614	582.75
341.842	596.75
342.07	599.75
342.298	629.75
342.526	605.75
342.754	575.75
342.981	602.75
343.209	597.75
343.437	589.75
343.665	609.75
343.893	624.75
344.12	640.75
344.348	627.75
344.576	599.75
344.804	595.75
345.031	588.75
345.259	572.75
345.487	567.75
345.714	559.75
345.942	567.75
346.17	572.75
346.397	578.75
346.625	585.75
346.853	533.75
347.08	528.75
347.308	569.75
347.535	598.75
347.763	580.75
347.99	549.75
348.218	531.75
348.445	566.75
348.673	583.75
348.9	574.75
349.128	600.75
349.355	625.75
349.583	580.75
349.81	562.75
350.037	545.75
350.265	543.75
350.492	546.75
350.72	543.75
350.947	574.75
351.174	596.75
351.402	559.75
351.629	521.75
351.856	519.75
352.083	514.75
352.311	537.75
352.538	548.75
352.765	571.75
352.992	548.75
353.22	556.75
353.447	550.75
353.674	563.75
353.901	559.75
354.128	564.75
354.355	566.75
354.583	586.75
354.81	592.75
355.037	581.75
355.264	558.75
355.491	558.75
355.718	542.75
355.945	555.75
356.172	558.75
356.399	542.75
356.626	544.75
356.853	580.75
357.08	644.75
357.307	668.75
357.534	642.75
357.761	567.75
357.988	559.75
358.215	539.75
358.441	559.75
358.668	550.75
358.895	556.75
359.122	599.75
359.349	636.75
359.576	602.75
359.802	556.75
360.029	544.75
360.256	555.75
360.483	578.75
360.709	586.75
360.936	589.75
361.163	644.75
361.39	705.75
361.616	721.75
361.843	724.75
362.07	633.75
362.296	583.75
362.523	576.75
362.749	582.75
362.976	584.75
363.203	589.75
363.429	555.75
363.656	565.75
363.882	584.75
364.109	654.75
364.335	672.75
364.562	622.75
364.788	605.75
365.015	547.75
365.241	566.75
365.468	605.75
365.694	629.75
365.92	616.75
366.147	592.75
366.373	565.75
366.599	570.75
366.826	553.75
367.052	545.75
367.278	550.75
367.505	559.75
367.731	618.75
367.957	607.75
368.184	620.75
368.41	685.75
368.636	668.75
368.862	682.75
369.089	657.75
369.315	642.75
369.541	625.75
369.767	591.75
369.993	584.75
370.219	596.75
370.445	602.75
370.672	651.75
370.898	664.75
371.124	636.75
371.35	623.75
371.576	675.75
371.802	680.75
372.028	622.75
372.254	633.75
372.48	594.75
372.706	600.75
372.932	582.75
373.158	626.75
373.384	635.75
373.61	646.75
373.835	648.75
374.061	642.75
374.287	640.75
374.513	598.75
374.739	644.75
374.965	636.75
375.191	629.75
375.416	653.75
375.642	661.75
375.868	723.75
376.094	699.75
376.319	709.75
376.545	632.75
376.771	682.75
376.997	692.75
377.222	678.75
377.448	660.75
377.674	682.75
377.899	665.75
378.125	695.75
378.35	700.75
378.576	660.75
378.802	591.75
379.027	623.75
379.253	624.75
379.478	648.75
379.704	636.75
379.929	652.75
380.155	658.75
380.38	643.75
380.606	674.75
380.831	661.75
381.057	688.75
381.282	687.75
381.507	695.75
381.733	750.75
381.958	731.75
382.184	695.75
382.409	684.75
382.634	685.75
382.86	674.75
383.085	682.75
383.31	710.75
383.535	751.75
383.761	802.75
383.986	737.75
384.211	729.75
384.436	724.75
384.662	779.75
384.887	752.75
385.112	743.75
385.337	756.75
385.562	741.75
385.787	719.75
386.013	778.75
386.238	747.75
386.463	734.75
386.688	840.75
386.913	842.75
387.138	823.75
387.363	765.75
387.588	753.75
387.813	783.75
388.038	787.75
388.263	792.75
388.488	744.75
388.713	716.75
388.938	717.75
389.163	708.75
389.387	774.75
389.612	758.75
389.837	741.75
390.062	754.75
390.287	752.75
390.512	734.75
390.736	719.75
390.961	713.75
391.186	739.75
391.411	738.75
391.636	767.75
391.86	767.75
392.085	768.75
392.31	782.75
392.534	711.75
392.759	773.75
392.984	735.75
393.208	768.75
393.433	815.75
393.658	820.75
393.882	840.75
394.107	787.75
394.331	788.75
394.556	774.75
394.78	785.75
395.005	797.75
395.229	806.75
395.454	875.75
395.678	864.75
395.903	838.75
396.127	845.75
396.352	834.75
396.576	813.75
396.801	836.75
397.025	843.75
397.249	843.75
397.474	812.75
397.698	820.75
397.922	854.75
398.147	885.75
398.371	908.75
398.595	897.75
398.82	868.75
399.044	880.75
399.268	895.75
399.492	954.75
399.717	963.75
399.941	982.75
400.165	958.75
400.389	975.75
400.613	1023.75
400.837	1143.75
401.062	1203.75
401.286	1016.75
401.51	995.75
401.734	983.75
401.958	926.75
402.182	900.75
402.406	877.75
402.63	853.75
402.854	875.75
403.078	890.75
403.302	905.75
403.526	904.75
403.75	908.75
403.974	933.75
404.198	957.75
404.422	994.75
404.645	1003.75
404.869	962.75
405.093	908.75
405.317	896.75
405.541	920.75
405.765	934.75
405.988	905.75
406.212	947.75
406.436	970.75
406.66	988.75
406.883	1012.75
407.107	1149.75
407.331	1213.75
407.555	1279.75
407.778	1108.75
408.002	999.75
408.226	960.75
408.449	926.75
408.673	947.75
408.896	958.75
409.12	935.75
409.344	933.75
409.567	932.75
409.791	934.75
410.014	961.75
410.238	1019.75
410.461	1017.75
410.685	936.75
410.908	930.75
411.132	944.75
411.355	902.75
411.578	933.75
411.802	931.75
412.025	962.75
412.249	911.75
412.472	913.75
412.695	928.75
412.919	916.75
413.142	905.75
413.365	920.75
413.589	958.75
413.812	965.75
414.035	984.75
414.258	940.75
414.482	904.75
414.705	900.75
414.928	904.75
415.151	912.75
415.374	931.75
415.597	916.75
415.821	930.75
416.044	937.75
416.267	925.75
416.49	883.75
416.713	899.75
416.936	974.75
417.159	987.75
417.382	966.75
417.605	933.75
417.828	925.75
418.051	934.75
418.274	917.75
418.497	920.75
418.72	890.75
418.943	916.75
419.166	961.75
419.389	975.75
419.611	963.75
419.834	956.75
420.057	943.75
420.28	926.75
420.503	929.75
420.726	957.75
420.948	943.75
421.171	906.75
421.394	929.75
421.617	959.75
421.839	988.75
422.062	1011.75
422.285	956.75
422.507	914.75
422.73	886.75
422.953	880.75
423.175	886.75
423.398	911.75
423.621	908.75
423.843	916.75
424.066	938.75
424.288	1020.75
424.511	1046.75
424.733	1006.75
424.956	924.75
425.178	942.75
425.401	923.75
425.623	933.75
425.846	948.75
426.068	990.75
426.291	946.75
426.513	961.75
426.735	939.75
426.958	1064.75
427.18	1046.75
427.402	996.75
427.625	997.75
427.847	984.75
428.069	948.75
428.292	916.75
428.514	892.75
428.736	904.75
428.958	925.75
429.181	923.75
429.403	1086.75
429.625	1199.75
429.847	1040.75
430.069	946.75
430.292	1040.75
430.514	1037.75
430.736	964.75
430.958	998.75
431.18	904.75
431.402	873.75
431.624	855.75
431.846	786.75
432.068	706.75
432.29	731.75
432.512	798.75
432.734	878.75
432.956	937.75
433.178	950.75
433.4	976.75
433.622	950.75
433.844	870.75
434.066	836.75
434.287	794.75
434.509	765.75
434.731	837.75
434.953	887.75
435.175	939.75
435.397	899.75
435.618	892.75
435.84	833.75
436.062	866.75
436.284	879.75
436.505	926.75
436.727	947.75
436.949	894.75
437.17	887.75
437.392	896.75
437.614	851.75
437.835	804.75
438.057	823.75
438.278	834.75
438.5	858.75
438.721	869.75
438.943	896.75
439.165	905.75
439.386	904.75
439.608	943.75
439.829	972.75
440.05	966.75
440.272	943.75
440.493	951.75
440.715	949.75
440.936	989.75
441.158	1052.75
441.379	1005.75
441.6	1035.75
441.822	1014.75
442.043	973.75
442.264	975.75
442.486	957.75
442.707	955.75
442.928	967.75
443.149	952.75
443.371	1005.75
443.592	1028.75
443.813	986.75
444.034	1018.75
444.255	1014.75
444.476	994.75
444.698	1036.75
444.919	1065.75
445.14	1125.75
445.361	1113.75
445.582	1055.75
445.803	1064.75
446.024	1036.75
446.245	1067.75
446.466	1047.75
446.687	1041.75
446.908	1029.75
447.129	1046.75
447.35	1012.75
447.571	1010.75
447.792	951.75
448.013	946.75
448.234	963.75
448.455	994.75
448.675	960.75
448.896	912.75
449.117	888.75
449.338	911.75
449.559	942.75
449.779	975.75
450	1036.75
450.221	1034.75
450.442	1014.75
450.662	938.75
450.883	854.75
451.104	850.75
451.324	883.75
451.545	864.75
451.766	857.75
451.986	838.75
452.207	846.75
452.428	799.75
452.648	771.75
452.869	796.75
453.089	804.75
453.31	766.75
453.53	776.75
453.751	715.75
453.971	691.75
454.192	711.75
454.412	741.75
454.633	771.75
454.853	798.75
455.073	747.75
455.294	768.75
455.514	762.75
455.734	750.75
455.955	746.75
456.175	728.75
456.395	754.75
456.616	734.75
456.836	747.75
457.056	746.75
457.276	717.75
457.497	718.75
457.717	686.75
457.937	707.75
458.157	712.75
458.377	698.75
458.598	678.75
458.818	665.75
459.038	717.75
459.258	736.75
459.478	717.75
459.698	710.75
459.918	740.75
460.138	807.75
460.358	847.75
460.578	820.75
460.798	860.75
461.018	878.75
461.238	875.75
461.458	892.75
461.678	837.75
461.898	829.75
462.118	783.75
462.338	834.75
462.558	834.75
462.777	866.75
462.997	880.75
463.217	882.75
463.437	879.75
463.657	838.75
463.876	837.75
464.096	818.75
464.316	821.75
464.536	860.75
464.755	855.75
464.975	871.75
465.195	858.75
465.414	846.75
465.634	896.75
465.854	894.75
466.073	957.75
466.293	925.75
466.512	879.75
466.732	895.75
466.951	902.75
467.171	909.75
467.391	860.75
467.61	886.75
467.829	909.75
468.049	944.75
468.268	1051.75
468.488	968.75
468.707	915.75
468.927	897.75
469.146	906.75
469.365	913.75
469.585	939.75
469.804	917.75
470.023	928.75
470.243	963.75
470.462	922.75
470.681	942.75
470.901	938.75
471.12	929.75
471.339	918.75
471.558	902.75
471.777	931.75
471.997	893.75
472.216	867.75
472.435	802.75
472.654	726.75
472.873	789.75
473.092	823.75
473.311	826.75
473.53	803.75
473.749	810.75
473.968	854.75
474.187	871.75
474.406	852.75
474.625	846.75
474.844	853.75
475.063	888.75
475.282	871.75
475.501	824.75
475.72	844.75
475.939	892.75
476.158	876.75
476.377	874.75
476.596	826.75
476.814	824.75
477.033	824.75
477.252	834.75
477.471	896.75
477.69	916.75
477.908	942.75
478.127	984.75
478.346	996.75
478.564	1021.75
478.783	991.75
479.002	1016.75
479.22	1002.75
479.439	982.75
479.658	1062.75
479.876	980.75
480.095	920.75
480.313	899.75
480.532	879.75
480.751	848.75
480.969	827.75
481.188	765.75
481.406	790.75
481.624	762.75
481.843	805.75
482.061	818.75
482.28	862.75
482.498	885.75
482.717	860.75
482.935	874.75
483.153	951.75
483.372	1032.75
483.59	982.75
483.808	968.75
484.027	951.75
484.245	971.75
484.463	1225.75
484.681	1294.75
484.9	1007.75
485.118	960.75
485.336	920.75
485.554	914.75
485.772	902.75
485.99	875.75
486.209	910.75
486.427	895.75
486.645	936.75
486.863	994.75
487.081	1030.75
487.299	1022.75
487.517	1028.75
487.735	1108.75
487.953	1205.75
488.171	1182.75
488.389	1135.75
488.607	1104.75
488.825	1132.75
489.043	1066.75
489.261	1010.75
489.479	1002.75
489.696	1035.75
489.914	1032.75
490.132	1033.75
490.35	1074.75
490.568	1171.75
490.786	1218.75
491.003	1182.75
491.221	1238.75
491.439	1278.75
491.657	1336.75
491.874	1365.75
492.092	1449.75
492.31	1517.75
492.527	1431.75
492.745	1402.75
492.963	1291.75
493.18	1325.75
493.398	1325.75
493.615	1313.75
493.833	1290.75
494.05	1213.75
494.268	1254.75
494.485	1266.75
494.703	1212.75
494.92	1218.75
495.138	1245.75
495.355	1239.75
495.573	1218.75
495.79	1272.75
496.008	1256.75
496.225	1243.75
496.442	1239.75
496.66	1244.75
496.877	1206.75
497.094	1243.75
497.312	1212.75
497.529	1208.75
497.746	1198.75
497.963	1302.75
498.181	1326.75
498.398	1251.75
498.615	1194.75
498.832	1139.75
499.049	1142.75
499.267	1162.75
499.484	1259.75
499.701	1348.75
499.918	1334.75
500.135	1469.75
500.352	1586.75
