Data from WStandard_LampEnergy5.5LIBS07252019.E.O._I.C._HRD10591_16-09-28-920.txt Node
Date: Thu Jul 25 16:09:28 EDT 2019
User: cochatt
Spectrometer: HR+D1059
Trigger mode: 1
Integration Time (sec): 1.000000E-1
Scans to average: 1
Electric dark correction enabled: true
Nonlinearity correction enabled: false
Boxcar width: 0
XAxis mode: Wavelengths
Number of Pixels in Spectrum: 2048
>>>>>Begin Spectral Data<<<<<
223.165	-27.81
223.4	-27.81
223.635	-27.81
223.869	-9.81
224.104	-6.81
224.338	2.19
224.573	-20.81
224.808	-3.81
225.042	-11.81
225.277	-16.81
225.511	-10.81
225.746	-3.81
225.98	-3.81
226.215	21.19
226.449	22.19
226.683	13.19
226.918	20.19
227.152	37.19
227.387	28.19
227.621	44.19
227.856	37.19
228.09	45.19
228.324	58.19
228.559	59.19
228.793	144.19
229.027	340.19
229.262	344.19
229.496	361.19
229.73	378.19
229.964	415.19
230.199	451.19
230.433	462.19
230.667	473.19
230.901	519.19
231.136	448.19
231.37	446.19
231.604	439.19
231.838	435.19
232.072	458.19
232.306	424.19
232.541	453.19
232.775	521.19
233.009	567.19
233.243	548.19
233.477	489.19
233.711	535.19
233.945	543.19
234.179	548.19
234.413	572.19
234.647	602.19
234.881	588.19
235.115	527.19
235.349	505.19
235.583	522.19
235.817	534.19
236.051	541.19
236.285	517.19
236.519	570.19
236.753	645.19
236.987	651.19
237.221	634.19
237.455	717.19
237.689	676.19
237.922	643.19
238.156	623.19
238.39	640.19
238.624	667.19
238.858	720.19
239.091	746.19
239.325	779.19
239.559	875.19
239.793	922.19
240.027	987.19
240.26	1002.19
240.494	739.19
240.728	694.19
240.961	719.19
241.195	685.19
241.429	767.19
241.662	774.19
241.896	720.19
242.13	723.19
242.363	791.19
242.597	865.19
242.83	835.19
243.064	847.19
243.298	907.19
243.531	879.19
243.765	845.19
243.998	894.19
244.232	794.19
244.465	745.19
244.699	749.19
244.932	835.19
245.166	989.19
245.399	928.19
245.633	842.19
245.866	831.19
246.099	894.19
246.333	909.19
246.566	902.19
246.8	999.19
247.033	1087.19
247.266	1032.19
247.5	998.19
247.733	991.19
247.966	1044.19
248.2	1179.19
248.433	1121.19
248.666	1153.19
248.899	1239.19
249.133	1478.19
249.366	1659.19
249.599	1361.19
249.832	1175.19
250.066	1207.19
250.299	1242.19
250.532	1111.19
250.765	1037.19
250.998	1080.19
251.231	1137.19
251.465	1177.19
251.698	1132.19
251.931	1125.19
252.164	1147.19
252.397	1215.19
252.63	1178.19
252.863	1065.19
253.096	1031.19
253.329	1082.19
253.562	1153.19
253.795	1215.19
254.028	1181.19
254.261	1121.19
254.494	1107.19
254.727	1058.19
254.96	1130.19
255.193	1222.19
255.426	1372.19
255.659	1565.19
255.892	1604.19
256.124	1296.19
256.357	1240.19
256.59	1350.19
256.823	1329.19
257.056	1318.19
257.289	1599.19
257.521	1759.19
257.754	1594.19
257.987	1560.19
258.22	1724.19
258.452	1663.19
258.685	1341.19
258.918	1299.19
259.151	1334.19
259.383	1243.19
259.616	1126.19
259.849	1166.19
260.081	1355.19
260.314	1480.19
260.547	1628.19
260.779	1665.19
261.012	1508.19
261.244	1368.19
261.477	1313.19
261.71	1355.19
261.942	1331.19
262.175	1268.19
262.407	1417.19
262.64	1335.19
262.872	1233.19
263.105	1221.19
263.337	1246.19
263.57	1279.19
263.802	1239.19
264.035	1169.19
264.267	1141.19
264.499	1087.19
264.732	1139.19
264.964	1236.19
265.197	1299.19
265.429	1317.19
265.661	1485.19
265.894	1657.19
266.126	1719.19
266.358	1522.19
266.591	1579.19
266.823	1712.19
267.055	1527.19
267.287	1526.19
267.52	1488.19
267.752	1497.19
267.984	1506.19
268.216	1522.19
268.448	1594.19
268.681	1567.19
268.913	1467.19
269.145	1361.19
269.377	1342.19
269.609	1463.19
269.841	1659.19
270.073	1937.19
270.306	2127.19
270.538	2314.19
270.77	1955.19
271.002	1636.19
271.234	1577.19
271.466	1567.19
271.698	1731.19
271.93	2159.19
272.162	2117.19
272.394	1876.19
272.626	1796.19
272.858	1601.19
273.09	1388.19
273.322	1394.19
273.553	1313.19
273.785	1343.19
274.017	1368.19
274.249	1500.19
274.481	1488.19
274.713	1350.19
274.945	1338.19
275.176	1356.19
275.408	1356.19
275.64	1324.19
275.872	1288.19
276.104	1387.19
276.335	1602.19
276.567	1797.19
276.799	1807.19
277.031	1616.19
277.262	1547.19
277.494	1579.19
277.726	1757.19
277.957	1734.19
278.189	1614.19
278.421	1475.19
278.652	1431.19
278.884	1396.19
279.115	1408.19
279.347	1435.19
279.579	1393.19
279.81	1413.19
280.042	1581.19
280.273	1719.19
280.505	1669.19
280.736	1747.19
280.968	1683.19
281.199	1426.19
281.431	1396.19
281.662	1386.19
281.894	1420.19
282.125	1417.19
282.356	1442.19
282.588	1480.19
282.819	1459.19
283.051	1584.19
283.282	1749.19
283.513	1695.19
283.745	1468.19
283.976	1387.19
284.207	1375.19
284.439	1414.19
284.67	1451.19
284.901	1471.19
285.132	1498.19
285.364	1486.19
285.595	1525.19
285.826	1460.19
286.057	1458.19
286.288	1466.19
286.52	1450.19
286.751	1613.19
286.982	1659.19
287.213	1529.19
287.444	1440.19
287.675	1411.19
287.906	1503.19
288.138	1592.19
288.369	1527.19
288.6	1490.19
288.831	1424.19
289.062	1399.19
289.293	1494.19
289.524	1465.19
289.755	1519.19
289.986	1505.19
290.217	1400.19
290.448	1411.19
290.679	1504.19
290.91	1443.19
291.141	1520.19
291.371	1576.19
291.602	1580.19
291.833	1540.19
292.064	1608.19
292.295	1573.19
292.526	1615.19
292.757	1657.19
292.987	1608.19
293.218	1487.19
293.449	1614.19
293.68	1800.19
293.91	1985.19
294.141	1844.19
294.372	1683.19
294.603	1789.19
294.833	1850.19
295.064	1753.19
295.295	1569.19
295.525	1558.19
295.756	1452.19
295.987	1374.19
296.217	1391.19
296.448	1420.19
296.679	1424.19
296.909	1421.19
297.14	1435.19
297.37	1479.19
297.601	1532.19
297.831	1658.19
298.062	1671.19
298.292	1529.19
298.523	1464.19
298.753	1492.19
298.984	1459.19
299.214	1508.19
299.445	1531.19
299.675	1570.19
299.905	1570.19
300.136	1506.19
300.366	1487.19
300.597	1443.19
300.827	1455.19
301.057	1495.19
301.288	1612.19
301.518	1555.19
301.748	1597.19
301.979	1654.19
302.209	1685.19
302.439	1770.19
302.669	1900.19
302.9	1757.19
303.13	1557.19
303.36	1587.19
303.59	1606.19
303.82	1601.19
304.051	1562.19
304.281	1586.19
304.511	1594.19
304.741	1683.19
304.971	1887.19
305.201	1990.19
305.431	1845.19
305.661	1524.19
305.891	1403.19
306.121	1388.19
306.352	1431.19
306.582	1503.19
306.812	1635.19
307.042	1752.19
307.272	1722.19
307.502	1773.19
307.731	1924.19
307.961	2065.19
308.191	1943.19
308.421	1678.19
308.651	1547.19
308.881	1508.19
309.111	1536.19
309.341	1498.19
309.571	1543.19
309.8	1512.19
310.03	1543.19
310.26	1537.19
310.49	1479.19
310.72	1551.19
310.949	1570.19
311.179	1650.19
311.409	1631.19
311.639	1549.19
311.868	1543.19
312.098	1561.19
312.328	1565.19
312.557	1542.19
312.787	1590.19
313.017	1605.19
313.246	1572.19
313.476	1572.19
313.706	1640.19
313.935	1642.19
314.165	1637.19
314.394	1671.19
314.624	1772.19
314.853	1836.19
315.083	1910.19
315.312	1991.19
315.542	1856.19
315.771	1667.19
316.001	1611.19
316.23	1724.19
316.46	1752.19
316.689	1723.19
316.919	1624.19
317.148	1573.19
317.377	1559.19
317.607	1706.19
317.836	1908.19
318.065	1981.19
318.295	1906.19
318.524	1815.19
318.753	1707.19
318.983	1727.19
319.212	1697.19
319.441	1668.19
319.67	1659.19
319.9	1675.19
320.129	1733.19
320.358	1802.19
320.587	1865.19
320.816	1851.19
321.046	1829.19
321.275	1722.19
321.504	1731.19
321.733	1903.19
321.962	1847.19
322.191	1689.19
322.42	1685.19
322.649	1665.19
322.878	1660.19
323.108	1679.19
323.337	1757.19
323.566	1739.19
323.795	1749.19
324.024	1727.19
324.253	1693.19
324.482	1754.19
324.71	1676.19
324.939	1563.19
325.168	1583.19
325.397	1654.19
325.626	1700.19
325.855	1747.19
326.084	1677.19
326.313	1666.19
326.542	1707.19
326.77	1764.19
326.999	1776.19
327.228	1695.19
327.457	1604.19
327.686	1596.19
327.914	1662.19
328.143	1694.19
328.372	1716.19
328.6	1686.19
328.829	1661.19
329.058	1660.19
329.287	1643.19
329.515	1685.19
329.744	1700.19
329.972	1804.19
330.201	1872.19
330.43	1863.19
330.658	1747.19
330.887	1781.19
331.115	1770.19
331.344	1808.19
331.572	1737.19
331.801	1737.19
332.03	1740.19
332.258	1796.19
332.486	1803.19
332.715	1803.19
332.943	1850.19
333.172	1811.19
333.4	1852.19
333.629	1875.19
333.857	1971.19
334.085	2137.19
334.314	2376.19
334.542	2599.19
334.771	2368.19
334.999	2135.19
335.227	2000.19
335.455	1904.19
335.684	1909.19
335.912	1916.19
336.14	2024.19
336.369	1940.19
336.597	1816.19
336.825	1828.19
337.053	1867.19
337.281	1920.19
337.51	1998.19
337.738	2077.19
337.966	2027.19
338.194	1853.19
338.422	1759.19
338.65	1780.19
338.878	1766.19
339.106	1729.19
339.334	1695.19
339.562	1662.19
339.79	1708.19
340.018	1779.19
340.246	1875.19
340.474	1875.19
340.702	1824.19
340.93	1889.19
341.158	1830.19
341.386	1800.19
341.614	1785.19
341.842	1768.19
342.07	1746.19
342.298	1791.19
342.526	1725.19
342.754	1736.19
342.981	1708.19
343.209	1731.19
343.437	1770.19
343.665	1741.19
343.893	1812.19
344.12	1871.19
344.348	1911.19
344.576	1819.19
344.804	1788.19
345.031	1769.19
345.259	1778.19
345.487	1728.19
345.714	1664.19
345.942	1634.19
346.17	1619.19
346.397	1663.19
346.625	1685.19
346.853	1585.19
347.08	1599.19
347.308	1620.19
347.535	1613.19
347.763	1672.19
347.99	1638.19
348.218	1611.19
348.445	1608.19
348.673	1624.19
348.9	1698.19
349.128	1678.19
349.355	1768.19
349.583	1714.19
349.81	1698.19
350.037	1519.19
350.265	1567.19
350.492	1585.19
350.72	1584.19
350.947	1624.19
351.174	1691.19
351.402	1608.19
351.629	1545.19
351.856	1530.19
352.083	1485.19
352.311	1541.19
352.538	1553.19
352.765	1600.19
352.992	1681.19
353.22	1647.19
353.447	1602.19
353.674	1619.19
353.901	1597.19
354.128	1580.19
354.355	1564.19
354.583	1651.19
354.81	1679.19
355.037	1656.19
355.264	1649.19
355.491	1644.19
355.718	1659.19
355.945	1610.19
356.172	1624.19
356.399	1579.19
356.626	1568.19
356.853	1627.19
357.08	1712.19
357.307	1899.19
357.534	1955.19
357.761	1700.19
357.988	1586.19
358.215	1537.19
358.441	1564.19
358.668	1546.19
358.895	1524.19
359.122	1660.19
359.349	1786.19
359.576	1797.19
359.802	1637.19
360.029	1579.19
360.256	1564.19
360.483	1571.19
360.709	1641.19
360.936	1669.19
361.163	1700.19
361.39	1854.19
361.616	2019.19
361.843	1970.19
362.07	1872.19
362.296	1681.19
362.523	1588.19
362.749	1608.19
362.976	1630.19
363.203	1690.19
363.429	1613.19
363.656	1567.19
363.882	1624.19
364.109	1751.19
364.335	1879.19
364.562	1747.19
364.788	1714.19
365.015	1608.19
365.241	1601.19
365.468	1588.19
365.694	1692.19
365.92	1727.19
366.147	1695.19
366.373	1579.19
366.599	1551.19
366.826	1528.19
367.052	1617.19
367.278	1606.19
367.505	1594.19
367.731	1657.19
367.957	1652.19
368.184	1684.19
368.41	1762.19
368.636	1810.19
368.862	1803.19
369.089	1822.19
369.315	1796.19
369.541	1713.19
369.767	1661.19
369.993	1597.19
370.219	1620.19
370.445	1662.19
370.672	1725.19
370.898	1802.19
371.124	1837.19
371.35	1708.19
371.576	1730.19
371.802	1828.19
372.028	1743.19
372.254	1689.19
372.48	1659.19
372.706	1656.19
372.932	1599.19
373.158	1606.19
373.384	1704.19
373.61	1727.19
373.835	1795.19
374.061	1753.19
374.287	1706.19
374.513	1704.19
374.739	1697.19
374.965	1708.19
375.191	1771.19
375.416	1800.19
375.642	1759.19
375.868	1832.19
376.094	1923.19
376.319	1860.19
376.545	1697.19
376.771	1730.19
376.997	1809.19
377.222	1792.19
377.448	1766.19
377.674	1780.19
377.899	1771.19
378.125	1863.19
378.35	1896.19
378.576	1683.19
378.802	1664.19
379.027	1661.19
379.253	1664.19
379.478	1650.19
379.704	1681.19
379.929	1663.19
380.155	1669.19
380.38	1727.19
380.606	1745.19
380.831	1708.19
381.057	1795.19
381.282	1791.19
381.507	1776.19
381.733	1861.19
381.958	1909.19
382.184	1793.19
382.409	1767.19
382.634	1777.19
382.86	1783.19
383.085	1805.19
383.31	1787.19
383.535	1959.19
383.761	2088.19
383.986	1969.19
384.211	1876.19
384.436	1890.19
384.662	1992.19
384.887	2040.19
385.112	1944.19
385.337	1958.19
385.562	1920.19
385.787	1923.19
386.013	2007.19
386.238	2008.19
386.463	1943.19
386.688	2068.19
386.913	2206.19
387.138	2234.19
387.363	1976.19
387.588	1983.19
387.813	1985.19
388.038	2051.19
388.263	2075.19
388.488	2055.19
388.713	1874.19
388.938	1860.19
389.163	1901.19
389.387	1908.19
389.612	1907.19
389.837	1994.19
390.062	1986.19
390.287	1997.19
390.512	1939.19
390.736	1906.19
390.961	1906.19
391.186	1837.19
391.411	1874.19
391.636	1911.19
391.86	1958.19
392.085	1943.19
392.31	1948.19
392.534	1944.19
392.759	2000.19
392.984	1964.19
393.208	1937.19
393.433	1993.19
393.658	2080.19
393.882	2128.19
394.107	2003.19
394.331	1965.19
394.556	1883.19
394.78	1961.19
395.005	1991.19
395.229	2107.19
395.454	2205.19
395.678	2223.19
395.903	2169.19
396.127	2090.19
396.352	2063.19
396.576	2138.19
396.801	2146.19
397.025	2099.19
397.249	2113.19
397.474	2108.19
397.698	2067.19
397.922	2148.19
398.147	2215.19
398.371	2311.19
398.595	2355.19
398.82	2237.19
399.044	2290.19
399.268	2376.19
399.492	2509.19
399.717	2623.19
399.941	2629.19
400.165	2571.19
400.389	2508.19
400.613	2502.19
400.837	2690.19
401.062	3115.19
401.286	2720.19
401.51	2410.19
401.734	2556.19
401.958	2424.19
402.182	2329.19
402.406	2252.19
402.63	2172.19
402.854	2247.19
403.078	2248.19
403.302	2278.19
403.526	2364.19
403.75	2315.19
403.974	2326.19
404.198	2294.19
404.422	2391.19
404.645	2487.19
404.869	2482.19
405.093	2287.19
405.317	2229.19
405.541	2316.19
405.765	2378.19
405.988	2327.19
406.212	2391.19
406.436	2466.19
406.66	2485.19
406.883	2530.19
407.107	2737.19
407.331	3056.19
407.555	3195.19
407.778	3062.19
408.002	2534.19
408.226	2440.19
408.449	2455.19
408.673	2355.19
408.896	2375.19
409.12	2441.19
409.344	2360.19
409.567	2289.19
409.791	2329.19
410.014	2356.19
410.238	2475.19
410.461	2623.19
410.685	2365.19
410.908	2294.19
411.132	2322.19
411.355	2306.19
411.578	2278.19
411.802	2211.19
412.025	2338.19
412.249	2276.19
412.472	2215.19
412.695	2183.19
412.919	2212.19
413.142	2194.19
413.365	2196.19
413.589	2294.19
413.812	2345.19
414.035	2416.19
414.258	2315.19
414.482	2219.19
414.705	2238.19
414.928	2191.19
415.151	2204.19
415.374	2262.19
415.597	2317.19
415.821	2247.19
416.044	2341.19
416.267	2362.19
416.49	2183.19
416.713	2084.19
416.936	2173.19
417.159	2275.19
417.382	2327.19
417.605	2152.19
417.828	2232.19
418.051	2267.19
418.274	2199.19
418.497	2131.19
418.72	2134.19
418.943	2126.19
419.166	2266.19
419.389	2402.19
419.611	2281.19
419.834	2177.19
420.057	2207.19
420.28	2150.19
420.503	2101.19
420.726	2187.19
420.948	2150.19
421.171	2129.19
421.394	2120.19
421.617	2199.19
421.839	2187.19
422.062	2157.19
422.285	2045.19
422.507	2146.19
422.73	2038.19
422.953	2058.19
423.175	2069.19
423.398	2116.19
423.621	2134.19
423.843	2138.19
424.066	2166.19
424.288	2212.19
424.511	2284.19
424.733	2224.19
424.956	2034.19
425.178	1996.19
425.401	2063.19
425.623	2116.19
425.846	2033.19
426.068	2189.19
426.291	2199.19
426.513	2157.19
426.735	2160.19
426.958	2329.19
427.18	2413.19
427.402	2235.19
427.625	2270.19
427.847	2275.19
428.069	2161.19
428.292	2094.19
428.514	2019.19
428.736	2060.19
428.958	2044.19
429.181	2082.19
429.403	2323.19
429.625	2882.19
429.847	2488.19
430.069	2117.19
430.292	2311.19
430.514	2422.19
430.736	2201.19
430.958	2298.19
431.18	2223.19
431.402	2087.19
431.624	2052.19
431.846	2086.19
432.068	2039.19
432.29	2109.19
432.512	2097.19
432.734	2131.19
432.956	2139.19
433.178	2236.19
433.4	2193.19
433.622	2205.19
433.844	2101.19
434.066	2043.19
434.287	2061.19
434.509	2071.19
434.731	2217.19
434.953	2305.19
435.175	2337.19
435.397	2196.19
435.618	2183.19
435.84	2185.19
436.062	2138.19
436.284	2163.19
436.505	2181.19
436.727	2179.19
436.949	2140.19
437.17	2117.19
437.392	2082.19
437.614	2077.19
437.835	2028.19
438.057	2159.19
438.278	2232.19
438.5	2084.19
438.721	2039.19
438.943	2069.19
439.165	2068.19
439.386	2000.19
439.608	2038.19
439.829	2024.19
440.05	2032.19
440.272	2013.19
440.493	1994.19
440.715	2070.19
440.936	2193.19
441.158	2442.19
441.379	2303.19
441.6	2246.19
441.822	2212.19
442.043	2196.19
442.264	2144.19
442.486	2072.19
442.707	2041.19
442.928	1992.19
443.149	2059.19
443.371	2221.19
443.592	2322.19
443.813	2243.19
444.034	2230.19
444.255	2248.19
444.476	2321.19
444.698	2368.19
444.919	2314.19
445.14	2337.19
445.361	2409.19
445.582	2423.19
445.803	2358.19
446.024	2227.19
446.245	2300.19
446.466	2228.19
446.687	2132.19
446.908	2109.19
447.129	2075.19
447.35	2132.19
447.571	2058.19
447.792	2007.19
448.013	1986.19
448.234	2013.19
448.455	2147.19
448.675	2116.19
448.896	1966.19
449.117	1915.19
449.338	2001.19
449.559	2058.19
449.779	2208.19
450	2375.19
450.221	2602.19
450.442	2507.19
450.662	2195.19
450.883	1976.19
451.104	1913.19
451.324	1968.19
451.545	2057.19
451.766	1985.19
451.986	1914.19
452.207	1940.19
452.428	1853.19
452.648	1803.19
452.869	1867.19
453.089	2011.19
453.31	1992.19
453.53	2089.19
453.751	2007.19
453.971	1864.19
454.192	1899.19
454.412	2029.19
454.633	1988.19
454.853	1920.19
455.073	1803.19
455.294	1764.19
455.514	1795.19
455.734	1819.19
455.955	1854.19
456.175	1857.19
456.395	1808.19
456.616	1876.19
456.836	1898.19
457.056	1887.19
457.276	1875.19
457.497	1832.19
457.717	1780.19
457.937	1832.19
458.157	1860.19
458.377	1839.19
458.598	1835.19
458.818	1826.19
459.038	1942.19
459.258	2098.19
459.478	2095.19
459.698	2000.19
459.918	2071.19
460.138	2168.19
460.358	2221.19
460.578	2217.19
460.798	2256.19
461.018	2406.19
461.238	2322.19
461.458	2186.19
461.678	2210.19
461.898	2204.19
462.118	2123.19
462.338	2259.19
462.558	2197.19
462.777	2175.19
462.997	2331.19
463.217	2456.19
463.437	2420.19
463.657	2252.19
463.876	2239.19
464.096	2191.19
464.316	2249.19
464.536	2317.19
464.755	2264.19
464.975	2383.19
465.195	2195.19
465.414	2328.19
465.634	2327.19
465.854	2208.19
466.073	2272.19
466.293	2266.19
466.512	2047.19
466.732	2035.19
466.951	2071.19
467.171	2084.19
467.391	2034.19
467.61	1981.19
467.829	1955.19
468.049	2097.19
468.268	2314.19
468.488	2247.19
468.707	2075.19
468.927	2037.19
469.146	2012.19
469.365	1927.19
469.585	2019.19
469.804	1959.19
470.023	1991.19
470.243	2019.19
470.462	2047.19
470.681	1978.19
470.901	2007.19
471.12	2025.19
471.339	1996.19
471.558	1964.19
471.777	1937.19
471.997	2024.19
472.216	1980.19
472.435	1893.19
472.654	1940.19
472.873	2023.19
473.092	2162.19
473.311	2067.19
473.53	1938.19
473.749	1880.19
473.968	1980.19
474.187	2087.19
474.406	2182.19
474.625	2004.19
474.844	2012.19
475.063	1990.19
475.282	2051.19
475.501	1996.19
475.72	2038.19
475.939	2142.19
476.158	2053.19
476.377	2050.19
476.596	2083.19
476.814	2099.19
477.033	2107.19
477.252	2159.19
477.471	2205.19
477.69	2125.19
477.908	2142.19
478.127	2203.19
478.346	2449.19
478.564	2419.19
478.783	2435.19
479.002	2476.19
479.22	2411.19
479.439	2500.19
479.658	2829.19
479.876	2770.19
480.095	2445.19
480.313	2381.19
480.532	2232.19
480.751	2261.19
480.969	2290.19
481.188	2311.19
481.406	2254.19
481.624	2199.19
481.843	2229.19
482.061	2304.19
482.28	2321.19
482.498	2361.19
482.717	2369.19
482.935	2214.19
483.153	2220.19
483.372	2283.19
483.59	2239.19
483.808	2267.19
484.027	2291.19
484.245	2451.19
484.463	2761.19
484.681	3185.19
484.9	2477.19
485.118	2325.19
485.336	2311.19
485.554	2354.19
485.772	2484.19
485.99	2432.19
486.209	2465.19
486.427	2448.19
486.645	2418.19
486.863	2387.19
487.081	2453.19
487.299	2503.19
487.517	2437.19
