Data from WStandard_LampEnergy5.5LIBS07252019.E.O._I.C._HRD10591_16-08-33-920.txt Node
Date: Thu Jul 25 16:08:33 EDT 2019
User: cochatt
Spectrometer: HR+D1059
Trigger mode: 1
Integration Time (sec): 1.000000E-1
Scans to average: 1
Electric dark correction enabled: true
Nonlinearity correction enabled: false
Boxcar width: 0
XAxis mode: Wavelengths
Number of Pixels in Spectrum: 2048
>>>>>Begin Spectral Data<<<<<
223.165	-20.19
223.4	-20.19
223.635	-20.19
223.869	-13.19
224.104	-14.19
224.338	-17.19
224.573	-19.19
224.808	-3.19
225.042	1.81
225.277	-10.19
225.511	-4.19
225.746	-5.19
225.98	0.81
226.215	10.81
226.449	15.81
226.683	13.81
226.918	29.81
227.152	33.81
227.387	21.81
227.621	38.81
227.856	42.81
228.09	53.81
228.324	43.81
228.559	55.81
228.793	138.81
229.027	378.81
229.262	368.81
229.496	392.81
229.73	397.81
229.964	448.81
230.199	442.81
230.433	472.81
230.667	507.81
230.901	531.81
231.136	472.81
231.37	458.81
231.604	446.81
231.838	464.81
232.072	465.81
232.306	444.81
232.541	481.81
232.775	534.81
233.009	589.81
233.243	581.81
233.477	538.81
233.711	549.81
233.945	557.81
234.179	541.81
234.413	592.81
234.647	628.81
234.881	598.81
235.115	535.81
235.349	566.81
235.583	564.81
235.817	541.81
236.051	555.81
236.285	557.81
236.519	569.81
236.753	637.81
236.987	666.81
237.221	675.81
237.455	748.81
237.689	707.81
237.922	672.81
238.156	637.81
238.39	676.81
238.624	689.81
238.858	748.81
239.091	763.81
239.325	770.81
239.559	916.81
239.793	926.81
240.027	1031.81
240.26	1033.81
240.494	753.81
240.728	699.81
240.961	706.81
241.195	727.81
241.429	810.81
241.662	821.81
241.896	752.81
242.13	738.81
242.363	826.81
242.597	918.81
242.83	850.81
243.064	872.81
243.298	959.81
243.531	932.81
243.765	923.81
243.998	918.81
244.232	830.81
244.465	776.81
244.699	768.81
244.932	874.81
245.166	1026.81
245.399	976.81
245.633	920.81
245.866	897.81
246.099	948.81
246.333	946.81
246.566	947.81
246.8	1012.81
247.033	1168.81
247.266	1060.81
247.5	1073.81
247.733	1039.81
247.966	1085.81
248.2	1216.81
248.433	1164.81
248.666	1189.81
248.899	1285.81
249.133	1554.81
249.366	1728.81
249.599	1410.81
249.832	1221.81
250.066	1251.81
250.299	1300.81
250.532	1194.81
250.765	1060.81
250.998	1162.81
251.231	1179.81
251.465	1212.81
251.698	1158.81
251.931	1175.81
252.164	1196.81
252.397	1222.81
252.63	1257.81
252.863	1104.81
253.096	1084.81
253.329	1138.81
253.562	1192.81
253.795	1281.81
254.028	1266.81
254.261	1164.81
254.494	1158.81
254.727	1082.81
254.96	1129.81
255.193	1254.81
255.426	1410.81
255.659	1596.81
255.892	1662.81
256.124	1347.81
256.357	1326.81
256.59	1398.81
256.823	1407.81
257.056	1382.81
257.289	1708.81
257.521	1894.81
257.754	1707.81
257.987	1574.81
258.22	1744.81
258.452	1703.81
258.685	1372.81
258.918	1329.81
259.151	1363.81
259.383	1300.81
259.616	1171.81
259.849	1205.81
260.081	1397.81
260.314	1524.81
260.547	1672.81
260.779	1675.81
261.012	1634.81
261.244	1444.81
261.477	1330.81
261.71	1404.81
261.942	1420.81
262.175	1373.81
262.407	1440.81
262.64	1324.81
262.872	1290.81
263.105	1265.81
263.337	1257.81
263.57	1280.81
263.802	1338.81
264.035	1194.81
264.267	1143.81
264.499	1136.81
264.732	1167.81
264.964	1286.81
265.197	1332.81
265.429	1350.81
265.661	1531.81
265.894	1686.81
266.126	1746.81
266.358	1568.81
266.591	1642.81
266.823	1810.81
267.055	1645.81
267.287	1567.81
267.52	1553.81
267.752	1506.81
267.984	1518.81
268.216	1623.81
268.448	1677.81
268.681	1655.81
268.913	1482.81
269.145	1396.81
269.377	1365.81
269.609	1460.81
269.841	1708.81
270.073	1988.81
270.306	2247.81
270.538	2405.81
270.77	2036.81
271.002	1730.81
271.234	1600.81
271.466	1604.81
271.698	1780.81
271.93	2193.81
272.162	2188.81
272.394	1928.81
272.626	1906.81
272.858	1663.81
273.09	1453.81
273.322	1442.81
273.553	1346.81
273.785	1353.81
274.017	1428.81
274.249	1542.81
274.481	1550.81
274.713	1422.81
274.945	1411.81
275.176	1406.81
275.408	1402.81
275.64	1385.81
275.872	1346.81
276.104	1433.81
276.335	1642.81
276.567	1877.81
276.799	1894.81
277.031	1676.81
277.262	1592.81
277.494	1664.81
277.726	1792.81
277.957	1773.81
278.189	1662.81
278.421	1509.81
278.652	1500.81
278.884	1480.81
279.115	1460.81
279.347	1483.81
279.579	1462.81
279.81	1460.81
280.042	1595.81
280.273	1741.81
280.505	1732.81
280.736	1816.81
280.968	1698.81
281.199	1491.81
281.431	1392.81
281.662	1417.81
281.894	1451.81
282.125	1487.81
282.356	1501.81
282.588	1579.81
282.819	1509.81
283.051	1641.81
283.282	1779.81
283.513	1702.81
283.745	1504.81
283.976	1410.81
284.207	1439.81
284.439	1482.81
284.67	1509.81
284.901	1505.81
285.132	1554.81
285.364	1480.81
285.595	1525.81
285.826	1500.81
286.057	1477.81
286.288	1453.81
286.52	1505.81
286.751	1671.81
286.982	1730.81
287.213	1607.81
287.444	1432.81
287.675	1457.81
287.906	1534.81
288.138	1624.81
288.369	1604.81
288.6	1475.81
288.831	1444.81
289.062	1468.81
289.293	1500.81
289.524	1478.81
289.755	1560.81
289.986	1593.81
290.217	1438.81
290.448	1468.81
290.679	1545.81
290.91	1522.81
291.141	1557.81
291.371	1620.81
291.602	1621.81
291.833	1575.81
292.064	1624.81
292.295	1592.81
292.526	1636.81
292.757	1712.81
292.987	1622.81
293.218	1512.81
293.449	1616.81
293.68	1811.81
293.91	1974.81
294.141	1878.81
294.372	1762.81
294.603	1811.81
294.833	1899.81
295.064	1835.81
295.295	1633.81
295.525	1576.81
295.756	1449.81
295.987	1371.81
296.217	1440.81
296.448	1470.81
296.679	1466.81
296.909	1471.81
297.14	1468.81
297.37	1493.81
297.601	1556.81
297.831	1706.81
298.062	1721.81
298.292	1541.81
298.523	1505.81
298.753	1476.81
298.984	1533.81
299.214	1506.81
299.445	1555.81
299.675	1614.81
299.905	1604.81
300.136	1577.81
300.366	1544.81
300.597	1447.81
300.827	1452.81
301.057	1521.81
301.288	1635.81
301.518	1563.81
301.748	1657.81
301.979	1686.81
302.209	1724.81
302.439	1885.81
302.669	1969.81
302.9	1786.81
303.13	1628.81
303.36	1592.81
303.59	1656.81
303.82	1637.81
304.051	1628.81
304.281	1654.81
304.511	1609.81
304.741	1705.81
304.971	1875.81
305.201	2108.81
305.431	1950.81
305.661	1589.81
305.891	1422.81
306.121	1409.81
306.352	1461.81
306.582	1543.81
306.812	1646.81
307.042	1761.81
307.272	1809.81
307.502	1836.81
307.731	1974.81
307.961	2144.81
308.191	1940.81
308.421	1702.81
308.651	1585.81
308.881	1564.81
309.111	1572.81
309.341	1545.81
309.571	1551.81
309.8	1566.81
310.03	1534.81
310.26	1539.81
310.49	1523.81
310.72	1559.81
310.949	1648.81
311.179	1678.81
311.409	1654.81
311.639	1588.81
311.868	1527.81
312.098	1525.81
312.328	1570.81
312.557	1530.81
312.787	1603.81
313.017	1598.81
313.246	1628.81
313.476	1616.81
313.706	1701.81
313.935	1646.81
314.165	1656.81
314.394	1679.81
314.624	1780.81
314.853	1891.81
315.083	1958.81
315.312	2050.81
315.542	1888.81
315.771	1702.81
316.001	1652.81
316.23	1804.81
316.46	1772.81
316.689	1742.81
316.919	1661.81
317.148	1610.81
317.377	1565.81
317.607	1702.81
317.836	1911.81
318.065	1998.81
318.295	1883.81
318.524	1854.81
318.753	1757.81
318.983	1741.81
319.212	1742.81
319.441	1693.81
319.67	1638.81
319.9	1672.81
320.129	1784.81
320.358	1920.81
320.587	1904.81
320.816	1878.81
321.046	1860.81
321.275	1760.81
321.504	1759.81
321.733	1906.81
321.962	1865.81
322.191	1747.81
322.42	1707.81
322.649	1671.81
322.878	1715.81
323.108	1722.81
323.337	1784.81
323.566	1761.81
323.795	1729.81
324.024	1801.81
324.253	1740.81
324.482	1750.81
324.71	1679.81
324.939	1640.81
325.168	1643.81
325.397	1713.81
325.626	1769.81
325.855	1752.81
326.084	1710.81
326.313	1707.81
326.542	1726.81
326.77	1785.81
326.999	1840.81
327.228	1714.81
327.457	1652.81
327.686	1623.81
327.914	1668.81
328.143	1663.81
328.372	1740.81
328.6	1738.81
328.829	1645.81
329.058	1667.81
329.287	1656.81
329.515	1694.81
329.744	1756.81
329.972	1840.81
330.201	1929.81
330.43	1796.81
330.658	1779.81
330.887	1777.81
331.115	1801.81
331.344	1851.81
331.572	1759.81
331.801	1800.81
332.03	1753.81
332.258	1824.81
332.486	1832.81
332.715	1813.81
332.943	1849.81
333.172	1800.81
333.4	1794.81
333.629	1832.81
333.857	1944.81
334.085	2157.81
334.314	2440.81
334.542	2654.81
334.771	2470.81
334.999	2158.81
335.227	2073.81
335.455	1940.81
335.684	1933.81
335.912	1929.81
336.14	2035.81
336.369	1986.81
336.597	1872.81
336.825	1839.81
337.053	1874.81
337.281	1948.81
337.51	2077.81
337.738	2150.81
337.966	2084.81
338.194	1874.81
338.422	1828.81
338.65	1806.81
338.878	1746.81
339.106	1741.81
339.334	1684.81
339.562	1688.81
339.79	1716.81
340.018	1827.81
340.246	1893.81
340.474	1915.81
340.702	1828.81
340.93	1862.81
341.158	1843.81
341.386	1809.81
341.614	1779.81
341.842	1800.81
342.07	1778.81
342.298	1801.81
342.526	1812.81
342.754	1757.81
342.981	1746.81
343.209	1760.81
343.437	1746.81
343.665	1779.81
343.893	1773.81
344.12	1870.81
344.348	1951.81
344.576	1819.81
344.804	1754.81
345.031	1780.81
345.259	1777.81
345.487	1725.81
345.714	1680.81
345.942	1632.81
346.17	1607.81
346.397	1683.81
346.625	1720.81
346.853	1613.81
347.08	1581.81
347.308	1619.81
347.535	1644.81
347.763	1673.81
347.99	1652.81
348.218	1615.81
348.445	1600.81
348.673	1635.81
348.9	1663.81
349.128	1736.81
349.355	1810.81
349.583	1725.81
349.81	1690.81
350.037	1571.81
350.265	1546.81
350.492	1567.81
350.72	1604.81
350.947	1642.81
351.174	1718.81
351.402	1638.81
351.629	1576.81
351.856	1559.81
352.083	1515.81
352.311	1554.81
352.538	1578.81
352.765	1635.81
352.992	1722.81
353.22	1636.81
353.447	1589.81
353.674	1639.81
353.901	1686.81
354.128	1641.81
354.355	1562.81
354.583	1684.81
354.81	1702.81
355.037	1652.81
355.264	1692.81
355.491	1659.81
355.718	1669.81
355.945	1669.81
356.172	1653.81
356.399	1561.81
356.626	1574.81
356.853	1629.81
357.08	1752.81
357.307	1964.81
357.534	1940.81
357.761	1708.81
357.988	1611.81
358.215	1544.81
358.441	1577.81
358.668	1545.81
358.895	1553.81
359.122	1645.81
359.349	1819.81
359.576	1823.81
359.802	1666.81
360.029	1559.81
360.256	1552.81
360.483	1603.81
360.709	1618.81
360.936	1710.81
361.163	1724.81
361.39	1904.81
361.616	2026.81
361.843	1984.81
362.07	1897.81
362.296	1665.81
362.523	1586.81
362.749	1617.81
362.976	1625.81
363.203	1662.81
363.429	1658.81
363.656	1541.81
363.882	1649.81
364.109	1780.81
364.335	1922.81
364.562	1823.81
364.788	1746.81
365.015	1672.81
365.241	1595.81
365.468	1613.81
365.694	1671.81
365.92	1745.81
366.147	1732.81
366.373	1606.81
366.599	1592.81
366.826	1577.81
367.052	1591.81
367.278	1605.81
367.505	1624.81
367.731	1674.81
367.957	1651.81
368.184	1666.81
368.41	1806.81
368.636	1846.81
368.862	1813.81
369.089	1847.81
369.315	1773.81
369.541	1714.81
369.767	1629.81
369.993	1622.81
370.219	1629.81
370.445	1657.81
370.672	1755.81
370.898	1830.81
371.124	1820.81
371.35	1707.81
371.576	1753.81
371.802	1865.81
372.028	1738.81
372.254	1694.81
372.48	1624.81
372.706	1606.81
372.932	1638.81
373.158	1670.81
373.384	1661.81
373.61	1716.81
373.835	1818.81
374.061	1731.81
374.287	1684.81
374.513	1733.81
374.739	1734.81
374.965	1746.81
375.191	1766.81
375.416	1760.81
375.642	1784.81
375.868	1866.81
376.094	1929.81
376.319	1832.81
376.545	1704.81
376.771	1704.81
376.997	1832.81
377.222	1822.81
377.448	1773.81
377.674	1797.81
377.899	1767.81
378.125	1837.81
378.35	1887.81
378.576	1707.81
378.802	1669.81
379.027	1628.81
379.253	1687.81
379.478	1693.81
379.704	1687.81
379.929	1720.81
380.155	1714.81
380.38	1713.81
380.606	1761.81
380.831	1724.81
381.057	1801.81
381.282	1805.81
381.507	1803.81
381.733	1862.81
381.958	1926.81
382.184	1820.81
382.409	1739.81
382.634	1782.81
382.86	1800.81
383.085	1779.81
383.31	1834.81
383.535	1958.81
383.761	2085.81
383.986	2021.81
384.211	1921.81
384.436	1888.81
384.662	1970.81
384.887	2125.81
385.112	1949.81
385.337	1961.81
385.562	1983.81
385.787	1958.81
386.013	1992.81
386.238	1998.81
386.463	1992.81
386.688	2087.81
386.913	2225.81
387.138	2189.81
387.363	2034.81
387.588	2057.81
387.813	1997.81
388.038	1994.81
388.263	2079.81
388.488	2046.81
388.713	1865.81
388.938	1886.81
389.163	1904.81
389.387	1945.81
389.612	1915.81
389.837	1931.81
390.062	1959.81
390.287	1942.81
390.512	1947.81
390.736	1927.81
390.961	1899.81
391.186	1838.81
391.411	1933.81
391.636	1949.81
391.86	1988.81
392.085	1941.81
392.31	1941.81
392.534	1970.81
392.759	1963.81
392.984	1924.81
393.208	1940.81
393.433	2021.81
393.658	2051.81
393.882	2135.81
394.107	2002.81
394.331	1914.81
394.556	1897.81
394.78	1946.81
395.005	2037.81
395.229	2078.81
395.454	2244.81
395.678	2236.81
395.903	2131.81
396.127	2102.81
396.352	2086.81
396.576	2108.81
396.801	2156.81
397.025	2105.81
397.249	2129.81
397.474	2105.81
397.698	2089.81
397.922	2145.81
398.147	2228.81
398.371	2298.81
398.595	2330.81
398.82	2249.81
399.044	2264.81
399.268	2372.81
399.492	2491.81
399.717	2601.81
399.941	2605.81
400.165	2560.81
400.389	2503.81
400.613	2490.81
400.837	2694.81
401.062	3121.81
401.286	2728.81
401.51	2477.81
401.734	2532.81
401.958	2472.81
402.182	2260.81
402.406	2267.81
402.63	2247.81
402.854	2223.81
403.078	2260.81
403.302	2309.81
403.526	2313.81
403.75	2310.81
403.974	2360.81
404.198	2308.81
404.422	2394.81
404.645	2486.81
404.869	2488.81
405.093	2329.81
405.317	2251.81
405.541	2382.81
405.765	2399.81
405.988	2318.81
406.212	2376.81
406.436	2454.81
406.66	2513.81
406.883	2497.81
407.107	2769.81
407.331	3012.81
407.555	3191.81
407.778	3101.81
408.002	2539.81
408.226	2473.81
408.449	2477.81
408.673	2396.81
408.896	2422.81
409.12	2422.81
409.344	2377.81
409.567	2316.81
409.791	2319.81
410.014	2366.81
410.238	2493.81
410.461	2596.81
410.685	2434.81
410.908	2282.81
411.132	2317.81
411.355	2294.81
411.578	2279.81
411.802	2303.81
412.025	2293.81
412.249	2327.81
412.472	2176.81
412.695	2228.81
412.919	2193.81
413.142	2200.81
413.365	2225.81
413.589	2277.81
413.812	2337.81
414.035	2494.81
414.258	2277.81
414.482	2180.81
414.705	2214.81
414.928	2184.81
415.151	2162.81
415.374	2172.81
415.597	2289.81
415.821	2289.81
416.044	2321.81
416.267	2345.81
416.49	2159.81
416.713	2123.81
416.936	2185.81
417.159	2265.81
417.382	2296.81
417.605	2121.81
417.828	2254.81
418.051	2285.81
418.274	2195.81
418.497	2122.81
418.72	2162.81
418.943	2114.81
419.166	2324.81
419.389	2372.81
419.611	2251.81
419.834	2152.81
420.057	2234.81
420.28	2132.81
420.503	2165.81
420.726	2160.81
420.948	2194.81
421.171	2105.81
421.394	2126.81
421.617	2181.81
421.839	2224.81
422.062	2130.81
422.285	2123.81
422.507	2090.81
422.73	2088.81
422.953	2041.81
423.175	2031.81
423.398	2139.81
423.621	2115.81
423.843	2135.81
424.066	2178.81
424.288	2260.81
424.511	2288.81
424.733	2249.81
424.956	2099.81
425.178	2003.81
425.401	2060.81
425.623	2106.81
425.846	2039.81
426.068	2173.81
426.291	2233.81
426.513	2201.81
426.735	2151.81
426.958	2274.81
427.18	2424.81
427.402	2230.81
427.625	2272.81
427.847	2340.81
428.069	2176.81
428.292	2141.81
428.514	2050.81
428.736	2018.81
428.958	2038.81
429.181	2052.81
429.403	2348.81
429.625	2916.81
429.847	2532.81
430.069	2150.81
430.292	2284.81
430.514	2429.81
430.736	2302.81
430.958	2382.81
431.18	2254.81
431.402	2081.81
431.624	2055.81
431.846	2060.81
432.068	2044.81
432.29	2094.81
432.512	2080.81
432.734	2080.81
432.956	2156.81
433.178	2258.81
433.4	2208.81
433.622	2201.81
433.844	2112.81
434.066	2050.81
434.287	2037.81
434.509	2130.81
434.731	2237.81
434.953	2391.81
435.175	2278.81
435.397	2163.81
435.618	2184.81
435.84	2188.81
436.062	2170.81
436.284	2163.81
436.505	2194.81
436.727	2208.81
436.949	2154.81
437.17	2155.81
437.392	2058.81
437.614	2086.81
437.835	1957.81
438.057	2151.81
438.278	2206.81
438.5	2118.81
438.721	2052.81
438.943	2113.81
439.165	2071.81
439.386	2011.81
439.608	2050.81
439.829	2038.81
440.05	2019.81
440.272	2022.81
440.493	2010.81
440.715	2041.81
440.936	2170.81
441.158	2412.81
441.379	2340.81
441.6	2283.81
441.822	2230.81
442.043	2193.81
442.264	2139.81
442.486	2054.81
442.707	2057.81
442.928	2027.81
443.149	2134.81
443.371	2250.81
443.592	2327.81
443.813	2230.81
444.034	2228.81
444.255	2266.81
444.476	2297.81
444.698	2383.81
444.919	2326.81
445.14	2453.81
445.361	2381.81
445.582	2473.81
445.803	2368.81
446.024	2252.81
446.245	2358.81
446.466	2297.81
446.687	2169.81
446.908	2169.81
447.129	2081.81
447.35	2119.81
447.571	2114.81
447.792	2018.81
448.013	2012.81
448.234	2081.81
448.455	2135.81
448.675	2133.81
448.896	1990.81
449.117	1942.81
449.338	2008.81
449.559	2100.81
449.779	2237.81
450	2433.81
450.221	2646.81
450.442	2537.81
450.662	2260.81
450.883	1982.81
451.104	1961.81
451.324	2013.81
451.545	2047.81
451.766	2028.81
451.986	1950.81
452.207	1920.81
452.428	1869.81
452.648	1848.81
452.869	1913.81
453.089	2000.81
453.31	2045.81
453.53	2084.81
453.751	1983.81
453.971	1863.81
454.192	1868.81
454.412	2044.81
454.633	1973.81
454.853	1885.81
455.073	1809.81
455.294	1771.81
455.514	1783.81
455.734	1838.81
455.955	1864.81
456.175	1856.81
456.395	1825.81
456.616	1933.81
456.836	1931.81
457.056	1883.81
457.276	1900.81
457.497	1812.81
457.717	1777.81
457.937	1829.81
458.157	1868.81
458.377	1832.81
458.598	1843.81
458.818	1885.81
459.038	1981.81
459.258	2093.81
459.478	2084.81
459.698	2036.81
459.918	2072.81
460.138	2169.81
460.358	2244.81
460.578	2181.81
460.798	2267.81
461.018	2376.81
461.238	2341.81
461.458	2219.81
461.678	2211.81
461.898	2184.81
462.118	2121.81
462.338	2220.81
462.558	2230.81
462.777	2195.81
462.997	2283.81
463.217	2426.81
463.437	2462.81
463.657	2277.81
463.876	2250.81
464.096	2242.81
464.316	2193.81
464.536	2337.81
464.755	2305.81
464.975	2360.81
465.195	2225.81
465.414	2356.81
465.634	2376.81
465.854	2202.81
466.073	2390.81
466.293	2317.81
466.512	2087.81
466.732	2021.81
466.951	2146.81
467.171	2125.81
467.391	2060.81
467.61	1939.81
467.829	2010.81
468.049	2120.81
468.268	2394.81
468.488	2245.81
468.707	2161.81
468.927	2036.81
469.146	2031.81
469.365	1977.81
469.585	1985.81
469.804	1971.81
470.023	2016.81
470.243	2032.81
470.462	1988.81
470.681	1976.81
470.901	2018.81
471.12	2018.81
471.339	2015.81
471.558	1946.81
471.777	1927.81
471.997	1967.81
472.216	1994.81
472.435	1914.81
472.654	1952.81
472.873	2036.81
473.092	2119.81
473.311	2088.81
473.53	1905.81
473.749	1885.81
473.968	1981.81
474.187	2086.81
474.406	2180.81
474.625	2072.81
474.844	2018.81
475.063	2006.81
475.282	2093.81
475.501	2040.81
475.72	2044.81
475.939	2154.81
476.158	2125.81
476.377	2045.81
476.596	2075.81
476.814	2109.81
477.033	2100.81
477.252	2249.81
477.471	2244.81
477.69	2128.81
477.908	2138.81
478.127	2226.81
478.346	2422.81
478.564	2413.81
478.783	2416.81
479.002	2480.81
479.22	2457.81
479.439	2495.81
479.658	2853.81
479.876	2821.81
480.095	2449.81
480.313	2356.81
480.532	2285.81
480.751	2321.81
480.969	2321.81
481.188	2323.81
481.406	2269.81
481.624	2225.81
481.843	2247.81
482.061	2293.81
482.28	2345.81
482.498	2368.81
482.717	2337.81
482.935	2241.81
483.153	2260.81
483.372	2251.81
483.59	2197.81
483.808	2242.81
484.027	2340.81
484.245	2473.81
484.463	2850.81
484.681	3234.81
484.9	2518.81
485.118	2333.81
485.336	2325.81
485.554	2401.81
485.772	2475.81
485.99	2396.81
486.209	2458.81
486.427	2451.81
486.645	2443.81
486.863	2420.81
487.081	2448.81
487.299	2537.81
