Data from WStandard_LampEnergy8_LIBS07252019.E.O._I.C._HRD10591_15-58-43-929.txt Node
Date: Thu Jul 25 15:58:43 EDT 2019
User: cochatt
Spectrometer: HR+D1059
Trigger mode: 1
Integration Time (sec): 1.000000E-1
Scans to average: 1
Electric dark correction enabled: true
Nonlinearity correction enabled: false
Boxcar width: 0
XAxis mode: Wavelengths
Number of Pixels in Spectrum: 2048
>>>>>Begin Spectral Data<<<<<
223.165	-8.12
223.4	-8.12
223.635	-8.12
223.869	-17.12
224.104	-14.12
224.338	-5.12
224.573	-17.12
224.808	-10.12
225.042	-13.12
225.277	-14.12
225.511	-0.12
225.746	18.88
225.98	4.88
226.215	12.88
226.449	8.88
226.683	11.88
226.918	19.88
227.152	21.88
227.387	40.88
227.621	37.88
227.856	36.88
228.09	45.88
228.324	52.88
228.559	74.88
228.793	101.88
229.027	198.88
229.262	199.88
229.496	220.88
229.73	226.88
229.964	272.88
230.199	267.88
230.433	258.88
230.667	273.88
230.901	304.88
231.136	271.88
231.37	266.88
231.604	256.88
231.838	284.88
232.072	255.88
232.306	266.88
232.541	267.88
232.775	281.88
233.009	325.88
233.243	341.88
233.477	299.88
233.711	283.88
233.945	324.88
234.179	322.88
234.413	321.88
234.647	341.88
234.881	316.88
235.115	287.88
235.349	297.88
235.583	331.88
235.817	293.88
236.051	281.88
236.285	296.88
236.519	321.88
236.753	359.88
236.987	374.88
237.221	336.88
237.455	400.88
237.689	368.88
237.922	362.88
238.156	355.88
238.39	363.88
238.624	380.88
238.858	384.88
239.091	393.88
239.325	437.88
239.559	485.88
239.793	506.88
240.027	521.88
240.26	501.88
240.494	386.88
240.728	363.88
240.961	370.88
241.195	392.88
241.429	428.88
241.662	404.88
241.896	418.88
242.13	392.88
242.363	442.88
242.597	469.88
242.83	456.88
243.064	446.88
243.298	499.88
243.531	485.88
243.765	480.88
243.998	477.88
244.232	415.88
244.465	408.88
244.699	412.88
244.932	455.88
245.166	530.88
245.399	489.88
245.633	474.88
245.866	468.88
246.099	476.88
246.333	496.88
246.566	510.88
246.8	547.88
247.033	580.88
247.266	536.88
247.5	533.88
247.733	560.88
247.966	541.88
248.2	602.88
248.433	601.88
248.666	621.88
248.899	665.88
249.133	764.88
249.366	819.88
249.599	698.88
249.832	619.88
250.066	635.88
250.299	630.88
250.532	582.88
250.765	548.88
250.998	568.88
251.231	610.88
251.465	612.88
251.698	586.88
251.931	576.88
252.164	619.88
252.397	624.88
252.63	617.88
252.863	539.88
253.096	554.88
253.329	589.88
253.562	620.88
253.795	629.88
254.028	607.88
254.261	573.88
254.494	588.88
254.727	574.88
254.96	590.88
255.193	651.88
255.426	732.88
255.659	808.88
255.892	804.88
256.124	694.88
256.357	658.88
256.59	704.88
256.823	711.88
257.056	718.88
257.289	845.88
257.521	926.88
257.754	826.88
257.987	779.88
258.22	852.88
258.452	811.88
258.685	701.88
258.918	684.88
259.151	679.88
259.383	642.88
259.616	582.88
259.849	648.88
260.081	688.88
260.314	787.88
260.547	827.88
260.779	831.88
261.012	784.88
261.244	699.88
261.477	677.88
261.71	680.88
261.942	681.88
262.175	672.88
262.407	729.88
262.64	664.88
262.872	635.88
263.105	622.88
263.337	646.88
263.57	651.88
263.802	654.88
264.035	598.88
264.267	569.88
264.499	587.88
264.732	627.88
264.964	673.88
265.197	687.88
265.429	728.88
265.661	804.88
265.894	870.88
266.126	869.88
266.358	796.88
266.591	835.88
266.823	859.88
267.055	798.88
267.287	804.88
267.52	789.88
267.752	783.88
267.984	762.88
268.216	798.88
268.448	808.88
268.681	791.88
268.913	774.88
269.145	715.88
269.377	702.88
269.609	762.88
269.841	916.88
270.073	996.88
270.306	1132.88
270.538	1130.88
270.77	977.88
271.002	845.88
271.234	828.88
271.466	834.88
271.698	928.88
271.93	1075.88
272.162	1034.88
272.394	969.88
272.626	906.88
272.858	814.88
273.09	739.88
273.322	716.88
273.553	692.88
273.785	678.88
274.017	707.88
274.249	780.88
274.481	792.88
274.713	747.88
274.945	695.88
275.176	712.88
275.408	677.88
275.64	702.88
275.872	702.88
276.104	734.88
276.335	854.88
276.567	928.88
276.799	946.88
277.031	840.88
277.262	826.88
277.494	845.88
277.726	922.88
277.957	900.88
278.189	826.88
278.421	755.88
278.652	731.88
278.884	739.88
279.115	725.88
279.347	731.88
279.579	761.88
279.81	766.88
280.042	812.88
280.273	892.88
280.505	914.88
280.736	902.88
280.968	822.88
281.199	770.88
281.431	741.88
281.662	720.88
281.894	715.88
282.125	754.88
282.356	775.88
282.588	781.88
282.819	783.88
283.051	865.88
283.282	858.88
283.513	855.88
283.745	778.88
283.976	744.88
284.207	723.88
284.439	755.88
284.67	761.88
284.901	807.88
285.132	804.88
285.364	782.88
285.595	768.88
285.826	752.88
286.057	741.88
286.288	762.88
286.52	818.88
286.751	875.88
286.982	867.88
287.213	835.88
287.444	748.88
287.675	774.88
287.906	794.88
288.138	855.88
288.369	821.88
288.6	757.88
288.831	745.88
289.062	743.88
289.293	785.88
289.524	777.88
289.755	802.88
289.986	809.88
290.217	752.88
290.448	768.88
290.679	801.88
290.91	806.88
291.141	789.88
291.371	857.88
291.602	848.88
291.833	836.88
292.064	887.88
292.295	846.88
292.526	828.88
292.757	849.88
292.987	854.88
293.218	824.88
293.449	875.88
293.68	1001.88
293.91	1006.88
294.141	970.88
294.372	918.88
294.603	966.88
294.833	987.88
295.064	917.88
295.295	824.88
295.525	814.88
295.756	772.88
295.987	730.88
296.217	759.88
296.448	792.88
296.679	786.88
296.909	787.88
297.14	776.88
297.37	796.88
297.601	856.88
297.831	884.88
298.062	907.88
298.292	829.88
298.523	790.88
298.753	807.88
298.984	805.88
299.214	816.88
299.445	846.88
299.675	869.88
299.905	835.88
300.136	839.88
300.366	812.88
300.597	799.88
300.827	771.88
301.057	817.88
301.288	818.88
301.518	869.88
301.748	882.88
301.979	944.88
302.209	968.88
302.439	988.88
302.669	1022.88
302.9	947.88
303.13	878.88
303.36	846.88
303.59	874.88
303.82	841.88
304.051	866.88
304.281	870.88
304.511	867.88
304.741	960.88
304.971	1076.88
305.201	1103.88
305.431	979.88
305.661	835.88
305.891	761.88
306.121	757.88
306.352	826.88
306.582	877.88
306.812	898.88
307.042	962.88
307.272	960.88
307.502	1001.88
307.731	1085.88
307.961	1066.88
308.191	1009.88
308.421	885.88
308.651	837.88
308.881	852.88
309.111	848.88
309.341	832.88
309.571	862.88
309.8	796.88
310.03	838.88
310.26	850.88
310.49	844.88
310.72	854.88
310.949	915.88
311.179	905.88
311.409	851.88
311.639	864.88
311.868	868.88
312.098	856.88
312.328	849.88
312.557	853.88
312.787	879.88
313.017	914.88
313.246	859.88
313.476	880.88
313.706	888.88
313.935	901.88
314.165	892.88
314.394	960.88
314.624	992.88
314.853	1041.88
315.083	1087.88
315.312	1072.88
315.542	1008.88
315.771	904.88
316.001	909.88
316.23	982.88
316.46	973.88
316.689	939.88
316.919	902.88
317.148	861.88
317.377	922.88
317.607	992.88
317.836	1060.88
318.065	1097.88
318.295	1076.88
318.524	985.88
318.753	987.88
318.983	962.88
319.212	939.88
319.441	942.88
319.67	946.88
319.9	954.88
320.129	994.88
320.358	1052.88
320.587	1065.88
320.816	1069.88
321.046	1005.88
321.275	969.88
321.504	1039.88
321.733	1069.88
321.962	1010.88
322.191	938.88
322.42	960.88
322.649	928.88
322.878	933.88
323.108	949.88
323.337	971.88
323.566	997.88
323.795	954.88
324.024	965.88
324.253	918.88
324.482	930.88
324.71	913.88
324.939	916.88
325.168	905.88
325.397	941.88
325.626	957.88
325.855	972.88
326.084	952.88
326.313	945.88
326.542	953.88
326.77	998.88
326.999	992.88
327.228	940.88
327.457	884.88
327.686	883.88
327.914	913.88
328.143	925.88
328.372	946.88
328.6	977.88
328.829	942.88
329.058	939.88
329.287	932.88
329.515	947.88
329.744	968.88
329.972	1015.88
330.201	1058.88
330.43	1020.88
330.658	979.88
330.887	987.88
331.115	977.88
331.344	998.88
331.572	984.88
331.801	977.88
332.03	967.88
332.258	987.88
332.486	1009.88
332.715	1040.88
332.943	1012.88
333.172	1021.88
333.4	1021.88
333.629	1022.88
333.857	1129.88
334.085	1248.88
334.314	1403.88
334.542	1412.88
334.771	1316.88
334.999	1152.88
335.227	1123.88
335.455	1060.88
335.684	1033.88
335.912	1111.88
336.14	1139.88
336.369	1064.88
336.597	1037.88
336.825	1013.88
337.053	1085.88
337.281	1131.88
337.51	1156.88
337.738	1175.88
337.966	1112.88
338.194	1005.88
338.422	1009.88
338.65	984.88
338.878	957.88
339.106	956.88
339.334	984.88
339.562	948.88
339.79	987.88
340.018	1012.88
340.246	1069.88
340.474	1014.88
340.702	1029.88
340.93	1032.88
341.158	1039.88
341.386	983.88
341.614	1014.88
341.842	976.88
342.07	983.88
342.298	1038.88
342.526	1016.88
342.754	1001.88
342.981	987.88
343.209	981.88
343.437	990.88
343.665	1001.88
343.893	1042.88
344.12	1069.88
344.348	1072.88
344.576	1001.88
344.804	1002.88
345.031	993.88
345.259	1030.88
345.487	961.88
345.714	907.88
345.942	932.88
346.17	953.88
346.397	952.88
346.625	947.88
346.853	921.88
347.08	899.88
347.308	903.88
347.535	962.88
347.763	972.88
347.99	944.88
348.218	920.88
348.445	899.88
348.673	937.88
348.9	985.88
349.128	991.88
349.355	1013.88
349.583	1014.88
349.81	952.88
350.037	875.88
350.265	872.88
350.492	902.88
350.72	906.88
350.947	949.88
351.174	940.88
351.402	905.88
351.629	891.88
351.856	885.88
352.083	846.88
352.311	880.88
352.538	891.88
352.765	968.88
352.992	945.88
353.22	912.88
353.447	897.88
353.674	956.88
353.901	938.88
354.128	881.88
354.355	896.88
354.583	939.88
354.81	972.88
355.037	966.88
355.264	949.88
355.491	966.88
355.718	953.88
355.945	969.88
356.172	889.88
356.399	885.88
356.626	896.88
356.853	982.88
357.08	1046.88
357.307	1115.88
357.534	1116.88
357.761	966.88
357.988	914.88
358.215	896.88
358.441	908.88
358.668	901.88
358.895	903.88
359.122	1000.88
359.349	1038.88
359.576	1002.88
359.802	920.88
360.029	887.88
360.256	900.88
360.483	911.88
360.709	947.88
360.936	1003.88
361.163	1041.88
361.39	1157.88
361.616	1154.88
361.843	1164.88
362.07	1072.88
362.296	919.88
362.523	913.88
362.749	933.88
362.976	957.88
363.203	953.88
363.429	924.88
363.656	937.88
363.882	966.88
364.109	1046.88
364.335	1136.88
364.562	1036.88
364.788	1005.88
365.015	953.88
365.241	903.88
365.468	949.88
365.694	974.88
365.92	994.88
366.147	963.88
366.373	896.88
366.599	897.88
366.826	914.88
367.052	901.88
367.278	909.88
367.505	940.88
367.731	953.88
367.957	988.88
368.184	1026.88
368.41	1068.88
368.636	1084.88
368.862	1080.88
369.089	1040.88
369.315	1024.88
369.541	993.88
369.767	955.88
369.993	939.88
370.219	938.88
370.445	983.88
370.672	1044.88
370.898	1098.88
371.124	1065.88
371.35	1009.88
371.576	1029.88
371.802	1078.88
372.028	981.88
372.254	1005.88
372.48	929.88
372.706	965.88
372.932	976.88
373.158	987.88
373.384	1017.88
373.61	1053.88
373.835	1052.88
374.061	998.88
374.287	1003.88
374.513	976.88
374.739	998.88
374.965	1012.88
375.191	1022.88
375.416	1034.88
375.642	1042.88
375.868	1101.88
376.094	1146.88
376.319	1087.88
376.545	1013.88
376.771	1041.88
376.997	1128.88
377.222	1046.88
377.448	1052.88
377.674	1054.88
377.899	1089.88
378.125	1129.88
378.35	1100.88
378.576	1016.88
378.802	958.88
379.027	971.88
379.253	1008.88
379.478	990.88
379.704	1018.88
379.929	996.88
380.155	999.88
380.38	1022.88
380.606	1010.88
380.831	1026.88
381.057	1092.88
381.282	1090.88
381.507	1074.88
381.733	1152.88
381.958	1186.88
382.184	1086.88
382.409	1035.88
382.634	1056.88
382.86	1064.88
383.085	1061.88
383.31	1085.88
383.535	1185.88
383.761	1238.88
383.986	1192.88
384.211	1113.88
384.436	1139.88
384.662	1224.88
384.887	1236.88
385.112	1163.88
385.337	1160.88
385.562	1133.88
385.787	1132.88
386.013	1165.88
386.238	1167.88
386.463	1174.88
386.688	1289.88
386.913	1359.88
387.138	1280.88
387.363	1182.88
387.588	1171.88
387.813	1193.88
388.038	1200.88
388.263	1217.88
388.488	1135.88
388.713	1061.88
388.938	1097.88
389.163	1123.88
389.387	1148.88
389.612	1160.88
389.837	1181.88
390.062	1171.88
390.287	1149.88
390.512	1134.88
390.736	1119.88
390.961	1112.88
391.186	1096.88
391.411	1103.88
391.636	1127.88
391.86	1111.88
392.085	1151.88
392.31	1096.88
392.534	1136.88
392.759	1186.88
392.984	1145.88
393.208	1172.88
393.433	1200.88
393.658	1267.88
393.882	1223.88
394.107	1186.88
394.331	1149.88
394.556	1107.88
394.78	1197.88
395.005	1198.88
395.229	1299.88
395.454	1344.88
395.678	1342.88
395.903	1254.88
396.127	1212.88
396.352	1220.88
396.576	1265.88
396.801	1253.88
397.025	1251.88
397.249	1236.88
397.474	1250.88
397.698	1240.88
397.922	1267.88
398.147	1344.88
398.371	1385.88
398.595	1380.88
398.82	1312.88
399.044	1303.88
399.268	1397.88
399.492	1491.88
399.717	1488.88
399.941	1534.88
400.165	1485.88
400.389	1460.88
400.613	1485.88
400.837	1663.88
401.062	1830.88
401.286	1547.88
401.51	1492.88
401.734	1493.88
401.958	1426.88
402.182	1349.88
402.406	1284.88
402.63	1267.88
402.854	1299.88
403.078	1320.88
403.302	1355.88
403.526	1354.88
403.75	1378.88
403.974	1407.88
404.198	1387.88
404.422	1453.88
404.645	1498.88
404.869	1466.88
405.093	1331.88
405.317	1340.88
405.541	1346.88
405.765	1380.88
405.988	1343.88
406.212	1399.88
406.436	1440.88
406.66	1488.88
406.883	1468.88
407.107	1682.88
407.331	1848.88
407.555	1948.88
407.778	1714.88
408.002	1472.88
408.226	1412.88
408.449	1428.88
408.673	1410.88
408.896	1387.88
409.12	1401.88
409.344	1360.88
409.567	1307.88
409.791	1350.88
410.014	1401.88
410.238	1494.88
410.461	1560.88
410.685	1405.88
410.908	1344.88
411.132	1363.88
411.355	1321.88
411.578	1332.88
411.802	1352.88
412.025	1381.88
412.249	1328.88
412.472	1328.88
412.695	1343.88
412.919	1310.88
413.142	1294.88
413.365	1320.88
413.589	1393.88
413.812	1464.88
414.035	1440.88
414.258	1362.88
414.482	1334.88
414.705	1294.88
414.928	1306.88
415.151	1331.88
415.374	1340.88
415.597	1360.88
415.821	1323.88
416.044	1340.88
416.267	1350.88
416.49	1259.88
416.713	1282.88
416.936	1341.88
417.159	1433.88
417.382	1389.88
417.605	1292.88
417.828	1314.88
418.051	1367.88
418.274	1334.88
418.497	1293.88
418.72	1298.88
418.943	1265.88
419.166	1315.88
419.389	1385.88
419.611	1338.88
419.834	1313.88
420.057	1322.88
420.28	1272.88
420.503	1284.88
420.726	1321.88
420.948	1329.88
421.171	1262.88
421.394	1308.88
421.617	1324.88
421.839	1342.88
422.062	1337.88
422.285	1303.88
422.507	1282.88
422.73	1261.88
422.953	1216.88
423.175	1248.88
423.398	1289.88
423.621	1308.88
423.843	1272.88
424.066	1335.88
424.288	1423.88
424.511	1433.88
424.733	1355.88
424.956	1244.88
425.178	1269.88
425.401	1260.88
425.623	1296.88
425.846	1283.88
426.068	1386.88
426.291	1396.88
426.513	1337.88
426.735	1338.88
426.958	1473.88
427.18	1521.88
427.402	1400.88
427.625	1443.88
427.847	1395.88
428.069	1306.88
428.292	1298.88
428.514	1227.88
428.736	1265.88
428.958	1251.88
429.181	1333.88
429.403	1523.88
429.625	1784.88
429.847	1523.88
430.069	1313.88
430.292	1472.88
430.514	1484.88
430.736	1361.88
430.958	1380.88
431.18	1322.88
431.402	1236.88
431.624	1228.88
431.846	1193.88
432.068	1152.88
432.29	1185.88
432.512	1172.88
432.734	1241.88
432.956	1268.88
433.178	1358.88
433.4	1354.88
433.622	1323.88
433.844	1255.88
434.066	1238.88
434.287	1192.88
434.509	1234.88
434.731	1296.88
434.953	1385.88
435.175	1328.88
435.397	1303.88
435.618	1305.88
435.84	1245.88
436.062	1209.88
436.284	1288.88
436.505	1315.88
436.727	1344.88
436.949	1297.88
437.17	1221.88
437.392	1221.88
437.614	1173.88
437.835	1170.88
438.057	1222.88
438.278	1248.88
438.5	1218.88
438.721	1279.88
438.943	1243.88
439.165	1257.88
439.386	1250.88
439.608	1277.88
439.829	1242.88
440.05	1264.88
440.272	1266.88
440.493	1257.88
440.715	1283.88
440.936	1398.88
441.158	1458.88
441.379	1396.88
441.6	1410.88
441.822	1407.88
442.043	1356.88
442.264	1315.88
442.486	1258.88
442.707	1248.88
442.928	1245.88
443.149	1282.88
443.371	1352.88
443.592	1385.88
443.813	1398.88
444.034	1398.88
444.255	1408.88
444.476	1418.88
444.698	1435.88
444.919	1396.88
445.14	1510.88
445.361	1464.88
445.582	1460.88
445.803	1424.88
446.024	1407.88
446.245	1425.88
446.466	1362.88
446.687	1354.88
446.908	1371.88
447.129	1317.88
447.35	1336.88
447.571	1316.88
447.792	1272.88
448.013	1238.88
448.234	1291.88
448.455	1382.88
448.675	1327.88
448.896	1234.88
449.117	1212.88
449.338	1252.88
449.559	1278.88
449.779	1347.88
450	1430.88
450.221	1471.88
450.442	1430.88
450.662	1305.88
450.883	1200.88
451.104	1181.88
451.324	1210.88
451.545	1217.88
451.766	1178.88
451.986	1151.88
452.207	1137.88
452.428	1132.88
452.648	1113.88
452.869	1118.88
453.089	1189.88
453.31	1154.88
453.53	1204.88
453.751	1123.88
453.971	1083.88
454.192	1125.88
454.412	1176.88
454.633	1142.88
454.853	1148.88
455.073	1109.88
455.294	1080.88
455.514	1084.88
455.734	1088.88
455.955	1099.88
456.175	1074.88
456.395	1076.88
456.616	1094.88
456.836	1111.88
457.056	1094.88
457.276	1106.88
457.497	1080.88
457.717	1051.88
457.937	1054.88
458.157	1089.88
458.377	1052.88
458.598	1048.88
458.818	1073.88
459.038	1156.88
459.258	1163.88
459.478	1185.88
459.698	1137.88
459.918	1178.88
460.138	1254.88
460.358	1260.88
460.578	1262.88
460.798	1315.88
461.018	1364.88
461.238	1303.88
461.458	1292.88
461.678	1288.88
461.898	1248.88
462.118	1212.88
462.338	1247.88
462.558	1249.88
462.777	1262.88
462.997	1331.88
463.217	1381.88
463.437	1362.88
463.657	1281.88
463.876	1295.88
464.096	1295.88
464.316	1287.88
464.536	1338.88
464.755	1313.88
464.975	1331.88
465.195	1250.88
465.414	1320.88
465.634	1359.88
465.854	1292.88
466.073	1426.88
466.293	1365.88
466.512	1223.88
466.732	1214.88
466.951	1235.88
467.171	1242.88
467.391	1189.88
467.61	1201.88
467.829	1255.88
468.049	1378.88
468.268	1498.88
468.488	1339.88
468.707	1260.88
468.927	1245.88
469.146	1221.88
469.365	1245.88
469.585	1234.88
469.804	1250.88
470.023	1228.88
470.243	1244.88
470.462	1249.88
470.681	1234.88
470.901	1248.88
471.12	1260.88
471.339	1261.88
471.558	1194.88
471.777	1193.88
471.997	1234.88
472.216	1197.88
472.435	1124.88
472.654	1149.88
472.873	1184.88
473.092	1222.88
473.311	1218.88
473.53	1136.88
473.749	1124.88
473.968	1172.88
474.187	1218.88
474.406	1251.88
474.625	1256.88
474.844	1237.88
475.063	1233.88
475.282	1217.88
475.501	1182.88
475.72	1225.88
475.939	1304.88
476.158	1254.88
476.377	1219.88
476.596	1226.88
476.814	1220.88
477.033	1244.88
477.252	1305.88
477.471	1348.88
477.69	1286.88
477.908	1323.88
478.127	1368.88
478.346	1446.88
478.564	1447.88
478.783	1401.88
479.002	1464.88
479.22	1427.88
479.439	1428.88
479.658	1598.88
479.876	1505.88
480.095	1396.88
480.313	1340.88
480.532	1286.88
480.751	1340.88
480.969	1332.88
481.188	1267.88
481.406	1270.88
481.624	1238.88
481.843	1283.88
482.061	1296.88
482.28	1360.88
482.498	1385.88
482.717	1348.88
482.935	1331.88
483.153	1373.88
483.372	1401.88
483.59	1376.88
483.808	1373.88
484.027	1400.88
484.245	1468.88
484.463	1772.88
484.681	1907.88
484.9	1483.88
485.118	1385.88
485.336	1344.88
485.554	1400.88
485.772	1413.88
485.99	1410.88
486.209	1404.88
486.427	1434.88
486.645	1413.88
486.863	1450.88
487.081	1477.88
487.299	1475.88
487.517	1433.88
487.735	1460.88
487.953	1520.88
488.171	1539.88
488.389	1462.88
488.607	1449.88
488.825	1672.88
489.043	1586.88
489.261	1437.88
489.479	1445.88
489.696	1486.88
489.914	1450.88
490.132	1434.88
490.35	1490.88
490.568	1565.88
490.786	1530.88
491.003	1466.88
491.221	1569.88
491.439	1612.88
491.657	1591.88
491.874	1625.88
492.092	1680.88
492.31	1701.88
492.527	1682.88
492.745	1647.88
492.963	1581.88
493.18	1633.88
493.398	1731.88
