Data from WStandard_LampEnergy8_LIBS07252019.E.O._I.C._HRD10591_15-58-18-929.txt Node
Date: Thu Jul 25 15:58:18 EDT 2019
User: cochatt
Spectrometer: HR+D1059
Trigger mode: 1
Integration Time (sec): 1.000000E-1
Scans to average: 1
Electric dark correction enabled: true
Nonlinearity correction enabled: false
Boxcar width: 0
XAxis mode: Wavelengths
Number of Pixels in Spectrum: 2048
>>>>>Begin Spectral Data<<<<<
223.165	-10.81
223.4	-10.81
223.635	-10.81
223.869	-28.81
224.104	-26.81
224.338	-9.81
224.573	-21.81
224.808	-2.81
225.042	9.19
225.277	0.19
225.511	-5.81
225.746	1.19
225.98	8.19
226.215	11.19
226.449	15.19
226.683	9.19
226.918	19.19
227.152	33.19
227.387	31.19
227.621	30.19
227.856	38.19
228.09	53.19
228.324	46.19
228.559	55.19
228.793	106.19
229.027	203.19
229.262	214.19
229.496	233.19
229.73	226.19
229.964	267.19
230.199	261.19
230.433	259.19
230.667	282.19
230.901	292.19
231.136	278.19
231.37	261.19
231.604	271.19
231.838	259.19
232.072	276.19
232.306	254.19
232.541	271.19
232.775	335.19
233.009	331.19
233.243	310.19
233.477	302.19
233.711	319.19
233.945	332.19
234.179	299.19
234.413	331.19
234.647	348.19
234.881	355.19
235.115	317.19
235.349	314.19
235.583	321.19
235.817	331.19
236.051	308.19
236.285	310.19
236.519	339.19
236.753	348.19
236.987	372.19
237.221	363.19
237.455	385.19
237.689	382.19
237.922	379.19
238.156	371.19
238.39	357.19
238.624	374.19
238.858	403.19
239.091	410.19
239.325	437.19
239.559	483.19
239.793	489.19
240.027	531.19
240.26	513.19
240.494	423.19
240.728	408.19
240.961	399.19
241.195	423.19
241.429	425.19
241.662	427.19
241.896	420.19
242.13	400.19
242.363	445.19
242.597	485.19
242.83	461.19
243.064	474.19
243.298	488.19
243.531	473.19
243.765	490.19
243.998	469.19
244.232	447.19
244.465	405.19
244.699	417.19
244.932	494.19
245.166	533.19
245.399	503.19
245.633	474.19
245.866	456.19
246.099	487.19
246.333	493.19
246.566	532.19
246.8	553.19
247.033	608.19
247.266	585.19
247.5	555.19
247.733	569.19
247.966	566.19
248.2	630.19
248.433	620.19
248.666	643.19
248.899	683.19
249.133	787.19
249.366	825.19
249.599	701.19
249.832	640.19
250.066	646.19
250.299	642.19
250.532	603.19
250.765	557.19
250.998	595.19
251.231	616.19
251.465	627.19
251.698	609.19
251.931	593.19
252.164	619.19
252.397	622.19
252.63	618.19
252.863	567.19
253.096	573.19
253.329	594.19
253.562	595.19
253.795	660.19
254.028	636.19
254.261	612.19
254.494	586.19
254.727	557.19
254.96	590.19
255.193	671.19
255.426	739.19
255.659	805.19
255.892	807.19
256.124	690.19
256.357	653.19
256.59	720.19
256.823	686.19
257.056	757.19
257.289	851.19
257.521	929.19
257.754	801.19
257.987	808.19
258.22	855.19
258.452	820.19
258.685	689.19
258.918	721.19
259.151	682.19
259.383	666.19
259.616	590.19
259.849	656.19
260.081	699.19
260.314	823.19
260.547	853.19
260.779	831.19
261.012	779.19
261.244	704.19
261.477	690.19
261.71	709.19
261.942	695.19
262.175	686.19
262.407	730.19
262.64	675.19
262.872	646.19
263.105	642.19
263.337	639.19
263.57	659.19
263.802	633.19
264.035	603.19
264.267	553.19
264.499	566.19
264.732	627.19
264.964	670.19
265.197	694.19
265.429	711.19
265.661	804.19
265.894	871.19
266.126	893.19
266.358	833.19
266.591	839.19
266.823	893.19
267.055	799.19
267.287	797.19
267.52	772.19
267.752	750.19
267.984	795.19
268.216	834.19
268.448	834.19
268.681	826.19
268.913	724.19
269.145	724.19
269.377	712.19
269.609	774.19
269.841	941.19
270.073	1037.19
270.306	1141.19
270.538	1143.19
270.77	1015.19
271.002	862.19
271.234	840.19
271.466	833.19
271.698	910.19
271.93	1119.19
272.162	1090.19
272.394	993.19
272.626	933.19
272.858	804.19
273.09	726.19
273.322	709.19
273.553	705.19
273.785	692.19
274.017	754.19
274.249	780.19
274.481	789.19
274.713	705.19
274.945	717.19
275.176	713.19
275.408	715.19
275.64	705.19
275.872	708.19
276.104	754.19
276.335	843.19
276.567	921.19
276.799	940.19
277.031	860.19
277.262	833.19
277.494	870.19
277.726	939.19
277.957	892.19
278.189	842.19
278.421	756.19
278.652	770.19
278.884	738.19
279.115	782.19
279.347	751.19
279.579	753.19
279.81	761.19
280.042	866.19
280.273	892.19
280.505	919.19
280.736	921.19
280.968	847.19
281.199	772.19
281.431	755.19
281.662	741.19
281.894	731.19
282.125	744.19
282.356	802.19
282.588	786.19
282.819	783.19
283.051	856.19
283.282	891.19
283.513	882.19
283.745	786.19
283.976	744.19
284.207	731.19
284.439	776.19
284.67	787.19
284.901	775.19
285.132	815.19
285.364	742.19
285.595	799.19
285.826	782.19
286.057	756.19
286.288	758.19
286.52	813.19
286.751	862.19
286.982	874.19
287.213	808.19
287.444	750.19
287.675	772.19
287.906	805.19
288.138	881.19
288.369	796.19
288.6	775.19
288.831	759.19
289.062	746.19
289.293	789.19
289.524	785.19
289.755	829.19
289.986	787.19
290.217	767.19
290.448	778.19
290.679	772.19
290.91	790.19
291.141	820.19
291.371	865.19
291.602	849.19
291.833	793.19
292.064	845.19
292.295	841.19
292.526	883.19
292.757	894.19
292.987	850.19
293.218	819.19
293.449	890.19
293.68	997.19
293.91	1032.19
294.141	1003.19
294.372	933.19
294.603	961.19
294.833	998.19
295.064	958.19
295.295	860.19
295.525	818.19
295.756	784.19
295.987	723.19
296.217	790.19
296.448	774.19
296.679	774.19
296.909	794.19
297.14	791.19
297.37	815.19
297.601	858.19
297.831	931.19
298.062	897.19
298.292	830.19
298.523	810.19
298.753	815.19
298.984	807.19
299.214	802.19
299.445	821.19
299.675	862.19
299.905	860.19
300.136	837.19
300.366	812.19
300.597	777.19
300.827	788.19
301.057	837.19
301.288	881.19
301.518	870.19
301.748	895.19
301.979	946.19
302.209	955.19
302.439	1024.19
302.669	1054.19
302.9	965.19
303.13	898.19
303.36	876.19
303.59	874.19
303.82	874.19
304.051	878.19
304.281	906.19
304.511	905.19
304.741	986.19
304.971	1025.19
305.201	1091.19
305.431	985.19
305.661	797.19
305.891	772.19
306.121	789.19
306.352	828.19
306.582	892.19
306.812	925.19
307.042	962.19
307.272	982.19
307.502	1008.19
307.731	1075.19
307.961	1121.19
308.191	1027.19
308.421	900.19
308.651	872.19
308.881	855.19
309.111	861.19
309.341	851.19
309.571	858.19
309.8	841.19
310.03	843.19
310.26	854.19
310.49	843.19
310.72	875.19
310.949	899.19
311.179	885.19
311.409	857.19
311.639	877.19
311.868	858.19
312.098	884.19
312.328	885.19
312.557	867.19
312.787	876.19
313.017	900.19
313.246	857.19
313.476	876.19
313.706	887.19
313.935	903.19
314.165	926.19
314.394	947.19
314.624	985.19
314.853	1059.19
315.083	1089.19
315.312	1074.19
315.542	1005.19
315.771	895.19
316.001	931.19
316.23	961.19
316.46	965.19
316.689	955.19
316.919	890.19
317.148	868.19
317.377	907.19
317.607	1010.19
317.836	1118.19
318.065	1128.19
318.295	1061.19
318.524	1024.19
318.753	968.19
318.983	963.19
319.212	953.19
319.441	924.19
319.67	951.19
319.9	966.19
320.129	1040.19
320.358	1045.19
320.587	1086.19
320.816	1069.19
321.046	1029.19
321.275	986.19
321.504	1022.19
321.733	1085.19
321.962	1006.19
322.191	964.19
322.42	941.19
322.649	971.19
322.878	951.19
323.108	972.19
323.337	972.19
323.566	981.19
323.795	990.19
324.024	1029.19
324.253	948.19
324.482	937.19
324.71	929.19
324.939	870.19
325.168	893.19
325.397	942.19
325.626	985.19
325.855	1007.19
326.084	964.19
326.313	966.19
326.542	971.19
326.77	1011.19
326.999	977.19
327.228	919.19
327.457	887.19
327.686	911.19
327.914	927.19
328.143	950.19
328.372	948.19
328.6	933.19
328.829	921.19
329.058	924.19
329.287	918.19
329.515	964.19
329.744	992.19
329.972	1020.19
330.201	1045.19
330.43	1020.19
330.658	998.19
330.887	1003.19
331.115	1001.19
331.344	1003.19
331.572	959.19
331.801	959.19
332.03	985.19
332.258	1021.19
332.486	1003.19
332.715	1059.19
332.943	1023.19
333.172	1011.19
333.4	1043.19
333.629	1034.19
333.857	1105.19
334.085	1258.19
334.314	1388.19
334.542	1504.19
334.771	1329.19
334.999	1175.19
335.227	1137.19
335.455	1076.19
335.684	1059.19
335.912	1099.19
336.14	1145.19
336.369	1107.19
336.597	1030.19
336.825	1040.19
337.053	1050.19
337.281	1114.19
337.51	1197.19
337.738	1211.19
337.966	1136.19
338.194	1029.19
338.422	1025.19
338.65	996.19
338.878	979.19
339.106	937.19
339.334	922.19
339.562	954.19
339.79	981.19
340.018	1045.19
340.246	1060.19
340.474	1075.19
340.702	1029.19
340.93	1067.19
341.158	1050.19
341.386	1018.19
341.614	1049.19
341.842	1009.19
342.07	1007.19
342.298	1014.19
342.526	1041.19
342.754	1001.19
342.981	965.19
343.209	970.19
343.437	964.19
343.665	1024.19
343.893	1017.19
344.12	1116.19
344.348	1057.19
344.576	1027.19
344.804	982.19
345.031	1014.19
345.259	1021.19
345.487	968.19
345.714	926.19
345.942	914.19
346.17	945.19
346.397	951.19
346.625	957.19
346.853	893.19
347.08	871.19
347.308	907.19
347.535	955.19
347.763	957.19
347.99	933.19
348.218	909.19
348.445	925.19
348.673	956.19
348.9	972.19
349.128	1009.19
349.355	988.19
349.583	1005.19
349.81	934.19
350.037	897.19
350.265	902.19
350.492	905.19
350.72	934.19
350.947	954.19
351.174	953.19
351.402	883.19
351.629	870.19
351.856	865.19
352.083	876.19
352.311	898.19
352.538	915.19
352.765	969.19
352.992	958.19
353.22	927.19
353.447	926.19
353.674	922.19
353.901	905.19
354.128	917.19
354.355	934.19
354.583	1013.19
354.81	991.19
355.037	990.19
355.264	982.19
355.491	963.19
355.718	939.19
355.945	930.19
356.172	905.19
356.399	902.19
356.626	922.19
356.853	959.19
357.08	1065.19
357.307	1144.19
357.534	1112.19
357.761	942.19
357.988	915.19
358.215	881.19
358.441	870.19
358.668	883.19
358.895	890.19
359.122	971.19
359.349	1088.19
359.576	1026.19
359.802	926.19
360.029	929.19
360.256	920.19
360.483	911.19
360.709	935.19
360.936	1006.19
361.163	1018.19
361.39	1109.19
361.616	1207.19
361.843	1178.19
362.07	1039.19
362.296	935.19
362.523	921.19
362.749	924.19
362.976	994.19
363.203	978.19
363.429	946.19
363.656	909.19
363.882	955.19
364.109	1094.19
364.335	1121.19
364.562	1077.19
364.788	1027.19
365.015	960.19
365.241	912.19
365.468	985.19
365.694	1004.19
365.92	1050.19
366.147	968.19
366.373	945.19
366.599	917.19
366.826	905.19
367.052	894.19
367.278	930.19
367.505	945.19
367.731	970.19
367.957	968.19
368.184	1023.19
368.41	1085.19
368.636	1095.19
368.862	1071.19
369.089	1066.19
369.315	1030.19
369.541	1007.19
369.767	964.19
369.993	916.19
370.219	935.19
370.445	980.19
370.672	1044.19
370.898	1087.19
371.124	1058.19
371.35	1033.19
371.576	1060.19
371.802	1079.19
372.028	1023.19
372.254	982.19
372.48	959.19
372.706	968.19
372.932	962.19
373.158	988.19
373.384	1013.19
373.61	1043.19
373.835	1068.19
374.061	1019.19
374.287	990.19
374.513	989.19
374.739	1012.19
374.965	979.19
375.191	1029.19
375.416	1031.19
375.642	1054.19
375.868	1082.19
376.094	1124.19
376.319	1052.19
376.545	991.19
376.771	1054.19
376.997	1094.19
377.222	1075.19
377.448	1057.19
377.674	1077.19
377.899	1061.19
378.125	1119.19
378.35	1118.19
378.576	987.19
378.802	997.19
379.027	964.19
379.253	992.19
379.478	1005.19
379.704	1025.19
379.929	985.19
380.155	1002.19
380.38	1028.19
380.606	1018.19
380.831	1003.19
381.057	1075.19
381.282	1093.19
381.507	1052.19
381.733	1149.19
381.958	1173.19
382.184	1102.19
382.409	1054.19
382.634	1070.19
382.86	1079.19
383.085	1050.19
383.31	1096.19
383.535	1196.19
383.761	1242.19
383.986	1203.19
384.211	1150.19
384.436	1137.19
384.662	1187.19
384.887	1212.19
385.112	1172.19
385.337	1158.19
385.562	1148.19
385.787	1151.19
386.013	1184.19
386.238	1187.19
386.463	1188.19
386.688	1272.19
386.913	1322.19
387.138	1311.19
387.363	1207.19
387.588	1199.19
387.813	1220.19
388.038	1185.19
388.263	1226.19
388.488	1174.19
388.713	1078.19
388.938	1118.19
389.163	1124.19
389.387	1127.19
389.612	1117.19
389.837	1163.19
390.062	1175.19
390.287	1161.19
390.512	1149.19
390.736	1129.19
390.961	1147.19
391.186	1079.19
391.411	1099.19
391.636	1143.19
391.86	1134.19
392.085	1159.19
392.31	1155.19
392.534	1132.19
392.759	1131.19
392.984	1145.19
393.208	1186.19
393.433	1178.19
393.658	1219.19
393.882	1259.19
394.107	1193.19
394.331	1167.19
394.556	1138.19
394.78	1171.19
395.005	1207.19
395.229	1278.19
395.454	1339.19
395.678	1338.19
395.903	1277.19
396.127	1201.19
396.352	1205.19
396.576	1269.19
396.801	1293.19
397.025	1257.19
397.249	1249.19
397.474	1221.19
397.698	1252.19
397.922	1294.19
398.147	1343.19
398.371	1404.19
398.595	1367.19
398.82	1312.19
399.044	1321.19
399.268	1430.19
399.492	1461.19
399.717	1526.19
399.941	1547.19
400.165	1483.19
400.389	1446.19
400.613	1489.19
400.837	1692.19
401.062	1816.19
401.286	1561.19
401.51	1466.19
401.734	1486.19
401.958	1425.19
402.182	1358.19
402.406	1313.19
402.63	1295.19
402.854	1282.19
403.078	1325.19
403.302	1340.19
403.526	1359.19
403.75	1406.19
403.974	1415.19
404.198	1380.19
404.422	1461.19
404.645	1489.19
404.869	1448.19
405.093	1350.19
405.317	1324.19
405.541	1361.19
405.765	1372.19
405.988	1375.19
406.212	1389.19
406.436	1434.19
406.66	1471.19
406.883	1471.19
407.107	1704.19
407.331	1849.19
407.555	1974.19
407.778	1743.19
408.002	1460.19
408.226	1421.19
408.449	1451.19
408.673	1379.19
408.896	1395.19
409.12	1429.19
409.344	1398.19
409.567	1348.19
409.791	1369.19
410.014	1412.19
410.238	1493.19
410.461	1594.19
410.685	1407.19
410.908	1343.19
411.132	1352.19
411.355	1382.19
411.578	1348.19
411.802	1403.19
412.025	1393.19
412.249	1319.19
412.472	1319.19
412.695	1294.19
412.919	1313.19
413.142	1319.19
413.365	1347.19
413.589	1371.19
413.812	1449.19
414.035	1500.19
414.258	1342.19
414.482	1315.19
414.705	1354.19
414.928	1301.19
415.151	1313.19
415.374	1312.19
415.597	1350.19
415.821	1337.19
416.044	1378.19
416.267	1346.19
416.49	1292.19
416.713	1302.19
416.936	1331.19
417.159	1387.19
417.382	1386.19
417.605	1313.19
417.828	1360.19
418.051	1371.19
418.274	1318.19
418.497	1327.19
418.72	1318.19
418.943	1300.19
419.166	1363.19
419.389	1367.19
419.611	1325.19
419.834	1311.19
420.057	1317.19
420.28	1310.19
420.503	1313.19
420.726	1358.19
420.948	1353.19
421.171	1289.19
421.394	1304.19
421.617	1369.19
421.839	1337.19
422.062	1351.19
422.285	1308.19
422.507	1281.19
422.73	1254.19
422.953	1253.19
423.175	1228.19
423.398	1281.19
423.621	1301.19
423.843	1279.19
424.066	1359.19
424.288	1422.19
424.511	1435.19
424.733	1378.19
424.956	1285.19
425.178	1274.19
425.401	1291.19
425.623	1290.19
425.846	1283.19
426.068	1343.19
426.291	1364.19
426.513	1296.19
426.735	1375.19
426.958	1455.19
427.18	1509.19
427.402	1410.19
427.625	1446.19
427.847	1379.19
428.069	1309.19
428.292	1259.19
428.514	1246.19
428.736	1258.19
428.958	1246.19
429.181	1300.19
429.403	1515.19
429.625	1781.19
429.847	1483.19
430.069	1307.19
430.292	1464.19
430.514	1520.19
430.736	1385.19
430.958	1391.19
431.18	1296.19
431.402	1255.19
431.624	1205.19
431.846	1213.19
432.068	1144.19
432.29	1163.19
432.512	1196.19
432.734	1292.19
432.956	1306.19
433.178	1323.19
433.4	1337.19
433.622	1318.19
433.844	1274.19
434.066	1233.19
434.287	1241.19
434.509	1212.19
434.731	1294.19
434.953	1387.19
435.175	1360.19
435.397	1295.19
435.618	1333.19
435.84	1270.19
436.062	1247.19
436.284	1279.19
436.505	1301.19
436.727	1342.19
436.949	1260.19
437.17	1253.19
437.392	1261.19
437.614	1231.19
437.835	1195.19
438.057	1279.19
438.278	1298.19
438.5	1197.19
438.721	1232.19
438.943	1238.19
439.165	1262.19
439.386	1219.19
439.608	1291.19
439.829	1267.19
440.05	1261.19
440.272	1267.19
440.493	1245.19
440.715	1297.19
440.936	1393.19
441.158	1427.19
441.379	1463.19
441.6	1386.19
441.822	1385.19
442.043	1361.19
442.264	1342.19
442.486	1288.19
442.707	1306.19
442.928	1297.19
443.149	1339.19
443.371	1372.19
443.592	1399.19
443.813	1409.19
444.034	1379.19
444.255	1396.19
444.476	1379.19
444.698	1435.19
444.919	1407.19
445.14	1513.19
445.361	1459.19
445.582	1445.19
445.803	1407.19
446.024	1371.19
446.245	1424.19
446.466	1395.19
446.687	1366.19
446.908	1351.19
447.129	1314.19
447.35	1342.19
447.571	1313.19
447.792	1254.19
448.013	1237.19
448.234	1283.19
448.455	1351.19
448.675	1335.19
448.896	1239.19
449.117	1215.19
449.338	1253.19
449.559	1300.19
449.779	1360.19
450	1432.19
450.221	1491.19
450.442	1441.19
450.662	1333.19
450.883	1175.19
451.104	1192.19
451.324	1212.19
451.545	1277.19
451.766	1203.19
451.986	1149.19
452.207	1114.19
452.428	1114.19
452.648	1122.19
452.869	1145.19
453.089	1161.19
453.31	1165.19
453.53	1184.19
453.751	1151.19
453.971	1089.19
454.192	1094.19
454.412	1207.19
454.633	1140.19
454.853	1096.19
455.073	1058.19
455.294	1090.19
455.514	1077.19
455.734	1100.19
455.955	1115.19
456.175	1095.19
456.395	1079.19
456.616	1131.19
456.836	1102.19
457.056	1098.19
457.276	1085.19
457.497	1071.19
457.717	1020.19
457.937	1051.19
458.157	1057.19
458.377	1085.19
458.598	1059.19
458.818	1062.19
459.038	1131.19
459.258	1183.19
459.478	1198.19
459.698	1159.19
459.918	1171.19
460.138	1234.19
460.358	1286.19
460.578	1250.19
460.798	1303.19
461.018	1398.19
461.238	1306.19
461.458	1280.19
461.678	1255.19
461.898	1238.19
462.118	1204.19
462.338	1282.19
462.558	1260.19
462.777	1271.19
462.997	1326.19
463.217	1377.19
463.437	1371.19
463.657	1293.19
463.876	1225.19
464.096	1249.19
464.316	1258.19
464.536	1305.19
464.755	1373.19
464.975	1336.19
465.195	1269.19
465.414	1332.19
465.634	1306.19
465.854	1317.19
466.073	1426.19
466.293	1366.19
466.512	1214.19
466.732	1242.19
466.951	1267.19
467.171	1256.19
467.391	1250.19
467.61	1188.19
467.829	1215.19
468.049	1374.19
468.268	1477.19
468.488	1368.19
468.707	1305.19
468.927	1255.19
469.146	1207.19
469.365	1254.19
469.585	1270.19
469.804	1219.19
470.023	1254.19
470.243	1290.19
470.462	1255.19
470.681	1232.19
470.901	1252.19
471.12	1222.19
471.339	1208.19
471.558	1201.19
471.777	1201.19
471.997	1225.19
472.216	1195.19
472.435	1144.19
472.654	1144.19
472.873	1207.19
473.092	1235.19
473.311	1195.19
473.53	1150.19
473.749	1138.19
473.968	1192.19
474.187	1229.19
474.406	1261.19
474.625	1253.19
474.844	1222.19
475.063	1187.19
475.282	1268.19
475.501	1212.19
475.72	1221.19
475.939	1333.19
476.158	1290.19
476.377	1261.19
476.596	1231.19
476.814	1244.19
477.033	1261.19
477.252	1281.19
477.471	1341.19
477.69	1321.19
477.908	1326.19
478.127	1371.19
478.346	1390.19
478.564	1447.19
478.783	1443.19
479.002	1465.19
479.22	1405.19
479.439	1482.19
479.658	1585.19
479.876	1512.19
480.095	1387.19
480.313	1356.19
480.532	1306.19
480.751	1327.19
480.969	1336.19
481.188	1305.19
481.406	1287.19
481.624	1255.19
481.843	1270.19
482.061	1279.19
482.28	1331.19
482.498	1343.19
482.717	1353.19
482.935	1311.19
483.153	1369.19
483.372	1409.19
483.59	1339.19
483.808	1365.19
484.027	1417.19
484.245	1467.19
484.463	1794.19
484.681	1942.19
484.9	1463.19
485.118	1406.19
485.336	1324.19
485.554	1420.19
485.772	1406.19
485.99	1381.19
486.209	1380.19
486.427	1418.19
486.645	1417.19
486.863	1454.19
487.081	1468.19
487.299	1464.19
487.517	1476.19
487.735	1473.19
487.953	1546.19
488.171	1491.19
488.389	1482.19
488.607	1488.19
488.825	1597.19
489.043	1554.19
489.261	1432.19
489.479	1475.19
489.696	1515.19
489.914	1493.19
490.132	1479.19
490.35	1491.19
490.568	1582.19
490.786	1557.19
491.003	1490.19
491.221	1569.19
491.439	1632.19
491.657	1609.19
491.874	1641.19
492.092	1683.19
492.31	1758.19
492.527	1699.19
492.745	1637.19
492.963	1615.19
493.18	1604.19
