Data from WStandard_LampEnergy5.5LIBS07252019.E.O._I.C._HRD10591_16-08-17-920.txt Node
Date: Thu Jul 25 16:08:17 EDT 2019
User: cochatt
Spectrometer: HR+D1059
Trigger mode: 1
Integration Time (sec): 1.000000E-1
Scans to average: 1
Electric dark correction enabled: true
Nonlinearity correction enabled: false
Boxcar width: 0
XAxis mode: Wavelengths
Number of Pixels in Spectrum: 2048
>>>>>Begin Spectral Data<<<<<
223.165	-20.31
223.4	-20.31
223.635	-20.31
223.869	-13.31
224.104	-24.31
224.338	-18.31
224.573	-21.31
224.808	-10.31
225.042	-21.31
225.277	5.69
225.511	-0.31
225.746	1.69
225.98	8.69
226.215	12.69
226.449	11.69
226.683	37.69
226.918	31.69
227.152	19.69
227.387	38.69
227.621	34.69
227.856	26.69
228.09	49.69
228.324	37.69
228.559	48.69
228.793	129.69
229.027	353.69
229.262	364.69
229.496	380.69
229.73	380.69
229.964	424.69
230.199	433.69
230.433	424.69
230.667	470.69
230.901	535.69
231.136	459.69
231.37	457.69
231.604	429.69
231.838	464.69
232.072	455.69
232.306	433.69
232.541	466.69
232.775	540.69
233.009	592.69
233.243	565.69
233.477	513.69
233.711	536.69
233.945	533.69
234.179	549.69
234.413	574.69
234.647	607.69
234.881	575.69
235.115	555.69
235.349	537.69
235.583	534.69
235.817	542.69
236.051	535.69
236.285	538.69
236.519	594.69
236.753	660.69
236.987	666.69
237.221	677.69
237.455	725.69
237.689	689.69
237.922	645.69
238.156	626.69
238.39	649.69
238.624	678.69
238.858	700.69
239.091	723.69
239.325	767.69
239.559	893.69
239.793	933.69
240.027	1043.69
240.26	991.69
240.494	728.69
240.728	710.69
240.961	704.69
241.195	706.69
241.429	792.69
241.662	821.69
241.896	743.69
242.13	718.69
242.363	811.69
242.597	885.69
242.83	869.69
243.064	874.69
243.298	904.69
243.531	925.69
243.765	897.69
243.998	916.69
244.232	785.69
244.465	767.69
244.699	774.69
244.932	854.69
245.166	990.69
245.399	958.69
245.633	882.69
245.866	873.69
246.099	933.69
246.333	894.69
246.566	940.69
246.8	1013.69
247.033	1115.69
247.266	1054.69
247.5	1027.69
247.733	993.69
247.966	1073.69
248.2	1179.69
248.433	1157.69
248.666	1193.69
248.899	1293.69
249.133	1479.69
249.366	1675.69
249.599	1396.69
249.832	1197.69
250.066	1247.69
250.299	1227.69
250.532	1168.69
250.765	1069.69
250.998	1103.69
251.231	1176.69
251.465	1202.69
251.698	1121.69
251.931	1127.69
252.164	1189.69
252.397	1227.69
252.63	1179.69
252.863	1075.69
253.096	1066.69
253.329	1104.69
253.562	1146.69
253.795	1255.69
254.028	1234.69
254.261	1151.69
254.494	1145.69
254.727	1071.69
254.96	1119.69
255.193	1208.69
255.426	1325.69
255.659	1575.69
255.892	1636.69
256.124	1358.69
256.357	1282.69
256.59	1371.69
256.823	1433.69
257.056	1378.69
257.289	1641.69
257.521	1872.69
257.754	1633.69
257.987	1517.69
258.22	1702.69
258.452	1658.69
258.685	1374.69
258.918	1369.69
259.151	1367.69
259.383	1306.69
259.616	1147.69
259.849	1205.69
260.081	1343.69
260.314	1463.69
260.547	1662.69
260.779	1676.69
261.012	1547.69
261.244	1366.69
261.477	1303.69
261.71	1385.69
261.942	1365.69
262.175	1343.69
262.407	1439.69
262.64	1329.69
262.872	1285.69
263.105	1215.69
263.337	1219.69
263.57	1268.69
263.802	1257.69
264.035	1169.69
264.267	1121.69
264.499	1101.69
264.732	1183.69
264.964	1283.69
265.197	1329.69
265.429	1368.69
265.661	1551.69
265.894	1685.69
266.126	1728.69
266.358	1576.69
266.591	1613.69
266.823	1747.69
267.055	1584.69
267.287	1536.69
267.52	1529.69
267.752	1485.69
267.984	1528.69
268.216	1575.69
268.448	1589.69
268.681	1602.69
268.913	1430.69
269.145	1356.69
269.377	1365.69
269.609	1463.69
269.841	1643.69
270.073	1950.69
270.306	2209.69
270.538	2343.69
270.77	1972.69
271.002	1649.69
271.234	1599.69
271.466	1590.69
271.698	1723.69
271.93	2109.69
272.162	2137.69
272.394	1900.69
272.626	1847.69
272.858	1619.69
273.09	1405.69
273.322	1415.69
273.553	1344.69
273.785	1337.69
274.017	1380.69
274.249	1556.69
274.481	1540.69
274.713	1423.69
274.945	1346.69
275.176	1364.69
275.408	1365.69
275.64	1333.69
275.872	1301.69
276.104	1378.69
276.335	1574.69
276.567	1811.69
276.799	1859.69
277.031	1651.69
277.262	1577.69
277.494	1596.69
277.726	1816.69
277.957	1793.69
278.189	1637.69
278.421	1478.69
278.652	1412.69
278.884	1445.69
279.115	1427.69
279.347	1500.69
279.579	1405.69
279.81	1437.69
280.042	1593.69
280.273	1705.69
280.505	1696.69
280.736	1779.69
280.968	1666.69
281.199	1475.69
281.431	1371.69
281.662	1397.69
281.894	1384.69
282.125	1420.69
282.356	1496.69
282.588	1510.69
282.819	1470.69
283.051	1609.69
283.282	1760.69
283.513	1711.69
283.745	1447.69
283.976	1405.69
284.207	1400.69
284.439	1428.69
284.67	1454.69
284.901	1460.69
285.132	1544.69
285.364	1493.69
285.595	1530.69
285.826	1463.69
286.057	1450.69
286.288	1450.69
286.52	1533.69
286.751	1639.69
286.982	1674.69
287.213	1555.69
287.444	1404.69
287.675	1431.69
287.906	1483.69
288.138	1558.69
288.369	1585.69
288.6	1477.69
288.831	1424.69
289.062	1426.69
289.293	1457.69
289.524	1484.69
289.755	1529.69
289.986	1591.69
290.217	1411.69
290.448	1470.69
290.679	1484.69
290.91	1488.69
291.141	1530.69
291.371	1569.69
291.602	1573.69
291.833	1573.69
292.064	1621.69
292.295	1569.69
292.526	1612.69
292.757	1711.69
292.987	1626.69
293.218	1476.69
293.449	1602.69
293.68	1852.69
293.91	1990.69
294.141	1837.69
294.372	1711.69
294.603	1773.69
294.833	1872.69
295.064	1807.69
295.295	1637.69
295.525	1557.69
295.756	1464.69
295.987	1361.69
296.217	1398.69
296.448	1445.69
296.679	1472.69
296.909	1440.69
297.14	1430.69
297.37	1449.69
297.601	1578.69
297.831	1686.69
298.062	1691.69
298.292	1548.69
298.523	1480.69
298.753	1478.69
298.984	1478.69
299.214	1512.69
299.445	1537.69
299.675	1577.69
299.905	1575.69
300.136	1522.69
300.366	1475.69
300.597	1429.69
300.827	1429.69
301.057	1482.69
301.288	1543.69
301.518	1581.69
301.748	1618.69
301.979	1682.69
302.209	1661.69
302.439	1809.69
302.669	1885.69
302.9	1764.69
303.13	1597.69
303.36	1603.69
303.59	1654.69
303.82	1605.69
304.051	1593.69
304.281	1583.69
304.511	1567.69
304.741	1677.69
304.971	1840.69
305.201	2011.69
305.431	1882.69
305.661	1584.69
305.891	1411.69
306.121	1394.69
306.352	1439.69
306.582	1510.69
306.812	1639.69
307.042	1736.69
307.272	1773.69
307.502	1744.69
307.731	1895.69
307.961	2112.69
308.191	1953.69
308.421	1652.69
308.651	1533.69
308.881	1524.69
309.111	1561.69
309.341	1521.69
309.571	1539.69
309.8	1572.69
310.03	1528.69
310.26	1513.69
310.49	1527.69
310.72	1583.69
310.949	1650.69
311.179	1676.69
311.409	1573.69
311.639	1571.69
311.868	1569.69
312.098	1575.69
312.328	1579.69
312.557	1522.69
312.787	1626.69
313.017	1630.69
313.246	1601.69
313.476	1543.69
313.706	1656.69
313.935	1611.69
314.165	1645.69
314.394	1682.69
314.624	1788.69
314.853	1865.69
315.083	1920.69
315.312	2039.69
315.542	1854.69
315.771	1608.69
316.001	1666.69
316.23	1747.69
316.46	1756.69
316.689	1723.69
316.919	1650.69
317.148	1580.69
317.377	1587.69
317.607	1667.69
317.836	1922.69
318.065	2001.69
318.295	1910.69
318.524	1787.69
318.753	1750.69
318.983	1746.69
319.212	1706.69
319.441	1660.69
319.67	1640.69
319.9	1673.69
320.129	1776.69
320.358	1817.69
320.587	1849.69
320.816	1835.69
321.046	1855.69
321.275	1725.69
321.504	1754.69
321.733	1865.69
321.962	1834.69
322.191	1699.69
322.42	1694.69
322.649	1667.69
322.878	1654.69
323.108	1667.69
323.337	1749.69
323.566	1747.69
323.795	1717.69
324.024	1776.69
324.253	1701.69
324.482	1697.69
324.71	1688.69
324.939	1581.69
325.168	1603.69
325.397	1676.69
325.626	1733.69
325.855	1717.69
326.084	1690.69
326.313	1658.69
326.542	1687.69
326.77	1758.69
326.999	1767.69
327.228	1693.69
327.457	1626.69
327.686	1581.69
327.914	1602.69
328.143	1654.69
328.372	1666.69
328.6	1671.69
328.829	1671.69
329.058	1649.69
329.287	1626.69
329.515	1684.69
329.744	1718.69
329.972	1755.69
330.201	1898.69
330.43	1864.69
330.658	1737.69
330.887	1750.69
331.115	1791.69
331.344	1767.69
331.572	1760.69
331.801	1758.69
332.03	1736.69
332.258	1762.69
332.486	1774.69
332.715	1841.69
332.943	1837.69
333.172	1725.69
333.4	1787.69
333.629	1856.69
333.857	1930.69
334.085	2096.69
334.314	2390.69
334.542	2627.69
334.771	2415.69
334.999	2128.69
335.227	2018.69
335.455	1910.69
335.684	1927.69
335.912	1925.69
336.14	2013.69
336.369	1954.69
336.597	1844.69
336.825	1761.69
337.053	1842.69
337.281	1933.69
337.51	2034.69
337.738	2134.69
337.966	2035.69
338.194	1824.69
338.422	1790.69
338.65	1727.69
338.878	1725.69
339.106	1717.69
339.334	1693.69
339.562	1671.69
339.79	1698.69
340.018	1820.69
340.246	1874.69
340.474	1877.69
340.702	1807.69
340.93	1854.69
341.158	1838.69
341.386	1814.69
341.614	1815.69
341.842	1762.69
342.07	1751.69
342.298	1803.69
342.526	1775.69
342.754	1756.69
342.981	1702.69
343.209	1750.69
343.437	1720.69
343.665	1742.69
343.893	1778.69
344.12	1919.69
344.348	1900.69
344.576	1791.69
344.804	1737.69
345.031	1732.69
345.259	1789.69
345.487	1733.69
345.714	1665.69
345.942	1651.69
346.17	1633.69
346.397	1661.69
346.625	1713.69
346.853	1581.69
347.08	1572.69
347.308	1610.69
347.535	1609.69
347.763	1682.69
347.99	1632.69
348.218	1563.69
348.445	1622.69
348.673	1654.69
348.9	1667.69
349.128	1695.69
349.355	1771.69
349.583	1711.69
349.81	1626.69
350.037	1532.69
350.265	1537.69
350.492	1569.69
350.72	1567.69
350.947	1634.69
351.174	1674.69
351.402	1607.69
351.629	1557.69
351.856	1522.69
352.083	1511.69
352.311	1506.69
352.538	1593.69
352.765	1620.69
352.992	1709.69
353.22	1659.69
353.447	1557.69
353.674	1596.69
353.901	1610.69
354.128	1570.69
354.355	1563.69
354.583	1602.69
354.81	1661.69
355.037	1671.69
355.264	1652.69
355.491	1622.69
355.718	1629.69
355.945	1618.69
356.172	1572.69
356.399	1531.69
356.626	1550.69
356.853	1595.69
357.08	1756.69
357.307	1894.69
357.534	1931.69
357.761	1717.69
357.988	1595.69
358.215	1508.69
358.441	1560.69
358.668	1507.69
358.895	1541.69
359.122	1637.69
359.349	1746.69
359.576	1794.69
359.802	1591.69
360.029	1526.69
360.256	1539.69
360.483	1545.69
360.709	1566.69
360.936	1652.69
361.163	1728.69
361.39	1859.69
361.616	2002.69
361.843	1981.69
362.07	1830.69
362.296	1648.69
362.523	1601.69
362.749	1585.69
362.976	1594.69
363.203	1624.69
363.429	1581.69
363.656	1558.69
363.882	1613.69
364.109	1802.69
364.335	1913.69
364.562	1779.69
364.788	1690.69
365.015	1639.69
365.241	1594.69
365.468	1623.69
365.694	1685.69
365.92	1764.69
366.147	1718.69
366.373	1604.69
366.599	1544.69
366.826	1547.69
367.052	1561.69
367.278	1561.69
367.505	1617.69
367.731	1667.69
367.957	1666.69
368.184	1667.69
368.41	1751.69
368.636	1832.69
368.862	1754.69
369.089	1821.69
369.315	1754.69
369.541	1665.69
369.767	1645.69
369.993	1599.69
370.219	1581.69
370.445	1663.69
370.672	1727.69
370.898	1784.69
371.124	1821.69
371.35	1712.69
371.576	1756.69
371.802	1792.69
372.028	1743.69
372.254	1641.69
372.48	1618.69
372.706	1611.69
372.932	1645.69
373.158	1629.69
373.384	1641.69
373.61	1705.69
373.835	1778.69
374.061	1704.69
374.287	1701.69
374.513	1661.69
374.739	1698.69
374.965	1716.69
375.191	1702.69
375.416	1761.69
375.642	1755.69
375.868	1821.69
376.094	1914.69
376.319	1823.69
376.545	1695.69
376.771	1702.69
376.997	1818.69
377.222	1833.69
377.448	1709.69
377.674	1763.69
377.899	1761.69
378.125	1827.69
378.35	1891.69
378.576	1714.69
378.802	1671.69
379.027	1643.69
379.253	1629.69
379.478	1700.69
379.704	1680.69
379.929	1654.69
380.155	1655.69
380.38	1686.69
380.606	1699.69
380.831	1685.69
381.057	1776.69
381.282	1801.69
381.507	1729.69
381.733	1849.69
381.958	1940.69
382.184	1834.69
382.409	1764.69
382.634	1771.69
382.86	1765.69
383.085	1781.69
383.31	1817.69
383.535	1922.69
383.761	2055.69
383.986	2009.69
384.211	1904.69
384.436	1876.69
384.662	1944.69
384.887	2053.69
385.112	1930.69
385.337	1982.69
385.562	1920.69
385.787	1913.69
386.013	1971.69
386.238	1982.69
386.463	1938.69
386.688	2069.69
386.913	2174.69
387.138	2167.69
387.363	1981.69
387.588	1969.69
387.813	1924.69
388.038	1989.69
388.263	2061.69
388.488	1992.69
388.713	1876.69
388.938	1817.69
389.163	1871.69
389.387	1917.69
389.612	1864.69
389.837	1918.69
390.062	1952.69
390.287	1905.69
390.512	1933.69
390.736	1875.69
390.961	1874.69
391.186	1872.69
391.411	1847.69
391.636	1912.69
391.86	1935.69
392.085	1898.69
392.31	1919.69
392.534	1947.69
392.759	1925.69
392.984	1907.69
393.208	1937.69
393.433	1953.69
393.658	2039.69
393.882	2045.69
394.107	1951.69
394.331	1885.69
394.556	1896.69
394.78	1921.69
395.005	1993.69
395.229	2040.69
395.454	2260.69
395.678	2202.69
395.903	2153.69
396.127	2068.69
396.352	2058.69
396.576	2093.69
396.801	2113.69
397.025	2085.69
397.249	2077.69
397.474	2114.69
397.698	2070.69
397.922	2136.69
398.147	2238.69
398.371	2302.69
398.595	2346.69
398.82	2221.69
399.044	2175.69
399.268	2331.69
399.492	2489.69
399.717	2589.69
399.941	2605.69
400.165	2535.69
400.389	2454.69
400.613	2430.69
400.837	2627.69
401.062	3095.69
401.286	2645.69
401.51	2385.69
401.734	2507.69
401.958	2424.69
402.182	2290.69
402.406	2208.69
402.63	2173.69
402.854	2158.69
403.078	2166.69
403.302	2271.69
403.526	2286.69
403.75	2295.69
403.974	2288.69
404.198	2324.69
404.422	2379.69
404.645	2464.69
404.869	2480.69
405.093	2249.69
405.317	2239.69
405.541	2298.69
405.765	2321.69
405.988	2301.69
406.212	2331.69
406.436	2370.69
406.66	2406.69
406.883	2452.69
407.107	2745.69
407.331	3010.69
407.555	3183.69
407.778	3016.69
408.002	2491.69
408.226	2405.69
408.449	2408.69
408.673	2368.69
408.896	2372.69
409.12	2401.69
409.344	2338.69
409.567	2265.69
409.791	2323.69
410.014	2323.69
410.238	2475.69
410.461	2587.69
410.685	2341.69
410.908	2225.69
411.132	2269.69
411.355	2273.69
411.578	2249.69
411.802	2208.69
412.025	2302.69
412.249	2246.69
412.472	2202.69
412.695	2137.69
412.919	2174.69
413.142	2195.69
413.365	2191.69
413.589	2275.69
413.812	2290.69
414.035	2410.69
414.258	2222.69
414.482	2145.69
414.705	2225.69
414.928	2131.69
415.151	2186.69
415.374	2190.69
415.597	2201.69
415.821	2231.69
416.044	2286.69
416.267	2335.69
416.49	2111.69
416.713	2118.69
416.936	2151.69
417.159	2247.69
417.382	2259.69
417.605	2110.69
417.828	2195.69
418.051	2257.69
418.274	2157.69
418.497	2129.69
418.72	2109.69
418.943	2086.69
419.166	2250.69
419.389	2338.69
419.611	2198.69
419.834	2162.69
420.057	2205.69
420.28	2123.69
420.503	2124.69
420.726	2107.69
420.948	2156.69
421.171	2100.69
421.394	2119.69
421.617	2185.69
421.839	2144.69
422.062	2088.69
422.285	2066.69
422.507	2102.69
422.73	2075.69
422.953	2025.69
423.175	2045.69
423.398	2087.69
423.621	2120.69
423.843	2090.69
424.066	2065.69
424.288	2179.69
424.511	2257.69
424.733	2197.69
424.956	2033.69
425.178	1999.69
425.401	2037.69
425.623	2059.69
425.846	2029.69
426.068	2133.69
426.291	2158.69
426.513	2160.69
426.735	2141.69
426.958	2253.69
427.18	2421.69
427.402	2245.69
427.625	2286.69
427.847	2317.69
428.069	2153.69
428.292	2051.69
428.514	2023.69
428.736	2008.69
428.958	2015.69
429.181	2031.69
429.403	2301.69
429.625	2877.69
429.847	2562.69
430.069	2079.69
430.292	2271.69
430.514	2401.69
430.736	2234.69
430.958	2293.69
431.18	2254.69
431.402	2087.69
431.624	2010.69
431.846	2034.69
432.068	1995.69
432.29	2021.69
432.512	2051.69
432.734	2063.69
432.956	2153.69
433.178	2212.69
433.4	2193.69
433.622	2198.69
433.844	2078.69
434.066	2018.69
434.287	2009.69
434.509	2079.69
434.731	2180.69
434.953	2325.69
435.175	2304.69
435.397	2169.69
435.618	2121.69
435.84	2189.69
436.062	2097.69
436.284	2133.69
436.505	2176.69
436.727	2213.69
436.949	2111.69
437.17	2022.69
437.392	2031.69
437.614	2074.69
437.835	1957.69
438.057	2121.69
438.278	2248.69
438.5	2089.69
438.721	1991.69
438.943	2074.69
439.165	2058.69
439.386	1986.69
439.608	2022.69
439.829	2023.69
440.05	2024.69
440.272	1992.69
440.493	1969.69
440.715	1975.69
440.936	2141.69
441.158	2346.69
441.379	2322.69
441.6	2246.69
441.822	2196.69
442.043	2183.69
442.264	2111.69
442.486	2014.69
442.707	2033.69
442.928	2013.69
443.149	2092.69
443.371	2200.69
443.592	2253.69
443.813	2228.69
444.034	2176.69
444.255	2158.69
444.476	2272.69
444.698	2331.69
444.919	2304.69
445.14	2353.69
445.361	2355.69
445.582	2489.69
445.803	2322.69
446.024	2249.69
446.245	2373.69
446.466	2214.69
446.687	2109.69
446.908	2127.69
447.129	2032.69
447.35	2089.69
447.571	2079.69
447.792	2003.69
448.013	1955.69
448.234	2070.69
448.455	2122.69
448.675	2118.69
448.896	1916.69
449.117	1906.69
449.338	1945.69
449.559	2084.69
449.779	2185.69
450	2355.69
450.221	2594.69
450.442	2492.69
450.662	2216.69
450.883	1949.69
451.104	1906.69
451.324	1956.69
451.545	2017.69
451.766	2002.69
451.986	1875.69
452.207	1881.69
452.428	1836.69
452.648	1802.69
452.869	1862.69
453.089	1981.69
453.31	1995.69
453.53	2069.69
453.751	1967.69
453.971	1865.69
454.192	1852.69
454.412	2033.69
454.633	1945.69
454.853	1874.69
455.073	1757.69
455.294	1774.69
455.514	1764.69
455.734	1779.69
455.955	1845.69
456.175	1785.69
456.395	1794.69
456.616	1911.69
456.836	1952.69
457.056	1905.69
457.276	1881.69
457.497	1823.69
457.717	1776.69
457.937	1807.69
458.157	1870.69
458.377	1812.69
458.598	1853.69
458.818	1834.69
459.038	1953.69
459.258	2056.69
459.478	2061.69
459.698	1977.69
459.918	2018.69
460.138	2140.69
460.358	2208.69
460.578	2172.69
460.798	2287.69
461.018	2404.69
461.238	2293.69
461.458	2190.69
461.678	2192.69
461.898	2099.69
462.118	2086.69
462.338	2159.69
462.558	2202.69
462.777	2150.69
462.997	2287.69
463.217	2410.69
463.437	2374.69
463.657	2233.69
463.876	2179.69
464.096	2167.69
464.316	2185.69
464.536	2240.69
464.755	2241.69
464.975	2331.69
465.195	2198.69
465.414	2343.69
465.634	2303.69
465.854	2154.69
466.073	2313.69
466.293	2262.69
466.512	1981.69
466.732	2000.69
466.951	2052.69
467.171	2070.69
467.391	1984.69
467.61	1896.69
467.829	1957.69
468.049	2091.69
468.268	2372.69
468.488	2205.69
468.707	2051.69
468.927	2085.69
469.146	2001.69
469.365	1952.69
469.585	1983.69
469.804	1976.69
470.023	2031.69
470.243	2001.69
470.462	1980.69
470.681	1896.69
470.901	2010.69
471.12	1996.69
471.339	1968.69
471.558	1881.69
471.777	1930.69
471.997	1921.69
472.216	1978.69
472.435	1867.69
472.654	1917.69
472.873	2006.69
473.092	2125.69
473.311	1993.69
473.53	1917.69
473.749	1901.69
473.968	1965.69
474.187	2044.69
474.406	2179.69
474.625	2064.69
474.844	2015.69
475.063	1966.69
475.282	2075.69
475.501	1987.69
475.72	2020.69
475.939	2154.69
476.158	2066.69
476.377	2005.69
476.596	2013.69
476.814	2083.69
477.033	2100.69
477.252	2154.69
477.471	2207.69
477.69	2150.69
477.908	2101.69
478.127	2190.69
478.346	2385.69
478.564	2411.69
478.783	2391.69
479.002	2471.69
479.22	2375.69
479.439	2453.69
479.658	2818.69
479.876	2742.69
480.095	2420.69
480.313	2321.69
480.532	2173.69
480.751	2226.69
480.969	2292.69
481.188	2247.69
481.406	2230.69
481.624	2208.69
481.843	2182.69
482.061	2223.69
482.28	2300.69
482.498	2337.69
482.717	2324.69
482.935	2221.69
483.153	2216.69
483.372	2246.69
483.59	2226.69
483.808	2241.69
484.027	2282.69
484.245	2424.69
484.463	2757.69
484.681	3177.69
484.9	2447.69
485.118	2309.69
485.336	2245.69
485.554	2377.69
485.772	2491.69
485.99	2466.69
486.209	2435.69
486.427	2427.69
486.645	2382.69
486.863	2335.69
487.081	2437.69
487.299	2432.69
487.517	2398.69
