Data from WStandard_LampEnergy5.5LIBS07252019.E.O._I.C._HRD10591_16-06-53-920.txt Node
Date: Thu Jul 25 16:06:53 EDT 2019
User: cochatt
Spectrometer: HR+D1059
Trigger mode: 1
Integration Time (sec): 1.000000E-1
Scans to average: 1
Electric dark correction enabled: true
Nonlinearity correction enabled: false
Boxcar width: 0
XAxis mode: Wavelengths
Number of Pixels in Spectrum: 2048
>>>>>Begin Spectral Data<<<<<
223.165	-24.06
223.4	-24.06
223.635	-24.06
223.869	-10.06
224.104	-29.06
224.338	-20.06
224.573	-9.06
224.808	-7.06
225.042	1.94
225.277	-6.06
225.511	-16.06
225.746	11.94
225.98	10.94
226.215	1.94
226.449	9.94
226.683	30.94
226.918	29.94
227.152	23.94
227.387	36.94
227.621	23.94
227.856	32.94
228.09	37.94
228.324	55.94
228.559	49.94
228.793	151.94
229.027	361.94
229.262	371.94
229.496	373.94
229.73	404.94
229.964	454.94
230.199	464.94
230.433	499.94
230.667	519.94
230.901	531.94
231.136	490.94
231.37	471.94
231.604	451.94
231.838	487.94
232.072	471.94
232.306	442.94
232.541	509.94
232.775	548.94
233.009	610.94
233.243	576.94
233.477	541.94
233.711	530.94
233.945	577.94
234.179	557.94
234.413	607.94
234.647	633.94
234.881	602.94
235.115	557.94
235.349	580.94
235.583	584.94
235.817	557.94
236.051	545.94
236.285	535.94
236.519	587.94
236.753	651.94
236.987	706.94
237.221	700.94
237.455	793.94
237.689	741.94
237.922	689.94
238.156	659.94
238.39	670.94
238.624	697.94
238.858	771.94
239.091	795.94
239.325	805.94
239.559	927.94
239.793	991.94
240.027	1056.94
240.26	1039.94
240.494	750.94
240.728	715.94
240.961	743.94
241.195	755.94
241.429	832.94
241.662	858.94
241.896	779.94
242.13	787.94
242.363	858.94
242.597	920.94
242.83	894.94
243.064	890.94
243.298	953.94
243.531	966.94
243.765	915.94
243.998	921.94
244.232	826.94
244.465	797.94
244.699	830.94
244.932	910.94
245.166	1044.94
245.399	995.94
245.633	911.94
245.866	907.94
246.099	930.94
246.333	983.94
246.566	975.94
246.8	1059.94
247.033	1169.94
247.266	1095.94
247.5	1079.94
247.733	1091.94
247.966	1151.94
248.2	1286.94
248.433	1173.94
248.666	1253.94
248.899	1336.94
249.133	1547.94
249.366	1793.94
249.599	1445.94
249.832	1243.94
250.066	1270.94
250.299	1345.94
250.532	1234.94
250.765	1106.94
250.998	1166.94
251.231	1208.94
251.465	1274.94
251.698	1226.94
251.931	1208.94
252.164	1220.94
252.397	1273.94
252.63	1263.94
252.863	1112.94
253.096	1105.94
253.329	1167.94
253.562	1197.94
253.795	1278.94
254.028	1285.94
254.261	1215.94
254.494	1204.94
254.727	1142.94
254.96	1178.94
255.193	1271.94
255.426	1413.94
255.659	1654.94
255.892	1770.94
256.124	1401.94
256.357	1363.94
256.59	1495.94
256.823	1429.94
257.056	1437.94
257.289	1761.94
257.521	1945.94
257.754	1713.94
257.987	1610.94
258.22	1829.94
258.452	1784.94
258.685	1446.94
258.918	1419.94
259.151	1424.94
259.383	1338.94
259.616	1192.94
259.849	1240.94
260.081	1374.94
260.314	1579.94
260.547	1731.94
260.779	1757.94
261.012	1652.94
261.244	1463.94
261.477	1374.94
261.71	1430.94
261.942	1414.94
262.175	1374.94
262.407	1513.94
262.64	1401.94
262.872	1333.94
263.105	1267.94
263.337	1299.94
263.57	1336.94
263.802	1314.94
264.035	1263.94
264.267	1153.94
264.499	1145.94
264.732	1242.94
264.964	1307.94
265.197	1384.94
265.429	1355.94
265.661	1553.94
265.894	1756.94
266.126	1864.94
266.358	1587.94
266.591	1703.94
266.823	1828.94
267.055	1635.94
267.287	1619.94
267.52	1557.94
267.752	1563.94
267.984	1577.94
268.216	1659.94
268.448	1688.94
268.681	1657.94
268.913	1569.94
269.145	1449.94
269.377	1400.94
269.609	1511.94
269.841	1740.94
270.073	2069.94
270.306	2338.94
270.538	2538.94
270.77	2108.94
271.002	1763.94
271.234	1706.94
271.466	1675.94
271.698	1830.94
271.93	2264.94
272.162	2233.94
272.394	2055.94
272.626	1913.94
272.858	1706.94
273.09	1466.94
273.322	1449.94
273.553	1390.94
273.785	1436.94
274.017	1456.94
274.249	1594.94
274.481	1626.94
274.713	1427.94
274.945	1380.94
275.176	1431.94
275.408	1397.94
275.64	1390.94
275.872	1344.94
276.104	1461.94
276.335	1688.94
276.567	1911.94
276.799	1957.94
277.031	1745.94
277.262	1634.94
277.494	1685.94
277.726	1888.94
277.957	1891.94
278.189	1686.94
278.421	1583.94
278.652	1530.94
278.884	1478.94
279.115	1475.94
279.347	1510.94
279.579	1477.94
279.81	1477.94
280.042	1653.94
280.273	1821.94
280.505	1797.94
280.736	1854.94
280.968	1727.94
281.199	1560.94
281.431	1433.94
281.662	1433.94
281.894	1425.94
282.125	1462.94
282.356	1557.94
282.588	1595.94
282.819	1534.94
283.051	1655.94
283.282	1781.94
283.513	1781.94
283.745	1547.94
283.976	1433.94
284.207	1415.94
284.439	1489.94
284.67	1501.94
284.901	1531.94
285.132	1543.94
285.364	1541.94
285.595	1597.94
285.826	1551.94
286.057	1490.94
286.288	1519.94
286.52	1563.94
286.751	1683.94
286.982	1739.94
287.213	1604.94
287.444	1497.94
287.675	1438.94
287.906	1540.94
288.138	1629.94
288.369	1627.94
288.6	1546.94
288.831	1446.94
289.062	1497.94
289.293	1506.94
289.524	1538.94
289.755	1542.94
289.986	1577.94
290.217	1447.94
290.448	1493.94
290.679	1542.94
290.91	1566.94
291.141	1567.94
291.371	1642.94
291.602	1612.94
291.833	1601.94
292.064	1655.94
292.295	1626.94
292.526	1668.94
292.757	1773.94
292.987	1654.94
293.218	1502.94
293.449	1655.94
293.68	1919.94
293.91	2065.94
294.141	1869.94
294.372	1801.94
294.603	1848.94
294.833	1923.94
295.064	1808.94
295.295	1640.94
295.525	1605.94
295.756	1499.94
295.987	1428.94
296.217	1447.94
296.448	1467.94
296.679	1495.94
296.909	1503.94
297.14	1508.94
297.37	1531.94
297.601	1569.94
297.831	1705.94
298.062	1737.94
298.292	1547.94
298.523	1517.94
298.753	1536.94
298.984	1552.94
299.214	1540.94
299.445	1555.94
299.675	1634.94
299.905	1650.94
300.136	1567.94
300.366	1521.94
300.597	1479.94
300.827	1499.94
301.057	1546.94
301.288	1629.94
301.518	1637.94
301.748	1649.94
301.979	1762.94
302.209	1750.94
302.439	1886.94
302.669	1966.94
302.9	1837.94
303.13	1648.94
303.36	1657.94
303.59	1711.94
303.82	1651.94
304.051	1676.94
304.281	1639.94
304.511	1642.94
304.741	1711.94
304.971	1914.94
305.201	2123.94
305.431	1970.94
305.661	1624.94
305.891	1454.94
306.121	1421.94
306.352	1526.94
306.582	1572.94
306.812	1703.94
307.042	1817.94
307.272	1823.94
307.502	1825.94
307.731	1982.94
307.961	2197.94
308.191	2022.94
308.421	1737.94
308.651	1603.94
308.881	1548.94
309.111	1576.94
309.341	1545.94
309.571	1577.94
309.8	1606.94
310.03	1573.94
310.26	1578.94
310.49	1543.94
310.72	1623.94
310.949	1665.94
311.179	1732.94
311.409	1707.94
311.639	1629.94
311.868	1609.94
312.098	1595.94
312.328	1592.94
312.557	1557.94
312.787	1600.94
313.017	1678.94
313.246	1679.94
313.476	1648.94
313.706	1690.94
313.935	1686.94
314.165	1717.94
314.394	1694.94
314.624	1854.94
314.853	1918.94
315.083	1992.94
315.312	2069.94
315.542	1987.94
315.771	1725.94
316.001	1717.94
316.23	1810.94
316.46	1803.94
316.689	1799.94
316.919	1686.94
317.148	1590.94
317.377	1625.94
317.607	1752.94
317.836	2009.94
318.065	2053.94
318.295	1943.94
318.524	1891.94
318.753	1799.94
318.983	1820.94
319.212	1763.94
319.441	1721.94
319.67	1729.94
319.9	1737.94
320.129	1802.94
320.358	1889.94
320.587	1945.94
320.816	1930.94
321.046	1894.94
321.275	1780.94
321.504	1791.94
321.733	1966.94
321.962	1927.94
322.191	1745.94
322.42	1735.94
322.649	1743.94
322.878	1725.94
323.108	1693.94
323.337	1772.94
323.566	1817.94
323.795	1827.94
324.024	1805.94
324.253	1742.94
324.482	1789.94
324.71	1721.94
324.939	1640.94
325.168	1625.94
325.397	1748.94
325.626	1787.94
325.855	1815.94
326.084	1749.94
326.313	1756.94
326.542	1751.94
326.77	1823.94
326.999	1807.94
327.228	1747.94
327.457	1683.94
327.686	1622.94
327.914	1645.94
328.143	1697.94
328.372	1800.94
328.6	1751.94
328.829	1697.94
329.058	1691.94
329.287	1695.94
329.515	1722.94
329.744	1766.94
329.972	1865.94
330.201	1901.94
330.43	1930.94
330.658	1798.94
330.887	1826.94
331.115	1853.94
331.344	1851.94
331.572	1794.94
331.801	1813.94
332.03	1815.94
332.258	1810.94
332.486	1810.94
332.715	1840.94
332.943	1846.94
333.172	1804.94
333.4	1822.94
333.629	1883.94
333.857	1992.94
334.085	2185.94
334.314	2427.94
334.542	2733.94
334.771	2472.94
334.999	2246.94
335.227	2098.94
335.455	1995.94
335.684	1939.94
335.912	1987.94
336.14	2074.94
336.369	2025.94
336.597	1859.94
336.825	1864.94
337.053	1904.94
337.281	1967.94
337.51	2124.94
337.738	2173.94
337.966	2085.94
338.194	1885.94
338.422	1842.94
338.65	1825.94
338.878	1797.94
339.106	1783.94
339.334	1709.94
339.562	1710.94
339.79	1747.94
340.018	1848.94
340.246	1883.94
340.474	1977.94
340.702	1881.94
340.93	1903.94
341.158	1881.94
341.386	1863.94
341.614	1841.94
341.842	1798.94
342.07	1805.94
342.298	1865.94
342.526	1845.94
342.754	1746.94
342.981	1725.94
343.209	1773.94
343.437	1768.94
343.665	1764.94
343.893	1885.94
344.12	1908.94
344.348	1983.94
344.576	1875.94
344.804	1808.94
345.031	1765.94
345.259	1848.94
345.487	1774.94
345.714	1666.94
345.942	1594.94
346.17	1665.94
346.397	1698.94
346.625	1755.94
346.853	1647.94
347.08	1549.94
347.308	1585.94
347.535	1662.94
347.763	1741.94
347.99	1693.94
348.218	1642.94
348.445	1639.94
348.673	1683.94
348.9	1706.94
349.128	1763.94
349.355	1831.94
349.583	1792.94
349.81	1728.94
350.037	1577.94
350.265	1602.94
350.492	1574.94
350.72	1600.94
350.947	1697.94
351.174	1748.94
351.402	1621.94
351.629	1598.94
351.856	1581.94
352.083	1578.94
352.311	1577.94
352.538	1631.94
352.765	1657.94
352.992	1707.94
353.22	1653.94
353.447	1590.94
353.674	1623.94
353.901	1704.94
354.128	1613.94
354.355	1606.94
354.583	1650.94
354.81	1684.94
355.037	1681.94
355.264	1714.94
355.491	1669.94
355.718	1660.94
355.945	1688.94
356.172	1629.94
356.399	1585.94
356.626	1593.94
356.853	1632.94
357.08	1773.94
357.307	2001.94
357.534	1993.94
357.761	1772.94
357.988	1619.94
358.215	1527.94
358.441	1609.94
358.668	1563.94
358.895	1593.94
359.122	1677.94
359.349	1896.94
359.576	1864.94
359.802	1696.94
360.029	1577.94
360.256	1547.94
360.483	1618.94
360.709	1657.94
360.936	1737.94
361.163	1761.94
361.39	1949.94
361.616	2113.94
361.843	2035.94
362.07	1929.94
362.296	1665.94
362.523	1598.94
362.749	1642.94
362.976	1667.94
363.203	1705.94
363.429	1692.94
363.656	1599.94
363.882	1696.94
364.109	1786.94
364.335	1993.94
364.562	1834.94
364.788	1763.94
365.015	1684.94
365.241	1615.94
365.468	1657.94
365.694	1664.94
365.92	1803.94
366.147	1735.94
366.373	1594.94
366.599	1592.94
366.826	1588.94
367.052	1586.94
367.278	1630.94
367.505	1660.94
367.731	1683.94
367.957	1673.94
368.184	1730.94
368.41	1808.94
368.636	1907.94
368.862	1846.94
369.089	1815.94
369.315	1745.94
369.541	1746.94
369.767	1657.94
369.993	1589.94
370.219	1608.94
370.445	1669.94
370.672	1750.94
370.898	1829.94
371.124	1853.94
371.35	1741.94
371.576	1730.94
371.802	1876.94
372.028	1767.94
372.254	1693.94
372.48	1658.94
372.706	1623.94
372.932	1654.94
373.158	1680.94
373.384	1706.94
373.61	1729.94
373.835	1839.94
374.061	1742.94
374.287	1705.94
374.513	1683.94
374.739	1742.94
374.965	1713.94
375.191	1763.94
375.416	1780.94
375.642	1791.94
375.868	1855.94
376.094	1935.94
376.319	1870.94
376.545	1698.94
376.771	1750.94
376.997	1859.94
377.222	1810.94
377.448	1771.94
377.674	1780.94
377.899	1762.94
378.125	1859.94
378.35	1925.94
378.576	1731.94
378.802	1679.94
379.027	1679.94
379.253	1675.94
379.478	1733.94
379.704	1686.94
379.929	1730.94
380.155	1717.94
380.38	1715.94
380.606	1753.94
380.831	1711.94
381.057	1825.94
381.282	1898.94
381.507	1815.94
381.733	1862.94
381.958	1982.94
382.184	1878.94
382.409	1795.94
382.634	1846.94
382.86	1763.94
383.085	1759.94
383.31	1807.94
383.535	1994.94
383.761	2132.94
383.986	2000.94
384.211	1955.94
384.436	1938.94
384.662	2010.94
384.887	2114.94
385.112	1976.94
385.337	2002.94
385.562	1984.94
385.787	1985.94
386.013	2006.94
386.238	2073.94
386.463	1981.94
386.688	2132.94
386.913	2234.94
387.138	2182.94
387.363	2040.94
387.588	2026.94
387.813	2021.94
388.038	2012.94
388.263	2142.94
388.488	2067.94
388.713	1885.94
388.938	1870.94
389.163	1895.94
389.387	1941.94
389.612	1929.94
389.837	1978.94
390.062	2018.94
390.287	1974.94
390.512	1964.94
390.736	1950.94
390.961	1879.94
391.186	1857.94
391.411	1919.94
391.636	1915.94
391.86	1929.94
392.085	1960.94
392.31	1970.94
392.534	1941.94
392.759	1974.94
392.984	1960.94
393.208	1955.94
393.433	2073.94
393.658	2138.94
393.882	2139.94
394.107	2024.94
394.331	1944.94
394.556	1972.94
394.78	1970.94
395.005	2033.94
395.229	2086.94
395.454	2247.94
395.678	2279.94
395.903	2168.94
396.127	2044.94
396.352	2111.94
396.576	2175.94
396.801	2182.94
397.025	2171.94
397.249	2161.94
397.474	2117.94
397.698	2086.94
397.922	2151.94
398.147	2243.94
398.371	2372.94
398.595	2389.94
398.82	2240.94
399.044	2281.94
399.268	2400.94
399.492	2530.94
399.717	2591.94
399.941	2669.94
400.165	2607.94
400.389	2522.94
400.613	2460.94
400.837	2699.94
401.062	3138.94
401.286	2725.94
401.51	2457.94
401.734	2545.94
401.958	2527.94
402.182	2301.94
402.406	2195.94
402.63	2162.94
402.854	2227.94
403.078	2258.94
403.302	2317.94
403.526	2334.94
403.75	2327.94
403.974	2359.94
404.198	2339.94
404.422	2412.94
404.645	2537.94
404.869	2520.94
405.093	2273.94
405.317	2209.94
405.541	2309.94
405.765	2337.94
405.988	2343.94
406.212	2398.94
406.436	2430.94
406.66	2504.94
406.883	2501.94
407.107	2760.94
407.331	3057.94
407.555	3281.94
407.778	3022.94
408.002	2526.94
408.226	2483.94
408.449	2465.94
408.673	2401.94
408.896	2361.94
409.12	2443.94
409.344	2392.94
409.567	2299.94
409.791	2337.94
410.014	2379.94
410.238	2451.94
410.461	2655.94
410.685	2410.94
410.908	2301.94
411.132	2325.94
411.355	2299.94
411.578	2247.94
411.802	2272.94
412.025	2354.94
412.249	2309.94
412.472	2224.94
412.695	2197.94
412.919	2188.94
413.142	2221.94
413.365	2230.94
413.589	2271.94
413.812	2331.94
414.035	2502.94
414.258	2283.94
414.482	2225.94
414.705	2264.94
414.928	2220.94
415.151	2196.94
415.374	2266.94
415.597	2256.94
415.821	2282.94
416.044	2372.94
416.267	2378.94
416.49	2171.94
416.713	2138.94
416.936	2213.94
417.159	2338.94
417.382	2322.94
417.605	2211.94
417.828	2211.94
418.051	2297.94
418.274	2263.94
418.497	2154.94
418.72	2150.94
418.943	2142.94
419.166	2323.94
419.389	2425.94
419.611	2251.94
419.834	2237.94
420.057	2262.94
420.28	2213.94
420.503	2137.94
420.726	2214.94
420.948	2214.94
421.171	2139.94
421.394	2168.94
421.617	2220.94
421.839	2222.94
422.062	2154.94
422.285	2104.94
422.507	2114.94
422.73	2111.94
422.953	2050.94
423.175	2068.94
423.398	2146.94
423.621	2094.94
423.843	2158.94
424.066	2177.94
424.288	2235.94
424.511	2293.94
424.733	2269.94
424.956	2035.94
425.178	2031.94
425.401	2084.94
425.623	2106.94
425.846	2043.94
426.068	2209.94
426.291	2229.94
426.513	2201.94
426.735	2206.94
426.958	2334.94
427.18	2488.94
427.402	2281.94
427.625	2327.94
427.847	2353.94
428.069	2219.94
428.292	2177.94
428.514	2048.94
428.736	2010.94
428.958	2109.94
429.181	2120.94
429.403	2326.94
429.625	2929.94
429.847	2572.94
430.069	2107.94
430.292	2361.94
430.514	2473.94
430.736	2263.94
430.958	2434.94
431.18	2237.94
431.402	2117.94
431.624	2059.94
431.846	2082.94
432.068	2025.94
432.29	2095.94
432.512	2130.94
432.734	2139.94
432.956	2190.94
433.178	2242.94
433.4	2239.94
433.622	2248.94
433.844	2143.94
434.066	2030.94
434.287	2094.94
434.509	2127.94
434.731	2234.94
434.953	2382.94
435.175	2369.94
435.397	2207.94
435.618	2170.94
435.84	2236.94
436.062	2188.94
436.284	2176.94
436.505	2232.94
436.727	2251.94
436.949	2151.94
437.17	2075.94
437.392	2109.94
437.614	2125.94
437.835	2070.94
438.057	2160.94
438.278	2261.94
438.5	2114.94
438.721	2077.94
438.943	2114.94
439.165	2101.94
439.386	1979.94
439.608	2070.94
439.829	2047.94
440.05	2060.94
440.272	2020.94
440.493	2015.94
440.715	2107.94
440.936	2197.94
441.158	2413.94
441.379	2398.94
441.6	2330.94
441.822	2289.94
442.043	2223.94
442.264	2193.94
442.486	2090.94
442.707	2021.94
442.928	2060.94
443.149	2185.94
443.371	2287.94
443.592	2354.94
443.813	2257.94
444.034	2302.94
444.255	2269.94
444.476	2340.94
444.698	2409.94
444.919	2314.94
445.14	2393.94
445.361	2431.94
445.582	2513.94
445.803	2391.94
446.024	2328.94
446.245	2376.94
446.466	2288.94
446.687	2163.94
446.908	2187.94
447.129	2084.94
447.35	2185.94
447.571	2169.94
447.792	2077.94
448.013	2065.94
448.234	2069.94
448.455	2175.94
448.675	2199.94
448.896	2044.94
449.117	1973.94
449.338	2071.94
449.559	2165.94
449.779	2231.94
450	2477.94
450.221	2692.94
450.442	2636.94
450.662	2250.94
450.883	2029.94
451.104	1975.94
451.324	1994.94
451.545	2040.94
451.766	2023.94
451.986	1897.94
452.207	1918.94
452.428	1882.94
452.648	1828.94
452.869	1937.94
453.089	2049.94
453.31	2078.94
453.53	2127.94
453.751	2013.94
453.971	1899.94
454.192	1940.94
454.412	2051.94
454.633	2013.94
454.853	1937.94
455.073	1810.94
455.294	1813.94
455.514	1824.94
455.734	1821.94
455.955	1902.94
456.175	1866.94
456.395	1883.94
456.616	1942.94
456.836	1957.94
457.056	1882.94
457.276	1957.94
457.497	1865.94
457.717	1763.94
457.937	1809.94
458.157	1878.94
458.377	1835.94
458.598	1834.94
458.818	1845.94
459.038	1952.94
459.258	2136.94
459.478	2141.94
459.698	2032.94
459.918	2116.94
460.138	2197.94
460.358	2251.94
460.578	2212.94
460.798	2319.94
461.018	2426.94
461.238	2328.94
461.458	2201.94
461.678	2248.94
461.898	2236.94
462.118	2135.94
462.338	2202.94
462.558	2234.94
462.777	2199.94
462.997	2352.94
463.217	2434.94
463.437	2449.94
463.657	2235.94
463.876	2241.94
464.096	2201.94
464.316	2199.94
464.536	2352.94
464.755	2332.94
464.975	2390.94
465.195	2267.94
465.414	2349.94
465.634	2402.94
465.854	2243.94
466.073	2319.94
466.293	2328.94
466.512	2044.94
466.732	2001.94
466.951	2121.94
467.171	2099.94
467.391	2016.94
467.61	1936.94
467.829	1990.94
468.049	2158.94
468.268	2427.94
468.488	2289.94
468.707	2117.94
468.927	2075.94
469.146	2074.94
469.365	1985.94
469.585	2063.94
469.804	2013.94
470.023	2012.94
470.243	2054.94
470.462	2030.94
470.681	1971.94
470.901	2072.94
471.12	2051.94
471.339	2025.94
471.558	1954.94
471.777	1943.94
471.997	1978.94
472.216	1986.94
472.435	1939.94
472.654	1978.94
472.873	2045.94
473.092	2173.94
473.311	2044.94
473.53	1896.94
473.749	1928.94
473.968	1993.94
474.187	2107.94
474.406	2231.94
474.625	2122.94
474.844	2070.94
475.063	2053.94
475.282	2078.94
475.501	2063.94
475.72	2094.94
475.939	2164.94
476.158	2165.94
476.377	2057.94
476.596	2069.94
476.814	2177.94
477.033	2087.94
477.252	2207.94
477.471	2269.94
477.69	2164.94
477.908	2149.94
478.127	2272.94
478.346	2477.94
478.564	2479.94
478.783	2379.94
479.002	2525.94
479.22	2442.94
479.439	2516.94
479.658	2888.94
479.876	2928.94
480.095	2493.94
480.313	2350.94
480.532	2261.94
480.751	2269.94
480.969	2399.94
481.188	2258.94
481.406	2305.94
481.624	2185.94
481.843	2269.94
482.061	2303.94
482.28	2327.94
482.498	2371.94
482.717	2354.94
482.935	2270.94
483.153	2269.94
483.372	2209.94
483.59	2267.94
483.808	2299.94
484.027	2318.94
484.245	2478.94
484.463	2836.94
484.681	3310.94
484.9	2512.94
485.118	2359.94
485.336	2279.94
485.554	2370.94
485.772	2529.94
485.99	2451.94
486.209	2510.94
486.427	2457.94
486.645	2469.94
486.863	2375.94
487.081	2410.94
487.299	2574.94
487.517	2480.94
