Data from WStandard_LampEnergy8_LIBS07252019.E.O._I.C._HRD10591_16-00-54-930.txt Node
Date: Thu Jul 25 16:00:54 EDT 2019
User: cochatt
Spectrometer: HR+D1059
Trigger mode: 1
Integration Time (sec): 1.000000E-1
Scans to average: 1
Electric dark correction enabled: true
Nonlinearity correction enabled: false
Boxcar width: 0
XAxis mode: Wavelengths
Number of Pixels in Spectrum: 2048
>>>>>Begin Spectral Data<<<<<
223.165	-9.81
223.4	-9.81
223.635	-9.81
223.869	-0.81
224.104	-20.81
224.338	-13.81
224.573	-12.81
224.808	-6.81
225.042	-2.81
225.277	-9.81
225.511	-15.81
225.746	-10.81
225.98	6.19
226.215	6.19
226.449	13.19
226.683	20.19
226.918	23.19
227.152	35.19
227.387	44.19
227.621	41.19
227.856	57.19
228.09	51.19
228.324	59.19
228.559	61.19
228.793	98.19
229.027	195.19
229.262	208.19
229.496	211.19
229.73	231.19
229.964	236.19
230.199	237.19
230.433	248.19
230.667	278.19
230.901	277.19
231.136	260.19
231.37	245.19
231.604	257.19
231.838	265.19
232.072	251.19
232.306	250.19
232.541	260.19
232.775	284.19
233.009	321.19
233.243	298.19
233.477	293.19
233.711	295.19
233.945	309.19
234.179	299.19
234.413	322.19
234.647	332.19
234.881	313.19
235.115	289.19
235.349	306.19
235.583	281.19
235.817	303.19
236.051	279.19
236.285	291.19
236.519	315.19
236.753	351.19
236.987	345.19
237.221	356.19
237.455	373.19
237.689	353.19
237.922	327.19
238.156	332.19
238.39	336.19
238.624	363.19
238.858	379.19
239.091	377.19
239.325	405.19
239.559	457.19
239.793	450.19
240.027	517.19
240.26	478.19
240.494	371.19
240.728	371.19
240.961	376.19
241.195	370.19
241.429	412.19
241.662	424.19
241.896	374.19
242.13	393.19
242.363	433.19
242.597	453.19
242.83	448.19
243.064	434.19
243.298	487.19
243.531	471.19
243.765	426.19
243.998	456.19
244.232	394.19
244.465	396.19
244.699	387.19
244.932	453.19
245.166	490.19
245.399	473.19
245.633	447.19
245.866	444.19
246.099	467.19
246.333	467.19
246.566	489.19
246.8	525.19
247.033	554.19
247.266	525.19
247.5	507.19
247.733	496.19
247.966	536.19
248.2	582.19
248.433	559.19
248.666	593.19
248.899	658.19
249.133	716.19
249.366	778.19
249.599	679.19
249.832	604.19
250.066	608.19
250.299	597.19
250.532	565.19
250.765	537.19
250.998	543.19
251.231	583.19
251.465	594.19
251.698	549.19
251.931	555.19
252.164	578.19
252.397	571.19
252.63	593.19
252.863	519.19
253.096	532.19
253.329	544.19
253.562	589.19
253.795	602.19
254.028	598.19
254.261	544.19
254.494	553.19
254.727	540.19
254.96	563.19
255.193	628.19
255.426	670.19
255.659	730.19
255.892	748.19
256.124	657.19
256.357	623.19
256.59	674.19
256.823	659.19
257.056	689.19
257.289	816.19
257.521	867.19
257.754	790.19
257.987	769.19
258.22	811.19
258.452	762.19
258.685	668.19
258.918	657.19
259.151	632.19
259.383	628.19
259.616	568.19
259.849	603.19
260.081	661.19
260.314	732.19
260.547	781.19
260.779	807.19
261.012	733.19
261.244	675.19
261.477	659.19
261.71	685.19
261.942	665.19
262.175	685.19
262.407	692.19
262.64	671.19
262.872	608.19
263.105	616.19
263.337	608.19
263.57	600.19
263.802	615.19
264.035	585.19
264.267	575.19
264.499	555.19
264.732	630.19
264.964	641.19
265.197	674.19
265.429	714.19
265.661	756.19
265.894	823.19
266.126	795.19
266.358	738.19
266.591	779.19
266.823	795.19
267.055	779.19
267.287	750.19
267.52	745.19
267.752	751.19
267.984	757.19
268.216	796.19
268.448	773.19
268.681	775.19
268.913	699.19
269.145	665.19
269.377	685.19
269.609	748.19
269.841	870.19
270.073	963.19
270.306	1071.19
270.538	1066.19
270.77	942.19
271.002	813.19
271.234	795.19
271.466	791.19
271.698	901.19
271.93	1017.19
272.162	1002.19
272.394	945.19
272.626	872.19
272.858	771.19
273.09	671.19
273.322	714.19
273.553	653.19
273.785	681.19
274.017	680.19
274.249	755.19
274.481	744.19
274.713	687.19
274.945	669.19
275.176	679.19
275.408	691.19
275.64	665.19
275.872	699.19
276.104	737.19
276.335	799.19
276.567	884.19
276.799	871.19
277.031	785.19
277.262	773.19
277.494	839.19
277.726	873.19
277.957	855.19
278.189	788.19
278.421	718.19
278.652	739.19
278.884	712.19
279.115	704.19
279.347	743.19
279.579	725.19
279.81	735.19
280.042	794.19
280.273	842.19
280.505	853.19
280.736	823.19
280.968	784.19
281.199	727.19
281.431	719.19
281.662	685.19
281.894	693.19
282.125	728.19
282.356	767.19
282.588	762.19
282.819	763.19
283.051	831.19
283.282	865.19
283.513	812.19
283.745	731.19
283.976	687.19
284.207	695.19
284.439	707.19
284.67	739.19
284.901	767.19
285.132	765.19
285.364	739.19
285.595	755.19
285.826	752.19
286.057	738.19
286.288	764.19
286.52	811.19
286.751	819.19
286.982	819.19
287.213	777.19
287.444	719.19
287.675	744.19
287.906	787.19
288.138	821.19
288.369	757.19
288.6	745.19
288.831	725.19
289.062	744.19
289.293	717.19
289.524	772.19
289.755	776.19
289.986	761.19
290.217	735.19
290.448	755.19
290.679	767.19
290.91	759.19
291.141	791.19
291.371	802.19
291.602	771.19
291.833	807.19
292.064	824.19
292.295	830.19
292.526	825.19
292.757	851.19
292.987	831.19
293.218	820.19
293.449	849.19
293.68	972.19
293.91	973.19
294.141	948.19
294.372	874.19
294.603	903.19
294.833	966.19
295.064	887.19
295.295	842.19
295.525	806.19
295.756	751.19
295.987	717.19
296.217	744.19
296.448	752.19
296.679	773.19
296.909	756.19
297.14	781.19
297.37	795.19
297.601	826.19
297.831	892.19
298.062	839.19
298.292	810.19
298.523	787.19
298.753	786.19
298.984	792.19
299.214	801.19
299.445	810.19
299.675	799.19
299.905	822.19
300.136	779.19
300.366	795.19
300.597	777.19
300.827	762.19
301.057	803.19
301.288	805.19
301.518	832.19
301.748	868.19
301.979	928.19
302.209	913.19
302.439	953.19
302.669	953.19
302.9	921.19
303.13	832.19
303.36	855.19
303.59	846.19
303.82	831.19
304.051	839.19
304.281	846.19
304.511	861.19
304.741	932.19
304.971	995.19
305.201	1041.19
305.431	975.19
305.661	812.19
305.891	721.19
306.121	767.19
306.352	757.19
306.582	825.19
306.812	868.19
307.042	920.19
307.272	913.19
307.502	959.19
307.731	1055.19
307.961	1041.19
308.191	980.19
308.421	866.19
308.651	822.19
308.881	850.19
309.111	808.19
309.341	821.19
309.571	815.19
309.8	802.19
310.03	802.19
310.26	820.19
310.49	816.19
310.72	862.19
310.949	855.19
311.179	874.19
311.409	858.19
311.639	843.19
311.868	844.19
312.098	821.19
312.328	836.19
312.557	836.19
312.787	828.19
313.017	854.19
313.246	864.19
313.476	865.19
313.706	864.19
313.935	905.19
314.165	898.19
314.394	905.19
314.624	989.19
314.853	994.19
315.083	1028.19
315.312	1027.19
315.542	972.19
315.771	857.19
316.001	901.19
316.23	938.19
316.46	937.19
316.689	918.19
316.919	874.19
317.148	855.19
317.377	884.19
317.607	961.19
317.836	1044.19
318.065	1045.19
318.295	1027.19
318.524	970.19
318.753	929.19
318.983	923.19
319.212	918.19
319.441	883.19
319.67	908.19
319.9	931.19
320.129	983.19
320.358	999.19
320.587	1062.19
320.816	1002.19
321.046	973.19
321.275	951.19
321.504	967.19
321.733	1002.19
321.962	984.19
322.191	898.19
322.42	909.19
322.649	892.19
322.878	904.19
323.108	901.19
323.337	945.19
323.566	955.19
323.795	956.19
324.024	928.19
324.253	931.19
324.482	912.19
324.71	912.19
324.939	893.19
325.168	902.19
325.397	907.19
325.626	955.19
325.855	943.19
326.084	915.19
326.313	923.19
326.542	944.19
326.77	947.19
326.999	957.19
327.228	906.19
327.457	891.19
327.686	874.19
327.914	913.19
328.143	943.19
328.372	907.19
328.6	910.19
328.829	897.19
329.058	921.19
329.287	899.19
329.515	899.19
329.744	963.19
329.972	984.19
330.201	1010.19
330.43	973.19
330.658	944.19
330.887	957.19
331.115	966.19
331.344	977.19
331.572	954.19
331.801	963.19
332.03	960.19
332.258	987.19
332.486	986.19
332.715	999.19
332.943	973.19
333.172	996.19
333.4	994.19
333.629	1035.19
333.857	1092.19
334.085	1204.19
334.314	1364.19
334.542	1394.19
334.771	1285.19
334.999	1131.19
335.227	1081.19
335.455	1057.19
335.684	1051.19
335.912	1059.19
336.14	1067.19
336.369	1031.19
336.597	985.19
336.825	1003.19
337.053	1046.19
337.281	1059.19
337.51	1087.19
337.738	1157.19
337.966	1059.19
338.194	995.19
338.422	977.19
338.65	950.19
338.878	966.19
339.106	921.19
339.334	913.19
339.562	930.19
339.79	950.19
340.018	993.19
340.246	1029.19
340.474	1034.19
340.702	999.19
340.93	982.19
341.158	981.19
341.386	978.19
341.614	980.19
341.842	991.19
342.07	1013.19
342.298	984.19
342.526	970.19
342.754	947.19
342.981	953.19
343.209	977.19
343.437	953.19
343.665	961.19
343.893	1028.19
344.12	1023.19
344.348	1003.19
344.576	1019.19
344.804	961.19
345.031	966.19
345.259	959.19
345.487	971.19
345.714	913.19
345.942	921.19
346.17	884.19
346.397	923.19
346.625	916.19
346.853	874.19
347.08	864.19
347.308	886.19
347.535	909.19
347.763	943.19
347.99	925.19
348.218	891.19
348.445	872.19
348.673	894.19
348.9	949.19
349.128	951.19
349.355	959.19
349.583	928.19
349.81	923.19
350.037	850.19
350.265	872.19
350.492	859.19
350.72	909.19
350.947	929.19
351.174	934.19
351.402	869.19
351.629	895.19
351.856	852.19
352.083	839.19
352.311	863.19
352.538	900.19
352.765	905.19
352.992	916.19
353.22	917.19
353.447	886.19
353.674	920.19
353.901	890.19
354.128	876.19
354.355	901.19
354.583	913.19
354.81	946.19
355.037	954.19
355.264	938.19
355.491	908.19
355.718	918.19
355.945	900.19
356.172	892.19
356.399	863.19
356.626	897.19
356.853	925.19
357.08	1034.19
357.307	1095.19
357.534	1049.19
357.761	923.19
357.988	879.19
358.215	864.19
358.441	881.19
358.668	874.19
358.895	874.19
359.122	956.19
359.349	1015.19
359.576	963.19
359.802	925.19
360.029	897.19
360.256	898.19
360.483	864.19
360.709	923.19
360.936	975.19
361.163	987.19
361.39	1105.19
361.616	1146.19
361.843	1122.19
362.07	1012.19
362.296	922.19
362.523	920.19
362.749	934.19
362.976	956.19
363.203	984.19
363.429	920.19
363.656	874.19
363.882	940.19
364.109	1044.19
364.335	1078.19
364.562	1003.19
364.788	966.19
365.015	917.19
365.241	896.19
365.468	938.19
365.694	950.19
365.92	982.19
366.147	952.19
366.373	903.19
366.599	873.19
366.826	897.19
367.052	907.19
367.278	932.19
367.505	956.19
367.731	951.19
367.957	952.19
368.184	971.19
368.41	1041.19
368.636	1059.19
368.862	1037.19
369.089	1027.19
369.315	987.19
369.541	958.19
369.767	948.19
369.993	948.19
370.219	940.19
370.445	948.19
370.672	987.19
370.898	1040.19
371.124	1037.19
371.35	988.19
371.576	1001.19
371.802	993.19
372.028	964.19
372.254	962.19
372.48	947.19
372.706	924.19
372.932	923.19
373.158	963.19
373.384	970.19
373.61	1025.19
373.835	1026.19
374.061	1001.19
374.287	1000.19
374.513	1000.19
374.739	1014.19
374.965	990.19
375.191	988.19
375.416	969.19
375.642	1055.19
375.868	1067.19
376.094	1096.19
376.319	1041.19
376.545	1001.19
376.771	1023.19
376.997	1048.19
377.222	1037.19
377.448	1017.19
377.674	1031.19
377.899	1055.19
378.125	1082.19
378.35	1077.19
378.576	965.19
378.802	955.19
379.027	954.19
379.253	972.19
379.478	973.19
379.704	998.19
379.929	974.19
380.155	986.19
380.38	994.19
380.606	991.19
380.831	981.19
381.057	1067.19
381.282	1040.19
381.507	1060.19
381.733	1132.19
381.958	1129.19
382.184	1037.19
382.409	1055.19
382.634	1002.19
382.86	1017.19
383.085	1008.19
383.31	1055.19
383.535	1189.19
383.761	1176.19
383.986	1161.19
384.211	1083.19
384.436	1107.19
384.662	1167.19
384.887	1187.19
385.112	1111.19
385.337	1127.19
385.562	1123.19
385.787	1112.19
386.013	1129.19
386.238	1171.19
386.463	1181.19
386.688	1247.19
386.913	1311.19
387.138	1224.19
387.363	1190.19
387.588	1151.19
387.813	1148.19
388.038	1187.19
388.263	1219.19
388.488	1159.19
388.713	1075.19
388.938	1095.19
389.163	1082.19
389.387	1126.19
389.612	1079.19
389.837	1070.19
390.062	1128.19
390.287	1127.19
390.512	1137.19
390.736	1099.19
390.961	1111.19
391.186	1059.19
391.411	1088.19
391.636	1106.19
391.86	1130.19
392.085	1134.19
392.31	1111.19
392.534	1128.19
392.759	1127.19
392.984	1137.19
393.208	1147.19
393.433	1171.19
393.658	1217.19
393.882	1218.19
394.107	1151.19
394.331	1127.19
394.556	1107.19
394.78	1132.19
395.005	1175.19
395.229	1241.19
395.454	1297.19
395.678	1263.19
395.903	1211.19
396.127	1188.19
396.352	1196.19
396.576	1242.19
396.801	1221.19
397.025	1242.19
397.249	1224.19
397.474	1239.19
397.698	1200.19
397.922	1263.19
398.147	1299.19
398.371	1339.19
398.595	1323.19
398.82	1275.19
399.044	1323.19
399.268	1349.19
399.492	1438.19
399.717	1471.19
399.941	1479.19
400.165	1445.19
400.389	1408.19
400.613	1449.19
400.837	1620.19
401.062	1788.19
401.286	1519.19
401.51	1427.19
401.734	1459.19
401.958	1380.19
402.182	1302.19
402.406	1279.19
402.63	1260.19
402.854	1288.19
403.078	1293.19
403.302	1290.19
403.526	1328.19
403.75	1394.19
403.974	1348.19
404.198	1337.19
404.422	1409.19
404.645	1477.19
404.869	1422.19
405.093	1307.19
405.317	1290.19
405.541	1349.19
405.765	1347.19
405.988	1350.19
406.212	1375.19
406.436	1434.19
406.66	1434.19
406.883	1482.19
407.107	1683.19
407.331	1728.19
407.555	1877.19
407.778	1659.19
408.002	1433.19
408.226	1414.19
408.449	1403.19
408.673	1396.19
408.896	1354.19
409.12	1404.19
409.344	1355.19
409.567	1339.19
409.791	1326.19
410.014	1359.19
410.238	1464.19
410.461	1504.19
410.685	1372.19
410.908	1320.19
411.132	1351.19
411.355	1317.19
411.578	1317.19
411.802	1351.19
412.025	1355.19
412.249	1325.19
412.472	1263.19
412.695	1297.19
412.919	1309.19
413.142	1263.19
413.365	1292.19
413.589	1337.19
413.812	1384.19
414.035	1419.19
414.258	1344.19
414.482	1287.19
414.705	1327.19
414.928	1256.19
415.151	1308.19
415.374	1327.19
415.597	1315.19
415.821	1309.19
416.044	1393.19
416.267	1329.19
416.49	1288.19
416.713	1226.19
416.936	1271.19
417.159	1398.19
417.382	1304.19
417.605	1291.19
417.828	1319.19
418.051	1301.19
418.274	1327.19
418.497	1273.19
418.72	1265.19
418.943	1280.19
419.166	1323.19
419.389	1339.19
419.611	1281.19
419.834	1269.19
420.057	1282.19
420.28	1277.19
420.503	1298.19
420.726	1311.19
420.948	1315.19
421.171	1232.19
421.394	1294.19
421.617	1323.19
421.839	1327.19
422.062	1283.19
422.285	1276.19
422.507	1248.19
422.73	1254.19
422.953	1199.19
423.175	1235.19
423.398	1269.19
423.621	1273.19
423.843	1267.19
424.066	1303.19
424.288	1393.19
424.511	1394.19
424.733	1365.19
424.956	1259.19
425.178	1223.19
425.401	1212.19
425.623	1282.19
425.846	1276.19
426.068	1337.19
426.291	1314.19
426.513	1328.19
426.735	1321.19
426.958	1411.19
427.18	1429.19
427.402	1322.19
427.625	1394.19
427.847	1385.19
428.069	1263.19
428.292	1234.19
428.514	1211.19
428.736	1195.19
428.958	1226.19
429.181	1279.19
429.403	1494.19
429.625	1720.19
429.847	1473.19
430.069	1312.19
430.292	1449.19
430.514	1471.19
430.736	1359.19
430.958	1335.19
431.18	1259.19
431.402	1213.19
431.624	1179.19
431.846	1195.19
432.068	1147.19
432.29	1142.19
432.512	1197.19
432.734	1228.19
432.956	1259.19
433.178	1323.19
433.4	1300.19
433.622	1307.19
433.844	1263.19
434.066	1220.19
434.287	1148.19
434.509	1211.19
434.731	1247.19
434.953	1344.19
435.175	1303.19
435.397	1287.19
435.618	1260.19
435.84	1249.19
436.062	1222.19
436.284	1276.19
436.505	1287.19
436.727	1293.19
436.949	1266.19
437.17	1234.19
437.392	1255.19
437.614	1204.19
437.835	1179.19
438.057	1241.19
438.278	1238.19
438.5	1210.19
438.721	1236.19
438.943	1240.19
439.165	1258.19
439.386	1204.19
439.608	1253.19
439.829	1237.19
440.05	1232.19
440.272	1192.19
440.493	1235.19
440.715	1243.19
440.936	1319.19
441.158	1421.19
441.379	1394.19
441.6	1355.19
441.822	1337.19
442.043	1335.19
442.264	1293.19
442.486	1256.19
442.707	1245.19
442.928	1235.19
443.149	1288.19
443.371	1342.19
443.592	1360.19
443.813	1349.19
444.034	1392.19
444.255	1352.19
444.476	1385.19
444.698	1398.19
444.919	1367.19
445.14	1447.19
445.361	1434.19
445.582	1430.19
445.803	1378.19
446.024	1353.19
446.245	1372.19
446.466	1312.19
446.687	1331.19
446.908	1329.19
447.129	1328.19
447.35	1304.19
447.571	1243.19
447.792	1247.19
448.013	1244.19
448.234	1238.19
448.455	1299.19
448.675	1285.19
448.896	1220.19
449.117	1171.19
449.338	1187.19
449.559	1270.19
449.779	1281.19
450	1413.19
450.221	1462.19
450.442	1397.19
450.662	1267.19
450.883	1148.19
451.104	1145.19
451.324	1188.19
451.545	1229.19
451.766	1170.19
451.986	1149.19
452.207	1123.19
452.428	1074.19
452.648	1111.19
452.869	1119.19
453.089	1135.19
453.31	1157.19
453.53	1129.19
453.751	1101.19
453.971	1065.19
454.192	1078.19
454.412	1121.19
454.633	1139.19
454.853	1090.19
455.073	1036.19
455.294	1046.19
455.514	1047.19
455.734	1059.19
455.955	1087.19
456.175	1051.19
456.395	1060.19
456.616	1090.19
456.836	1088.19
457.056	1068.19
457.276	1083.19
457.497	1048.19
457.717	1010.19
457.937	1061.19
458.157	1029.19
458.377	1024.19
458.598	1034.19
458.818	1051.19
459.038	1102.19
459.258	1132.19
459.478	1119.19
459.698	1103.19
459.918	1144.19
460.138	1215.19
460.358	1230.19
460.578	1221.19
460.798	1283.19
461.018	1315.19
461.238	1279.19
461.458	1250.19
461.678	1230.19
461.898	1195.19
462.118	1163.19
462.338	1227.19
462.558	1247.19
462.777	1263.19
462.997	1309.19
463.217	1348.19
463.437	1310.19
463.657	1255.19
463.876	1221.19
464.096	1241.19
464.316	1232.19
464.536	1274.19
464.755	1319.19
464.975	1289.19
465.195	1254.19
465.414	1348.19
465.634	1301.19
465.854	1294.19
466.073	1400.19
466.293	1305.19
466.512	1179.19
466.732	1202.19
466.951	1254.19
467.171	1238.19
467.391	1179.19
467.61	1162.19
467.829	1195.19
468.049	1327.19
468.268	1427.19
468.488	1278.19
468.707	1245.19
468.927	1227.19
469.146	1175.19
469.365	1207.19
469.585	1212.19
469.804	1222.19
470.023	1229.19
470.243	1239.19
470.462	1235.19
470.681	1212.19
470.901	1220.19
471.12	1237.19
471.339	1208.19
471.558	1199.19
471.777	1159.19
471.997	1168.19
472.216	1165.19
472.435	1108.19
472.654	1111.19
472.873	1156.19
473.092	1248.19
473.311	1167.19
473.53	1110.19
473.749	1134.19
473.968	1137.19
474.187	1189.19
474.406	1219.19
474.625	1173.19
474.844	1203.19
475.063	1193.19
475.282	1240.19
475.501	1200.19
475.72	1168.19
475.939	1282.19
476.158	1241.19
476.377	1184.19
476.596	1171.19
476.814	1197.19
477.033	1203.19
477.252	1245.19
477.471	1261.19
477.69	1286.19
477.908	1283.19
478.127	1352.19
478.346	1395.19
478.564	1403.19
478.783	1375.19
479.002	1403.19
479.22	1438.19
479.439	1453.19
479.658	1558.19
479.876	1519.19
480.095	1411.19
480.313	1338.19
480.532	1287.19
480.751	1294.19
480.969	1306.19
481.188	1259.19
481.406	1249.19
481.624	1229.19
481.843	1252.19
482.061	1283.19
482.28	1322.19
482.498	1341.19
482.717	1280.19
482.935	1318.19
483.153	1344.19
483.372	1375.19
483.59	1370.19
483.808	1349.19
484.027	1355.19
484.245	1426.19
484.463	1695.19
484.681	1828.19
484.9	1489.19
485.118	1363.19
485.336	1379.19
485.554	1400.19
485.772	1378.19
485.99	1353.19
486.209	1371.19
486.427	1403.19
486.645	1380.19
486.863	1404.19
487.081	1413.19
487.299	1438.19
487.517	1465.19
487.735	1468.19
487.953	1500.19
488.171	1484.19
488.389	1420.19
488.607	1452.19
488.825	1571.19
489.043	1509.19
489.261	1381.19
489.479	1463.19
489.696	1479.19
489.914	1463.19
490.132	1400.19
490.35	1463.19
490.568	1508.19
490.786	1497.19
491.003	1435.19
491.221	1507.19
491.439	1584.19
491.657	1569.19
491.874	1613.19
492.092	1631.19
492.31	1670.19
492.527	1644.19
492.745	1603.19
492.963	1565.19
493.18	1578.19
493.398	1652.19
493.615	1700.19
493.833	1610.19
494.05	1549.19
