Data from WStandard_LampEnergy10_LIBS07252019.E.O._I.C._HRD10591_15-54-05-928.txt Node
Date: Thu Jul 25 15:54:05 EDT 2019
User: cochatt
Spectrometer: HR+D1059
Trigger mode: 1
Integration Time (sec): 1.000000E-1
Scans to average: 1
Electric dark correction enabled: true
Nonlinearity correction enabled: false
Boxcar width: 0
XAxis mode: Wavelengths
Number of Pixels in Spectrum: 2048
>>>>>Begin Spectral Data<<<<<
223.165	-25.94
223.4	-25.94
223.635	-25.94
223.869	-16.94
224.104	-18.94
224.338	-8.94
224.573	-29.94
224.808	-22.94
225.042	-0.94
225.277	0.06
225.511	-8.94
225.746	12.06
225.98	-4.94
226.215	15.06
226.449	29.06
226.683	15.06
226.918	19.06
227.152	48.06
227.387	43.06
227.621	52.06
227.856	37.06
228.09	58.06
228.324	49.06
228.559	51.06
228.793	82.06
229.027	131.06
229.262	135.06
229.496	136.06
229.73	134.06
229.964	162.06
230.199	168.06
230.433	177.06
230.667	172.06
230.901	190.06
231.136	166.06
231.37	177.06
231.604	163.06
231.838	177.06
232.072	164.06
232.306	157.06
232.541	167.06
232.775	195.06
233.009	203.06
233.243	181.06
233.477	186.06
233.711	191.06
233.945	197.06
234.179	201.06
234.413	226.06
234.647	219.06
234.881	208.06
235.115	177.06
235.349	197.06
235.583	191.06
235.817	199.06
236.051	176.06
236.285	190.06
236.519	223.06
236.753	212.06
236.987	226.06
237.221	215.06
237.455	222.06
237.689	228.06
237.922	226.06
238.156	239.06
238.39	208.06
238.624	214.06
238.858	247.06
239.091	250.06
239.325	257.06
239.559	285.06
239.793	296.06
240.027	308.06
240.26	283.06
240.494	236.06
240.728	230.06
240.961	228.06
241.195	231.06
241.429	254.06
241.662	257.06
241.896	237.06
242.13	233.06
242.363	254.06
242.597	258.06
242.83	267.06
243.064	266.06
243.298	277.06
243.531	270.06
243.765	282.06
243.998	279.06
244.232	240.06
244.465	238.06
244.699	262.06
244.932	287.06
245.166	282.06
245.399	302.06
245.633	265.06
245.866	289.06
246.099	276.06
246.333	298.06
246.566	295.06
246.8	332.06
247.033	339.06
247.266	303.06
247.5	303.06
247.733	300.06
247.966	334.06
248.2	346.06
248.433	349.06
248.666	363.06
248.899	379.06
249.133	429.06
249.366	433.06
249.599	393.06
249.832	353.06
250.066	373.06
250.299	351.06
250.532	337.06
250.765	322.06
250.998	316.06
251.231	344.06
251.465	341.06
251.698	333.06
251.931	349.06
252.164	330.06
252.397	353.06
252.63	374.06
252.863	332.06
253.096	327.06
253.329	326.06
253.562	355.06
253.795	358.06
254.028	366.06
254.261	352.06
254.494	336.06
254.727	326.06
254.96	359.06
255.193	368.06
255.426	396.06
255.659	447.06
255.892	456.06
256.124	389.06
256.357	382.06
256.59	401.06
256.823	372.06
257.056	412.06
257.289	485.06
257.521	512.06
257.754	465.06
257.987	448.06
258.22	456.06
258.452	454.06
258.685	386.06
258.918	378.06
259.151	385.06
259.383	361.06
259.616	357.06
259.849	352.06
260.081	401.06
260.314	454.06
260.547	471.06
260.779	462.06
261.012	438.06
261.244	405.06
261.477	387.06
261.71	401.06
261.942	396.06
262.175	405.06
262.407	377.06
262.64	387.06
262.872	350.06
263.105	361.06
263.337	389.06
263.57	378.06
263.802	365.06
264.035	359.06
264.267	327.06
264.499	324.06
264.732	367.06
264.964	369.06
265.197	411.06
265.429	399.06
265.661	460.06
265.894	470.06
266.126	476.06
266.358	460.06
266.591	472.06
266.823	484.06
267.055	447.06
267.287	429.06
267.52	444.06
267.752	448.06
267.984	435.06
268.216	449.06
268.448	467.06
268.681	464.06
268.913	423.06
269.145	422.06
269.377	413.06
269.609	449.06
269.841	524.06
270.073	578.06
270.306	613.06
270.538	618.06
270.77	551.06
271.002	471.06
271.234	494.06
271.466	469.06
271.698	545.06
271.93	603.06
272.162	614.06
272.394	545.06
272.626	501.06
272.858	458.06
273.09	417.06
273.322	430.06
273.553	398.06
273.785	399.06
274.017	415.06
274.249	446.06
274.481	415.06
274.713	401.06
274.945	411.06
275.176	411.06
275.408	397.06
275.64	389.06
275.872	407.06
276.104	425.06
276.335	483.06
276.567	529.06
276.799	523.06
277.031	475.06
277.262	481.06
277.494	494.06
277.726	502.06
277.957	496.06
278.189	466.06
278.421	440.06
278.652	407.06
278.884	412.06
279.115	449.06
279.347	438.06
279.579	419.06
279.81	447.06
280.042	473.06
280.273	507.06
280.505	502.06
280.736	514.06
280.968	483.06
281.199	436.06
281.431	410.06
281.662	434.06
281.894	448.06
282.125	447.06
282.356	450.06
282.588	459.06
282.819	456.06
283.051	485.06
283.282	513.06
283.513	490.06
283.745	429.06
283.976	427.06
284.207	426.06
284.439	425.06
284.67	433.06
284.901	440.06
285.132	464.06
285.364	446.06
285.595	453.06
285.826	435.06
286.057	441.06
286.288	434.06
286.52	477.06
286.751	478.06
286.982	511.06
287.213	467.06
287.444	417.06
287.675	428.06
287.906	471.06
288.138	483.06
288.369	467.06
288.6	445.06
288.831	439.06
289.062	444.06
289.293	433.06
289.524	439.06
289.755	473.06
289.986	445.06
290.217	417.06
290.448	442.06
290.679	437.06
290.91	449.06
291.141	452.06
291.371	463.06
291.602	478.06
291.833	493.06
292.064	484.06
292.295	471.06
292.526	484.06
292.757	511.06
292.987	482.06
293.218	480.06
293.449	509.06
293.68	580.06
293.91	566.06
294.141	553.06
294.372	530.06
294.603	559.06
294.833	552.06
295.064	535.06
295.295	482.06
295.525	485.06
295.756	428.06
295.987	426.06
296.217	442.06
296.448	462.06
296.679	453.06
296.909	447.06
297.14	465.06
297.37	482.06
297.601	507.06
297.831	525.06
298.062	527.06
298.292	463.06
298.523	464.06
298.753	475.06
298.984	455.06
299.214	455.06
299.445	488.06
299.675	490.06
299.905	502.06
300.136	473.06
300.366	478.06
300.597	442.06
300.827	453.06
301.057	479.06
301.288	516.06
301.518	506.06
301.748	513.06
301.979	538.06
302.209	541.06
302.439	583.06
302.669	557.06
302.9	534.06
303.13	534.06
303.36	501.06
303.59	522.06
303.82	488.06
304.051	523.06
304.281	513.06
304.511	521.06
304.741	555.06
304.971	585.06
305.201	600.06
305.431	549.06
305.661	459.06
305.891	449.06
306.121	453.06
306.352	478.06
306.582	490.06
306.812	542.06
307.042	569.06
307.272	559.06
307.502	600.06
307.731	625.06
307.961	617.06
308.191	584.06
308.421	527.06
308.651	504.06
308.881	512.06
309.111	500.06
309.341	506.06
309.571	500.06
309.8	480.06
310.03	471.06
310.26	496.06
310.49	497.06
310.72	537.06
310.949	512.06
311.179	541.06
311.409	530.06
311.639	513.06
311.868	505.06
312.098	494.06
312.328	519.06
312.557	508.06
312.787	518.06
313.017	541.06
313.246	520.06
313.476	502.06
313.706	513.06
313.935	515.06
314.165	555.06
314.394	566.06
314.624	592.06
314.853	621.06
315.083	594.06
315.312	608.06
315.542	594.06
315.771	530.06
316.001	551.06
316.23	591.06
316.46	566.06
316.689	537.06
316.919	511.06
317.148	498.06
317.377	526.06
317.607	573.06
317.836	621.06
318.065	640.06
318.295	628.06
318.524	582.06
318.753	570.06
318.983	526.06
319.212	533.06
319.441	530.06
319.67	557.06
319.9	577.06
320.129	576.06
320.358	623.06
320.587	605.06
320.816	605.06
321.046	590.06
321.275	568.06
321.504	592.06
321.733	610.06
321.962	586.06
322.191	574.06
322.42	560.06
322.649	535.06
322.878	546.06
323.108	565.06
323.337	569.06
323.566	569.06
323.795	549.06
324.024	548.06
324.253	545.06
324.482	550.06
324.71	528.06
324.939	503.06
325.168	546.06
325.397	555.06
325.626	568.06
325.855	563.06
326.084	558.06
326.313	564.06
326.542	584.06
326.77	607.06
326.999	577.06
327.228	531.06
327.457	523.06
327.686	539.06
327.914	535.06
328.143	573.06
328.372	572.06
328.6	573.06
328.829	553.06
329.058	529.06
329.287	550.06
329.515	571.06
329.744	573.06
329.972	592.06
330.201	601.06
330.43	603.06
330.658	565.06
330.887	586.06
331.115	593.06
331.344	598.06
331.572	600.06
331.801	593.06
332.03	593.06
332.258	630.06
332.486	612.06
332.715	583.06
332.943	594.06
333.172	591.06
333.4	614.06
333.629	617.06
333.857	657.06
334.085	726.06
334.314	808.06
334.542	835.06
334.771	757.06
334.999	681.06
335.227	619.06
335.455	641.06
335.684	614.06
335.912	645.06
336.14	648.06
336.369	625.06
336.597	599.06
336.825	578.06
337.053	639.06
337.281	680.06
337.51	682.06
337.738	705.06
337.966	646.06
338.194	602.06
338.422	599.06
338.65	585.06
338.878	594.06
339.106	563.06
339.334	571.06
339.562	568.06
339.79	573.06
340.018	625.06
340.246	625.06
340.474	624.06
340.702	593.06
340.93	622.06
341.158	617.06
341.386	608.06
341.614	621.06
341.842	602.06
342.07	616.06
342.298	600.06
342.526	585.06
342.754	589.06
342.981	565.06
343.209	599.06
343.437	588.06
343.665	594.06
343.893	636.06
344.12	631.06
344.348	634.06
344.576	598.06
344.804	590.06
345.031	587.06
345.259	579.06
345.487	564.06
345.714	552.06
345.942	546.06
346.17	566.06
346.397	573.06
346.625	576.06
346.853	537.06
347.08	515.06
347.308	560.06
347.535	564.06
347.763	578.06
347.99	569.06
348.218	546.06
348.445	561.06
348.673	582.06
348.9	609.06
349.128	607.06
349.355	599.06
349.583	578.06
349.81	563.06
350.037	519.06
350.265	520.06
350.492	549.06
350.72	562.06
350.947	549.06
351.174	563.06
351.402	554.06
351.629	546.06
351.856	546.06
352.083	524.06
352.311	545.06
352.538	553.06
352.765	587.06
352.992	567.06
353.22	554.06
353.447	549.06
353.674	561.06
353.901	568.06
354.128	551.06
354.355	547.06
354.583	585.06
354.81	589.06
355.037	581.06
355.264	583.06
355.491	579.06
355.718	567.06
355.945	553.06
356.172	533.06
356.399	551.06
356.626	529.06
356.853	577.06
357.08	636.06
357.307	687.06
357.534	638.06
357.761	602.06
357.988	525.06
358.215	538.06
358.441	522.06
358.668	539.06
358.895	550.06
359.122	614.06
359.349	630.06
359.576	610.06
359.802	569.06
360.029	547.06
360.256	554.06
360.483	543.06
360.709	587.06
360.936	575.06
361.163	637.06
361.39	659.06
361.616	690.06
361.843	688.06
362.07	653.06
362.296	579.06
362.523	547.06
362.749	567.06
362.976	585.06
363.203	586.06
363.429	574.06
363.656	548.06
363.882	597.06
364.109	618.06
364.335	655.06
364.562	623.06
364.788	585.06
365.015	551.06
365.241	565.06
365.468	560.06
365.694	606.06
365.92	616.06
366.147	591.06
366.373	557.06
366.599	564.06
366.826	555.06
367.052	544.06
367.278	603.06
367.505	596.06
367.731	594.06
367.957	598.06
368.184	605.06
368.41	663.06
368.636	654.06
368.862	674.06
369.089	650.06
369.315	649.06
369.541	623.06
369.767	568.06
369.993	578.06
370.219	590.06
370.445	603.06
370.672	659.06
370.898	667.06
371.124	651.06
371.35	625.06
371.576	663.06
371.802	660.06
372.028	628.06
372.254	606.06
372.48	594.06
372.706	592.06
372.932	606.06
373.158	619.06
373.384	631.06
373.61	651.06
373.835	663.06
374.061	651.06
374.287	616.06
374.513	631.06
374.739	641.06
374.965	639.06
375.191	630.06
375.416	655.06
375.642	639.06
375.868	680.06
376.094	709.06
376.319	687.06
376.545	632.06
376.771	669.06
376.997	689.06
377.222	670.06
377.448	661.06
377.674	664.06
377.899	662.06
378.125	725.06
378.35	683.06
378.576	650.06
378.802	621.06
379.027	630.06
379.253	632.06
379.478	640.06
379.704	629.06
379.929	635.06
380.155	660.06
380.38	633.06
380.606	638.06
380.831	665.06
381.057	703.06
381.282	704.06
381.507	712.06
381.733	731.06
381.958	735.06
382.184	675.06
382.409	667.06
382.634	666.06
382.86	674.06
383.085	678.06
383.31	695.06
383.535	785.06
383.761	815.06
383.986	740.06
384.211	711.06
384.436	729.06
384.662	738.06
384.887	769.06
385.112	737.06
385.337	716.06
385.562	747.06
385.787	736.06
386.013	741.06
386.238	772.06
386.463	777.06
386.688	830.06
386.913	851.06
387.138	804.06
387.363	777.06
387.588	762.06
387.813	773.06
388.038	793.06
388.263	792.06
388.488	769.06
388.713	679.06
388.938	690.06
389.163	694.06
389.387	727.06
389.612	754.06
389.837	737.06
390.062	776.06
390.287	746.06
390.512	716.06
390.736	721.06
390.961	750.06
391.186	713.06
391.411	735.06
391.636	726.06
391.86	734.06
392.085	760.06
392.31	763.06
392.534	738.06
392.759	764.06
392.984	755.06
393.208	771.06
393.433	793.06
393.658	815.06
393.882	822.06
394.107	775.06
394.331	755.06
394.556	763.06
394.78	774.06
395.005	806.06
395.229	814.06
395.454	866.06
395.678	846.06
395.903	810.06
396.127	819.06
396.352	817.06
396.576	850.06
396.801	837.06
397.025	849.06
397.249	844.06
397.474	818.06
397.698	852.06
397.922	850.06
398.147	892.06
398.371	921.06
398.595	911.06
398.82	881.06
399.044	890.06
399.268	922.06
399.492	965.06
399.717	985.06
399.941	951.06
400.165	958.06
400.389	967.06
400.613	978.06
400.837	1135.06
401.062	1150.06
401.286	998.06
401.51	975.06
401.734	979.06
401.958	940.06
402.182	879.06
402.406	880.06
402.63	889.06
402.854	849.06
403.078	866.06
403.302	891.06
403.526	902.06
403.75	919.06
403.974	924.06
404.198	916.06
404.422	957.06
404.645	996.06
404.869	964.06
405.093	906.06
405.317	890.06
405.541	914.06
405.765	925.06
405.988	912.06
406.212	966.06
406.436	964.06
406.66	982.06
406.883	1030.06
407.107	1159.06
407.331	1208.06
407.555	1288.06
407.778	1115.06
408.002	985.06
408.226	962.06
408.449	976.06
408.673	911.06
408.896	938.06
409.12	955.06
409.344	905.06
409.567	930.06
409.791	946.06
410.014	957.06
410.238	1037.06
410.461	1043.06
410.685	937.06
410.908	948.06
411.132	935.06
411.355	923.06
411.578	930.06
411.802	943.06
412.025	925.06
412.249	938.06
412.472	906.06
412.695	916.06
412.919	931.06
413.142	917.06
413.365	918.06
413.589	944.06
413.812	1003.06
414.035	967.06
414.258	925.06
414.482	937.06
414.705	936.06
414.928	878.06
415.151	901.06
415.374	917.06
415.597	930.06
415.821	932.06
416.044	952.06
416.267	928.06
416.49	925.06
416.713	923.06
416.936	943.06
417.159	967.06
417.382	968.06
417.605	928.06
417.828	929.06
418.051	928.06
418.274	929.06
418.497	915.06
418.72	932.06
418.943	908.06
419.166	931.06
419.389	978.06
419.611	954.06
419.834	927.06
420.057	900.06
420.28	933.06
420.503	926.06
420.726	929.06
420.948	950.06
421.171	893.06
421.394	929.06
421.617	995.06
421.839	1000.06
422.062	997.06
422.285	926.06
422.507	903.06
422.73	920.06
422.953	879.06
423.175	895.06
423.398	904.06
423.621	910.06
423.843	943.06
424.066	1007.06
424.288	1011.06
424.511	1042.06
424.733	997.06
424.956	925.06
425.178	956.06
425.401	947.06
425.623	942.06
425.846	917.06
426.068	985.06
426.291	949.06
426.513	965.06
426.735	944.06
426.958	1018.06
427.18	1063.06
427.402	1033.06
427.625	1015.06
427.847	992.06
428.069	906.06
428.292	920.06
428.514	855.06
428.736	860.06
428.958	912.06
429.181	955.06
429.403	1049.06
429.625	1197.06
429.847	1041.06
430.069	981.06
430.292	1040.06
430.514	984.06
430.736	976.06
430.958	989.06
431.18	912.06
431.402	868.06
431.624	831.06
431.846	771.06
432.068	733.06
432.29	732.06
432.512	806.06
432.734	879.06
432.956	929.06
433.178	951.06
433.4	961.06
433.622	931.06
433.844	889.06
434.066	818.06
434.287	807.06
434.509	776.06
434.731	815.06
434.953	923.06
435.175	947.06
435.397	918.06
435.618	886.06
435.84	851.06
436.062	821.06
436.284	889.06
436.505	909.06
436.727	903.06
436.949	903.06
437.17	888.06
437.392	886.06
437.614	863.06
437.835	802.06
438.057	826.06
438.278	815.06
438.5	847.06
438.721	932.06
438.943	934.06
439.165	929.06
439.386	895.06
439.608	965.06
439.829	949.06
440.05	944.06
440.272	930.06
440.493	956.06
440.715	985.06
440.936	1011.06
441.158	1059.06
441.379	1028.06
441.6	1031.06
441.822	1003.06
442.043	962.06
442.264	988.06
442.486	959.06
442.707	948.06
442.928	934.06
443.149	1019.06
443.371	1015.06
443.592	1046.06
443.813	1017.06
444.034	1026.06
444.255	976.06
444.476	1055.06
444.698	1050.06
444.919	1029.06
445.14	1101.06
445.361	1078.06
445.582	1079.06
445.803	1039.06
446.024	1027.06
446.245	1061.06
446.466	1053.06
446.687	1041.06
446.908	1050.06
447.129	1007.06
447.35	991.06
447.571	977.06
447.792	969.06
448.013	931.06
448.234	915.06
448.455	983.06
448.675	1018.06
448.896	927.06
449.117	927.06
449.338	927.06
449.559	953.06
449.779	945.06
450	1022.06
450.221	1034.06
450.442	1002.06
450.662	925.06
450.883	862.06
451.104	879.06
451.324	873.06
451.545	886.06
451.766	858.06
451.986	821.06
452.207	805.06
452.428	807.06
452.648	786.06
452.869	798.06
453.089	824.06
453.31	756.06
453.53	787.06
453.751	743.06
453.971	713.06
454.192	723.06
454.412	748.06
454.633	796.06
454.853	770.06
455.073	741.06
455.294	753.06
455.514	779.06
455.734	754.06
455.955	743.06
456.175	724.06
456.395	744.06
456.616	752.06
456.836	726.06
457.056	749.06
457.276	729.06
457.497	715.06
457.717	677.06
457.937	706.06
458.157	711.06
458.377	704.06
458.598	693.06
458.818	672.06
459.038	703.06
459.258	704.06
459.478	704.06
459.698	691.06
459.918	734.06
460.138	789.06
460.358	808.06
460.578	821.06
460.798	862.06
461.018	862.06
461.238	845.06
461.458	867.06
461.678	825.06
461.898	799.06
462.118	803.06
462.338	845.06
462.558	865.06
462.777	833.06
462.997	886.06
463.217	884.06
463.437	872.06
463.657	837.06
463.876	816.06
464.096	837.06
464.316	845.06
464.536	872.06
464.755	889.06
464.975	862.06
465.195	856.06
465.414	890.06
465.634	868.06
465.854	865.06
466.073	934.06
466.293	942.06
466.512	861.06
466.732	879.06
466.951	887.06
467.171	898.06
467.391	880.06
467.61	865.06
467.829	884.06
468.049	999.06
468.268	1008.06
468.488	946.06
468.707	912.06
468.927	922.06
469.146	903.06
469.365	907.06
469.585	913.06
469.804	895.06
470.023	923.06
470.243	954.06
470.462	950.06
470.681	917.06
470.901	925.06
471.12	921.06
471.339	927.06
471.558	908.06
471.777	889.06
471.997	882.06
472.216	836.06
472.435	762.06
472.654	773.06
472.873	796.06
473.092	816.06
473.311	832.06
473.53	817.06
473.749	824.06
473.968	870.06
474.187	851.06
474.406	818.06
474.625	827.06
474.844	863.06
475.063	855.06
475.282	862.06
475.501	826.06
475.72	822.06
475.939	902.06
476.158	890.06
476.377	854.06
476.596	845.06
476.814	805.06
477.033	791.06
477.252	849.06
477.471	892.06
477.69	912.06
477.908	939.06
478.127	994.06
478.346	1036.06
478.564	999.06
478.783	985.06
479.002	999.06
479.22	998.06
479.439	999.06
479.658	1042.06
479.876	992.06
480.095	908.06
480.313	899.06
480.532	893.06
480.751	862.06
480.969	830.06
481.188	764.06
481.406	789.06
481.624	752.06
481.843	781.06
482.061	826.06
482.28	867.06
482.498	878.06
482.717	839.06
482.935	889.06
483.153	965.06
483.372	1053.06
483.59	991.06
483.808	946.06
484.027	949.06
484.245	978.06
484.463	1207.06
484.681	1307.06
484.9	996.06
485.118	931.06
485.336	912.06
485.554	902.06
485.772	860.06
485.99	877.06
486.209	889.06
486.427	921.06
486.645	937.06
486.863	995.06
487.081	1032.06
487.299	1022.06
487.517	990.06
487.735	1075.06
487.953	1157.06
488.171	1129.06
488.389	1091.06
488.607	1073.06
488.825	1106.06
489.043	1044.06
489.261	960.06
489.479	1026.06
489.696	1046.06
489.914	1028.06
490.132	1026.06
490.35	1060.06
490.568	1163.06
490.786	1201.06
491.003	1204.06
491.221	1241.06
491.439	1308.06
491.657	1275.06
491.874	1315.06
492.092	1427.06
492.31	1501.06
492.527	1455.06
492.745	1368.06
492.963	1315.06
493.18	1302.06
493.398	1344.06
493.615	1303.06
493.833	1281.06
494.05	1222.06
494.268	1224.06
494.485	1211.06
494.703	1235.06
494.92	1209.06
495.138	1197.06
495.355	1235.06
495.573	1238.06
495.79	1282.06
496.008	1234.06
496.225	1242.06
496.442	1266.06
496.66	1255.06
496.877	1224.06
497.094	1233.06
497.312	1203.06
497.529	1185.06
497.746	1208.06
497.963	1273.06
498.181	1317.06
498.398	1234.06
498.615	1197.06
498.832	1158.06
499.049	1130.06
499.267	1190.06
499.484	1253.06
499.701	1328.06
499.918	1364.06
500.135	1480.06
500.352	1563.06
