Data from WStandard_LampEnergy5.5LIBS07252019.E.O._I.C._HRD10591_16-07-47-921.txt Node
Date: Thu Jul 25 16:07:47 EDT 2019
User: cochatt
Spectrometer: HR+D1059
Trigger mode: 1
Integration Time (sec): 1.000000E-1
Scans to average: 1
Electric dark correction enabled: true
Nonlinearity correction enabled: false
Boxcar width: 0
XAxis mode: Wavelengths
Number of Pixels in Spectrum: 2048
>>>>>Begin Spectral Data<<<<<
223.165	-23.88
223.4	-23.88
223.635	-23.88
223.869	-10.88
224.104	-6.88
224.338	-25.88
224.573	-6.88
224.808	-10.88
225.042	-8.88
225.277	-14.88
225.511	5.12
225.746	13.12
225.98	0.12
226.215	0.12
226.449	2.12
226.683	33.12
226.918	14.12
227.152	41.12
227.387	25.12
227.621	23.12
227.856	37.12
228.09	48.12
228.324	52.12
228.559	56.12
228.793	135.12
229.027	350.12
229.262	379.12
229.496	397.12
229.73	388.12
229.964	468.12
230.199	484.12
230.433	499.12
230.667	494.12
230.901	544.12
231.136	491.12
231.37	492.12
231.604	484.12
231.838	489.12
232.072	487.12
232.306	464.12
232.541	492.12
232.775	551.12
233.009	623.12
233.243	621.12
233.477	543.12
233.711	568.12
233.945	599.12
234.179	570.12
234.413	617.12
234.647	647.12
234.881	617.12
235.115	571.12
235.349	545.12
235.583	577.12
235.817	564.12
236.051	545.12
236.285	571.12
236.519	635.12
236.753	679.12
236.987	716.12
237.221	718.12
237.455	776.12
237.689	760.12
237.922	700.12
238.156	690.12
238.39	707.12
238.624	744.12
238.858	791.12
239.091	784.12
239.325	810.12
239.559	945.12
239.793	985.12
240.027	1076.12
240.26	1081.12
240.494	816.12
240.728	742.12
240.961	747.12
241.195	751.12
241.429	838.12
241.662	835.12
241.896	786.12
242.13	789.12
242.363	856.12
242.597	939.12
242.83	913.12
243.064	897.12
243.298	1005.12
243.531	955.12
243.765	945.12
243.998	957.12
244.232	845.12
244.465	823.12
244.699	815.12
244.932	949.12
245.166	1092.12
245.399	1036.12
245.633	933.12
245.866	908.12
246.099	986.12
246.333	977.12
246.566	1034.12
246.8	1094.12
247.033	1202.12
247.266	1106.12
247.5	1113.12
247.733	1115.12
247.966	1145.12
248.2	1248.12
248.433	1193.12
248.666	1248.12
248.899	1368.12
249.133	1599.12
249.366	1813.12
249.599	1496.12
249.832	1303.12
250.066	1321.12
250.299	1351.12
250.532	1259.12
250.765	1123.12
250.998	1177.12
251.231	1243.12
251.465	1286.12
251.698	1215.12
251.931	1205.12
252.164	1242.12
252.397	1296.12
252.63	1315.12
252.863	1149.12
253.096	1143.12
253.329	1189.12
253.562	1226.12
253.795	1334.12
254.028	1319.12
254.261	1257.12
254.494	1201.12
254.727	1156.12
254.96	1171.12
255.193	1287.12
255.426	1434.12
255.659	1748.12
255.892	1766.12
256.124	1432.12
256.357	1377.12
256.59	1473.12
256.823	1475.12
257.056	1448.12
257.289	1791.12
257.521	1979.12
257.754	1777.12
257.987	1659.12
258.22	1868.12
258.452	1796.12
258.685	1436.12
258.918	1422.12
259.151	1429.12
259.383	1374.12
259.616	1208.12
259.849	1273.12
260.081	1438.12
260.314	1633.12
260.547	1741.12
260.779	1777.12
261.012	1675.12
261.244	1498.12
261.477	1405.12
261.71	1447.12
261.942	1492.12
262.175	1409.12
262.407	1569.12
262.64	1432.12
262.872	1345.12
263.105	1283.12
263.337	1328.12
263.57	1367.12
263.802	1334.12
264.035	1282.12
264.267	1181.12
264.499	1172.12
264.732	1255.12
264.964	1351.12
265.197	1377.12
265.429	1453.12
265.661	1634.12
265.894	1812.12
266.126	1893.12
266.358	1627.12
266.591	1711.12
266.823	1888.12
267.055	1724.12
267.287	1654.12
267.52	1654.12
267.752	1582.12
267.984	1608.12
268.216	1648.12
268.448	1749.12
268.681	1750.12
268.913	1544.12
269.145	1496.12
269.377	1428.12
269.609	1559.12
269.841	1820.12
270.073	2084.12
270.306	2347.12
270.538	2567.12
270.77	2099.12
271.002	1819.12
271.234	1707.12
271.466	1704.12
271.698	1907.12
271.93	2309.12
272.162	2300.12
272.394	2084.12
272.626	1979.12
272.858	1779.12
273.09	1502.12
273.322	1521.12
273.553	1419.12
273.785	1428.12
274.017	1541.12
274.249	1665.12
274.481	1639.12
274.713	1469.12
274.945	1455.12
275.176	1462.12
275.408	1454.12
275.64	1417.12
275.872	1418.12
276.104	1508.12
276.335	1725.12
276.567	1948.12
276.799	2001.12
277.031	1761.12
277.262	1676.12
277.494	1705.12
277.726	1928.12
277.957	1964.12
278.189	1741.12
278.421	1603.12
278.652	1528.12
278.884	1508.12
279.115	1511.12
279.347	1589.12
279.579	1528.12
279.81	1505.12
280.042	1673.12
280.273	1875.12
280.505	1833.12
280.736	1856.12
280.968	1806.12
281.199	1602.12
281.431	1471.12
281.662	1523.12
281.894	1480.12
282.125	1511.12
282.356	1583.12
282.588	1640.12
282.819	1571.12
283.051	1689.12
283.282	1842.12
283.513	1838.12
283.745	1546.12
283.976	1412.12
284.207	1462.12
284.439	1511.12
284.67	1564.12
284.901	1571.12
285.132	1640.12
285.364	1599.12
285.595	1622.12
285.826	1563.12
286.057	1573.12
286.288	1537.12
286.52	1600.12
286.751	1730.12
286.982	1788.12
287.213	1665.12
287.444	1496.12
287.675	1493.12
287.906	1598.12
288.138	1699.12
288.369	1643.12
288.6	1558.12
288.831	1508.12
289.062	1525.12
289.293	1580.12
289.524	1587.12
289.755	1629.12
289.986	1588.12
290.217	1491.12
290.448	1528.12
290.679	1555.12
290.91	1577.12
291.141	1647.12
291.371	1689.12
291.602	1679.12
291.833	1651.12
292.064	1730.12
292.295	1687.12
292.526	1696.12
292.757	1780.12
292.987	1681.12
293.218	1627.12
293.449	1695.12
293.68	1933.12
293.91	2097.12
294.141	1969.12
294.372	1850.12
294.603	1865.12
294.833	1992.12
295.064	1879.12
295.295	1697.12
295.525	1638.12
295.756	1536.12
295.987	1441.12
296.217	1500.12
296.448	1527.12
296.679	1551.12
296.909	1541.12
297.14	1562.12
297.37	1564.12
297.601	1624.12
297.831	1816.12
298.062	1788.12
298.292	1631.12
298.523	1557.12
298.753	1559.12
298.984	1574.12
299.214	1603.12
299.445	1607.12
299.675	1682.12
299.905	1675.12
300.136	1634.12
300.366	1583.12
300.597	1540.12
300.827	1542.12
301.057	1590.12
301.288	1684.12
301.518	1681.12
301.748	1740.12
301.979	1797.12
302.209	1808.12
302.439	1911.12
302.669	1966.12
302.9	1894.12
303.13	1700.12
303.36	1681.12
303.59	1732.12
303.82	1692.12
304.051	1697.12
304.281	1660.12
304.511	1706.12
304.741	1795.12
304.971	1948.12
305.201	2191.12
305.431	2018.12
305.661	1691.12
305.891	1520.12
306.121	1474.12
306.352	1530.12
306.582	1653.12
306.812	1711.12
307.042	1895.12
307.272	1883.12
307.502	1911.12
307.731	2067.12
307.961	2225.12
308.191	2041.12
308.421	1757.12
308.651	1675.12
308.881	1614.12
309.111	1636.12
309.341	1583.12
309.571	1592.12
309.8	1658.12
310.03	1626.12
310.26	1579.12
310.49	1599.12
310.72	1636.12
310.949	1701.12
311.179	1728.12
311.409	1728.12
311.639	1666.12
311.868	1632.12
312.098	1651.12
312.328	1673.12
312.557	1617.12
312.787	1657.12
313.017	1736.12
313.246	1722.12
313.476	1693.12
313.706	1718.12
313.935	1733.12
314.165	1739.12
314.394	1784.12
314.624	1905.12
314.853	1968.12
315.083	2075.12
315.312	2100.12
315.542	2024.12
315.771	1716.12
316.001	1719.12
316.23	1847.12
316.46	1836.12
316.689	1829.12
316.919	1735.12
317.148	1651.12
317.377	1661.12
317.607	1855.12
317.836	2020.12
318.065	2119.12
318.295	2001.12
318.524	1908.12
318.753	1880.12
318.983	1807.12
319.212	1770.12
319.441	1764.12
319.67	1736.12
319.9	1810.12
320.129	1855.12
320.358	1962.12
320.587	2020.12
320.816	2012.12
321.046	1938.12
321.275	1840.12
321.504	1852.12
321.733	2036.12
321.962	1942.12
322.191	1821.12
322.42	1796.12
322.649	1776.12
322.878	1769.12
323.108	1746.12
323.337	1847.12
323.566	1833.12
323.795	1857.12
324.024	1809.12
324.253	1801.12
324.482	1841.12
324.71	1764.12
324.939	1691.12
325.168	1711.12
325.397	1780.12
325.626	1831.12
325.855	1877.12
326.084	1778.12
326.313	1756.12
326.542	1837.12
326.77	1830.12
326.999	1880.12
327.228	1791.12
327.457	1690.12
327.686	1686.12
327.914	1681.12
328.143	1759.12
328.372	1745.12
328.6	1763.12
328.829	1740.12
329.058	1735.12
329.287	1756.12
329.515	1787.12
329.744	1816.12
329.972	1886.12
330.201	1975.12
330.43	1932.12
330.658	1883.12
330.887	1873.12
331.115	1895.12
331.344	1907.12
331.572	1858.12
331.801	1822.12
332.03	1825.12
332.258	1875.12
332.486	1940.12
332.715	1904.12
332.943	1975.12
333.172	1861.12
333.4	1925.12
333.629	1954.12
333.857	2075.12
334.085	2189.12
334.314	2568.12
334.542	2836.12
334.771	2588.12
334.999	2287.12
335.227	2162.12
335.455	2044.12
335.684	2003.12
335.912	2028.12
336.14	2090.12
336.369	2042.12
336.597	1957.12
336.825	1915.12
337.053	1937.12
337.281	2085.12
337.51	2167.12
337.738	2269.12
337.966	2157.12
338.194	1934.12
338.422	1884.12
338.65	1923.12
338.878	1865.12
339.106	1830.12
339.334	1778.12
339.562	1767.12
339.79	1781.12
340.018	1927.12
340.246	2003.12
340.474	2004.12
340.702	1932.12
340.93	1994.12
341.158	1924.12
341.386	1866.12
341.614	1878.12
341.842	1868.12
342.07	1868.12
342.298	1881.12
342.526	1921.12
342.754	1870.12
342.981	1849.12
343.209	1847.12
343.437	1834.12
343.665	1860.12
343.893	1924.12
344.12	1948.12
344.348	2024.12
344.576	1931.12
344.804	1822.12
345.031	1878.12
345.259	1898.12
345.487	1811.12
345.714	1729.12
345.942	1721.12
346.17	1677.12
346.397	1729.12
346.625	1824.12
346.853	1691.12
347.08	1651.12
347.308	1678.12
347.535	1724.12
347.763	1768.12
347.99	1722.12
348.218	1663.12
348.445	1665.12
348.673	1739.12
348.9	1755.12
349.128	1823.12
349.355	1866.12
349.583	1841.12
349.81	1775.12
350.037	1642.12
350.265	1591.12
350.492	1615.12
350.72	1637.12
350.947	1753.12
351.174	1760.12
351.402	1700.12
351.629	1600.12
351.856	1617.12
352.083	1588.12
352.311	1594.12
352.538	1626.12
352.765	1752.12
352.992	1784.12
353.22	1727.12
353.447	1666.12
353.674	1675.12
353.901	1688.12
354.128	1725.12
354.355	1653.12
354.583	1737.12
354.81	1773.12
355.037	1839.12
355.264	1786.12
355.491	1693.12
355.718	1719.12
355.945	1700.12
356.172	1684.12
356.399	1671.12
356.626	1647.12
356.853	1700.12
357.08	1871.12
357.307	2006.12
357.534	2035.12
357.761	1811.12
357.988	1671.12
358.215	1603.12
358.441	1652.12
358.668	1623.12
358.895	1647.12
359.122	1765.12
359.349	1895.12
359.576	1929.12
359.802	1700.12
360.029	1659.12
360.256	1641.12
360.483	1657.12
360.709	1692.12
360.936	1745.12
361.163	1784.12
361.39	2000.12
361.616	2167.12
361.843	2077.12
362.07	1971.12
362.296	1752.12
362.523	1636.12
362.749	1702.12
362.976	1737.12
363.203	1775.12
363.429	1723.12
363.656	1632.12
363.882	1706.12
364.109	1880.12
364.335	2073.12
364.562	1908.12
364.788	1799.12
365.015	1742.12
365.241	1634.12
365.468	1691.12
365.694	1761.12
365.92	1836.12
366.147	1828.12
366.373	1651.12
366.599	1605.12
366.826	1611.12
367.052	1642.12
367.278	1677.12
367.505	1695.12
367.731	1740.12
367.957	1755.12
368.184	1794.12
368.41	1861.12
368.636	1878.12
368.862	1888.12
369.089	1933.12
369.315	1839.12
369.541	1777.12
369.767	1715.12
369.993	1660.12
370.219	1679.12
370.445	1737.12
370.672	1800.12
370.898	1884.12
371.124	1896.12
371.35	1776.12
371.576	1826.12
371.802	1918.12
372.028	1838.12
372.254	1775.12
372.48	1711.12
372.706	1690.12
372.932	1697.12
373.158	1740.12
373.384	1775.12
373.61	1803.12
373.835	1942.12
374.061	1824.12
374.287	1772.12
374.513	1800.12
374.739	1771.12
374.965	1818.12
375.191	1821.12
375.416	1819.12
375.642	1803.12
375.868	1944.12
376.094	1993.12
376.319	1922.12
376.545	1795.12
376.771	1846.12
376.997	1914.12
377.222	1924.12
377.448	1805.12
377.674	1840.12
377.899	1865.12
378.125	1922.12
378.35	2000.12
378.576	1773.12
378.802	1735.12
379.027	1739.12
379.253	1741.12
379.478	1795.12
379.704	1749.12
379.929	1767.12
380.155	1762.12
380.38	1806.12
380.606	1781.12
380.831	1775.12
381.057	1910.12
381.282	1908.12
381.507	1895.12
381.733	1939.12
381.958	2039.12
382.184	1904.12
382.409	1810.12
382.634	1888.12
382.86	1835.12
383.085	1851.12
383.31	1872.12
383.535	2055.12
383.761	2167.12
383.986	2065.12
384.211	2031.12
384.436	2008.12
384.662	2066.12
384.887	2152.12
385.112	2097.12
385.337	2075.12
385.562	2071.12
385.787	2031.12
386.013	2112.12
386.238	2115.12
386.463	2081.12
386.688	2214.12
386.913	2296.12
387.138	2295.12
387.363	2113.12
387.588	2167.12
387.813	2112.12
388.038	2124.12
388.263	2160.12
388.488	2161.12
388.713	1984.12
388.938	1918.12
389.163	1952.12
389.387	1988.12
389.612	1999.12
389.837	2079.12
390.062	2037.12
390.287	2086.12
390.512	1985.12
390.736	2036.12
390.961	1936.12
391.186	1926.12
391.411	1923.12
391.636	1992.12
391.86	2014.12
392.085	2050.12
392.31	1995.12
392.534	2034.12
392.759	2085.12
392.984	2065.12
393.208	2053.12
393.433	2113.12
393.658	2129.12
393.882	2200.12
394.107	2113.12
394.331	2025.12
394.556	1986.12
394.78	2070.12
395.005	2138.12
395.229	2208.12
395.454	2333.12
395.678	2367.12
395.903	2237.12
396.127	2131.12
396.352	2169.12
396.576	2232.12
396.801	2251.12
397.025	2226.12
397.249	2184.12
397.474	2219.12
397.698	2169.12
397.922	2264.12
398.147	2326.12
398.371	2412.12
398.595	2416.12
398.82	2359.12
399.044	2376.12
399.268	2461.12
399.492	2646.12
399.717	2707.12
399.941	2743.12
400.165	2696.12
400.389	2609.12
400.613	2555.12
400.837	2833.12
401.062	3297.12
401.286	2842.12
401.51	2548.12
401.734	2664.12
401.958	2599.12
402.182	2403.12
402.406	2284.12
402.63	2316.12
402.854	2256.12
403.078	2351.12
403.302	2420.12
403.526	2459.12
403.75	2405.12
403.974	2382.12
404.198	2410.12
404.422	2515.12
404.645	2618.12
404.869	2567.12
405.093	2407.12
405.317	2369.12
405.541	2423.12
405.765	2490.12
405.988	2437.12
406.212	2455.12
406.436	2493.12
406.66	2583.12
406.883	2637.12
407.107	2932.12
407.331	3196.12
407.555	3383.12
407.778	3189.12
408.002	2657.12
408.226	2561.12
408.449	2543.12
408.673	2463.12
408.896	2491.12
409.12	2540.12
409.344	2443.12
409.567	2367.12
409.791	2404.12
410.014	2487.12
410.238	2559.12
410.461	2779.12
410.685	2468.12
410.908	2379.12
411.132	2427.12
411.355	2425.12
411.578	2325.12
411.802	2334.12
412.025	2441.12
412.249	2373.12
412.472	2308.12
412.695	2287.12
412.919	2277.12
413.142	2277.12
413.365	2279.12
413.589	2365.12
413.812	2444.12
414.035	2546.12
414.258	2344.12
414.482	2281.12
414.705	2292.12
414.928	2287.12
415.151	2321.12
415.374	2348.12
415.597	2328.12
415.821	2369.12
416.044	2473.12
416.267	2437.12
416.49	2230.12
416.713	2205.12
416.936	2310.12
417.159	2396.12
417.382	2401.12
417.605	2278.12
417.828	2373.12
418.051	2359.12
418.274	2296.12
418.497	2219.12
418.72	2228.12
418.943	2225.12
419.166	2364.12
419.389	2508.12
419.611	2370.12
419.834	2281.12
420.057	2327.12
420.28	2184.12
420.503	2225.12
420.726	2257.12
420.948	2311.12
421.171	2240.12
421.394	2244.12
421.617	2333.12
421.839	2317.12
422.062	2242.12
422.285	2223.12
422.507	2236.12
422.73	2177.12
422.953	2125.12
423.175	2132.12
423.398	2212.12
423.621	2199.12
423.843	2224.12
424.066	2272.12
424.288	2349.12
424.511	2402.12
424.733	2357.12
424.956	2133.12
425.178	2159.12
425.401	2114.12
425.623	2184.12
425.846	2164.12
426.068	2282.12
426.291	2285.12
426.513	2280.12
426.735	2300.12
426.958	2365.12
427.18	2562.12
427.402	2307.12
427.625	2348.12
427.847	2402.12
428.069	2242.12
428.292	2238.12
428.514	2136.12
428.736	2138.12
428.958	2174.12
429.181	2189.12
429.403	2407.12
429.625	3064.12
429.847	2676.12
430.069	2218.12
430.292	2400.12
430.514	2567.12
430.736	2366.12
430.958	2421.12
431.18	2329.12
431.402	2172.12
431.624	2164.12
431.846	2136.12
432.068	2071.12
432.29	2128.12
432.512	2157.12
432.734	2218.12
432.956	2223.12
433.178	2293.12
433.4	2340.12
433.622	2307.12
433.844	2179.12
434.066	2165.12
434.287	2136.12
434.509	2177.12
434.731	2336.12
434.953	2471.12
435.175	2449.12
435.397	2300.12
435.618	2275.12
435.84	2301.12
436.062	2230.12
436.284	2293.12
436.505	2255.12
436.727	2281.12
436.949	2266.12
437.17	2163.12
437.392	2154.12
437.614	2195.12
437.835	2116.12
438.057	2215.12
438.278	2344.12
438.5	2228.12
438.721	2136.12
438.943	2185.12
439.165	2175.12
439.386	2092.12
439.608	2107.12
439.829	2166.12
440.05	2169.12
440.272	2149.12
440.493	2107.12
440.715	2095.12
440.936	2258.12
441.158	2521.12
441.379	2460.12
441.6	2317.12
441.822	2361.12
442.043	2390.12
442.264	2252.12
442.486	2118.12
442.707	2114.12
442.928	2146.12
443.149	2221.12
443.371	2336.12
443.592	2448.12
443.813	2351.12
444.034	2335.12
444.255	2374.12
444.476	2432.12
444.698	2462.12
444.919	2422.12
445.14	2515.12
445.361	2485.12
445.582	2598.12
445.803	2476.12
446.024	2382.12
446.245	2452.12
446.466	2380.12
446.687	2230.12
446.908	2211.12
447.129	2166.12
447.35	2213.12
447.571	2243.12
447.792	2149.12
448.013	2113.12
448.234	2186.12
448.455	2262.12
448.675	2250.12
448.896	2090.12
449.117	2016.12
449.338	2109.12
449.559	2227.12
449.779	2341.12
450	2580.12
450.221	2737.12
450.442	2700.12
450.662	2347.12
450.883	2107.12
451.104	2011.12
451.324	2084.12
451.545	2113.12
451.766	2038.12
451.986	1973.12
452.207	1982.12
452.428	1939.12
452.648	1878.12
452.869	1967.12
453.089	2157.12
453.31	2113.12
453.53	2166.12
453.751	2077.12
453.971	1982.12
454.192	2025.12
454.412	2156.12
454.633	2037.12
454.853	1984.12
455.073	1875.12
455.294	1887.12
455.514	1909.12
455.734	1871.12
455.955	1913.12
456.175	1926.12
456.395	1939.12
456.616	1977.12
456.836	2010.12
457.056	1956.12
457.276	2001.12
457.497	1915.12
457.717	1814.12
457.937	1911.12
458.157	1951.12
458.377	1937.12
458.598	1941.12
458.818	1933.12
459.038	2045.12
459.258	2214.12
459.478	2186.12
459.698	2139.12
459.918	2165.12
460.138	2205.12
460.358	2281.12
460.578	2327.12
460.798	2363.12
461.018	2521.12
461.238	2391.12
461.458	2308.12
461.678	2333.12
461.898	2229.12
462.118	2167.12
462.338	2342.12
462.558	2351.12
462.777	2329.12
462.997	2415.12
463.217	2553.12
463.437	2524.12
463.657	2340.12
463.876	2298.12
464.096	2300.12
464.316	2320.12
464.536	2391.12
464.755	2416.12
464.975	2463.12
465.195	2329.12
465.414	2440.12
465.634	2439.12
465.854	2309.12
466.073	2435.12
466.293	2419.12
466.512	2168.12
466.732	2149.12
466.951	2245.12
467.171	2161.12
467.391	2101.12
467.61	2059.12
467.829	2068.12
468.049	2249.12
468.268	2499.12
468.488	2368.12
468.707	2206.12
468.927	2167.12
469.146	2087.12
469.365	2017.12
469.585	2090.12
469.804	2091.12
470.023	2102.12
470.243	2160.12
470.462	2065.12
470.681	2019.12
470.901	2083.12
471.12	2129.12
471.339	2072.12
471.558	2073.12
471.777	2036.12
471.997	2026.12
472.216	2004.12
472.435	1987.12
472.654	2073.12
472.873	2138.12
473.092	2272.12
473.311	2167.12
473.53	2042.12
473.749	2019.12
473.968	2103.12
474.187	2179.12
474.406	2308.12
474.625	2166.12
474.844	2132.12
475.063	2108.12
475.282	2195.12
475.501	2150.12
475.72	2095.12
475.939	2234.12
476.158	2188.12
476.377	2146.12
476.596	2162.12
476.814	2194.12
477.033	2213.12
477.252	2279.12
477.471	2344.12
477.69	2250.12
477.908	2229.12
478.127	2343.12
478.346	2483.12
478.564	2576.12
478.783	2499.12
479.002	2579.12
479.22	2537.12
479.439	2615.12
479.658	2985.12
479.876	3003.12
480.095	2552.12
480.313	2449.12
480.532	2332.12
480.751	2390.12
480.969	2445.12
481.188	2383.12
481.406	2371.12
481.624	2274.12
481.843	2363.12
482.061	2387.12
482.28	2461.12
482.498	2454.12
482.717	2456.12
482.935	2341.12
483.153	2330.12
483.372	2349.12
483.59	2290.12
483.808	2389.12
484.027	2397.12
484.245	2538.12
484.463	2908.12
484.681	3351.12
484.9	2600.12
485.118	2415.12
485.336	2422.12
485.554	2494.12
485.772	2657.12
485.99	2584.12
486.209	2566.12
486.427	2546.12
486.645	2556.12
486.863	2464.12
487.081	2543.12
487.299	2641.12
