Data from WStandard_LampEnergy8_LIBS07252019.E.O._I.C._HRD10591_15-59-09-929.txt Node
Date: Thu Jul 25 15:59:09 EDT 2019
User: cochatt
Spectrometer: HR+D1059
Trigger mode: 1
Integration Time (sec): 1.000000E-1
Scans to average: 1
Electric dark correction enabled: true
Nonlinearity correction enabled: false
Boxcar width: 0
XAxis mode: Wavelengths
Number of Pixels in Spectrum: 2048
>>>>>Begin Spectral Data<<<<<
223.165	-12.94
223.4	-12.94
223.635	-12.94
223.869	-17.94
224.104	-6.94
224.338	4.06
224.573	-18.94
224.808	-10.94
225.042	-9.94
225.277	-9.94
225.511	-10.94
225.746	9.06
225.98	9.06
226.215	-11.94
226.449	22.06
226.683	16.06
226.918	26.06
227.152	24.06
227.387	38.06
227.621	36.06
227.856	36.06
228.09	37.06
228.324	63.06
228.559	57.06
228.793	100.06
229.027	203.06
229.262	207.06
229.496	191.06
229.73	216.06
229.964	254.06
230.199	248.06
230.433	278.06
230.667	289.06
230.901	287.06
231.136	270.06
231.37	262.06
231.604	252.06
231.838	262.06
232.072	264.06
232.306	253.06
232.541	275.06
232.775	310.06
233.009	347.06
233.243	304.06
233.477	290.06
233.711	316.06
233.945	311.06
234.179	296.06
234.413	314.06
234.647	317.06
234.881	311.06
235.115	299.06
235.349	288.06
235.583	299.06
235.817	294.06
236.051	279.06
236.285	288.06
236.519	301.06
236.753	354.06
236.987	367.06
237.221	354.06
237.455	378.06
237.689	374.06
237.922	341.06
238.156	341.06
238.39	322.06
238.624	373.06
238.858	384.06
239.091	414.06
239.325	407.06
239.559	454.06
239.793	492.06
240.027	498.06
240.26	486.06
240.494	408.06
240.728	385.06
240.961	370.06
241.195	400.06
241.429	415.06
241.662	420.06
241.896	387.06
242.13	410.06
242.363	423.06
242.597	447.06
242.83	443.06
243.064	452.06
243.298	487.06
243.531	470.06
243.765	460.06
243.998	471.06
244.232	392.06
244.465	391.06
244.699	405.06
244.932	439.06
245.166	526.06
245.399	487.06
245.633	465.06
245.866	446.06
246.099	461.06
246.333	499.06
246.566	498.06
246.8	533.06
247.033	558.06
247.266	546.06
247.5	517.06
247.733	536.06
247.966	557.06
248.2	590.06
248.433	599.06
248.666	605.06
248.899	669.06
249.133	770.06
249.366	796.06
249.599	675.06
249.832	614.06
250.066	618.06
250.299	631.06
250.532	582.06
250.765	527.06
250.998	581.06
251.231	597.06
251.465	600.06
251.698	558.06
251.931	553.06
252.164	585.06
252.397	605.06
252.63	607.06
252.863	540.06
253.096	538.06
253.329	581.06
253.562	572.06
253.795	595.06
254.028	622.06
254.261	584.06
254.494	566.06
254.727	552.06
254.96	565.06
255.193	656.06
255.426	695.06
255.659	758.06
255.892	745.06
256.124	674.06
256.357	654.06
256.59	674.06
256.823	684.06
257.056	707.06
257.289	814.06
257.521	870.06
257.754	812.06
257.987	769.06
258.22	813.06
258.452	794.06
258.685	668.06
258.918	685.06
259.151	656.06
259.383	635.06
259.616	590.06
259.849	626.06
260.081	676.06
260.314	756.06
260.547	815.06
260.779	798.06
261.012	728.06
261.244	674.06
261.477	678.06
261.71	695.06
261.942	684.06
262.175	662.06
262.407	697.06
262.64	672.06
262.872	648.06
263.105	602.06
263.337	644.06
263.57	635.06
263.802	612.06
264.035	597.06
264.267	564.06
264.499	568.06
264.732	616.06
264.964	631.06
265.197	664.06
265.429	693.06
265.661	796.06
265.894	841.06
266.126	867.06
266.358	778.06
266.591	790.06
266.823	869.06
267.055	760.06
267.287	766.06
267.52	768.06
267.752	755.06
267.984	742.06
268.216	792.06
268.448	818.06
268.681	763.06
268.913	730.06
269.145	678.06
269.377	696.06
269.609	765.06
269.841	868.06
270.073	1021.06
270.306	1082.06
270.538	1100.06
270.77	955.06
271.002	833.06
271.234	815.06
271.466	828.06
271.698	894.06
271.93	1042.06
272.162	1017.06
272.394	904.06
272.626	868.06
272.858	784.06
273.09	719.06
273.322	707.06
273.553	671.06
273.785	682.06
274.017	711.06
274.249	745.06
274.481	746.06
274.713	703.06
274.945	682.06
275.176	688.06
275.408	687.06
275.64	661.06
275.872	691.06
276.104	775.06
276.335	830.06
276.567	927.06
276.799	897.06
277.031	805.06
277.262	791.06
277.494	832.06
277.726	918.06
277.957	858.06
278.189	809.06
278.421	738.06
278.652	718.06
278.884	724.06
279.115	719.06
279.347	730.06
279.579	734.06
279.81	756.06
280.042	799.06
280.273	866.06
280.505	862.06
280.736	894.06
280.968	808.06
281.199	736.06
281.431	702.06
281.662	716.06
281.894	703.06
282.125	745.06
282.356	765.06
282.588	769.06
282.819	763.06
283.051	851.06
283.282	853.06
283.513	839.06
283.745	746.06
283.976	722.06
284.207	732.06
284.439	739.06
284.67	759.06
284.901	754.06
285.132	751.06
285.364	768.06
285.595	781.06
285.826	745.06
286.057	759.06
286.288	743.06
286.52	772.06
286.751	825.06
286.982	826.06
287.213	760.06
287.444	743.06
287.675	724.06
287.906	783.06
288.138	802.06
288.369	802.06
288.6	742.06
288.831	734.06
289.062	744.06
289.293	753.06
289.524	762.06
289.755	770.06
289.986	771.06
290.217	713.06
290.448	727.06
290.679	775.06
290.91	760.06
291.141	826.06
291.371	827.06
291.602	804.06
291.833	804.06
292.064	823.06
292.295	824.06
292.526	827.06
292.757	859.06
292.987	824.06
293.218	796.06
293.449	866.06
293.68	992.06
293.91	992.06
294.141	926.06
294.372	874.06
294.603	922.06
294.833	952.06
295.064	885.06
295.295	828.06
295.525	772.06
295.756	736.06
295.987	716.06
296.217	737.06
296.448	774.06
296.679	773.06
296.909	758.06
297.14	763.06
297.37	782.06
297.601	844.06
297.831	887.06
298.062	854.06
298.292	784.06
298.523	766.06
298.753	787.06
298.984	799.06
299.214	798.06
299.445	830.06
299.675	831.06
299.905	816.06
300.136	824.06
300.366	786.06
300.597	781.06
300.827	767.06
301.057	811.06
301.288	859.06
301.518	862.06
301.748	862.06
301.979	925.06
302.209	952.06
302.439	955.06
302.669	969.06
302.9	943.06
303.13	864.06
303.36	837.06
303.59	884.06
303.82	866.06
304.051	856.06
304.281	830.06
304.511	875.06
304.741	927.06
304.971	1000.06
305.201	1054.06
305.431	954.06
305.661	813.06
305.891	776.06
306.121	755.06
306.352	804.06
306.582	843.06
306.812	879.06
307.042	931.06
307.272	920.06
307.502	981.06
307.731	1040.06
307.961	1062.06
308.191	998.06
308.421	848.06
308.651	805.06
308.881	830.06
309.111	826.06
309.341	790.06
309.571	824.06
309.8	840.06
310.03	794.06
310.26	810.06
310.49	787.06
310.72	848.06
310.949	892.06
311.179	886.06
311.409	855.06
311.639	845.06
311.868	842.06
312.098	838.06
312.328	826.06
312.557	829.06
312.787	839.06
313.017	850.06
313.246	859.06
313.476	878.06
313.706	891.06
313.935	864.06
314.165	865.06
314.394	931.06
314.624	944.06
314.853	1026.06
315.083	1046.06
315.312	1047.06
315.542	972.06
315.771	910.06
316.001	902.06
316.23	955.06
316.46	944.06
316.689	925.06
316.919	863.06
317.148	844.06
317.377	886.06
317.607	968.06
317.836	1057.06
318.065	1069.06
318.295	1021.06
318.524	972.06
318.753	940.06
318.983	960.06
319.212	917.06
319.441	904.06
319.67	900.06
319.9	936.06
320.129	964.06
320.358	1017.06
320.587	1016.06
320.816	1038.06
321.046	972.06
321.275	968.06
321.504	966.06
321.733	1041.06
321.962	997.06
322.191	944.06
322.42	933.06
322.649	922.06
322.878	932.06
323.108	904.06
323.337	962.06
323.566	941.06
323.795	923.06
324.024	946.06
324.253	906.06
324.482	939.06
324.71	896.06
324.939	887.06
325.168	857.06
325.397	933.06
325.626	946.06
325.855	958.06
326.084	946.06
326.313	914.06
326.542	920.06
326.77	961.06
326.999	954.06
327.228	912.06
327.457	864.06
327.686	859.06
327.914	876.06
328.143	952.06
328.372	920.06
328.6	934.06
328.829	908.06
329.058	901.06
329.287	871.06
329.515	930.06
329.744	958.06
329.972	979.06
330.201	1049.06
330.43	985.06
330.658	965.06
330.887	972.06
331.115	985.06
331.344	999.06
331.572	962.06
331.801	975.06
332.03	999.06
332.258	978.06
332.486	987.06
332.715	999.06
332.943	1002.06
333.172	973.06
333.4	986.06
333.629	1038.06
333.857	1080.06
334.085	1235.06
334.314	1338.06
334.542	1399.06
334.771	1246.06
334.999	1139.06
335.227	1077.06
335.455	1045.06
335.684	1022.06
335.912	1103.06
336.14	1094.06
336.369	1035.06
336.597	988.06
336.825	968.06
337.053	1020.06
337.281	1091.06
337.51	1174.06
337.738	1132.06
337.966	1078.06
338.194	1016.06
338.422	970.06
338.65	937.06
338.878	939.06
339.106	950.06
339.334	936.06
339.562	946.06
339.79	942.06
340.018	995.06
340.246	1031.06
340.474	1059.06
340.702	1001.06
340.93	1010.06
341.158	999.06
341.386	992.06
341.614	996.06
341.842	978.06
342.07	965.06
342.298	976.06
342.526	986.06
342.754	990.06
342.981	949.06
343.209	941.06
343.437	965.06
343.665	969.06
343.893	991.06
344.12	1075.06
344.348	1028.06
344.576	986.06
344.804	946.06
345.031	953.06
345.259	967.06
345.487	973.06
345.714	916.06
345.942	906.06
346.17	913.06
346.397	917.06
346.625	908.06
346.853	896.06
347.08	922.06
347.308	886.06
347.535	920.06
347.763	955.06
347.99	902.06
348.218	890.06
348.445	921.06
348.673	919.06
348.9	965.06
349.128	975.06
349.355	998.06
349.583	965.06
349.81	914.06
350.037	835.06
350.265	853.06
350.492	881.06
350.72	896.06
350.947	944.06
351.174	950.06
351.402	884.06
351.629	860.06
351.856	818.06
352.083	838.06
352.311	852.06
352.538	878.06
352.765	940.06
352.992	936.06
353.22	899.06
353.447	886.06
353.674	913.06
353.901	899.06
354.128	903.06
354.355	867.06
354.583	943.06
354.81	970.06
355.037	947.06
355.264	942.06
355.491	911.06
355.718	895.06
355.945	900.06
356.172	893.06
356.399	870.06
356.626	908.06
356.853	930.06
357.08	1021.06
357.307	1091.06
357.534	1070.06
357.761	935.06
357.988	898.06
358.215	865.06
358.441	853.06
358.668	844.06
358.895	901.06
359.122	984.06
359.349	1058.06
359.576	1007.06
359.802	912.06
360.029	893.06
360.256	875.06
360.483	877.06
360.709	941.06
360.936	962.06
361.163	996.06
361.39	1109.06
361.616	1166.06
361.843	1125.06
362.07	1032.06
362.296	903.06
362.523	891.06
362.749	915.06
362.976	963.06
363.203	973.06
363.429	909.06
363.656	898.06
363.882	925.06
364.109	1027.06
364.335	1081.06
364.562	1021.06
364.788	978.06
365.015	939.06
365.241	907.06
365.468	937.06
365.694	986.06
365.92	973.06
366.147	954.06
366.373	908.06
366.599	902.06
366.826	901.06
367.052	911.06
367.278	915.06
367.505	937.06
367.731	953.06
367.957	928.06
368.184	990.06
368.41	1016.06
368.636	1054.06
368.862	1063.06
369.089	1044.06
369.315	1004.06
369.541	957.06
369.767	936.06
369.993	943.06
370.219	902.06
370.445	958.06
370.672	1005.06
370.898	1052.06
371.124	1028.06
371.35	984.06
371.576	1034.06
371.802	1030.06
372.028	999.06
372.254	934.06
372.48	926.06
372.706	902.06
372.932	886.06
373.158	957.06
373.384	979.06
373.61	1016.06
373.835	1035.06
374.061	973.06
374.287	974.06
374.513	986.06
374.739	967.06
374.965	996.06
375.191	989.06
375.416	1008.06
375.642	1037.06
375.868	1102.06
376.094	1070.06
376.319	1024.06
376.545	991.06
376.771	1010.06
376.997	1083.06
377.222	1060.06
377.448	1029.06
377.674	1018.06
377.899	1032.06
378.125	1083.06
378.35	1070.06
378.576	979.06
378.802	967.06
379.027	951.06
379.253	928.06
379.478	976.06
379.704	979.06
379.929	977.06
380.155	993.06
380.38	990.06
380.606	1002.06
380.831	1022.06
381.057	1022.06
381.282	1061.06
381.507	1064.06
381.733	1142.06
381.958	1092.06
382.184	1040.06
382.409	1051.06
382.634	1014.06
382.86	1014.06
383.085	1031.06
383.31	1056.06
383.535	1149.06
383.761	1174.06
383.986	1155.06
384.211	1115.06
384.436	1127.06
384.662	1170.06
384.887	1158.06
385.112	1128.06
385.337	1109.06
385.562	1103.06
385.787	1117.06
386.013	1146.06
386.238	1164.06
386.463	1131.06
386.688	1243.06
386.913	1292.06
387.138	1260.06
387.363	1140.06
387.588	1136.06
387.813	1154.06
388.038	1174.06
388.263	1216.06
388.488	1125.06
388.713	1036.06
388.938	1066.06
389.163	1049.06
389.387	1109.06
389.612	1108.06
389.837	1123.06
390.062	1120.06
390.287	1126.06
390.512	1114.06
390.736	1074.06
390.961	1080.06
391.186	1063.06
391.411	1089.06
391.636	1112.06
391.86	1144.06
392.085	1096.06
392.31	1116.06
392.534	1101.06
392.759	1131.06
392.984	1111.06
393.208	1146.06
393.433	1161.06
393.658	1226.06
393.882	1190.06
394.107	1142.06
394.331	1101.06
394.556	1108.06
394.78	1163.06
395.005	1174.06
395.229	1192.06
395.454	1297.06
395.678	1288.06
395.903	1236.06
396.127	1174.06
396.352	1186.06
396.576	1255.06
396.801	1260.06
397.025	1243.06
397.249	1206.06
397.474	1221.06
397.698	1204.06
397.922	1247.06
398.147	1292.06
398.371	1327.06
398.595	1332.06
398.82	1280.06
399.044	1304.06
399.268	1376.06
399.492	1429.06
399.717	1476.06
399.941	1490.06
400.165	1443.06
400.389	1404.06
400.613	1432.06
400.837	1595.06
401.062	1739.06
401.286	1505.06
401.51	1409.06
401.734	1453.06
401.958	1400.06
402.182	1302.06
402.406	1302.06
402.63	1272.06
402.854	1235.06
403.078	1285.06
403.302	1303.06
403.526	1322.06
403.75	1331.06
403.974	1366.06
404.198	1356.06
404.422	1402.06
404.645	1478.06
404.869	1387.06
405.093	1316.06
405.317	1282.06
405.541	1323.06
405.765	1347.06
405.988	1327.06
406.212	1384.06
406.436	1368.06
406.66	1423.06
406.883	1475.06
407.107	1667.06
407.331	1749.06
407.555	1856.06
407.778	1667.06
408.002	1395.06
408.226	1412.06
408.449	1379.06
408.673	1327.06
408.896	1340.06
409.12	1398.06
409.344	1372.06
409.567	1281.06
409.791	1375.06
410.014	1380.06
410.238	1472.06
410.461	1511.06
410.685	1351.06
410.908	1308.06
411.132	1321.06
411.355	1339.06
411.578	1301.06
411.802	1334.06
412.025	1341.06
412.249	1309.06
412.472	1275.06
412.695	1231.06
412.919	1283.06
413.142	1290.06
413.365	1287.06
413.589	1338.06
413.812	1414.06
414.035	1429.06
414.258	1349.06
414.482	1282.06
414.705	1304.06
414.928	1276.06
415.151	1262.06
415.374	1323.06
415.597	1321.06
415.821	1356.06
416.044	1333.06
416.267	1302.06
416.49	1254.06
416.713	1247.06
416.936	1294.06
417.159	1364.06
417.382	1354.06
417.605	1272.06
417.828	1310.06
418.051	1333.06
418.274	1296.06
418.497	1247.06
418.72	1234.06
418.943	1263.06
419.166	1314.06
419.389	1376.06
419.611	1302.06
419.834	1284.06
420.057	1273.06
420.28	1241.06
420.503	1273.06
420.726	1283.06
420.948	1314.06
421.171	1284.06
421.394	1258.06
421.617	1327.06
421.839	1325.06
422.062	1315.06
422.285	1268.06
422.507	1260.06
422.73	1232.06
422.953	1227.06
423.175	1168.06
423.398	1242.06
423.621	1240.06
423.843	1290.06
424.066	1325.06
424.288	1356.06
424.511	1397.06
424.733	1346.06
424.956	1238.06
425.178	1240.06
425.401	1212.06
425.623	1263.06
425.846	1237.06
426.068	1298.06
426.291	1291.06
426.513	1334.06
426.735	1314.06
426.958	1414.06
427.18	1480.06
427.402	1338.06
427.625	1393.06
427.847	1318.06
428.069	1239.06
428.292	1201.06
428.514	1222.06
428.736	1206.06
428.958	1227.06
429.181	1258.06
429.403	1461.06
429.625	1753.06
429.847	1463.06
430.069	1289.06
430.292	1448.06
430.514	1452.06
430.736	1333.06
430.958	1355.06
431.18	1284.06
431.402	1230.06
431.624	1196.06
431.846	1158.06
432.068	1109.06
432.29	1152.06
432.512	1158.06
432.734	1246.06
432.956	1270.06
433.178	1328.06
433.4	1274.06
433.622	1296.06
433.844	1239.06
434.066	1190.06
434.287	1149.06
434.509	1174.06
434.731	1259.06
434.953	1350.06
435.175	1337.06
435.397	1280.06
435.618	1242.06
435.84	1228.06
436.062	1220.06
436.284	1230.06
436.505	1262.06
436.727	1284.06
436.949	1239.06
437.17	1222.06
437.392	1205.06
437.614	1204.06
437.835	1147.06
438.057	1206.06
438.278	1251.06
438.5	1221.06
438.721	1179.06
438.943	1232.06
439.165	1209.06
439.386	1212.06
439.608	1231.06
439.829	1234.06
440.05	1268.06
440.272	1220.06
440.493	1203.06
440.715	1255.06
440.936	1348.06
441.158	1446.06
441.379	1373.06
441.6	1367.06
441.822	1369.06
442.043	1334.06
442.264	1322.06
442.486	1266.06
442.707	1276.06
442.928	1262.06
443.149	1255.06
443.371	1349.06
443.592	1351.06
443.813	1336.06
444.034	1376.06
444.255	1348.06
444.476	1370.06
444.698	1354.06
444.919	1403.06
445.14	1486.06
445.361	1428.06
445.582	1436.06
445.803	1394.06
446.024	1349.06
446.245	1391.06
446.466	1405.06
446.687	1330.06
446.908	1356.06
447.129	1294.06
447.35	1292.06
447.571	1276.06
447.792	1220.06
448.013	1234.06
448.234	1246.06
448.455	1300.06
448.675	1282.06
448.896	1193.06
449.117	1154.06
449.338	1211.06
449.559	1284.06
449.779	1298.06
450	1386.06
450.221	1476.06
450.442	1414.06
450.662	1291.06
450.883	1174.06
451.104	1160.06
451.324	1123.06
451.545	1214.06
451.766	1160.06
451.986	1149.06
452.207	1127.06
452.428	1093.06
452.648	1077.06
452.869	1127.06
453.089	1137.06
453.31	1146.06
453.53	1113.06
453.751	1092.06
453.971	1090.06
454.192	1081.06
454.412	1113.06
454.633	1155.06
454.853	1067.06
455.073	1071.06
455.294	1041.06
455.514	1058.06
455.734	1078.06
455.955	1119.06
456.175	1062.06
456.395	1049.06
456.616	1059.06
456.836	1083.06
457.056	1065.06
457.276	1050.06
457.497	1020.06
457.717	991.06
457.937	1010.06
458.157	1034.06
458.377	1038.06
458.598	1029.06
458.818	1041.06
459.038	1111.06
459.258	1128.06
459.478	1121.06
459.698	1091.06
459.918	1143.06
460.138	1212.06
460.358	1253.06
460.578	1214.06
460.798	1288.06
461.018	1352.06
461.238	1248.06
461.458	1274.06
461.678	1224.06
461.898	1194.06
462.118	1164.06
462.338	1253.06
462.558	1238.06
462.777	1238.06
462.997	1286.06
463.217	1348.06
463.437	1340.06
463.657	1303.06
463.876	1278.06
464.096	1244.06
464.316	1246.06
464.536	1294.06
464.755	1283.06
464.975	1288.06
465.195	1232.06
465.414	1300.06
465.634	1265.06
465.854	1257.06
466.073	1377.06
466.293	1344.06
466.512	1200.06
466.732	1189.06
466.951	1242.06
467.171	1230.06
467.391	1195.06
467.61	1166.06
467.829	1182.06
468.049	1307.06
468.268	1431.06
468.488	1292.06
468.707	1231.06
468.927	1230.06
469.146	1196.06
469.365	1202.06
469.585	1220.06
469.804	1219.06
470.023	1203.06
470.243	1244.06
470.462	1223.06
470.681	1238.06
470.901	1242.06
471.12	1247.06
471.339	1201.06
471.558	1180.06
471.777	1184.06
471.997	1213.06
472.216	1146.06
472.435	1091.06
472.654	1122.06
472.873	1175.06
473.092	1230.06
473.311	1176.06
473.53	1118.06
473.749	1143.06
473.968	1186.06
474.187	1198.06
474.406	1209.06
474.625	1207.06
474.844	1191.06
475.063	1181.06
475.282	1204.06
475.501	1198.06
475.72	1192.06
475.939	1251.06
476.158	1202.06
476.377	1205.06
476.596	1199.06
476.814	1227.06
477.033	1191.06
477.252	1230.06
477.471	1283.06
477.69	1246.06
477.908	1276.06
478.127	1327.06
478.346	1412.06
478.564	1398.06
478.783	1378.06
479.002	1428.06
479.22	1386.06
479.439	1414.06
479.658	1543.06
479.876	1508.06
480.095	1390.06
480.313	1327.06
480.532	1276.06
480.751	1308.06
480.969	1290.06
481.188	1252.06
481.406	1247.06
481.624	1222.06
481.843	1248.06
482.061	1259.06
482.28	1288.06
482.498	1301.06
482.717	1278.06
482.935	1314.06
483.153	1381.06
483.372	1393.06
483.59	1362.06
483.808	1335.06
484.027	1332.06
484.245	1424.06
484.463	1718.06
484.681	1859.06
484.9	1437.06
485.118	1376.06
485.336	1338.06
485.554	1346.06
485.772	1383.06
485.99	1367.06
486.209	1389.06
486.427	1377.06
486.645	1360.06
486.863	1398.06
487.081	1450.06
487.299	1476.06
487.517	1440.06
487.735	1418.06
487.953	1480.06
488.171	1507.06
488.389	1434.06
488.607	1382.06
488.825	1580.06
489.043	1536.06
489.261	1371.06
489.479	1444.06
489.696	1460.06
489.914	1441.06
490.132	1420.06
490.35	1427.06
490.568	1504.06
490.786	1458.06
491.003	1487.06
491.221	1544.06
491.439	1586.06
491.657	1576.06
491.874	1613.06
492.092	1627.06
492.31	1701.06
492.527	1645.06
492.745	1571.06
492.963	1563.06
493.18	1605.06
493.398	1677.06
493.615	1685.06
493.833	1563.06
