Data from WStandard_LampEnergy5.5LIBS07252019.E.O._I.C._HRD10591_16-06-19-920.txt Node
Date: Thu Jul 25 16:06:19 EDT 2019
User: cochatt
Spectrometer: HR+D1059
Trigger mode: 1
Integration Time (sec): 1.000000E-1
Scans to average: 1
Electric dark correction enabled: true
Nonlinearity correction enabled: false
Boxcar width: 0
XAxis mode: Wavelengths
Number of Pixels in Spectrum: 2048
>>>>>Begin Spectral Data<<<<<
223.165	-11
223.4	-11
223.635	-11
223.869	-15
224.104	-31
224.338	-20
224.573	-11
224.808	8
225.042	-13
225.277	12
225.511	-2
225.746	-5
225.98	2
226.215	1
226.449	9
226.683	24
226.918	23
227.152	29
227.387	30
227.621	21
227.856	44
228.09	50
228.324	34
228.559	61
228.793	135
229.027	327
229.262	354
229.496	357
229.73	365
229.964	393
230.199	402
230.433	412
230.667	430
230.901	482
231.136	428
231.37	412
231.604	418
231.838	430
232.072	419
232.306	411
232.541	434
232.775	509
233.009	549
233.243	522
233.477	468
233.711	492
233.945	514
234.179	493
234.413	544
234.647	576
234.881	538
235.115	485
235.349	485
235.583	499
235.817	507
236.051	493
236.285	499
236.519	538
236.753	584
236.987	609
237.221	600
237.455	678
237.689	644
237.922	605
238.156	565
238.39	592
238.624	624
238.858	658
239.091	709
239.325	704
239.559	803
239.793	852
240.027	927
240.26	882
240.494	667
240.728	634
240.961	648
241.195	647
241.429	729
241.662	713
241.896	659
242.13	680
242.363	743
242.597	782
242.83	782
243.064	743
243.298	819
243.531	819
243.765	812
243.998	794
244.232	704
244.465	664
244.699	688
244.932	794
245.166	900
245.399	846
245.633	781
245.866	752
246.099	808
246.333	821
246.566	834
246.8	896
247.033	1034
247.266	971
247.5	930
247.733	896
247.966	974
248.2	1097
248.433	1042
248.666	1029
248.899	1125
249.133	1316
249.366	1514
249.599	1245
249.832	1042
250.066	1080
250.299	1102
250.532	1032
250.765	938
250.998	997
251.231	1055
251.465	1081
251.698	1023
251.931	1028
252.164	1066
252.397	1053
252.63	1077
252.863	933
253.096	930
253.329	981
253.562	1046
253.795	1104
254.028	1133
254.261	1001
254.494	995
254.727	957
254.96	999
255.193	1063
255.426	1201
255.659	1380
255.892	1448
256.124	1187
256.357	1122
256.59	1204
256.823	1226
257.056	1188
257.289	1464
257.521	1674
257.754	1470
257.987	1358
258.22	1541
258.452	1487
258.685	1204
258.918	1154
259.151	1207
259.383	1130
259.616	1034
259.849	1079
260.081	1189
260.314	1312
260.547	1452
260.779	1440
261.012	1386
261.244	1218
261.477	1178
261.71	1179
261.942	1230
262.175	1205
262.407	1257
262.64	1204
262.872	1089
263.105	1077
263.337	1143
263.57	1130
263.802	1131
264.035	1060
264.267	995
264.499	969
264.732	1051
264.964	1079
265.197	1153
265.429	1172
265.661	1343
265.894	1478
266.126	1525
266.358	1331
266.591	1392
266.823	1528
267.055	1396
267.287	1365
267.52	1339
267.752	1354
267.984	1314
268.216	1390
268.448	1390
268.681	1403
268.913	1293
269.145	1232
269.377	1206
269.609	1293
269.841	1437
270.073	1738
270.306	1916
270.538	2100
270.77	1736
271.002	1466
271.234	1351
271.466	1404
271.698	1525
271.93	1865
272.162	1864
272.394	1635
272.626	1622
272.858	1418
273.09	1252
273.322	1234
273.553	1180
273.785	1213
274.017	1278
274.249	1342
274.481	1360
274.713	1225
274.945	1236
275.176	1235
275.408	1204
275.64	1238
275.872	1192
276.104	1245
276.335	1400
276.567	1637
276.799	1650
277.031	1454
277.262	1347
277.494	1385
277.726	1595
277.957	1566
278.189	1424
278.421	1297
278.652	1313
278.884	1292
279.115	1283
279.347	1311
279.579	1271
279.81	1266
280.042	1379
280.273	1489
280.505	1501
280.736	1560
280.968	1493
281.199	1300
281.431	1203
281.662	1259
281.894	1258
282.125	1276
282.356	1336
282.588	1322
282.819	1286
283.051	1382
283.282	1547
283.513	1485
283.745	1278
283.976	1175
284.207	1222
284.439	1264
284.67	1278
284.901	1315
285.132	1333
285.364	1299
285.595	1331
285.826	1287
286.057	1304
286.288	1273
286.52	1358
286.751	1461
286.982	1490
287.213	1389
287.444	1267
287.675	1257
287.906	1320
288.138	1413
288.369	1371
288.6	1314
288.831	1286
289.062	1276
289.293	1331
289.524	1361
289.755	1344
289.986	1353
290.217	1256
290.448	1300
290.679	1346
290.91	1335
291.141	1358
291.371	1413
291.602	1379
291.833	1402
292.064	1428
292.295	1394
292.526	1399
292.757	1510
292.987	1429
293.218	1363
293.449	1432
293.68	1636
293.91	1743
294.141	1605
294.372	1519
294.603	1548
294.833	1604
295.064	1513
295.295	1406
295.525	1400
295.756	1301
295.987	1231
296.217	1268
296.448	1309
296.679	1312
296.909	1322
297.14	1290
297.37	1331
297.601	1386
297.831	1481
298.062	1484
298.292	1374
298.523	1292
298.753	1319
298.984	1365
299.214	1363
299.445	1411
299.675	1405
299.905	1385
300.136	1362
300.366	1388
300.597	1302
300.827	1268
301.057	1331
301.288	1422
301.518	1401
301.748	1440
301.979	1483
302.209	1505
302.439	1592
302.669	1696
302.9	1596
303.13	1450
303.36	1422
303.59	1471
303.82	1480
304.051	1448
304.281	1426
304.511	1409
304.741	1477
304.971	1640
305.201	1806
305.431	1692
305.661	1420
305.891	1294
306.121	1304
306.352	1328
306.582	1354
306.812	1477
307.042	1593
307.272	1593
307.502	1603
307.731	1755
307.961	1875
308.191	1757
308.421	1507
308.651	1433
308.881	1412
309.111	1399
309.341	1376
309.571	1370
309.8	1386
310.03	1382
310.26	1377
310.49	1383
310.72	1406
310.949	1468
311.179	1469
311.409	1473
311.639	1427
311.868	1378
312.098	1348
312.328	1389
312.557	1390
312.787	1453
313.017	1465
313.246	1454
313.476	1450
313.706	1499
313.935	1483
314.165	1482
314.394	1515
314.624	1628
314.853	1704
315.083	1741
315.312	1851
315.542	1725
315.771	1514
316.001	1503
316.23	1591
316.46	1578
316.689	1498
316.919	1475
317.148	1449
317.377	1490
317.607	1539
317.836	1773
318.065	1835
318.295	1748
318.524	1645
318.753	1614
318.983	1621
319.212	1549
319.441	1529
319.67	1524
319.9	1544
320.129	1592
320.358	1690
320.587	1717
320.816	1685
321.046	1665
321.275	1498
321.504	1566
321.733	1694
321.962	1687
322.191	1534
322.42	1536
322.649	1554
322.878	1497
323.108	1526
323.337	1575
323.566	1606
323.795	1583
324.024	1579
324.253	1569
324.482	1551
324.71	1549
324.939	1498
325.168	1514
325.397	1518
325.626	1571
325.855	1579
326.084	1535
326.313	1506
326.542	1547
326.77	1608
326.999	1574
327.228	1549
327.457	1494
327.686	1458
327.914	1484
328.143	1516
328.372	1566
328.6	1571
328.829	1581
329.058	1530
329.287	1524
329.515	1585
329.744	1577
329.972	1619
330.201	1709
330.43	1699
330.658	1628
330.887	1652
331.115	1640
331.344	1667
331.572	1592
331.801	1594
332.03	1620
332.258	1660
332.486	1654
332.715	1688
332.943	1661
333.172	1637
333.4	1677
333.629	1735
333.857	1823
334.085	1955
334.314	2173
334.542	2388
334.771	2258
334.999	1974
335.227	1843
335.455	1773
335.684	1719
335.912	1771
336.14	1856
336.369	1799
336.597	1726
336.825	1661
337.053	1704
337.281	1758
337.51	1893
337.738	1923
337.966	1869
338.194	1703
338.422	1659
338.65	1664
338.878	1640
339.106	1616
339.334	1539
339.562	1542
339.79	1578
340.018	1692
340.246	1738
340.474	1708
340.702	1678
340.93	1714
341.158	1640
341.386	1635
341.614	1613
341.842	1629
342.07	1596
342.298	1688
342.526	1643
342.754	1630
342.981	1581
343.209	1613
343.437	1609
343.665	1660
343.893	1694
344.12	1765
344.348	1841
344.576	1726
344.804	1610
345.031	1589
345.259	1651
345.487	1604
345.714	1538
345.942	1482
346.17	1493
346.397	1572
346.625	1601
346.853	1496
347.08	1432
347.308	1451
347.535	1478
347.763	1576
347.99	1537
348.218	1473
348.445	1494
348.673	1493
348.9	1541
349.128	1611
349.355	1642
349.583	1569
349.81	1521
350.037	1448
350.265	1420
350.492	1445
350.72	1465
350.947	1501
351.174	1579
351.402	1486
351.629	1440
351.856	1422
352.083	1410
352.311	1418
352.538	1438
352.765	1496
352.992	1564
353.22	1501
353.447	1472
353.674	1495
353.901	1502
354.128	1447
354.355	1436
354.583	1474
354.81	1516
355.037	1565
355.264	1586
355.491	1526
355.718	1517
355.945	1497
356.172	1470
356.399	1447
356.626	1459
356.853	1511
357.08	1574
357.307	1789
357.534	1754
357.761	1573
357.988	1453
358.215	1410
358.441	1435
358.668	1446
358.895	1448
359.122	1507
359.349	1645
359.576	1643
359.802	1496
360.029	1452
360.256	1458
360.483	1465
360.709	1491
360.936	1568
361.163	1596
361.39	1707
361.616	1826
361.843	1786
362.07	1698
362.296	1520
362.523	1460
362.749	1486
362.976	1475
363.203	1528
363.429	1511
363.656	1443
363.882	1482
364.109	1652
364.335	1765
364.562	1667
364.788	1590
365.015	1534
365.241	1420
365.468	1507
365.694	1567
365.92	1634
366.147	1558
366.373	1490
366.599	1436
366.826	1440
367.052	1481
367.278	1491
367.505	1477
367.731	1499
367.957	1513
368.184	1519
368.41	1589
368.636	1621
368.862	1609
369.089	1654
369.315	1599
369.541	1586
369.767	1506
369.993	1491
370.219	1485
370.445	1527
370.672	1581
370.898	1654
371.124	1691
371.35	1577
371.576	1618
371.802	1641
372.028	1620
372.254	1546
372.48	1542
372.706	1516
372.932	1513
373.158	1586
373.384	1565
373.61	1620
373.835	1668
374.061	1635
374.287	1602
374.513	1554
374.739	1599
374.965	1625
375.191	1640
375.416	1673
375.642	1614
375.868	1644
376.094	1768
376.319	1661
376.545	1612
376.771	1560
376.997	1632
377.222	1628
377.448	1592
377.674	1669
377.899	1585
378.125	1684
378.35	1729
378.576	1594
378.802	1591
379.027	1544
379.253	1564
379.478	1562
379.704	1579
379.929	1602
380.155	1589
380.38	1569
380.606	1600
380.831	1614
381.057	1635
381.282	1646
381.507	1636
381.733	1705
381.958	1761
382.184	1672
382.409	1655
382.634	1676
382.86	1650
383.085	1649
383.31	1664
383.535	1763
383.761	1869
383.986	1815
384.211	1796
384.436	1800
384.662	1830
384.887	1906
385.112	1812
385.337	1838
385.562	1844
385.787	1842
386.013	1865
386.238	1884
386.463	1864
386.688	1924
386.913	1980
387.138	2009
387.363	1877
387.588	1842
387.813	1863
388.038	1858
388.263	1950
388.488	1887
388.713	1798
388.938	1780
389.163	1754
389.387	1822
389.612	1818
389.837	1853
390.062	1853
390.287	1854
390.512	1875
390.736	1828
390.961	1812
391.186	1799
391.411	1792
391.636	1873
391.86	1819
392.085	1858
392.31	1846
392.534	1870
392.759	1969
392.984	1889
393.208	2060
393.433	2382
393.658	2484
393.882	2106
394.107	1912
394.331	1873
394.556	1792
394.78	1867
395.005	1914
395.229	1928
395.454	2047
395.678	2099
395.903	2046
396.127	1981
396.352	1968
396.576	2077
396.801	2178
397.025	2310
397.249	2177
397.474	2046
397.698	1980
397.922	2035
398.147	2106
398.371	2173
398.595	2168
398.82	2091
399.044	2162
399.268	2234
399.492	2402
399.717	2534
399.941	2550
400.165	2499
400.389	2424
400.613	2340
400.837	2464
401.062	2760
401.286	2441
401.51	2246
401.734	2352
401.958	2274
402.182	2176
402.406	2119
402.63	2105
402.854	2095
403.078	2136
403.302	2182
403.526	2208
403.75	2190
403.974	2222
404.198	2169
404.422	2241
404.645	2307
404.869	2325
405.093	2179
405.317	2145
405.541	2242
405.765	2255
405.988	2264
406.212	2253
406.436	2277
406.66	2356
406.883	2309
407.107	2532
407.331	2736
407.555	2922
407.778	2764
408.002	2398
408.226	2350
408.449	2336
408.673	2235
408.896	2262
409.12	2322
409.344	2258
409.567	2176
409.791	2207
410.014	2273
410.238	2350
410.461	2404
410.685	2263
410.908	2137
411.132	2200
411.355	2208
411.578	2186
411.802	2106
412.025	2162
412.249	2133
412.472	2123
412.695	2068
412.919	2069
413.142	2098
413.365	2101
413.589	2107
413.812	2163
414.035	2258
414.258	2130
414.482	2107
414.705	2096
414.928	2075
415.151	2078
415.374	2112
415.597	2150
415.821	2196
416.044	2246
416.267	2219
416.49	2036
416.713	1986
416.936	2029
417.159	2115
417.382	2151
417.605	2021
417.828	2139
418.051	2090
418.274	2109
418.497	2035
418.72	2050
418.943	2022
419.166	2173
419.389	2298
419.611	2174
419.834	2115
420.057	2148
420.28	2050
420.503	2006
420.726	2075
420.948	2061
421.171	2008
421.394	2087
421.617	2114
421.839	2062
422.062	2025
422.285	1968
422.507	2004
422.73	1991
422.953	2018
423.175	1974
423.398	1990
423.621	2032
423.843	2029
424.066	2028
424.288	2075
424.511	2102
424.733	2037
424.956	1943
425.178	1940
425.401	1988
425.623	1930
425.846	1907
426.068	2015
426.291	2006
426.513	2013
426.735	2045
426.958	2094
427.18	2220
427.402	2053
427.625	2123
427.847	2084
428.069	2033
428.292	1979
428.514	1894
428.736	1867
428.958	1900
429.181	1982
429.403	2142
429.625	2529
429.847	2283
430.069	1992
430.292	2140
430.514	2180
430.736	2066
430.958	2119
431.18	2082
431.402	1961
431.624	1914
431.846	1914
432.068	1906
432.29	1905
432.512	1989
432.734	1976
432.956	1981
433.178	2082
433.4	2081
433.622	2092
433.844	2009
434.066	1912
434.287	1917
434.509	1975
434.731	2082
434.953	2208
435.175	2196
435.397	2023
435.618	2056
435.84	2076
436.062	2037
436.284	2049
436.505	2052
436.727	2078
436.949	2017
437.17	1968
437.392	1962
437.614	1968
437.835	1928
438.057	2014
438.278	2107
438.5	1956
438.721	1901
438.943	1958
439.165	1964
439.386	1910
439.608	1926
439.829	1907
440.05	1962
440.272	1921
440.493	1868
440.715	1902
440.936	2034
441.158	2238
441.379	2232
441.6	2166
441.822	2079
442.043	2165
442.264	2039
442.486	1916
442.707	1922
442.928	1934
443.149	1977
443.371	2163
443.592	2203
443.813	2129
444.034	2092
444.255	2141
444.476	2192
444.698	2210
444.919	2214
445.14	2345
445.361	2276
445.582	2341
445.803	2210
446.024	2136
446.245	2220
446.466	2118
446.687	2025
446.908	1989
447.129	1959
447.35	2034
447.571	2015
447.792	1939
448.013	1893
448.234	1940
448.455	1990
448.675	1999
448.896	1868
449.117	1823
449.338	1905
449.559	1925
449.779	2072
450	2288
450.221	2447
450.442	2373
450.662	2089
450.883	1848
451.104	1822
451.324	1870
451.545	1912
451.766	1913
451.986	1816
452.207	1794
452.428	1749
452.648	1737
452.869	1772
453.089	1916
453.31	1900
453.53	1930
453.751	1838
453.971	1744
454.192	1783
454.412	1924
454.633	1824
454.853	1812
455.073	1672
455.294	1670
455.514	1684
455.734	1689
455.955	1740
456.175	1724
456.395	1712
456.616	1787
456.836	1825
457.056	1736
457.276	1731
457.497	1724
457.717	1653
457.937	1696
458.157	1783
458.377	1737
458.598	1735
458.818	1735
459.038	1850
459.258	1954
459.478	1940
459.698	1931
459.918	1958
460.138	2032
460.358	2068
460.578	2059
460.798	2162
461.018	2356
461.238	2169
461.458	2064
461.678	2079
461.898	2084
462.118	2006
462.338	2146
462.558	2155
462.777	2133
462.997	2207
463.217	2336
463.437	2356
463.657	2149
463.876	2164
464.096	2117
464.316	2076
464.536	2204
464.755	2162
464.975	2227
465.195	2134
465.414	2227
465.634	2191
465.854	2051
466.073	2135
466.293	2130
466.512	1935
466.732	1886
466.951	1985
467.171	1968
467.391	1904
467.61	1864
467.829	1904
468.049	2029
468.268	2166
468.488	2098
468.707	2018
468.927	1901
469.146	1897
469.365	1881
469.585	1881
469.804	1833
470.023	1862
470.243	1924
470.462	1900
470.681	1861
470.901	1893
471.12	1928
471.339	1878
471.558	1836
471.777	1806
471.997	1877
472.216	1863
472.435	1794
472.654	1800
472.873	1878
473.092	2021
473.311	1917
473.53	1826
473.749	1807
473.968	1856
474.187	1960
474.406	2094
474.625	1938
474.844	1857
475.063	1901
475.282	1971
475.501	1878
475.72	1903
475.939	1954
476.158	1900
476.377	1897
476.596	1914
476.814	1981
477.033	1940
477.252	2056
477.471	2112
477.69	2041
477.908	2018
478.127	2084
478.346	2307
478.564	2298
478.783	2268
479.002	2336
479.22	2245
479.439	2338
479.658	2648
479.876	2606
480.095	2241
480.313	2174
480.532	2134
480.751	2117
480.969	2179
481.188	2161
481.406	2089
481.624	2028
481.843	2086
482.061	2144
482.28	2152
482.498	2193
482.717	2170
482.935	2067
483.153	2081
483.372	2120
483.59	2098
483.808	2091
484.027	2121
484.245	2214
484.463	2514
484.681	2811
484.9	2315
485.118	2144
485.336	2094
485.554	2180
485.772	2257
485.99	2224
486.209	2261
486.427	2214
486.645	2222
486.863	2182
487.081	2259
487.299	2306
487.517	2221
487.735	2192
487.953	2190
488.171	2161
488.389	2162
488.607	2158
488.825	2278
489.043	2324
489.261	2170
489.479	2258
489.696	2331
489.914	2336
490.132	2246
490.35	2189
490.568	2292
490.786	2208
491.003	2132
491.221	2200
491.439	2260
491.657	2263
491.874	2261
492.092	2325
492.31	2307
492.527	2325
492.745	2284
492.963	2246
493.18	2345
493.398	2497
493.615	2516
493.833	2381
494.05	2281
494.268	2306
494.485	2392
494.703	2343
494.92	2264
495.138	2314
495.355	2320
495.573	2403
495.79	2565
496.008	2522
496.225	2419
496.442	2403
496.66	2481
496.877	2419
497.094	2528
497.312	2517
497.529	2492
497.746	2585
497.963	2943
498.181	3264
498.398	3001
498.615	3003
498.832	2977
499.049	2946
499.267	2949
499.484	3178
499.701	3429
499.918	3533
500.135	3804
500.352	4122
500.569	4020
500.786	4243
501.003	3914
501.22	3586
501.437	3489
501.654	3384
501.871	3380
502.088	2993
502.305	2964
502.522	2864
502.739	2666
502.956	2598
503.172	2566
503.389	2524
503.606	2500
503.823	2463
504.04	2460
504.256	2438
504.473	2442
504.69	2536
504.907	2388
505.123	2338
505.34	2356
505.557	2862
505.773	2512
505.99	2204
506.207	2101
506.423	2107
506.64	2037
506.856	2028
507.073	2277
507.289	2409
507.506	2315
507.722	2068
507.939	1974
508.155	1956
508.372	2017
508.588	1958
508.805	1903
509.021	1860
509.238	1898
509.454	1873
509.67	1884
509.887	1861
510.103	1852
510.319	1885
510.536	1945
510.752	2006
510.968	1998
511.184	2141
511.401	2152
511.617	1826
511.833	1824
512.049	1799
512.265	1812
512.481	1802
512.698	1848
512.914	2007
513.13	1891
513.346	1772
513.562	1841
513.778	1865
513.994	1901
514.21	1959
514.426	1978
514.642	2189
514.858	2082
515.074	1884
515.29	1813
515.506	1912
515.721	1937
515.937	1979
516.153	2227
516.369	2167
516.585	2004
516.801	1928
517.016	1924
517.232	2025
517.448	2071
517.664	2025
517.879	2072
518.095	2171
518.311	2037
518.527	1970
518.742	1950
518.958	1876
519.173	1910
519.389	1913
519.605	1894
519.82	1875
520.036	1963
520.251	1834
520.467	1904
520.682	1965
520.898	2107
521.113	1878
521.329	1853
521.544	1943
521.76	1879
521.975	1783
522.19	1760
522.406	1724
522.621	1994
522.836	2040
523.052	1726
523.267	1744
523.482	1761
523.698	1672
523.913	1642
524.128	1708
524.343	1791
524.559	1753
524.774	1719
524.989	1678
525.204	1650
525.419	1648
525.634	1632
525.849	1636
526.064	1684
526.28	1666
526.495	1652
526.71	1627
526.925	1648
527.14	1640
527.355	1594
527.57	1609
527.785	1607
527.999	1622
528.214	1580
528.429	1555
528.644	1571
528.859	1635
529.074	1584
529.289	1584
529.503	1636
529.718	1682
529.933	1610
530.148	1552
530.363	1586
530.577	1550
530.792	1615
531.007	1656
531.221	1556
531.436	1595
531.651	1662
531.865	1712
532.08	1651
532.295	1555
532.509	1497
532.724	1541
532.938	1594
533.153	1740
533.367	1632
533.582	1607
533.796	1549
534.011	1613
534.225	1598
534.44	1552
534.654	1530
534.868	1589
535.083	1637
535.297	1573
535.511	1559
535.726	1536
535.94	1537
536.154	1505
536.369	1521
536.583	1489
536.797	1505
537.011	1523
537.225	1507
537.44	1465
537.654	1545
537.868	1500
538.082	1416
538.296	1473
538.51	1397
538.724	1439
538.938	1428
539.153	1509
539.367	1482
539.581	1475
539.795	1558
540.009	1521
540.222	1443
540.436	1514
540.65	1642
540.864	1629
541.078	1550
541.292	1483
541.506	1490
541.72	1489
541.934	1524
542.147	1540
