Data from WStandard_LampEnergy5.5LIBS07252019.E.O._I.C._HRD10591_16-07-17-919.txt Node
Date: Thu Jul 25 16:07:17 EDT 2019
User: cochatt
Spectrometer: HR+D1059
Trigger mode: 1
Integration Time (sec): 1.000000E-1
Scans to average: 1
Electric dark correction enabled: true
Nonlinearity correction enabled: false
Boxcar width: 0
XAxis mode: Wavelengths
Number of Pixels in Spectrum: 2048
>>>>>Begin Spectral Data<<<<<
223.165	-17.56
223.4	-17.56
223.635	-17.56
223.869	-12.56
224.104	-12.56
224.338	-16.56
224.573	-11.56
224.808	-23.56
225.042	-9.56
225.277	-0.56
225.511	12.44
225.746	2.44
225.98	1.44
226.215	17.44
226.449	17.44
226.683	6.44
226.918	19.44
227.152	27.44
227.387	42.44
227.621	42.44
227.856	55.44
228.09	43.44
228.324	59.44
228.559	61.44
228.793	150.44
229.027	376.44
229.262	390.44
229.496	392.44
229.73	424.44
229.964	469.44
230.199	474.44
230.433	490.44
230.667	529.44
230.901	568.44
231.136	509.44
231.37	481.44
231.604	486.44
231.838	516.44
232.072	516.44
232.306	467.44
232.541	489.44
232.775	571.44
233.009	637.44
233.243	588.44
233.477	569.44
233.711	616.44
233.945	629.44
234.179	560.44
234.413	594.44
234.647	680.44
234.881	638.44
235.115	564.44
235.349	582.44
235.583	603.44
235.817	574.44
236.051	540.44
236.285	548.44
236.519	611.44
236.753	706.44
236.987	710.44
237.221	696.44
237.455	776.44
237.689	736.44
237.922	716.44
238.156	682.44
238.39	690.44
238.624	707.44
238.858	762.44
239.091	825.44
239.325	865.44
239.559	994.44
239.793	1037.44
240.027	1096.44
240.26	1111.44
240.494	805.44
240.728	752.44
240.961	757.44
241.195	757.44
241.429	851.44
241.662	881.44
241.896	816.44
242.13	811.44
242.363	874.44
242.597	972.44
242.83	906.44
243.064	937.44
243.298	1022.44
243.531	1016.44
243.765	982.44
243.998	995.44
244.232	849.44
244.465	810.44
244.699	851.44
244.932	985.44
245.166	1098.44
245.399	1046.44
245.633	938.44
245.866	944.44
246.099	994.44
246.333	1011.44
246.566	1000.44
246.8	1126.44
247.033	1250.44
247.266	1195.44
247.5	1099.44
247.733	1101.44
247.966	1193.44
248.2	1302.44
248.433	1256.44
248.666	1240.44
248.899	1385.44
249.133	1617.44
249.366	1833.44
249.599	1500.44
249.832	1357.44
250.066	1347.44
250.299	1379.44
250.532	1280.44
250.765	1140.44
250.998	1195.44
251.231	1262.44
251.465	1342.44
251.698	1216.44
251.931	1231.44
252.164	1282.44
252.397	1358.44
252.63	1299.44
252.863	1186.44
253.096	1157.44
253.329	1209.44
253.562	1244.44
253.795	1376.44
254.028	1312.44
254.261	1263.44
254.494	1229.44
254.727	1158.44
254.96	1212.44
255.193	1323.44
255.426	1520.44
255.659	1714.44
255.892	1831.44
256.124	1454.44
256.357	1401.44
256.59	1518.44
256.823	1526.44
257.056	1502.44
257.289	1783.44
257.521	2024.44
257.754	1837.44
257.987	1712.44
258.22	1925.44
258.452	1836.44
258.685	1481.44
258.918	1438.44
259.151	1474.44
259.383	1391.44
259.616	1229.44
259.849	1294.44
260.081	1460.44
260.314	1680.44
260.547	1802.44
260.779	1830.44
261.012	1727.44
261.244	1509.44
261.477	1430.44
261.71	1487.44
261.942	1509.44
262.175	1458.44
262.407	1540.44
262.64	1426.44
262.872	1355.44
263.105	1301.44
263.337	1363.44
263.57	1377.44
263.802	1359.44
264.035	1291.44
264.267	1200.44
264.499	1184.44
264.732	1295.44
264.964	1353.44
265.197	1417.44
265.429	1470.44
265.661	1659.44
265.894	1826.44
266.126	1906.44
266.358	1657.44
266.591	1740.44
266.823	1921.44
267.055	1697.44
267.287	1716.44
267.52	1673.44
267.752	1617.44
267.984	1629.44
268.216	1703.44
268.448	1765.44
268.681	1697.44
268.913	1601.44
269.145	1495.44
269.377	1459.44
269.609	1607.44
269.841	1800.44
270.073	2162.44
270.306	2384.44
270.538	2569.44
270.77	2163.44
271.002	1817.44
271.234	1761.44
271.466	1721.44
271.698	1955.44
271.93	2340.44
272.162	2354.44
272.394	2077.44
272.626	2026.44
272.858	1764.44
273.09	1535.44
273.322	1495.44
273.553	1424.44
273.785	1459.44
274.017	1492.44
274.249	1660.44
274.481	1676.44
274.713	1496.44
274.945	1476.44
275.176	1509.44
275.408	1467.44
275.64	1457.44
275.872	1447.44
276.104	1538.44
276.335	1731.44
276.567	2014.44
276.799	2024.44
277.031	1799.44
277.262	1655.44
277.494	1751.44
277.726	1938.44
277.957	1954.44
278.189	1775.44
278.421	1618.44
278.652	1558.44
278.884	1548.44
279.115	1538.44
279.347	1578.44
279.579	1528.44
279.81	1523.44
280.042	1708.44
280.273	1868.44
280.505	1893.44
280.736	1922.44
280.968	1832.44
281.199	1573.44
281.431	1494.44
281.662	1526.44
281.894	1505.44
282.125	1551.44
282.356	1626.44
282.588	1644.44
282.819	1582.44
283.051	1728.44
283.282	1862.44
283.513	1843.44
283.745	1609.44
283.976	1462.44
284.207	1492.44
284.439	1566.44
284.67	1594.44
284.901	1602.44
285.132	1642.44
285.364	1622.44
285.595	1603.44
285.826	1621.44
286.057	1612.44
286.288	1578.44
286.52	1665.44
286.751	1782.44
286.982	1848.44
287.213	1662.44
287.444	1514.44
287.675	1511.44
287.906	1571.44
288.138	1721.44
288.369	1690.44
288.6	1589.44
288.831	1538.44
289.062	1566.44
289.293	1604.44
289.524	1606.44
289.755	1628.44
289.986	1637.44
290.217	1548.44
290.448	1530.44
290.679	1594.44
290.91	1591.44
291.141	1656.44
291.371	1714.44
291.602	1692.44
291.833	1643.44
292.064	1722.44
292.295	1686.44
292.526	1715.44
292.757	1820.44
292.987	1734.44
293.218	1632.44
293.449	1763.44
293.68	2014.44
293.91	2136.44
294.141	1986.44
294.372	1822.44
294.603	1888.44
294.833	2033.44
295.064	1906.44
295.295	1676.44
295.525	1677.44
295.756	1522.44
295.987	1492.44
296.217	1504.44
296.448	1554.44
296.679	1592.44
296.909	1566.44
297.14	1528.44
297.37	1593.44
297.601	1682.44
297.831	1830.44
298.062	1819.44
298.292	1658.44
298.523	1583.44
298.753	1585.44
298.984	1602.44
299.214	1612.44
299.445	1618.44
299.675	1651.44
299.905	1672.44
300.136	1653.44
300.366	1633.44
300.597	1543.44
300.827	1536.44
301.057	1607.44
301.288	1728.44
301.518	1735.44
301.748	1736.44
301.979	1824.44
302.209	1810.44
302.439	1981.44
302.669	2076.44
302.9	1904.44
303.13	1682.44
303.36	1710.44
303.59	1762.44
303.82	1691.44
304.051	1694.44
304.281	1716.44
304.511	1704.44
304.741	1819.44
304.971	1957.44
305.201	2153.44
305.431	2050.44
305.661	1679.44
305.891	1499.44
306.121	1488.44
306.352	1584.44
306.582	1663.44
306.812	1753.44
307.042	1941.44
307.272	1906.44
307.502	1939.44
307.731	2088.44
307.961	2292.44
308.191	2098.44
308.421	1828.44
308.651	1666.44
308.881	1602.44
309.111	1664.44
309.341	1611.44
309.571	1672.44
309.8	1619.44
310.03	1624.44
310.26	1628.44
310.49	1636.44
310.72	1655.44
310.949	1734.44
311.179	1801.44
311.409	1749.44
311.639	1682.44
311.868	1643.44
312.098	1672.44
312.328	1657.44
312.557	1625.44
312.787	1672.44
313.017	1733.44
313.246	1698.44
313.476	1692.44
313.706	1732.44
313.935	1765.44
314.165	1818.44
314.394	1802.44
314.624	1910.44
314.853	2021.44
315.083	2085.44
315.312	2172.44
315.542	2011.44
315.771	1743.44
316.001	1772.44
316.23	1903.44
316.46	1861.44
316.689	1824.44
316.919	1733.44
317.148	1690.44
317.377	1688.44
317.607	1808.44
317.836	2065.44
318.065	2129.44
318.295	2042.44
318.524	1936.44
318.753	1861.44
318.983	1876.44
319.212	1827.44
319.441	1815.44
319.67	1762.44
319.9	1804.44
320.129	1910.44
320.358	1995.44
320.587	2008.44
320.816	2001.44
321.046	1963.44
321.275	1826.44
321.504	1826.44
321.733	2051.44
321.962	2032.44
322.191	1795.44
322.42	1781.44
322.649	1796.44
322.878	1752.44
323.108	1815.44
323.337	1896.44
323.566	1857.44
323.795	1862.44
324.024	1848.44
324.253	1819.44
324.482	1844.44
324.71	1800.44
324.939	1694.44
325.168	1746.44
325.397	1795.44
325.626	1893.44
325.855	1865.44
326.084	1798.44
326.313	1822.44
326.542	1835.44
326.77	1925.44
326.999	1931.44
327.228	1825.44
327.457	1705.44
327.686	1714.44
327.914	1733.44
328.143	1814.44
328.372	1813.44
328.6	1824.44
328.829	1753.44
329.058	1743.44
329.287	1756.44
329.515	1799.44
329.744	1804.44
329.972	1887.44
330.201	2001.44
330.43	1968.44
330.658	1924.44
330.887	1884.44
331.115	1894.44
331.344	1922.44
331.572	1916.44
331.801	1899.44
332.03	1876.44
332.258	1914.44
332.486	1933.44
332.715	1950.44
332.943	1919.44
333.172	1891.44
333.4	1887.44
333.629	2016.44
333.857	2034.44
334.085	2282.44
334.314	2557.44
334.542	2924.44
334.771	2663.44
334.999	2295.44
335.227	2206.44
335.455	2081.44
335.684	2046.44
335.912	2055.44
336.14	2220.44
336.369	2097.44
336.597	1966.44
336.825	1891.44
337.053	1972.44
337.281	2088.44
337.51	2196.44
337.738	2293.44
337.966	2180.44
338.194	1984.44
338.422	1889.44
338.65	1881.44
338.878	1867.44
339.106	1798.44
339.334	1813.44
339.562	1752.44
339.79	1823.44
340.018	1893.44
340.246	1991.44
340.474	2010.44
340.702	1929.44
340.93	1978.44
341.158	1928.44
341.386	1920.44
341.614	1871.44
341.842	1872.44
342.07	1894.44
342.298	1856.44
342.526	1899.44
342.754	1839.44
342.981	1856.44
343.209	1857.44
343.437	1856.44
343.665	1916.44
343.893	1901.44
344.12	1996.44
344.348	2031.44
344.576	1952.44
344.804	1855.44
345.031	1889.44
345.259	1894.44
345.487	1857.44
345.714	1746.44
345.942	1730.44
346.17	1711.44
346.397	1770.44
346.625	1800.44
346.853	1699.44
347.08	1683.44
347.308	1679.44
347.535	1714.44
347.763	1775.44
347.99	1800.44
348.218	1682.44
348.445	1701.44
348.673	1730.44
348.9	1794.44
349.128	1847.44
349.355	1896.44
349.583	1844.44
349.81	1764.44
350.037	1644.44
350.265	1630.44
350.492	1640.44
350.72	1715.44
350.947	1742.44
351.174	1790.44
351.402	1745.44
351.629	1604.44
351.856	1599.44
352.083	1600.44
352.311	1575.44
352.538	1675.44
352.765	1731.44
352.992	1825.44
353.22	1727.44
353.447	1674.44
353.674	1714.44
353.901	1742.44
354.128	1650.44
354.355	1695.44
354.583	1717.44
354.81	1793.44
355.037	1780.44
355.264	1777.44
355.491	1769.44
355.718	1757.44
355.945	1715.44
356.172	1705.44
356.399	1669.44
356.626	1670.44
356.853	1726.44
357.08	1823.44
357.307	2063.44
357.534	2050.44
357.761	1810.44
357.988	1665.44
358.215	1605.44
358.441	1622.44
358.668	1626.44
358.895	1639.44
359.122	1781.44
359.349	1902.44
359.576	1924.44
359.802	1748.44
360.029	1664.44
360.256	1667.44
360.483	1660.44
360.709	1703.44
360.936	1812.44
361.163	1792.44
361.39	2023.44
361.616	2191.44
361.843	2092.44
362.07	2028.44
362.296	1761.44
362.523	1701.44
362.749	1691.44
362.976	1715.44
363.203	1803.44
363.429	1730.44
363.656	1645.44
363.882	1699.44
364.109	1871.44
364.335	2064.44
364.562	1934.44
364.788	1838.44
365.015	1761.44
365.241	1672.44
365.468	1694.44
365.694	1822.44
365.92	1857.44
366.147	1782.44
366.373	1692.44
366.599	1629.44
366.826	1639.44
367.052	1642.44
367.278	1710.44
367.505	1745.44
367.731	1749.44
367.957	1787.44
368.184	1783.44
368.41	1850.44
368.636	1886.44
368.862	1918.44
369.089	1944.44
369.315	1858.44
369.541	1806.44
369.767	1773.44
369.993	1696.44
370.219	1691.44
370.445	1728.44
370.672	1833.44
370.898	1952.44
371.124	1896.44
371.35	1805.44
371.576	1842.44
371.802	1986.44
372.028	1858.44
372.254	1743.44
372.48	1718.44
372.706	1690.44
372.932	1679.44
373.158	1728.44
373.384	1794.44
373.61	1819.44
373.835	1952.44
374.061	1812.44
374.287	1763.44
374.513	1798.44
374.739	1794.44
374.965	1776.44
375.191	1833.44
375.416	1820.44
375.642	1871.44
375.868	1949.44
376.094	2023.44
376.319	1909.44
376.545	1760.44
376.771	1831.44
376.997	1914.44
377.222	1913.44
377.448	1849.44
377.674	1890.44
377.899	1887.44
378.125	1946.44
378.35	1957.44
378.576	1807.44
378.802	1712.44
379.027	1732.44
379.253	1767.44
379.478	1810.44
379.704	1734.44
379.929	1774.44
380.155	1769.44
380.38	1780.44
380.606	1802.44
380.831	1812.44
381.057	1897.44
381.282	1918.44
381.507	1858.44
381.733	1969.44
381.958	2082.44
382.184	1906.44
382.409	1829.44
382.634	1888.44
382.86	1849.44
383.085	1888.44
383.31	1868.44
383.535	2046.44
383.761	2168.44
383.986	2105.44
384.211	2055.44
384.436	2048.44
384.662	2056.44
384.887	2167.44
385.112	2035.44
385.337	2111.44
385.562	2044.44
385.787	2051.44
386.013	2096.44
386.238	2107.44
386.463	2071.44
386.688	2251.44
386.913	2339.44
387.138	2298.44
387.363	2140.44
387.588	2134.44
387.813	2095.44
388.038	2100.44
388.263	2179.44
388.488	2134.44
388.713	1934.44
388.938	1946.44
389.163	2003.44
389.387	1996.44
389.612	2000.44
389.837	2045.44
390.062	2098.44
390.287	2040.44
390.512	2047.44
390.736	2023.44
390.961	2002.44
391.186	1939.44
391.411	1945.44
391.636	2027.44
391.86	2053.44
392.085	2028.44
392.31	2007.44
392.534	2050.44
392.759	2052.44
392.984	2033.44
393.208	2099.44
393.433	2118.44
393.658	2188.44
393.882	2212.44
394.107	2117.44
394.331	2014.44
394.556	2017.44
394.78	2062.44
395.005	2131.44
395.229	2163.44
395.454	2338.44
395.678	2350.44
395.903	2249.44
396.127	2184.44
396.352	2159.44
396.576	2224.44
396.801	2286.44
397.025	2214.44
397.249	2228.44
397.474	2194.44
397.698	2180.44
397.922	2250.44
398.147	2378.44
398.371	2468.44
398.595	2480.44
398.82	2338.44
399.044	2355.44
399.268	2535.44
399.492	2680.44
399.717	2734.44
399.941	2769.44
400.165	2670.44
400.389	2606.44
400.613	2619.44
400.837	2809.44
401.062	3268.44
401.286	2840.44
401.51	2542.44
401.734	2678.44
401.958	2609.44
402.182	2411.44
402.406	2290.44
402.63	2271.44
402.854	2312.44
403.078	2312.44
403.302	2443.44
403.526	2426.44
403.75	2446.44
403.974	2402.44
404.198	2430.44
404.422	2496.44
404.645	2635.44
404.869	2612.44
405.093	2390.44
405.317	2333.44
405.541	2421.44
405.765	2480.44
405.988	2467.44
406.212	2482.44
406.436	2515.44
406.66	2587.44
406.883	2632.44
407.107	2924.44
407.331	3175.44
407.555	3402.44
407.778	3221.44
408.002	2635.44
408.226	2544.44
408.449	2530.44
408.673	2475.44
408.896	2526.44
409.12	2529.44
409.344	2492.44
409.567	2388.44
409.791	2513.44
410.014	2489.44
410.238	2581.44
410.461	2744.44
410.685	2530.44
410.908	2368.44
411.132	2430.44
411.355	2424.44
411.578	2394.44
411.802	2404.44
412.025	2456.44
412.249	2388.44
412.472	2326.44
412.695	2288.44
412.919	2276.44
413.142	2313.44
413.365	2396.44
413.589	2375.44
413.812	2495.44
414.035	2568.44
414.258	2351.44
414.482	2287.44
414.705	2350.44
414.928	2269.44
415.151	2308.44
415.374	2334.44
415.597	2368.44
415.821	2393.44
416.044	2430.44
416.267	2470.44
416.49	2233.44
416.713	2243.44
416.936	2339.44
417.159	2364.44
417.382	2428.44
417.605	2258.44
417.828	2339.44
418.051	2388.44
418.274	2343.44
418.497	2240.44
418.72	2244.44
418.943	2233.44
419.166	2403.44
419.389	2467.44
419.611	2345.44
419.834	2267.44
420.057	2307.44
420.28	2227.44
420.503	2234.44
420.726	2254.44
420.948	2270.44
421.171	2209.44
421.394	2258.44
421.617	2273.44
421.839	2285.44
422.062	2240.44
422.285	2252.44
422.507	2234.44
422.73	2164.44
422.953	2085.44
423.175	2140.44
423.398	2194.44
423.621	2224.44
423.843	2208.44
424.066	2267.44
424.288	2360.44
424.511	2403.44
424.733	2342.44
424.956	2137.44
425.178	2123.44
425.401	2176.44
425.623	2156.44
425.846	2135.44
426.068	2303.44
426.291	2360.44
426.513	2308.44
426.735	2303.44
426.958	2428.44
427.18	2600.44
427.402	2384.44
427.625	2411.44
427.847	2435.44
428.069	2306.44
428.292	2188.44
428.514	2103.44
428.736	2097.44
428.958	2192.44
429.181	2218.44
429.403	2450.44
429.625	3019.44
429.847	2687.44
430.069	2266.44
430.292	2444.44
430.514	2583.44
430.736	2356.44
430.958	2506.44
431.18	2336.44
431.402	2170.44
431.624	2182.44
431.846	2142.44
432.068	2100.44
432.29	2180.44
432.512	2118.44
432.734	2195.44
432.956	2259.44
433.178	2340.44
433.4	2337.44
433.622	2401.44
433.844	2180.44
434.066	2124.44
434.287	2133.44
434.509	2260.44
434.731	2320.44
434.953	2478.44
435.175	2450.44
435.397	2306.44
435.618	2303.44
435.84	2252.44
436.062	2275.44
436.284	2257.44
436.505	2252.44
436.727	2356.44
436.949	2232.44
437.17	2184.44
437.392	2151.44
437.614	2184.44
437.835	2133.44
438.057	2284.44
438.278	2402.44
438.5	2210.44
438.721	2134.44
438.943	2187.44
439.165	2140.44
439.386	2106.44
439.608	2158.44
439.829	2139.44
440.05	2198.44
440.272	2170.44
440.493	2090.44
440.715	2135.44
440.936	2289.44
441.158	2620.44
441.379	2480.44
441.6	2430.44
441.822	2355.44
442.043	2345.44
442.264	2295.44
442.486	2180.44
442.707	2170.44
442.928	2155.44
443.149	2205.44
443.371	2345.44
443.592	2453.44
443.813	2371.44
444.034	2334.44
444.255	2375.44
444.476	2449.44
444.698	2484.44
444.919	2466.44
445.14	2532.44
445.361	2520.44
445.582	2602.44
445.803	2474.44
446.024	2409.44
446.245	2467.44
446.466	2378.44
446.687	2237.44
446.908	2322.44
447.129	2186.44
447.35	2248.44
447.571	2204.44
447.792	2129.44
448.013	2103.44
448.234	2163.44
448.455	2281.44
448.675	2305.44
448.896	2078.44
449.117	2072.44
449.338	2124.44
449.559	2161.44
449.779	2342.44
450	2598.44
450.221	2777.44
450.442	2701.44
450.662	2326.44
450.883	2098.44
451.104	2023.44
451.324	2066.44
451.545	2176.44
451.766	2140.44
451.986	2009.44
452.207	2025.44
452.428	1978.44
452.648	1923.44
452.869	1991.44
453.089	2088.44
453.31	2124.44
453.53	2166.44
453.751	2124.44
453.971	1961.44
454.192	2018.44
454.412	2171.44
454.633	2086.44
454.853	2008.44
455.073	1900.44
455.294	1836.44
455.514	1890.44
455.734	1900.44
455.955	1951.44
456.175	1960.44
456.395	1923.44
456.616	1994.44
456.836	2039.44
457.056	2004.44
457.276	1993.44
457.497	1918.44
457.717	1881.44
457.937	1916.44
458.157	1992.44
458.377	1952.44
458.598	1940.44
458.818	1939.44
459.038	2081.44
459.258	2241.44
459.478	2202.44
459.698	2142.44
459.918	2155.44
460.138	2247.44
460.358	2312.44
460.578	2343.44
460.798	2392.44
461.018	2562.44
461.238	2482.44
461.458	2344.44
461.678	2329.44
461.898	2305.44
462.118	2247.44
462.338	2318.44
462.558	2345.44
462.777	2313.44
462.997	2433.44
463.217	2598.44
463.437	2545.44
463.657	2370.44
463.876	2337.44
464.096	2352.44
464.316	2315.44
464.536	2438.44
464.755	2391.44
464.975	2472.44
465.195	2330.44
465.414	2500.44
465.634	2491.44
465.854	2307.44
466.073	2458.44
466.293	2385.44
466.512	2133.44
466.732	2134.44
466.951	2232.44
467.171	2213.44
467.391	2126.44
467.61	2054.44
467.829	2108.44
468.049	2235.44
468.268	2535.44
468.488	2390.44
468.707	2241.44
468.927	2208.44
469.146	2156.44
469.365	2082.44
469.585	2103.44
469.804	2130.44
470.023	2073.44
470.243	2124.44
470.462	2100.44
470.681	2055.44
470.901	2104.44
471.12	2154.44
471.339	2058.44
471.558	2060.44
471.777	2015.44
471.997	2088.44
472.216	2067.44
472.435	2009.44
472.654	2055.44
472.873	2107.44
473.092	2280.44
473.311	2186.44
473.53	2034.44
473.749	2019.44
473.968	2091.44
474.187	2224.44
474.406	2321.44
474.625	2179.44
474.844	2132.44
475.063	2130.44
475.282	2232.44
475.501	2172.44
475.72	2137.44
475.939	2304.44
476.158	2242.44
476.377	2152.44
476.596	2188.44
476.814	2211.44
477.033	2215.44
477.252	2323.44
477.471	2384.44
477.69	2247.44
477.908	2246.44
478.127	2362.44
478.346	2572.44
478.564	2609.44
478.783	2506.44
479.002	2614.44
479.22	2572.44
479.439	2622.44
479.658	3049.44
479.876	3017.44
480.095	2624.44
480.313	2498.44
480.532	2353.44
480.751	2390.44
480.969	2445.44
481.188	2427.44
481.406	2382.44
481.624	2328.44
481.843	2340.44
482.061	2379.44
482.28	2423.44
482.498	2469.44
482.717	2507.44
482.935	2369.44
483.153	2344.44
483.372	2354.44
483.59	2319.44
483.808	2350.44
484.027	2403.44
484.245	2573.44
484.463	2924.44
484.681	3392.44
484.9	2594.44
485.118	2496.44
485.336	2438.44
485.554	2495.44
485.772	2610.44
485.99	2542.44
486.209	2529.44
486.427	2537.44
486.645	2543.44
486.863	2489.44
487.081	2558.44
487.299	2662.44
