Data from WStandard_LampEnergy8_LIBS07252019.E.O._I.C._HRD10591_15-58-24-928.txt Node
Date: Thu Jul 25 15:58:24 EDT 2019
User: cochatt
Spectrometer: HR+D1059
Trigger mode: 1
Integration Time (sec): 1.000000E-1
Scans to average: 1
Electric dark correction enabled: true
Nonlinearity correction enabled: false
Boxcar width: 0
XAxis mode: Wavelengths
Number of Pixels in Spectrum: 2048
>>>>>Begin Spectral Data<<<<<
223.165	-22.75
223.4	-22.75
223.635	-22.75
223.869	-14.75
224.104	-15.75
224.338	-28.75
224.573	-19.75
224.808	-21.75
225.042	-8.75
225.277	-9.75
225.511	-0.75
225.746	9.25
225.98	10.25
226.215	12.25
226.449	23.25
226.683	24.25
226.918	32.25
227.152	31.25
227.387	32.25
227.621	34.25
227.856	29.25
228.09	48.25
228.324	40.25
228.559	49.25
228.793	101.25
229.027	197.25
229.262	215.25
229.496	205.25
229.73	219.25
229.964	235.25
230.199	246.25
230.433	255.25
230.667	279.25
230.901	290.25
231.136	269.25
231.37	253.25
231.604	272.25
231.838	283.25
232.072	251.25
232.306	247.25
232.541	276.25
232.775	312.25
233.009	327.25
233.243	311.25
233.477	296.25
233.711	298.25
233.945	304.25
234.179	301.25
234.413	319.25
234.647	337.25
234.881	333.25
235.115	308.25
235.349	299.25
235.583	301.25
235.817	306.25
236.051	283.25
236.285	295.25
236.519	323.25
236.753	353.25
236.987	348.25
237.221	340.25
237.455	372.25
237.689	371.25
237.922	346.25
238.156	335.25
238.39	337.25
238.624	375.25
238.858	391.25
239.091	393.25
239.325	436.25
239.559	462.25
239.793	488.25
240.027	501.25
240.26	483.25
240.494	397.25
240.728	379.25
240.961	395.25
241.195	399.25
241.429	394.25
241.662	415.25
241.896	401.25
242.13	402.25
242.363	416.25
242.597	451.25
242.83	443.25
243.064	444.25
243.298	481.25
243.531	480.25
243.765	466.25
243.998	477.25
244.232	425.25
244.465	411.25
244.699	402.25
244.932	458.25
245.166	495.25
245.399	483.25
245.633	468.25
245.866	464.25
246.099	475.25
246.333	500.25
246.566	480.25
246.8	518.25
247.033	566.25
247.266	517.25
247.5	527.25
247.733	529.25
247.966	563.25
248.2	603.25
248.433	592.25
248.666	608.25
248.899	674.25
249.133	757.25
249.366	785.25
249.599	667.25
249.832	613.25
250.066	633.25
250.299	609.25
250.532	587.25
250.765	527.25
250.998	561.25
251.231	579.25
251.465	586.25
251.698	562.25
251.931	584.25
252.164	575.25
252.397	609.25
252.63	611.25
252.863	546.25
253.096	542.25
253.329	587.25
253.562	569.25
253.795	632.25
254.028	618.25
254.261	571.25
254.494	575.25
254.727	557.25
254.96	577.25
255.193	614.25
255.426	696.25
255.659	783.25
255.892	799.25
256.124	675.25
256.357	646.25
256.59	680.25
256.823	676.25
257.056	711.25
257.289	825.25
257.521	879.25
257.754	809.25
257.987	778.25
258.22	832.25
258.452	798.25
258.685	674.25
258.918	668.25
259.151	665.25
259.383	646.25
259.616	608.25
259.849	643.25
260.081	704.25
260.314	773.25
260.547	819.25
260.779	801.25
261.012	777.25
261.244	705.25
261.477	699.25
261.71	719.25
261.942	691.25
262.175	671.25
262.407	692.25
262.64	673.25
262.872	639.25
263.105	599.25
263.337	638.25
263.57	627.25
263.802	639.25
264.035	614.25
264.267	585.25
264.499	576.25
264.732	644.25
264.964	637.25
265.197	674.25
265.429	701.25
265.661	793.25
265.894	821.25
266.126	854.25
266.358	783.25
266.591	794.25
266.823	872.25
267.055	801.25
267.287	787.25
267.52	795.25
267.752	766.25
267.984	759.25
268.216	771.25
268.448	826.25
268.681	799.25
268.913	747.25
269.145	682.25
269.377	707.25
269.609	742.25
269.841	859.25
270.073	991.25
270.306	1064.25
270.538	1115.25
270.77	962.25
271.002	842.25
271.234	799.25
271.466	812.25
271.698	919.25
271.93	1047.25
272.162	1042.25
272.394	964.25
272.626	903.25
272.858	809.25
273.09	711.25
273.322	716.25
273.553	683.25
273.785	690.25
274.017	726.25
274.249	748.25
274.481	765.25
274.713	716.25
274.945	697.25
275.176	721.25
275.408	675.25
275.64	701.25
275.872	687.25
276.104	754.25
276.335	850.25
276.567	912.25
276.799	897.25
277.031	839.25
277.262	808.25
277.494	834.25
277.726	919.25
277.957	892.25
278.189	797.25
278.421	783.25
278.652	733.25
278.884	727.25
279.115	739.25
279.347	735.25
279.579	730.25
279.81	724.25
280.042	825.25
280.273	875.25
280.505	894.25
280.736	891.25
280.968	837.25
281.199	748.25
281.431	726.25
281.662	716.25
281.894	726.25
282.125	761.25
282.356	779.25
282.588	769.25
282.819	773.25
283.051	848.25
283.282	917.25
283.513	840.25
283.745	771.25
283.976	736.25
284.207	709.25
284.439	747.25
284.67	759.25
284.901	778.25
285.132	794.25
285.364	790.25
285.595	792.25
285.826	763.25
286.057	759.25
286.288	753.25
286.52	800.25
286.751	846.25
286.982	897.25
287.213	808.25
287.444	742.25
287.675	730.25
287.906	791.25
288.138	811.25
288.369	801.25
288.6	783.25
288.831	743.25
289.062	754.25
289.293	783.25
289.524	778.25
289.755	791.25
289.986	802.25
290.217	722.25
290.448	766.25
290.679	765.25
290.91	804.25
291.141	799.25
291.371	832.25
291.602	843.25
291.833	823.25
292.064	833.25
292.295	852.25
292.526	833.25
292.757	867.25
292.987	845.25
293.218	813.25
293.449	856.25
293.68	970.25
293.91	1013.25
294.141	948.25
294.372	877.25
294.603	922.25
294.833	963.25
295.064	924.25
295.295	824.25
295.525	805.25
295.756	745.25
295.987	731.25
296.217	747.25
296.448	771.25
296.679	762.25
296.909	780.25
297.14	780.25
297.37	782.25
297.601	834.25
297.831	903.25
298.062	866.25
298.292	829.25
298.523	780.25
298.753	791.25
298.984	823.25
299.214	822.25
299.445	840.25
299.675	840.25
299.905	829.25
300.136	821.25
300.366	823.25
300.597	777.25
300.827	752.25
301.057	812.25
301.288	876.25
301.518	865.25
301.748	894.25
301.979	919.25
302.209	950.25
302.439	1003.25
302.669	1009.25
302.9	925.25
303.13	860.25
303.36	869.25
303.59	887.25
303.82	867.25
304.051	868.25
304.281	883.25
304.511	896.25
304.741	952.25
304.971	1069.25
305.201	1062.25
305.431	964.25
305.661	827.25
305.891	771.25
306.121	794.25
306.352	847.25
306.582	863.25
306.812	920.25
307.042	943.25
307.272	949.25
307.502	1016.25
307.731	1077.25
307.961	1061.25
308.191	996.25
308.421	891.25
308.651	844.25
308.881	831.25
309.111	817.25
309.341	854.25
309.571	834.25
309.8	848.25
310.03	828.25
310.26	801.25
310.49	823.25
310.72	863.25
310.949	881.25
311.179	889.25
311.409	886.25
311.639	841.25
311.868	837.25
312.098	855.25
312.328	864.25
312.557	865.25
312.787	848.25
313.017	879.25
313.246	865.25
313.476	888.25
313.706	875.25
313.935	891.25
314.165	921.25
314.394	945.25
314.624	1012.25
314.853	1051.25
315.083	1038.25
315.312	1058.25
315.542	996.25
315.771	924.25
316.001	937.25
316.23	949.25
316.46	977.25
316.689	929.25
316.919	873.25
317.148	871.25
317.377	899.25
317.607	981.25
317.836	1117.25
318.065	1113.25
318.295	1014.25
318.524	977.25
318.753	924.25
318.983	949.25
319.212	929.25
319.441	893.25
319.67	912.25
319.9	943.25
320.129	997.25
320.358	1011.25
320.587	1023.25
320.816	1052.25
321.046	987.25
321.275	946.25
321.504	980.25
321.733	1060.25
321.962	983.25
322.191	959.25
322.42	933.25
322.649	925.25
322.878	915.25
323.108	946.25
323.337	979.25
323.566	951.25
323.795	997.25
324.024	972.25
324.253	912.25
324.482	953.25
324.71	876.25
324.939	897.25
325.168	901.25
325.397	937.25
325.626	986.25
325.855	922.25
326.084	944.25
326.313	946.25
326.542	971.25
326.77	979.25
326.999	979.25
327.228	936.25
327.457	911.25
327.686	913.25
327.914	904.25
328.143	949.25
328.372	937.25
328.6	949.25
328.829	932.25
329.058	918.25
329.287	916.25
329.515	962.25
329.744	966.25
329.972	1027.25
330.201	1031.25
330.43	986.25
330.658	990.25
330.887	1002.25
331.115	977.25
331.344	975.25
331.572	965.25
331.801	971.25
332.03	988.25
332.258	983.25
332.486	1015.25
332.715	1025.25
332.943	1031.25
333.172	999.25
333.4	1029.25
333.629	1055.25
333.857	1112.25
334.085	1241.25
334.314	1336.25
334.542	1437.25
334.771	1300.25
334.999	1143.25
335.227	1100.25
335.455	1037.25
335.684	1045.25
335.912	1082.25
336.14	1111.25
336.369	1071.25
336.597	1009.25
336.825	1004.25
337.053	1045.25
337.281	1081.25
337.51	1140.25
337.738	1179.25
337.966	1111.25
338.194	1025.25
338.422	1034.25
338.65	986.25
338.878	972.25
339.106	918.25
339.334	976.25
339.562	919.25
339.79	963.25
340.018	1013.25
340.246	1064.25
340.474	1071.25
340.702	1026.25
340.93	1037.25
341.158	1009.25
341.386	998.25
341.614	996.25
341.842	992.25
342.07	1045.25
342.298	993.25
342.526	988.25
342.754	983.25
342.981	968.25
343.209	990.25
343.437	960.25
343.665	970.25
343.893	1032.25
344.12	1026.25
344.348	1040.25
344.576	1017.25
344.804	1001.25
345.031	987.25
345.259	994.25
345.487	952.25
345.714	931.25
345.942	919.25
346.17	932.25
346.397	953.25
346.625	927.25
346.853	887.25
347.08	892.25
347.308	898.25
347.535	892.25
347.763	966.25
347.99	943.25
348.218	910.25
348.445	933.25
348.673	915.25
348.9	960.25
349.128	981.25
349.355	961.25
349.583	984.25
349.81	957.25
350.037	868.25
350.265	876.25
350.492	922.25
350.72	911.25
350.947	957.25
351.174	943.25
351.402	902.25
351.629	860.25
351.856	860.25
352.083	872.25
352.311	852.25
352.538	905.25
352.765	911.25
352.992	943.25
353.22	919.25
353.447	897.25
353.674	919.25
353.901	929.25
354.128	916.25
354.355	913.25
354.583	971.25
354.81	968.25
355.037	950.25
355.264	936.25
355.491	923.25
355.718	924.25
355.945	922.25
356.172	914.25
356.399	915.25
356.626	900.25
356.853	941.25
357.08	1050.25
357.307	1104.25
357.534	1065.25
357.761	959.25
357.988	899.25
358.215	882.25
358.441	909.25
358.668	881.25
358.895	892.25
359.122	997.25
359.349	1043.25
359.576	1032.25
359.802	915.25
360.029	915.25
360.256	915.25
360.483	929.25
360.709	964.25
360.936	989.25
361.163	1045.25
361.39	1096.25
361.616	1144.25
361.843	1140.25
362.07	1095.25
362.296	933.25
362.523	923.25
362.749	917.25
362.976	957.25
363.203	962.25
363.429	932.25
363.656	915.25
363.882	937.25
364.109	1064.25
364.335	1142.25
364.562	1049.25
364.788	997.25
365.015	915.25
365.241	903.25
365.468	928.25
365.694	958.25
365.92	1039.25
366.147	931.25
366.373	910.25
366.599	915.25
366.826	919.25
367.052	912.25
367.278	907.25
367.505	935.25
367.731	951.25
367.957	948.25
368.184	1000.25
368.41	1057.25
368.636	1078.25
368.862	1050.25
369.089	1089.25
369.315	1011.25
369.541	959.25
369.767	903.25
369.993	946.25
370.219	931.25
370.445	974.25
370.672	1032.25
370.898	1079.25
371.124	1029.25
371.35	1014.25
371.576	1019.25
371.802	1041.25
372.028	994.25
372.254	938.25
372.48	960.25
372.706	948.25
372.932	969.25
373.158	961.25
373.384	973.25
373.61	1005.25
373.835	1019.25
374.061	989.25
374.287	1011.25
374.513	981.25
374.739	1003.25
374.965	992.25
375.191	1008.25
375.416	982.25
375.642	1034.25
375.868	1102.25
376.094	1121.25
376.319	1057.25
376.545	1001.25
376.771	1041.25
376.997	1105.25
377.222	1076.25
377.448	1068.25
377.674	1045.25
377.899	1054.25
378.125	1106.25
378.35	1070.25
378.576	1020.25
378.802	945.25
379.027	966.25
379.253	976.25
379.478	1002.25
379.704	1027.25
379.929	987.25
380.155	1002.25
380.38	1027.25
380.606	994.25
380.831	1021.25
381.057	1058.25
381.282	1099.25
381.507	1085.25
381.733	1139.25
381.958	1184.25
382.184	1063.25
382.409	1033.25
382.634	1049.25
382.86	1038.25
383.085	1046.25
383.31	1081.25
383.535	1199.25
383.761	1252.25
383.986	1165.25
384.211	1114.25
384.436	1138.25
384.662	1189.25
384.887	1185.25
385.112	1156.25
385.337	1159.25
385.562	1142.25
385.787	1157.25
386.013	1175.25
386.238	1161.25
386.463	1177.25
386.688	1225.25
386.913	1336.25
387.138	1252.25
387.363	1164.25
387.588	1186.25
387.813	1155.25
388.038	1185.25
388.263	1222.25
388.488	1147.25
388.713	1075.25
388.938	1087.25
389.163	1087.25
389.387	1128.25
389.612	1116.25
389.837	1170.25
390.062	1151.25
390.287	1142.25
390.512	1132.25
390.736	1137.25
390.961	1112.25
391.186	1092.25
391.411	1089.25
391.636	1109.25
391.86	1137.25
392.085	1137.25
392.31	1105.25
392.534	1143.25
392.759	1183.25
392.984	1147.25
393.208	1156.25
393.433	1196.25
393.658	1220.25
393.882	1226.25
394.107	1150.25
394.331	1143.25
394.556	1125.25
394.78	1140.25
395.005	1171.25
395.229	1254.25
395.454	1345.25
395.678	1322.25
395.903	1260.25
396.127	1205.25
396.352	1195.25
396.576	1268.25
396.801	1217.25
397.025	1242.25
397.249	1257.25
397.474	1244.25
397.698	1252.25
397.922	1260.25
398.147	1312.25
398.371	1391.25
398.595	1401.25
398.82	1283.25
399.044	1281.25
399.268	1372.25
399.492	1450.25
399.717	1519.25
399.941	1512.25
400.165	1467.25
400.389	1483.25
400.613	1455.25
400.837	1675.25
401.062	1819.25
401.286	1552.25
401.51	1467.25
401.734	1519.25
401.958	1416.25
402.182	1319.25
402.406	1265.25
402.63	1277.25
402.854	1289.25
403.078	1293.25
403.302	1341.25
403.526	1374.25
403.75	1368.25
403.974	1383.25
404.198	1365.25
404.422	1410.25
404.645	1467.25
404.869	1430.25
405.093	1336.25
405.317	1313.25
405.541	1351.25
405.765	1365.25
405.988	1377.25
406.212	1382.25
406.436	1415.25
406.66	1441.25
406.883	1478.25
407.107	1684.25
407.331	1817.25
407.555	1899.25
407.778	1674.25
408.002	1437.25
408.226	1416.25
408.449	1411.25
408.673	1392.25
408.896	1395.25
409.12	1388.25
409.344	1372.25
409.567	1319.25
409.791	1368.25
410.014	1415.25
410.238	1497.25
410.461	1534.25
410.685	1386.25
410.908	1356.25
411.132	1372.25
411.355	1328.25
411.578	1373.25
411.802	1339.25
412.025	1372.25
412.249	1347.25
412.472	1300.25
412.695	1297.25
412.919	1312.25
413.142	1309.25
413.365	1315.25
413.589	1347.25
413.812	1413.25
414.035	1431.25
414.258	1369.25
414.482	1331.25
414.705	1326.25
414.928	1288.25
415.151	1309.25
415.374	1299.25
415.597	1335.25
415.821	1331.25
416.044	1346.25
416.267	1348.25
416.49	1264.25
416.713	1315.25
416.936	1347.25
417.159	1372.25
417.382	1404.25
417.605	1337.25
417.828	1328.25
418.051	1363.25
418.274	1317.25
418.497	1313.25
418.72	1301.25
418.943	1288.25
419.166	1361.25
419.389	1377.25
419.611	1299.25
419.834	1294.25
420.057	1305.25
420.28	1269.25
420.503	1276.25
420.726	1324.25
420.948	1305.25
421.171	1245.25
421.394	1282.25
421.617	1341.25
421.839	1297.25
422.062	1343.25
422.285	1285.25
422.507	1275.25
422.73	1251.25
422.953	1241.25
423.175	1220.25
423.398	1268.25
423.621	1247.25
423.843	1326.25
424.066	1329.25
424.288	1401.25
424.511	1431.25
424.733	1361.25
424.956	1252.25
425.178	1250.25
425.401	1266.25
425.623	1275.25
425.846	1303.25
426.068	1359.25
426.291	1350.25
426.513	1339.25
426.735	1346.25
426.958	1452.25
427.18	1483.25
427.402	1388.25
427.625	1417.25
427.847	1393.25
428.069	1272.25
428.292	1264.25
428.514	1216.25
428.736	1244.25
428.958	1257.25
429.181	1305.25
429.403	1475.25
429.625	1787.25
429.847	1508.25
430.069	1303.25
430.292	1448.25
430.514	1463.25
430.736	1359.25
430.958	1382.25
431.18	1317.25
431.402	1236.25
431.624	1213.25
431.846	1177.25
432.068	1142.25
432.29	1145.25
432.512	1194.25
432.734	1235.25
432.956	1303.25
433.178	1361.25
433.4	1307.25
433.622	1307.25
433.844	1229.25
434.066	1235.25
434.287	1187.25
434.509	1223.25
434.731	1297.25
434.953	1396.25
435.175	1345.25
435.397	1281.25
435.618	1253.25
435.84	1242.25
436.062	1224.25
436.284	1351.25
436.505	1338.25
436.727	1323.25
436.949	1250.25
437.17	1244.25
437.392	1231.25
437.614	1203.25
437.835	1184.25
438.057	1239.25
438.278	1240.25
438.5	1235.25
438.721	1257.25
438.943	1275.25
439.165	1219.25
439.386	1228.25
439.608	1240.25
439.829	1220.25
440.05	1267.25
440.272	1248.25
440.493	1258.25
440.715	1281.25
440.936	1391.25
441.158	1431.25
441.379	1364.25
441.6	1379.25
441.822	1361.25
442.043	1348.25
442.264	1308.25
442.486	1274.25
442.707	1260.25
442.928	1283.25
443.149	1297.25
443.371	1349.25
443.592	1402.25
443.813	1383.25
444.034	1357.25
444.255	1345.25
444.476	1390.25
444.698	1409.25
444.919	1381.25
445.14	1516.25
445.361	1442.25
445.582	1485.25
445.803	1412.25
446.024	1372.25
446.245	1442.25
446.466	1382.25
446.687	1357.25
446.908	1336.25
447.129	1306.25
447.35	1288.25
447.571	1324.25
447.792	1233.25
448.013	1266.25
448.234	1259.25
448.455	1335.25
448.675	1326.25
448.896	1222.25
449.117	1210.25
449.338	1228.25
449.559	1261.25
449.779	1312.25
450	1405.25
450.221	1443.25
450.442	1382.25
450.662	1324.25
450.883	1185.25
451.104	1188.25
451.324	1164.25
451.545	1227.25
451.766	1205.25
451.986	1171.25
452.207	1147.25
452.428	1124.25
452.648	1087.25
452.869	1117.25
453.089	1167.25
453.31	1159.25
453.53	1172.25
453.751	1131.25
453.971	1088.25
454.192	1105.25
454.412	1151.25
454.633	1173.25
454.853	1149.25
455.073	1056.25
455.294	1066.25
455.514	1102.25
455.734	1062.25
455.955	1081.25
456.175	1092.25
456.395	1059.25
456.616	1094.25
456.836	1121.25
457.056	1096.25
457.276	1090.25
457.497	1074.25
457.717	1050.25
457.937	1091.25
458.157	1094.25
458.377	1052.25
458.598	1011.25
458.818	1060.25
459.038	1128.25
459.258	1171.25
459.478	1144.25
459.698	1150.25
459.918	1163.25
460.138	1238.25
460.358	1256.25
460.578	1244.25
460.798	1306.25
461.018	1383.25
461.238	1295.25
461.458	1261.25
461.678	1291.25
461.898	1234.25
462.118	1226.25
462.338	1274.25
462.558	1236.25
462.777	1284.25
462.997	1316.25
463.217	1329.25
463.437	1302.25
463.657	1277.25
463.876	1244.25
464.096	1267.25
464.316	1256.25
464.536	1347.25
464.755	1323.25
464.975	1305.25
465.195	1284.25
465.414	1347.25
465.634	1317.25
465.854	1309.25
466.073	1396.25
466.293	1341.25
466.512	1191.25
466.732	1192.25
466.951	1225.25
467.171	1246.25
467.391	1199.25
467.61	1181.25
467.829	1247.25
468.049	1357.25
468.268	1483.25
468.488	1332.25
468.707	1305.25
468.927	1270.25
469.146	1228.25
469.365	1218.25
469.585	1232.25
469.804	1217.25
470.023	1291.25
470.243	1257.25
470.462	1250.25
470.681	1204.25
470.901	1257.25
471.12	1233.25
471.339	1240.25
471.558	1202.25
471.777	1208.25
471.997	1200.25
472.216	1165.25
472.435	1128.25
472.654	1159.25
472.873	1153.25
473.092	1263.25
473.311	1201.25
473.53	1123.25
473.749	1159.25
473.968	1171.25
474.187	1240.25
474.406	1250.25
474.625	1217.25
474.844	1212.25
475.063	1205.25
475.282	1215.25
475.501	1198.25
475.72	1222.25
475.939	1292.25
476.158	1242.25
476.377	1216.25
476.596	1195.25
476.814	1176.25
477.033	1232.25
477.252	1254.25
477.471	1311.25
477.69	1277.25
477.908	1299.25
478.127	1334.25
478.346	1455.25
478.564	1424.25
478.783	1427.25
479.002	1437.25
479.22	1444.25
479.439	1451.25
479.658	1577.25
479.876	1522.25
480.095	1383.25
480.313	1364.25
480.532	1295.25
480.751	1292.25
480.969	1338.25
481.188	1267.25
481.406	1255.25
481.624	1223.25
481.843	1259.25
482.061	1288.25
482.28	1339.25
482.498	1362.25
482.717	1305.25
482.935	1299.25
483.153	1362.25
483.372	1320.25
483.59	1393.25
483.808	1351.25
484.027	1365.25
484.245	1430.25
484.463	1759.25
484.681	1900.25
484.9	1484.25
485.118	1380.25
485.336	1330.25
485.554	1410.25
485.772	1393.25
485.99	1383.25
486.209	1373.25
486.427	1384.25
486.645	1416.25
486.863	1409.25
487.081	1471.25
487.299	1427.25
487.517	1457.25
487.735	1452.25
487.953	1533.25
488.171	1513.25
488.389	1448.25
488.607	1491.25
488.825	1605.25
489.043	1541.25
489.261	1407.25
489.479	1489.25
489.696	1491.25
489.914	1477.25
490.132	1432.25
490.35	1460.25
490.568	1557.25
490.786	1507.25
491.003	1505.25
491.221	1570.25
491.439	1631.25
491.657	1590.25
491.874	1648.25
492.092	1668.25
492.31	1753.25
492.527	1649.25
492.745	1631.25
492.963	1607.25
493.18	1627.25
493.398	1723.25
