Data from WStandard_LampEnergy10_LIBS07252019.E.O._I.C._HRD10591_15-53-50-928.txt Node
Date: Thu Jul 25 15:53:50 EDT 2019
User: cochatt
Spectrometer: HR+D1059
Trigger mode: 1
Integration Time (sec): 1.000000E-1
Scans to average: 1
Electric dark correction enabled: true
Nonlinearity correction enabled: false
Boxcar width: 0
XAxis mode: Wavelengths
Number of Pixels in Spectrum: 2048
>>>>>Begin Spectral Data<<<<<
223.165	-17.06
223.4	-17.06
223.635	-17.06
223.869	-28.06
224.104	-33.06
224.338	-14.06
224.573	-12.06
224.808	-9.06
225.042	-3.06
225.277	-16.06
225.511	1.94
225.746	1.94
225.98	5.94
226.215	12.94
226.449	25.94
226.683	32.94
226.918	26.94
227.152	23.94
227.387	48.94
227.621	25.94
227.856	50.94
228.09	48.94
228.324	48.94
228.559	50.94
228.793	70.94
229.027	133.94
229.262	140.94
229.496	170.94
229.73	152.94
229.964	155.94
230.199	174.94
230.433	176.94
230.667	203.94
230.901	189.94
231.136	172.94
231.37	170.94
231.604	181.94
231.838	160.94
232.072	168.94
232.306	186.94
232.541	170.94
232.775	193.94
233.009	206.94
233.243	193.94
233.477	192.94
233.711	193.94
233.945	193.94
234.179	191.94
234.413	238.94
234.647	199.94
234.881	207.94
235.115	197.94
235.349	204.94
235.583	183.94
235.817	199.94
236.051	187.94
236.285	210.94
236.519	207.94
236.753	231.94
236.987	229.94
237.221	219.94
237.455	238.94
237.689	225.94
237.922	222.94
238.156	204.94
238.39	216.94
238.624	217.94
238.858	218.94
239.091	250.94
239.325	264.94
239.559	274.94
239.793	292.94
240.027	297.94
240.26	288.94
240.494	249.94
240.728	236.94
240.961	229.94
241.195	233.94
241.429	256.94
241.662	262.94
241.896	245.94
242.13	265.94
242.363	264.94
242.597	271.94
242.83	274.94
243.064	274.94
243.298	279.94
243.531	278.94
243.765	295.94
243.998	292.94
244.232	235.94
244.465	254.94
244.699	264.94
244.932	318.94
245.166	290.94
245.399	302.94
245.633	267.94
245.866	290.94
246.099	287.94
246.333	295.94
246.566	292.94
246.8	318.94
247.033	326.94
247.266	308.94
247.5	316.94
247.733	299.94
247.966	343.94
248.2	370.94
248.433	370.94
248.666	375.94
248.899	376.94
249.133	430.94
249.366	446.94
249.599	382.94
249.832	361.94
250.066	376.94
250.299	363.94
250.532	340.94
250.765	313.94
250.998	336.94
251.231	344.94
251.465	355.94
251.698	344.94
251.931	338.94
252.164	341.94
252.397	345.94
252.63	345.94
252.863	321.94
253.096	309.94
253.329	332.94
253.562	352.94
253.795	365.94
254.028	366.94
254.261	323.94
254.494	341.94
254.727	332.94
254.96	341.94
255.193	393.94
255.426	391.94
255.659	440.94
255.892	451.94
256.124	375.94
256.357	404.94
256.59	402.94
256.823	414.94
257.056	428.94
257.289	482.94
257.521	514.94
257.754	472.94
257.987	451.94
258.22	466.94
258.452	453.94
258.685	411.94
258.918	404.94
259.151	398.94
259.383	362.94
259.616	375.94
259.849	356.94
260.081	407.94
260.314	444.94
260.547	463.94
260.779	469.94
261.012	427.94
261.244	402.94
261.477	393.94
261.71	392.94
261.942	388.94
262.175	403.94
262.407	403.94
262.64	397.94
262.872	383.94
263.105	343.94
263.337	366.94
263.57	350.94
263.802	378.94
264.035	362.94
264.267	350.94
264.499	345.94
264.732	382.94
264.964	372.94
265.197	392.94
265.429	434.94
265.661	448.94
265.894	476.94
266.126	486.94
266.358	467.94
266.591	466.94
266.823	475.94
267.055	451.94
267.287	445.94
267.52	441.94
267.752	436.94
267.984	427.94
268.216	444.94
268.448	460.94
268.681	454.94
268.913	419.94
269.145	409.94
269.377	405.94
269.609	441.94
269.841	484.94
270.073	564.94
270.306	611.94
270.538	618.94
270.77	531.94
271.002	491.94
271.234	461.94
271.466	506.94
271.698	526.94
271.93	579.94
272.162	595.94
272.394	571.94
272.626	503.94
272.858	458.94
273.09	400.94
273.322	411.94
273.553	393.94
273.785	397.94
274.017	425.94
274.249	425.94
274.481	442.94
274.713	422.94
274.945	422.94
275.176	409.94
275.408	389.94
275.64	398.94
275.872	392.94
276.104	440.94
276.335	495.94
276.567	519.94
276.799	505.94
277.031	468.94
277.262	475.94
277.494	494.94
277.726	545.94
277.957	505.94
278.189	444.94
278.421	440.94
278.652	424.94
278.884	433.94
279.115	424.94
279.347	442.94
279.579	421.94
279.81	430.94
280.042	488.94
280.273	510.94
280.505	532.94
280.736	510.94
280.968	485.94
281.199	435.94
281.431	406.94
281.662	416.94
281.894	415.94
282.125	434.94
282.356	444.94
282.588	460.94
282.819	447.94
283.051	500.94
283.282	516.94
283.513	483.94
283.745	446.94
283.976	411.94
284.207	425.94
284.439	447.94
284.67	446.94
284.901	451.94
285.132	469.94
285.364	479.94
285.595	454.94
285.826	474.94
286.057	442.94
286.288	463.94
286.52	473.94
286.751	500.94
286.982	482.94
287.213	458.94
287.444	427.94
287.675	428.94
287.906	475.94
288.138	485.94
288.369	471.94
288.6	450.94
288.831	416.94
289.062	443.94
289.293	465.94
289.524	448.94
289.755	467.94
289.986	482.94
290.217	434.94
290.448	459.94
290.679	456.94
290.91	464.94
291.141	491.94
291.371	480.94
291.602	480.94
291.833	474.94
292.064	488.94
292.295	480.94
292.526	502.94
292.757	532.94
292.987	507.94
293.218	472.94
293.449	515.94
293.68	550.94
293.91	587.94
294.141	546.94
294.372	533.94
294.603	558.94
294.833	567.94
295.064	531.94
295.295	489.94
295.525	458.94
295.756	468.94
295.987	436.94
296.217	430.94
296.448	465.94
296.679	441.94
296.909	455.94
297.14	468.94
297.37	480.94
297.601	488.94
297.831	537.94
298.062	528.94
298.292	478.94
298.523	464.94
298.753	474.94
298.984	455.94
299.214	467.94
299.445	497.94
299.675	494.94
299.905	499.94
300.136	488.94
300.366	470.94
300.597	450.94
300.827	460.94
301.057	483.94
301.288	514.94
301.518	506.94
301.748	500.94
301.979	560.94
302.209	565.94
302.439	600.94
302.669	593.94
302.9	571.94
303.13	496.94
303.36	516.94
303.59	527.94
303.82	519.94
304.051	511.94
304.281	522.94
304.511	553.94
304.741	569.94
304.971	627.94
305.201	634.94
305.431	568.94
305.661	487.94
305.891	445.94
306.121	456.94
306.352	499.94
306.582	506.94
306.812	543.94
307.042	559.94
307.272	584.94
307.502	612.94
307.731	654.94
307.961	638.94
308.191	596.94
308.421	536.94
308.651	515.94
308.881	464.94
309.111	509.94
309.341	487.94
309.571	481.94
309.8	510.94
310.03	506.94
310.26	482.94
310.49	509.94
310.72	501.94
310.949	531.94
311.179	531.94
311.409	542.94
311.639	530.94
311.868	497.94
312.098	502.94
312.328	487.94
312.557	506.94
312.787	496.94
313.017	525.94
313.246	510.94
313.476	532.94
313.706	546.94
313.935	531.94
314.165	547.94
314.394	551.94
314.624	601.94
314.853	642.94
315.083	638.94
315.312	637.94
315.542	592.94
315.771	543.94
316.001	560.94
316.23	554.94
316.46	564.94
316.689	553.94
316.919	532.94
317.148	539.94
317.377	537.94
317.607	543.94
317.836	616.94
318.065	636.94
318.295	601.94
318.524	575.94
318.753	570.94
318.983	542.94
319.212	550.94
319.441	530.94
319.67	566.94
319.9	572.94
320.129	594.94
320.358	630.94
320.587	618.94
320.816	600.94
321.046	579.94
321.275	601.94
321.504	626.94
321.733	598.94
321.962	600.94
322.191	567.94
322.42	542.94
322.649	562.94
322.878	553.94
323.108	585.94
323.337	555.94
323.566	582.94
323.795	579.94
324.024	574.94
324.253	579.94
324.482	565.94
324.71	534.94
324.939	520.94
325.168	552.94
325.397	561.94
325.626	574.94
325.855	577.94
326.084	564.94
326.313	555.94
326.542	602.94
326.77	606.94
326.999	551.94
327.228	529.94
327.457	533.94
327.686	542.94
327.914	542.94
328.143	566.94
328.372	550.94
328.6	572.94
328.829	556.94
329.058	543.94
329.287	562.94
329.515	552.94
329.744	598.94
329.972	633.94
330.201	636.94
330.43	627.94
330.658	583.94
330.887	596.94
331.115	582.94
331.344	575.94
331.572	584.94
331.801	592.94
332.03	604.94
332.258	603.94
332.486	607.94
332.715	605.94
332.943	593.94
333.172	595.94
333.4	580.94
333.629	616.94
333.857	670.94
334.085	755.94
334.314	816.94
334.542	850.94
334.771	764.94
334.999	688.94
335.227	668.94
335.455	608.94
335.684	648.94
335.912	645.94
336.14	667.94
336.369	617.94
336.597	600.94
336.825	585.94
337.053	630.94
337.281	677.94
337.51	726.94
337.738	700.94
337.966	658.94
338.194	594.94
338.422	581.94
338.65	583.94
338.878	579.94
339.106	567.94
339.334	578.94
339.562	557.94
339.79	592.94
340.018	631.94
340.246	616.94
340.474	622.94
340.702	626.94
340.93	604.94
341.158	600.94
341.386	611.94
341.614	616.94
341.842	636.94
342.07	611.94
342.298	638.94
342.526	600.94
342.754	603.94
342.981	618.94
343.209	575.94
343.437	581.94
343.665	598.94
343.893	607.94
344.12	660.94
344.348	625.94
344.576	612.94
344.804	594.94
345.031	599.94
345.259	607.94
345.487	580.94
345.714	570.94
345.942	548.94
346.17	546.94
346.397	583.94
346.625	572.94
346.853	562.94
347.08	547.94
347.308	532.94
347.535	568.94
347.763	584.94
347.99	559.94
348.218	558.94
348.445	576.94
348.673	566.94
348.9	614.94
349.128	613.94
349.355	593.94
349.583	606.94
349.81	581.94
350.037	546.94
350.265	533.94
350.492	543.94
350.72	570.94
350.947	584.94
351.174	565.94
351.402	520.94
351.629	526.94
351.856	533.94
352.083	545.94
352.311	538.94
352.538	551.94
352.765	577.94
352.992	576.94
353.22	563.94
353.447	554.94
353.674	542.94
353.901	576.94
354.128	561.94
354.355	546.94
354.583	578.94
354.81	590.94
355.037	602.94
355.264	572.94
355.491	563.94
355.718	566.94
355.945	582.94
356.172	541.94
356.399	553.94
356.626	543.94
356.853	584.94
357.08	664.94
357.307	661.94
357.534	649.94
357.761	569.94
357.988	551.94
358.215	533.94
358.441	561.94
358.668	535.94
358.895	545.94
359.122	621.94
359.349	651.94
359.576	614.94
359.802	570.94
360.029	548.94
360.256	549.94
360.483	576.94
360.709	582.94
360.936	600.94
361.163	619.94
361.39	679.94
361.616	699.94
361.843	692.94
362.07	644.94
362.296	575.94
362.523	573.94
362.749	539.94
362.976	592.94
363.203	578.94
363.429	563.94
363.656	565.94
363.882	613.94
364.109	671.94
364.335	692.94
364.562	636.94
364.788	602.94
365.015	568.94
365.241	544.94
365.468	582.94
365.694	600.94
365.92	591.94
366.147	596.94
366.373	589.94
366.599	562.94
366.826	563.94
367.052	553.94
367.278	576.94
367.505	566.94
367.731	576.94
367.957	595.94
368.184	639.94
368.41	679.94
368.636	652.94
368.862	643.94
369.089	654.94
369.315	651.94
369.541	600.94
369.767	594.94
369.993	592.94
370.219	577.94
370.445	614.94
370.672	674.94
370.898	659.94
371.124	667.94
371.35	636.94
371.576	660.94
371.802	660.94
372.028	646.94
372.254	619.94
372.48	574.94
372.706	595.94
372.932	576.94
373.158	608.94
373.384	633.94
373.61	656.94
373.835	674.94
374.061	647.94
374.287	644.94
374.513	612.94
374.739	640.94
374.965	615.94
375.191	633.94
375.416	655.94
375.642	676.94
375.868	696.94
376.094	725.94
376.319	674.94
376.545	634.94
376.771	659.94
376.997	697.94
377.222	710.94
377.448	668.94
377.674	675.94
377.899	707.94
378.125	704.94
378.35	706.94
378.576	627.94
378.802	608.94
379.027	626.94
379.253	640.94
379.478	648.94
379.704	651.94
379.929	653.94
380.155	661.94
380.38	663.94
380.606	653.94
380.831	677.94
381.057	692.94
381.282	697.94
381.507	691.94
381.733	734.94
381.958	748.94
382.184	691.94
382.409	679.94
382.634	708.94
382.86	679.94
383.085	681.94
383.31	710.94
383.535	809.94
383.761	809.94
383.986	764.94
384.211	754.94
384.436	731.94
384.662	752.94
384.887	779.94
385.112	720.94
385.337	773.94
385.562	727.94
385.787	742.94
386.013	766.94
386.238	760.94
386.463	751.94
386.688	822.94
386.913	850.94
387.138	812.94
387.363	788.94
387.588	785.94
387.813	754.94
388.038	778.94
388.263	822.94
388.488	751.94
388.713	736.94
388.938	729.94
389.163	746.94
389.387	748.94
389.612	755.94
389.837	777.94
390.062	786.94
390.287	759.94
390.512	752.94
390.736	740.94
390.961	707.94
391.186	724.94
391.411	757.94
391.636	745.94
391.86	755.94
392.085	755.94
392.31	741.94
392.534	766.94
392.759	741.94
392.984	772.94
393.208	756.94
393.433	822.94
393.658	852.94
393.882	814.94
394.107	773.94
394.331	745.94
394.556	780.94
394.78	809.94
395.005	821.94
395.229	867.94
395.454	867.94
395.678	866.94
395.903	843.94
396.127	815.94
396.352	822.94
396.576	856.94
396.801	856.94
397.025	836.94
397.249	811.94
397.474	825.94
397.698	848.94
397.922	849.94
398.147	916.94
398.371	920.94
398.595	898.94
398.82	882.94
399.044	904.94
399.268	927.94
399.492	964.94
399.717	954.94
399.941	997.94
400.165	979.94
400.389	954.94
400.613	965.94
400.837	1114.94
401.062	1188.94
401.286	1016.94
401.51	986.94
401.734	957.94
401.958	942.94
402.182	908.94
402.406	890.94
402.63	908.94
402.854	872.94
403.078	909.94
403.302	886.94
403.526	899.94
403.75	955.94
403.974	939.94
404.198	946.94
404.422	977.94
404.645	1026.94
404.869	981.94
405.093	912.94
405.317	895.94
405.541	925.94
405.765	924.94
405.988	926.94
406.212	960.94
406.436	956.94
406.66	1038.94
406.883	1044.94
407.107	1156.94
407.331	1233.94
407.555	1291.94
407.778	1140.94
408.002	1006.94
408.226	1003.94
408.449	944.94
408.673	947.94
408.896	944.94
409.12	932.94
409.344	946.94
409.567	917.94
409.791	946.94
410.014	969.94
410.238	1012.94
410.461	1066.94
410.685	969.94
410.908	942.94
411.132	922.94
411.355	932.94
411.578	923.94
411.802	931.94
412.025	944.94
412.249	937.94
412.472	928.94
412.695	894.94
412.919	916.94
413.142	907.94
413.365	932.94
413.589	969.94
413.812	1010.94
414.035	1012.94
414.258	954.94
414.482	935.94
414.705	948.94
414.928	920.94
415.151	894.94
415.374	932.94
415.597	949.94
415.821	953.94
416.044	956.94
416.267	947.94
416.49	913.94
416.713	905.94
416.936	953.94
417.159	997.94
417.382	975.94
417.605	949.94
417.828	924.94
418.051	958.94
418.274	950.94
418.497	929.94
418.72	930.94
418.943	938.94
419.166	958.94
419.389	988.94
419.611	942.94
419.834	938.94
420.057	946.94
420.28	938.94
420.503	937.94
420.726	954.94
420.948	952.94
421.171	925.94
421.394	920.94
421.617	969.94
421.839	1018.94
422.062	976.94
422.285	932.94
422.507	949.94
422.73	918.94
422.953	899.94
423.175	868.94
423.398	935.94
423.621	928.94
423.843	932.94
424.066	983.94
424.288	1027.94
424.511	1064.94
424.733	1017.94
424.956	936.94
425.178	938.94
425.401	928.94
425.623	943.94
425.846	958.94
426.068	966.94
426.291	974.94
426.513	961.94
426.735	961.94
426.958	1045.94
427.18	1059.94
427.402	1002.94
427.625	1027.94
427.847	994.94
428.069	916.94
428.292	909.94
428.514	937.94
428.736	918.94
428.958	912.94
429.181	922.94
429.403	1060.94
429.625	1225.94
429.847	1046.94
430.069	974.94
430.292	1053.94
430.514	1052.94
430.736	960.94
430.958	967.94
431.18	901.94
431.402	890.94
431.624	846.94
431.846	818.94
432.068	707.94
432.29	727.94
432.512	779.94
432.734	862.94
432.956	922.94
433.178	994.94
433.4	977.94
433.622	984.94
433.844	916.94
434.066	831.94
434.287	803.94
434.509	787.94
434.731	834.94
434.953	888.94
435.175	946.94
435.397	906.94
435.618	906.94
435.84	866.94
436.062	847.94
436.284	910.94
436.505	941.94
436.727	960.94
436.949	919.94
437.17	901.94
437.392	874.94
437.614	843.94
437.835	788.94
438.057	825.94
438.278	851.94
438.5	870.94
438.721	896.94
438.943	937.94
439.165	931.94
439.386	966.94
439.608	985.94
439.829	944.94
440.05	947.94
440.272	981.94
440.493	955.94
440.715	982.94
440.936	1003.94
441.158	1054.94
441.379	1029.94
441.6	1047.94
441.822	1036.94
442.043	1020.94
442.264	1012.94
442.486	961.94
442.707	958.94
442.928	987.94
443.149	983.94
443.371	995.94
443.592	1025.94
443.813	1034.94
444.034	1010.94
444.255	1010.94
444.476	1039.94
444.698	1034.94
444.919	1044.94
445.14	1126.94
445.361	1109.94
445.582	1087.94
445.803	1075.94
446.024	1041.94
446.245	1078.94
446.466	1082.94
446.687	1062.94
446.908	1036.94
447.129	1050.94
447.35	986.94
447.571	996.94
447.792	966.94
448.013	979.94
448.234	974.94
448.455	986.94
448.675	991.94
448.896	894.94
449.117	906.94
449.338	932.94
449.559	959.94
449.779	966.94
450	1015.94
450.221	1041.94
450.442	1020.94
450.662	960.94
450.883	870.94
451.104	895.94
451.324	886.94
451.545	888.94
451.766	879.94
451.986	866.94
452.207	829.94
452.428	815.94
452.648	807.94
452.869	759.94
453.089	776.94
453.31	768.94
453.53	774.94
453.751	738.94
453.971	722.94
454.192	730.94
454.412	780.94
454.633	788.94
454.853	785.94
455.073	764.94
455.294	798.94
455.514	778.94
455.734	788.94
455.955	767.94
456.175	750.94
456.395	728.94
456.616	728.94
456.836	743.94
457.056	734.94
457.276	737.94
457.497	712.94
457.717	690.94
457.937	720.94
458.157	739.94
458.377	692.94
458.598	672.94
458.818	689.94
459.038	701.94
459.258	708.94
459.478	722.94
459.698	697.94
459.918	737.94
460.138	798.94
460.358	824.94
460.578	845.94
460.798	872.94
461.018	900.94
461.238	876.94
461.458	880.94
461.678	856.94
461.898	856.94
462.118	831.94
462.338	852.94
462.558	836.94
462.777	880.94
462.997	888.94
463.217	897.94
463.437	886.94
463.657	814.94
463.876	841.94
464.096	833.94
464.316	853.94
464.536	886.94
464.755	882.94
464.975	887.94
465.195	875.94
465.414	887.94
465.634	880.94
465.854	873.94
466.073	978.94
466.293	938.94
466.512	857.94
466.732	884.94
466.951	908.94
467.171	905.94
467.391	869.94
467.61	884.94
467.829	934.94
468.049	1009.94
468.268	1025.94
468.488	995.94
468.707	927.94
468.927	939.94
469.146	924.94
469.365	907.94
469.585	904.94
469.804	927.94
470.023	914.94
470.243	940.94
470.462	961.94
470.681	958.94
470.901	942.94
471.12	924.94
471.339	946.94
471.558	925.94
471.777	886.94
471.997	882.94
472.216	853.94
472.435	787.94
472.654	799.94
472.873	787.94
473.092	824.94
473.311	804.94
473.53	822.94
473.749	806.94
473.968	850.94
474.187	848.94
474.406	860.94
474.625	865.94
474.844	883.94
475.063	880.94
475.282	882.94
475.501	834.94
475.72	867.94
475.939	890.94
476.158	887.94
476.377	870.94
476.596	840.94
476.814	843.94
477.033	821.94
477.252	864.94
477.471	931.94
477.69	960.94
477.908	931.94
478.127	1003.94
478.346	1044.94
478.564	1003.94
478.783	1001.94
479.002	1004.94
479.22	1032.94
479.439	1065.94
479.658	1072.94
479.876	994.94
480.095	906.94
480.313	891.94
480.532	882.94
480.751	880.94
480.969	835.94
481.188	816.94
481.406	800.94
481.624	779.94
481.843	805.94
482.061	843.94
482.28	857.94
482.498	912.94
482.717	883.94
482.935	892.94
483.153	988.94
483.372	1046.94
483.59	1002.94
483.808	968.94
484.027	968.94
484.245	1013.94
484.463	1223.94
484.681	1282.94
484.9	1050.94
485.118	978.94
485.336	946.94
485.554	914.94
485.772	911.94
485.99	881.94
486.209	892.94
486.427	900.94
486.645	973.94
486.863	1016.94
487.081	1070.94
487.299	1024.94
487.517	1011.94
487.735	1117.94
487.953	1202.94
488.171	1168.94
488.389	1127.94
488.607	1098.94
488.825	1167.94
489.043	1061.94
489.261	1002.94
489.479	1039.94
489.696	1033.94
489.914	1041.94
490.132	1051.94
490.35	1083.94
490.568	1164.94
490.786	1191.94
491.003	1193.94
491.221	1256.94
491.439	1289.94
491.657	1330.94
491.874	1371.94
492.092	1482.94
492.31	1521.94
492.527	1440.94
492.745	1381.94
492.963	1339.94
493.18	1321.94
493.398	1347.94
493.615	1342.94
493.833	1279.94
494.05	1273.94
494.268	1226.94
494.485	1239.94
494.703	1245.94
494.92	1249.94
495.138	1249.94
495.355	1241.94
495.573	1254.94
495.79	1288.94
496.008	1294.94
496.225	1266.94
496.442	1263.94
496.66	1251.94
496.877	1194.94
497.094	1241.94
497.312	1225.94
497.529	1217.94
497.746	1210.94
497.963	1274.94
498.181	1306.94
498.398	1263.94
498.615	1214.94
498.832	1146.94
499.049	1165.94
499.267	1164.94
499.484	1284.94
499.701	1348.94
499.918	1375.94
500.135	1504.94
