Data from WStandard_LampEnergy8_LIBS07252019.E.O._I.C._HRD10591_16-00-53-930.txt Node
Date: Thu Jul 25 16:00:53 EDT 2019
User: cochatt
Spectrometer: HR+D1059
Trigger mode: 1
Integration Time (sec): 1.000000E-1
Scans to average: 1
Electric dark correction enabled: true
Nonlinearity correction enabled: false
Boxcar width: 0
XAxis mode: Wavelengths
Number of Pixels in Spectrum: 2048
>>>>>Begin Spectral Data<<<<<
223.165	-8.44
223.4	-8.44
223.635	-8.44
223.869	-30.44
224.104	-6.44
224.338	-20.44
224.573	-7.44
224.808	-13.44
225.042	-15.44
225.277	-1.44
225.511	0.56
225.746	2.56
225.98	4.56
226.215	14.56
226.449	6.56
226.683	18.56
226.918	32.56
227.152	23.56
227.387	45.56
227.621	35.56
227.856	42.56
228.09	56.56
228.324	53.56
228.559	64.56
228.793	103.56
229.027	218.56
229.262	208.56
229.496	225.56
229.73	216.56
229.964	245.56
230.199	254.56
230.433	245.56
230.667	278.56
230.901	270.56
231.136	268.56
231.37	266.56
231.604	230.56
231.838	274.56
232.072	245.56
232.306	247.56
232.541	255.56
232.775	288.56
233.009	308.56
233.243	304.56
233.477	290.56
233.711	280.56
233.945	296.56
234.179	279.56
234.413	312.56
234.647	324.56
234.881	312.56
235.115	289.56
235.349	290.56
235.583	307.56
235.817	280.56
236.051	288.56
236.285	270.56
236.519	335.56
236.753	340.56
236.987	354.56
237.221	360.56
237.455	369.56
237.689	368.56
237.922	336.56
238.156	342.56
238.39	343.56
238.624	356.56
238.858	369.56
239.091	372.56
239.325	441.56
239.559	472.56
239.793	477.56
240.027	504.56
240.26	486.56
240.494	367.56
240.728	358.56
240.961	390.56
241.195	379.56
241.429	402.56
241.662	412.56
241.896	395.56
242.13	381.56
242.363	422.56
242.597	448.56
242.83	441.56
243.064	445.56
243.298	459.56
243.531	425.56
243.765	417.56
243.998	452.56
244.232	376.56
244.465	391.56
244.699	412.56
244.932	443.56
245.166	496.56
245.399	472.56
245.633	423.56
245.866	456.56
246.099	452.56
246.333	454.56
246.566	509.56
246.8	518.56
247.033	544.56
247.266	505.56
247.5	515.56
247.733	511.56
247.966	534.56
248.2	579.56
248.433	584.56
248.666	589.56
248.899	653.56
249.133	740.56
249.366	778.56
249.599	646.56
249.832	578.56
250.066	587.56
250.299	577.56
250.532	560.56
250.765	528.56
250.998	595.56
251.231	570.56
251.465	592.56
251.698	570.56
251.931	555.56
252.164	587.56
252.397	618.56
252.63	592.56
252.863	552.56
253.096	528.56
253.329	552.56
253.562	558.56
253.795	605.56
254.028	573.56
254.261	538.56
254.494	549.56
254.727	516.56
254.96	560.56
255.193	606.56
255.426	688.56
255.659	733.56
255.892	761.56
256.124	692.56
256.357	640.56
256.59	664.56
256.823	662.56
257.056	677.56
257.289	816.56
257.521	864.56
257.754	794.56
257.987	741.56
258.22	813.56
258.452	769.56
258.685	644.56
258.918	654.56
259.151	651.56
259.383	624.56
259.616	563.56
259.849	600.56
260.081	655.56
260.314	732.56
260.547	776.56
260.779	804.56
261.012	752.56
261.244	660.56
261.477	640.56
261.71	672.56
261.942	634.56
262.175	654.56
262.407	678.56
262.64	631.56
262.872	598.56
263.105	606.56
263.337	615.56
263.57	636.56
263.802	632.56
264.035	592.56
264.267	567.56
264.499	570.56
264.732	595.56
264.964	620.56
265.197	666.56
265.429	676.56
265.661	764.56
265.894	800.56
266.126	832.56
266.358	757.56
266.591	764.56
266.823	819.56
267.055	776.56
267.287	771.56
267.52	733.56
267.752	746.56
267.984	765.56
268.216	785.56
268.448	778.56
268.681	752.56
268.913	731.56
269.145	664.56
269.377	690.56
269.609	744.56
269.841	845.56
270.073	956.56
270.306	1046.56
270.538	1093.56
270.77	906.56
271.002	804.56
271.234	790.56
271.466	786.56
271.698	861.56
271.93	1013.56
272.162	1044.56
272.394	909.56
272.626	850.56
272.858	774.56
273.09	712.56
273.322	688.56
273.553	668.56
273.785	667.56
274.017	685.56
274.249	738.56
274.481	729.56
274.713	688.56
274.945	685.56
275.176	669.56
275.408	656.56
275.64	650.56
275.872	676.56
276.104	731.56
276.335	825.56
276.567	888.56
276.799	861.56
277.031	786.56
277.262	795.56
277.494	826.56
277.726	860.56
277.957	866.56
278.189	768.56
278.421	703.56
278.652	726.56
278.884	721.56
279.115	725.56
279.347	707.56
279.579	729.56
279.81	752.56
280.042	818.56
280.273	858.56
280.505	867.56
280.736	835.56
280.968	790.56
281.199	704.56
281.431	692.56
281.662	704.56
281.894	712.56
282.125	730.56
282.356	725.56
282.588	753.56
282.819	744.56
283.051	798.56
283.282	843.56
283.513	841.56
283.745	713.56
283.976	689.56
284.207	703.56
284.439	713.56
284.67	712.56
284.901	741.56
285.132	761.56
285.364	746.56
285.595	744.56
285.826	762.56
286.057	744.56
286.288	750.56
286.52	770.56
286.751	827.56
286.982	851.56
287.213	756.56
287.444	712.56
287.675	737.56
287.906	755.56
288.138	796.56
288.369	795.56
288.6	746.56
288.831	722.56
289.062	718.56
289.293	759.56
289.524	757.56
289.755	764.56
289.986	759.56
290.217	726.56
290.448	729.56
290.679	776.56
290.91	798.56
291.141	802.56
291.371	817.56
291.602	802.56
291.833	788.56
292.064	808.56
292.295	829.56
292.526	843.56
292.757	833.56
292.987	799.56
293.218	783.56
293.449	849.56
293.68	913.56
293.91	968.56
294.141	918.56
294.372	903.56
294.603	913.56
294.833	990.56
295.064	914.56
295.295	825.56
295.525	755.56
295.756	739.56
295.987	689.56
296.217	732.56
296.448	718.56
296.679	756.56
296.909	783.56
297.14	745.56
297.37	767.56
297.601	832.56
297.831	877.56
298.062	855.56
298.292	756.56
298.523	786.56
298.753	790.56
298.984	772.56
299.214	795.56
299.445	794.56
299.675	814.56
299.905	807.56
300.136	793.56
300.366	783.56
300.597	776.56
300.827	770.56
301.057	806.56
301.288	823.56
301.518	824.56
301.748	857.56
301.979	895.56
302.209	902.56
302.439	931.56
302.669	966.56
302.9	892.56
303.13	843.56
303.36	850.56
303.59	838.56
303.82	841.56
304.051	864.56
304.281	858.56
304.511	873.56
304.741	908.56
304.971	993.56
305.201	1058.56
305.431	928.56
305.661	783.56
305.891	748.56
306.121	773.56
306.352	768.56
306.582	840.56
306.812	864.56
307.042	916.56
307.272	938.56
307.502	965.56
307.731	1020.56
307.961	1032.56
308.191	987.56
308.421	857.56
308.651	809.56
308.881	819.56
309.111	793.56
309.341	800.56
309.571	812.56
309.8	807.56
310.03	803.56
310.26	808.56
310.49	810.56
310.72	843.56
310.949	849.56
311.179	898.56
311.409	856.56
311.639	832.56
311.868	851.56
312.098	854.56
312.328	820.56
312.557	842.56
312.787	851.56
313.017	851.56
313.246	852.56
313.476	850.56
313.706	878.56
313.935	866.56
314.165	867.56
314.394	922.56
314.624	948.56
314.853	1004.56
315.083	1047.56
315.312	1042.56
315.542	956.56
315.771	863.56
316.001	908.56
316.23	912.56
316.46	932.56
316.689	897.56
316.919	864.56
317.148	862.56
317.377	875.56
317.607	958.56
317.836	1036.56
318.065	1048.56
318.295	1010.56
318.524	992.56
318.753	926.56
318.983	934.56
319.212	895.56
319.441	908.56
319.67	882.56
319.9	948.56
320.129	981.56
320.358	1013.56
320.587	1011.56
320.816	1009.56
321.046	967.56
321.275	937.56
321.504	944.56
321.733	1041.56
321.962	1002.56
322.191	926.56
322.42	915.56
322.649	906.56
322.878	931.56
323.108	919.56
323.337	964.56
323.566	928.56
323.795	922.56
324.024	942.56
324.253	904.56
324.482	912.56
324.71	870.56
324.939	858.56
325.168	882.56
325.397	916.56
325.626	923.56
325.855	922.56
326.084	886.56
326.313	902.56
326.542	917.56
326.77	950.56
326.999	968.56
327.228	914.56
327.457	883.56
327.686	880.56
327.914	915.56
328.143	925.56
328.372	891.56
328.6	916.56
328.829	902.56
329.058	898.56
329.287	883.56
329.515	908.56
329.744	949.56
329.972	987.56
330.201	1028.56
330.43	997.56
330.658	962.56
330.887	965.56
331.115	962.56
331.344	973.56
331.572	949.56
331.801	960.56
332.03	932.56
332.258	967.56
332.486	990.56
332.715	998.56
332.943	990.56
333.172	969.56
333.4	981.56
333.629	1017.56
333.857	1116.56
334.085	1209.56
334.314	1355.56
334.542	1407.56
334.771	1282.56
334.999	1158.56
335.227	1069.56
335.455	1036.56
335.684	1036.56
335.912	1086.56
336.14	1080.56
336.369	1032.56
336.597	966.56
336.825	973.56
337.053	1024.56
337.281	1056.56
337.51	1117.56
337.738	1140.56
337.966	1064.56
338.194	979.56
338.422	958.56
338.65	968.56
338.878	935.56
339.106	935.56
339.334	907.56
339.562	920.56
339.79	945.56
340.018	996.56
340.246	1057.56
340.474	1074.56
340.702	1009.56
340.93	990.56
341.158	991.56
341.386	987.56
341.614	967.56
341.842	953.56
342.07	974.56
342.298	1014.56
342.526	1003.56
342.754	964.56
342.981	947.56
343.209	949.56
343.437	972.56
343.665	983.56
343.893	1008.56
344.12	1033.56
344.348	1048.56
344.576	982.56
344.804	958.56
345.031	944.56
345.259	962.56
345.487	936.56
345.714	893.56
345.942	890.56
346.17	918.56
346.397	935.56
346.625	924.56
346.853	874.56
347.08	867.56
347.308	890.56
347.535	928.56
347.763	950.56
347.99	913.56
348.218	866.56
348.445	924.56
348.673	912.56
348.9	972.56
349.128	980.56
349.355	952.56
349.583	950.56
349.81	916.56
350.037	881.56
350.265	896.56
350.492	888.56
350.72	915.56
350.947	947.56
351.174	924.56
351.402	876.56
351.629	888.56
351.856	832.56
352.083	837.56
352.311	872.56
352.538	880.56
352.765	944.56
352.992	929.56
353.22	890.56
353.447	878.56
353.674	902.56
353.901	924.56
354.128	860.56
354.355	886.56
354.583	949.56
354.81	948.56
355.037	953.56
355.264	954.56
355.491	922.56
355.718	916.56
355.945	898.56
356.172	865.56
356.399	862.56
356.626	894.56
356.853	924.56
357.08	990.56
357.307	1079.56
357.534	1039.56
357.761	905.56
357.988	868.56
358.215	849.56
358.441	866.56
358.668	886.56
358.895	902.56
359.122	972.56
359.349	1013.56
359.576	972.56
359.802	898.56
360.029	878.56
360.256	881.56
360.483	885.56
360.709	941.56
360.936	960.56
361.163	968.56
361.39	1097.56
361.616	1122.56
361.843	1097.56
362.07	1028.56
362.296	918.56
362.523	889.56
362.749	906.56
362.976	920.56
363.203	921.56
363.429	902.56
363.656	876.56
363.882	929.56
364.109	1042.56
364.335	1076.56
364.562	1008.56
364.788	967.56
365.015	925.56
365.241	893.56
365.468	910.56
365.694	941.56
365.92	968.56
366.147	944.56
366.373	878.56
366.599	914.56
366.826	888.56
367.052	918.56
367.278	912.56
367.505	906.56
367.731	941.56
367.957	960.56
368.184	972.56
368.41	1034.56
368.636	1036.56
368.862	1049.56
369.089	1048.56
369.315	998.56
369.541	958.56
369.767	941.56
369.993	897.56
370.219	920.56
370.445	1005.56
370.672	1007.56
370.898	1057.56
371.124	1047.56
371.35	993.56
371.576	990.56
371.802	1000.56
372.028	997.56
372.254	948.56
372.48	946.56
372.706	933.56
372.932	921.56
373.158	942.56
373.384	962.56
373.61	989.56
373.835	1003.56
374.061	979.56
374.287	952.56
374.513	994.56
374.739	985.56
374.965	992.56
375.191	999.56
375.416	1040.56
375.642	1012.56
375.868	1084.56
376.094	1117.56
376.319	1025.56
376.545	985.56
376.771	1026.56
376.997	1077.56
377.222	1037.56
377.448	996.56
377.674	1042.56
377.899	1034.56
378.125	1098.56
378.35	1043.56
378.576	972.56
378.802	948.56
379.027	918.56
379.253	974.56
379.478	934.56
379.704	967.56
379.929	975.56
380.155	999.56
380.38	986.56
380.606	977.56
380.831	997.56
381.057	1048.56
381.282	1052.56
381.507	1030.56
381.733	1099.56
381.958	1131.56
382.184	1030.56
382.409	988.56
382.634	1030.56
382.86	1013.56
383.085	1005.56
383.31	1034.56
383.535	1159.56
383.761	1220.56
383.986	1153.56
384.211	1097.56
384.436	1081.56
384.662	1151.56
384.887	1143.56
385.112	1098.56
385.337	1114.56
385.562	1092.56
385.787	1130.56
386.013	1149.56
386.238	1147.56
386.463	1146.56
386.688	1240.56
386.913	1304.56
387.138	1219.56
387.363	1172.56
387.588	1137.56
387.813	1137.56
388.038	1160.56
388.263	1202.56
388.488	1162.56
388.713	1066.56
388.938	1057.56
389.163	1082.56
389.387	1091.56
389.612	1102.56
389.837	1122.56
390.062	1103.56
390.287	1136.56
390.512	1076.56
390.736	1099.56
390.961	1065.56
391.186	1055.56
391.411	1086.56
391.636	1101.56
391.86	1130.56
392.085	1146.56
392.31	1124.56
392.534	1105.56
392.759	1130.56
392.984	1125.56
393.208	1138.56
393.433	1186.56
393.658	1189.56
393.882	1197.56
394.107	1124.56
394.331	1128.56
394.556	1114.56
394.78	1145.56
395.005	1141.56
395.229	1237.56
395.454	1302.56
395.678	1241.56
395.903	1188.56
396.127	1173.56
396.352	1216.56
396.576	1215.56
396.801	1257.56
397.025	1243.56
397.249	1211.56
397.474	1216.56
397.698	1170.56
397.922	1226.56
398.147	1282.56
398.371	1353.56
398.595	1326.56
398.82	1250.56
399.044	1300.56
399.268	1349.56
399.492	1436.56
399.717	1482.56
399.941	1466.56
400.165	1449.56
400.389	1455.56
400.613	1418.56
400.837	1615.56
401.062	1744.56
401.286	1470.56
401.51	1420.56
401.734	1442.56
401.958	1377.56
402.182	1314.56
402.406	1290.56
402.63	1253.56
402.854	1273.56
403.078	1308.56
403.302	1316.56
403.526	1331.56
403.75	1363.56
403.974	1302.56
404.198	1338.56
404.422	1382.56
404.645	1452.56
404.869	1395.56
405.093	1308.56
405.317	1305.56
405.541	1330.56
405.765	1338.56
405.988	1349.56
406.212	1338.56
406.436	1389.56
406.66	1419.56
406.883	1474.56
407.107	1658.56
407.331	1767.56
407.555	1856.56
407.778	1627.56
408.002	1410.56
408.226	1410.56
408.449	1416.56
408.673	1342.56
408.896	1397.56
409.12	1382.56
409.344	1344.56
409.567	1347.56
409.791	1347.56
410.014	1384.56
410.238	1469.56
410.461	1506.56
410.685	1356.56
410.908	1328.56
411.132	1333.56
411.355	1316.56
411.578	1314.56
411.802	1322.56
412.025	1345.56
412.249	1314.56
412.472	1258.56
412.695	1312.56
412.919	1289.56
413.142	1276.56
413.365	1329.56
413.589	1364.56
413.812	1404.56
414.035	1423.56
414.258	1322.56
414.482	1307.56
414.705	1305.56
414.928	1246.56
415.151	1261.56
415.374	1297.56
415.597	1299.56
415.821	1307.56
416.044	1326.56
416.267	1337.56
416.49	1217.56
416.713	1248.56
416.936	1272.56
417.159	1354.56
417.382	1368.56
417.605	1270.56
417.828	1346.56
418.051	1321.56
418.274	1316.56
418.497	1252.56
418.72	1284.56
418.943	1248.56
419.166	1292.56
419.389	1354.56
419.611	1319.56
419.834	1284.56
420.057	1292.56
420.28	1261.56
420.503	1267.56
420.726	1282.56
420.948	1295.56
421.171	1257.56
421.394	1260.56
421.617	1288.56
421.839	1292.56
422.062	1294.56
422.285	1302.56
422.507	1273.56
422.73	1216.56
422.953	1215.56
423.175	1217.56
423.398	1229.56
423.621	1235.56
423.843	1298.56
424.066	1341.56
424.288	1350.56
424.511	1413.56
424.733	1366.56
424.956	1221.56
425.178	1233.56
425.401	1226.56
425.623	1271.56
425.846	1249.56
426.068	1296.56
426.291	1320.56
426.513	1290.56
426.735	1330.56
426.958	1397.56
427.18	1488.56
427.402	1383.56
427.625	1398.56
427.847	1352.56
428.069	1218.56
428.292	1237.56
428.514	1208.56
428.736	1233.56
428.958	1238.56
429.181	1291.56
429.403	1416.56
429.625	1701.56
429.847	1466.56
430.069	1261.56
430.292	1410.56
430.514	1401.56
430.736	1306.56
430.958	1356.56
431.18	1263.56
431.402	1240.56
431.624	1169.56
431.846	1169.56
432.068	1121.56
432.29	1114.56
432.512	1168.56
432.734	1217.56
432.956	1283.56
433.178	1334.56
433.4	1323.56
433.622	1270.56
433.844	1241.56
434.066	1187.56
434.287	1158.56
434.509	1203.56
434.731	1250.56
434.953	1354.56
435.175	1303.56
435.397	1261.56
435.618	1232.56
435.84	1210.56
436.062	1220.56
436.284	1224.56
436.505	1259.56
436.727	1304.56
436.949	1273.56
437.17	1210.56
437.392	1218.56
437.614	1184.56
437.835	1152.56
438.057	1222.56
438.278	1238.56
438.5	1187.56
438.721	1178.56
438.943	1212.56
439.165	1193.56
439.386	1210.56
439.608	1242.56
439.829	1222.56
440.05	1261.56
440.272	1251.56
440.493	1218.56
440.715	1273.56
440.936	1356.56
441.158	1398.56
441.379	1372.56
441.6	1375.56
441.822	1330.56
442.043	1320.56
442.264	1309.56
442.486	1230.56
442.707	1249.56
442.928	1236.56
443.149	1261.56
443.371	1312.56
443.592	1355.56
443.813	1357.56
444.034	1335.56
444.255	1329.56
444.476	1366.56
444.698	1367.56
444.919	1392.56
445.14	1462.56
445.361	1440.56
445.582	1402.56
445.803	1397.56
446.024	1360.56
446.245	1412.56
446.466	1363.56
446.687	1330.56
446.908	1328.56
447.129	1308.56
447.35	1305.56
447.571	1267.56
447.792	1250.56
448.013	1232.56
448.234	1230.56
448.455	1310.56
448.675	1261.56
448.896	1186.56
449.117	1182.56
449.338	1189.56
449.559	1261.56
449.779	1302.56
450	1388.56
450.221	1446.56
450.442	1382.56
450.662	1267.56
450.883	1148.56
451.104	1145.56
451.324	1170.56
451.545	1208.56
451.766	1171.56
451.986	1121.56
452.207	1114.56
452.428	1094.56
452.648	1067.56
452.869	1087.56
453.089	1123.56
453.31	1118.56
453.53	1137.56
453.751	1080.56
453.971	1011.56
454.192	1090.56
454.412	1129.56
454.633	1142.56
454.853	1131.56
455.073	1029.56
455.294	1053.56
455.514	1064.56
455.734	1056.56
455.955	1045.56
456.175	1070.56
456.395	1056.56
456.616	1069.56
456.836	1068.56
457.056	1092.56
457.276	1052.56
457.497	1038.56
457.717	1022.56
457.937	1014.56
458.157	1052.56
458.377	1000.56
458.598	1008.56
458.818	999.56
459.038	1070.56
459.258	1148.56
459.478	1132.56
459.698	1100.56
459.918	1134.56
460.138	1210.56
460.358	1205.56
460.578	1212.56
460.798	1282.56
461.018	1330.56
461.238	1260.56
461.458	1227.56
461.678	1258.56
461.898	1226.56
462.118	1174.56
462.338	1195.56
462.558	1237.56
462.777	1267.56
462.997	1296.56
463.217	1336.56
463.437	1318.56
463.657	1249.56
463.876	1245.56
464.096	1200.56
464.316	1235.56
464.536	1302.56
464.755	1257.56
464.975	1245.56
465.195	1281.56
465.414	1328.56
465.634	1288.56
465.854	1260.56
466.073	1381.56
466.293	1316.56
466.512	1198.56
466.732	1195.56
466.951	1215.56
467.171	1213.56
467.391	1184.56
467.61	1176.56
467.829	1201.56
468.049	1312.56
468.268	1422.56
468.488	1306.56
468.707	1223.56
468.927	1219.56
469.146	1194.56
469.365	1219.56
469.585	1230.56
469.804	1197.56
470.023	1202.56
470.243	1236.56
470.462	1238.56
470.681	1183.56
470.901	1201.56
471.12	1234.56
471.339	1222.56
471.558	1170.56
471.777	1157.56
471.997	1210.56
472.216	1150.56
472.435	1120.56
472.654	1142.56
472.873	1142.56
473.092	1207.56
473.311	1184.56
473.53	1137.56
473.749	1129.56
473.968	1176.56
474.187	1181.56
474.406	1221.56
474.625	1196.56
474.844	1204.56
475.063	1174.56
475.282	1186.56
475.501	1164.56
475.72	1171.56
475.939	1301.56
476.158	1229.56
476.377	1213.56
476.596	1179.56
476.814	1190.56
477.033	1205.56
477.252	1253.56
477.471	1281.56
477.69	1265.56
477.908	1259.56
478.127	1331.56
478.346	1390.56
478.564	1398.56
478.783	1378.56
479.002	1406.56
479.22	1386.56
479.439	1446.56
479.658	1590.56
479.876	1466.56
480.095	1353.56
480.313	1321.56
480.532	1289.56
480.751	1283.56
480.969	1313.56
481.188	1254.56
481.406	1214.56
481.624	1191.56
481.843	1210.56
482.061	1256.56
482.28	1303.56
482.498	1318.56
482.717	1301.56
482.935	1262.56
483.153	1340.56
483.372	1371.56
483.59	1353.56
483.808	1351.56
484.027	1323.56
484.245	1410.56
484.463	1686.56
484.681	1832.56
484.9	1448.56
485.118	1325.56
485.336	1325.56
485.554	1361.56
485.772	1387.56
485.99	1383.56
486.209	1388.56
486.427	1378.56
486.645	1368.56
486.863	1423.56
487.081	1437.56
487.299	1449.56
487.517	1409.56
487.735	1445.56
487.953	1464.56
488.171	1514.56
488.389	1450.56
488.607	1440.56
488.825	1560.56
489.043	1497.56
489.261	1397.56
489.479	1475.56
489.696	1468.56
489.914	1420.56
490.132	1404.56
490.35	1402.56
490.568	1496.56
490.786	1466.56
491.003	1492.56
491.221	1513.56
491.439	1561.56
491.657	1548.56
491.874	1618.56
492.092	1657.56
492.31	1696.56
492.527	1641.56
492.745	1580.56
492.963	1548.56
493.18	1577.56
493.398	1683.56
493.615	1678.56
493.833	1558.56
494.05	1541.56
