Data from WStandard_LampEnergy8_LIBS07252019.E.O._I.C._HRD10591_16-00-50-930.txt Node
Date: Thu Jul 25 16:00:50 EDT 2019
User: cochatt
Spectrometer: HR+D1059
Trigger mode: 1
Integration Time (sec): 1.000000E-1
Scans to average: 1
Electric dark correction enabled: true
Nonlinearity correction enabled: false
Boxcar width: 0
XAxis mode: Wavelengths
Number of Pixels in Spectrum: 2048
>>>>>Begin Spectral Data<<<<<
223.165	-21.69
223.4	-21.69
223.635	-21.69
223.869	-12.69
224.104	-17.69
224.338	-4.69
224.573	-16.69
224.808	-18.69
225.042	1.31
225.277	1.31
225.511	-15.69
225.746	5.31
225.98	-3.69
226.215	9.31
226.449	10.31
226.683	26.31
226.918	26.31
227.152	31.31
227.387	36.31
227.621	46.31
227.856	47.31
228.09	56.31
228.324	54.31
228.559	55.31
228.793	106.31
229.027	184.31
229.262	206.31
229.496	239.31
229.73	220.31
229.964	249.31
230.199	240.31
230.433	247.31
230.667	263.31
230.901	279.31
231.136	278.31
231.37	248.31
231.604	259.31
231.838	272.31
232.072	253.31
232.306	249.31
232.541	282.31
232.775	300.31
233.009	316.31
233.243	308.31
233.477	271.31
233.711	297.31
233.945	304.31
234.179	293.31
234.413	314.31
234.647	310.31
234.881	299.31
235.115	288.31
235.349	295.31
235.583	301.31
235.817	301.31
236.051	289.31
236.285	311.31
236.519	303.31
236.753	340.31
236.987	351.31
237.221	358.31
237.455	366.31
237.689	357.31
237.922	357.31
238.156	335.31
238.39	356.31
238.624	357.31
238.858	365.31
239.091	379.31
239.325	404.31
239.559	462.31
239.793	500.31
240.027	507.31
240.26	492.31
240.494	382.31
240.728	357.31
240.961	364.31
241.195	364.31
241.429	387.31
241.662	407.31
241.896	380.31
242.13	398.31
242.363	439.31
242.597	450.31
242.83	438.31
243.064	451.31
243.298	459.31
243.531	461.31
243.765	438.31
243.998	455.31
244.232	408.31
244.465	394.31
244.699	404.31
244.932	451.31
245.166	499.31
245.399	472.31
245.633	457.31
245.866	448.31
246.099	467.31
246.333	463.31
246.566	478.31
246.8	523.31
247.033	562.31
247.266	537.31
247.5	516.31
247.733	514.31
247.966	569.31
248.2	594.31
248.433	575.31
248.666	614.31
248.899	630.31
249.133	716.31
249.366	782.31
249.599	646.31
249.832	600.31
250.066	602.31
250.299	632.31
250.532	594.31
250.765	558.31
250.998	542.31
251.231	586.31
251.465	581.31
251.698	562.31
251.931	563.31
252.164	573.31
252.397	582.31
252.63	595.31
252.863	528.31
253.096	528.31
253.329	529.31
253.562	555.31
253.795	603.31
254.028	606.31
254.261	567.31
254.494	544.31
254.727	572.31
254.96	583.31
255.193	609.31
255.426	653.31
255.659	779.31
255.892	763.31
256.124	663.31
256.357	622.31
256.59	664.31
256.823	683.31
257.056	711.31
257.289	824.31
257.521	863.31
257.754	767.31
257.987	744.31
258.22	804.31
258.452	783.31
258.685	647.31
258.918	628.31
259.151	631.31
259.383	634.31
259.616	572.31
259.849	600.31
260.081	652.31
260.314	763.31
260.547	777.31
260.779	825.31
261.012	715.31
261.244	674.31
261.477	669.31
261.71	670.31
261.942	676.31
262.175	659.31
262.407	677.31
262.64	634.31
262.872	620.31
263.105	593.31
263.337	624.31
263.57	612.31
263.802	617.31
264.035	566.31
264.267	539.31
264.499	552.31
264.732	603.31
264.964	643.31
265.197	661.31
265.429	703.31
265.661	770.31
265.894	824.31
266.126	826.31
266.358	776.31
266.591	790.31
266.823	832.31
267.055	793.31
267.287	749.31
267.52	770.31
267.752	714.31
267.984	760.31
268.216	795.31
268.448	791.31
268.681	763.31
268.913	699.31
269.145	694.31
269.377	679.31
269.609	740.31
269.841	879.31
270.073	967.31
270.306	1064.31
270.538	1057.31
270.77	918.31
271.002	811.31
271.234	794.31
271.466	795.31
271.698	912.31
271.93	1001.31
272.162	1018.31
272.394	928.31
272.626	887.31
272.858	772.31
273.09	703.31
273.322	669.31
273.553	655.31
273.785	684.31
274.017	703.31
274.249	732.31
274.481	720.31
274.713	685.31
274.945	665.31
275.176	678.31
275.408	671.31
275.64	679.31
275.872	666.31
276.104	745.31
276.335	815.31
276.567	906.31
276.799	885.31
277.031	811.31
277.262	796.31
277.494	810.31
277.726	912.31
277.957	853.31
278.189	799.31
278.421	755.31
278.652	729.31
278.884	727.31
279.115	730.31
279.347	750.31
279.579	741.31
279.81	727.31
280.042	794.31
280.273	856.31
280.505	865.31
280.736	867.31
280.968	790.31
281.199	717.31
281.431	683.31
281.662	697.31
281.894	701.31
282.125	744.31
282.356	777.31
282.588	758.31
282.819	740.31
283.051	824.31
283.282	890.31
283.513	823.31
283.745	720.31
283.976	712.31
284.207	730.31
284.439	734.31
284.67	732.31
284.901	779.31
285.132	770.31
285.364	752.31
285.595	763.31
285.826	775.31
286.057	758.31
286.288	743.31
286.52	790.31
286.751	814.31
286.982	855.31
287.213	770.31
287.444	708.31
287.675	714.31
287.906	781.31
288.138	817.31
288.369	820.31
288.6	774.31
288.831	718.31
289.062	727.31
289.293	738.31
289.524	727.31
289.755	768.31
289.986	768.31
290.217	726.31
290.448	732.31
290.679	765.31
290.91	745.31
291.141	775.31
291.371	803.31
291.602	812.31
291.833	797.31
292.064	810.31
292.295	823.31
292.526	832.31
292.757	830.31
292.987	834.31
293.218	803.31
293.449	865.31
293.68	952.31
293.91	999.31
294.141	924.31
294.372	904.31
294.603	922.31
294.833	960.31
295.064	901.31
295.295	798.31
295.525	820.31
295.756	740.31
295.987	704.31
296.217	718.31
296.448	786.31
296.679	763.31
296.909	780.31
297.14	778.31
297.37	774.31
297.601	824.31
297.831	859.31
298.062	848.31
298.292	794.31
298.523	764.31
298.753	781.31
298.984	796.31
299.214	801.31
299.445	790.31
299.675	830.31
299.905	821.31
300.136	800.31
300.366	773.31
300.597	760.31
300.827	775.31
301.057	798.31
301.288	843.31
301.518	828.31
301.748	866.31
301.979	885.31
302.209	928.31
302.439	977.31
302.669	1000.31
302.9	922.31
303.13	856.31
303.36	843.31
303.59	858.31
303.82	832.31
304.051	848.31
304.281	851.31
304.511	872.31
304.741	902.31
304.971	1002.31
305.201	1065.31
305.431	959.31
305.661	816.31
305.891	748.31
306.121	754.31
306.352	763.31
306.582	837.31
306.812	872.31
307.042	919.31
307.272	937.31
307.502	973.31
307.731	1012.31
307.961	1050.31
308.191	983.31
308.421	866.31
308.651	841.31
308.881	818.31
309.111	837.31
309.341	792.31
309.571	805.31
309.8	827.31
310.03	800.31
310.26	814.31
310.49	806.31
310.72	834.31
310.949	856.31
311.179	852.31
311.409	848.31
311.639	813.31
311.868	800.31
312.098	822.31
312.328	832.31
312.557	820.31
312.787	846.31
313.017	838.31
313.246	863.31
313.476	857.31
313.706	889.31
313.935	845.31
314.165	906.31
314.394	902.31
314.624	958.31
314.853	1024.31
315.083	1040.31
315.312	1047.31
315.542	952.31
315.771	894.31
316.001	900.31
316.23	927.31
316.46	910.31
316.689	906.31
316.919	861.31
317.148	858.31
317.377	862.31
317.607	935.31
317.836	1038.31
318.065	1076.31
318.295	998.31
318.524	965.31
318.753	932.31
318.983	921.31
319.212	886.31
319.441	905.31
319.67	880.31
319.9	913.31
320.129	969.31
320.358	1015.31
320.587	1041.31
320.816	1018.31
321.046	983.31
321.275	966.31
321.504	982.31
321.733	1036.31
321.962	1002.31
322.191	905.31
322.42	915.31
322.649	912.31
322.878	924.31
323.108	901.31
323.337	953.31
323.566	924.31
323.795	954.31
324.024	925.31
324.253	894.31
324.482	908.31
324.71	874.31
324.939	848.31
325.168	880.31
325.397	923.31
325.626	956.31
325.855	906.31
326.084	932.31
326.313	894.31
326.542	936.31
326.77	963.31
326.999	934.31
327.228	888.31
327.457	867.31
327.686	854.31
327.914	891.31
328.143	962.31
328.372	938.31
328.6	922.31
328.829	898.31
329.058	916.31
329.287	911.31
329.515	940.31
329.744	942.31
329.972	1000.31
330.201	1035.31
330.43	1016.31
330.658	960.31
330.887	981.31
331.115	999.31
331.344	1003.31
331.572	933.31
331.801	957.31
332.03	963.31
332.258	932.31
332.486	996.31
332.715	1011.31
332.943	971.31
333.172	982.31
333.4	1024.31
333.629	1014.31
333.857	1079.31
334.085	1212.31
334.314	1361.31
334.542	1423.31
334.771	1272.31
334.999	1123.31
335.227	1048.31
335.455	1043.31
335.684	1039.31
335.912	1043.31
336.14	1079.31
336.369	1048.31
336.597	1002.31
336.825	968.31
337.053	1026.31
337.281	1063.31
337.51	1144.31
337.738	1130.31
337.966	1077.31
338.194	1001.31
338.422	964.31
338.65	970.31
338.878	978.31
339.106	931.31
339.334	907.31
339.562	908.31
339.79	956.31
340.018	1025.31
340.246	1048.31
340.474	1030.31
340.702	973.31
340.93	1021.31
341.158	983.31
341.386	971.31
341.614	994.31
341.842	956.31
342.07	957.31
342.298	1013.31
342.526	1002.31
342.754	941.31
342.981	942.31
343.209	967.31
343.437	954.31
343.665	948.31
343.893	995.31
344.12	1041.31
344.348	1028.31
344.576	999.31
344.804	980.31
345.031	942.31
345.259	946.31
345.487	934.31
345.714	920.31
345.942	888.31
346.17	900.31
346.397	935.31
346.625	919.31
346.853	886.31
347.08	889.31
347.308	894.31
347.535	916.31
347.763	955.31
347.99	899.31
348.218	878.31
348.445	888.31
348.673	925.31
348.9	943.31
349.128	976.31
349.355	991.31
349.583	919.31
349.81	915.31
350.037	845.31
350.265	846.31
350.492	853.31
350.72	897.31
350.947	906.31
351.174	923.31
351.402	884.31
351.629	833.31
351.856	839.31
352.083	861.31
352.311	852.31
352.538	873.31
352.765	921.31
352.992	918.31
353.22	880.31
353.447	877.31
353.674	893.31
353.901	913.31
354.128	867.31
354.355	880.31
354.583	922.31
354.81	957.31
355.037	922.31
355.264	922.31
355.491	921.31
355.718	906.31
355.945	935.31
356.172	889.31
356.399	890.31
356.626	876.31
356.853	912.31
357.08	1003.31
357.307	1095.31
357.534	1055.31
357.761	911.31
357.988	878.31
358.215	882.31
358.441	859.31
358.668	839.31
358.895	899.31
359.122	930.31
359.349	1033.31
359.576	976.31
359.802	891.31
360.029	884.31
360.256	882.31
360.483	928.31
360.709	906.31
360.936	954.31
361.163	1021.31
361.39	1101.31
361.616	1155.31
361.843	1125.31
362.07	1063.31
362.296	919.31
362.523	882.31
362.749	907.31
362.976	932.31
363.203	965.31
363.429	877.31
363.656	886.31
363.882	962.31
364.109	1034.31
364.335	1083.31
364.562	1011.31
364.788	954.31
365.015	908.31
365.241	892.31
365.468	950.31
365.694	978.31
365.92	972.31
366.147	904.31
366.373	904.31
366.599	896.31
366.826	894.31
367.052	901.31
367.278	912.31
367.505	913.31
367.731	952.31
367.957	943.31
368.184	975.31
368.41	1040.31
368.636	1054.31
368.862	1047.31
369.089	1047.31
369.315	989.31
369.541	952.31
369.767	946.31
369.993	940.31
370.219	906.31
370.445	939.31
370.672	1012.31
370.898	1049.31
371.124	1016.31
371.35	1003.31
371.576	1019.31
371.802	1030.31
372.028	986.31
372.254	966.31
372.48	936.31
372.706	936.31
372.932	947.31
373.158	933.31
373.384	975.31
373.61	971.31
373.835	1021.31
374.061	1006.31
374.287	928.31
374.513	989.31
374.739	975.31
374.965	987.31
375.191	1024.31
375.416	986.31
375.642	1013.31
375.868	1093.31
376.094	1088.31
376.319	1069.31
376.545	977.31
376.771	980.31
376.997	1058.31
377.222	1032.31
377.448	1031.31
377.674	1047.31
377.899	1039.31
378.125	1084.31
378.35	1075.31
378.576	958.31
378.802	963.31
379.027	944.31
379.253	959.31
379.478	981.31
379.704	975.31
379.929	974.31
380.155	970.31
380.38	1001.31
380.606	998.31
380.831	993.31
381.057	1068.31
381.282	1044.31
381.507	1053.31
381.733	1090.31
381.958	1108.31
382.184	1052.31
382.409	1034.31
382.634	1026.31
382.86	1016.31
383.085	1046.31
383.31	1068.31
383.535	1152.31
383.761	1195.31
383.986	1154.31
384.211	1094.31
384.436	1069.31
384.662	1128.31
384.887	1142.31
385.112	1100.31
385.337	1135.31
385.562	1131.31
385.787	1106.31
386.013	1111.31
386.238	1119.31
386.463	1165.31
386.688	1202.31
386.913	1292.31
387.138	1220.31
387.363	1145.31
387.588	1117.31
387.813	1154.31
388.038	1193.31
388.263	1210.31
388.488	1125.31
388.713	1084.31
388.938	1082.31
389.163	1068.31
389.387	1119.31
389.612	1111.31
389.837	1142.31
390.062	1114.31
390.287	1120.31
390.512	1088.31
390.736	1062.31
390.961	1081.31
391.186	1079.31
391.411	1082.31
391.636	1110.31
391.86	1095.31
392.085	1119.31
392.31	1092.31
392.534	1111.31
392.759	1140.31
392.984	1129.31
393.208	1143.31
393.433	1125.31
393.658	1222.31
393.882	1214.31
394.107	1153.31
394.331	1112.31
394.556	1155.31
394.78	1143.31
395.005	1144.31
395.229	1216.31
395.454	1337.31
395.678	1284.31
395.903	1226.31
396.127	1214.31
396.352	1190.31
396.576	1196.31
396.801	1229.31
397.025	1218.31
397.249	1223.31
397.474	1198.31
397.698	1206.31
397.922	1246.31
398.147	1325.31
398.371	1328.31
398.595	1320.31
398.82	1278.31
399.044	1309.31
399.268	1352.31
399.492	1418.31
399.717	1431.31
399.941	1470.31
400.165	1414.31
400.389	1424.31
400.613	1442.31
400.837	1623.31
401.062	1782.31
401.286	1502.31
401.51	1457.31
401.734	1470.31
401.958	1360.31
402.182	1307.31
402.406	1270.31
402.63	1238.31
402.854	1250.31
403.078	1276.31
403.302	1340.31
403.526	1333.31
403.75	1306.31
403.974	1370.31
404.198	1358.31
404.422	1392.31
404.645	1449.31
404.869	1400.31
405.093	1299.31
405.317	1273.31
405.541	1329.31
405.765	1321.31
405.988	1346.31
406.212	1370.31
406.436	1384.31
406.66	1427.31
406.883	1437.31
407.107	1666.31
407.331	1799.31
407.555	1883.31
407.778	1672.31
408.002	1442.31
408.226	1392.31
408.449	1422.31
408.673	1374.31
408.896	1364.31
409.12	1355.31
409.344	1339.31
409.567	1312.31
409.791	1354.31
410.014	1382.31
410.238	1441.31
410.461	1487.31
410.685	1344.31
410.908	1298.31
411.132	1348.31
411.355	1335.31
411.578	1333.31
411.802	1338.31
412.025	1319.31
412.249	1342.31
412.472	1305.31
412.695	1289.31
412.919	1277.31
413.142	1248.31
413.365	1271.31
413.589	1335.31
413.812	1419.31
414.035	1422.31
414.258	1295.31
414.482	1296.31
414.705	1317.31
414.928	1269.31
415.151	1285.31
415.374	1262.31
415.597	1330.31
415.821	1304.31
416.044	1336.31
416.267	1319.31
416.49	1262.31
416.713	1266.31
416.936	1288.31
417.159	1378.31
417.382	1363.31
417.605	1271.31
417.828	1299.31
418.051	1271.31
418.274	1282.31
418.497	1272.31
418.72	1254.31
418.943	1235.31
419.166	1296.31
419.389	1330.31
419.611	1257.31
419.834	1272.31
420.057	1282.31
420.28	1228.31
420.503	1241.31
420.726	1315.31
420.948	1278.31
421.171	1259.31
421.394	1286.31
421.617	1335.31
421.839	1317.31
422.062	1286.31
422.285	1276.31
422.507	1268.31
422.73	1246.31
422.953	1184.31
423.175	1218.31
423.398	1243.31
423.621	1203.31
423.843	1260.31
424.066	1337.31
424.288	1371.31
424.511	1396.31
424.733	1380.31
424.956	1216.31
425.178	1202.31
425.401	1205.31
425.623	1253.31
425.846	1248.31
426.068	1289.31
426.291	1308.31
426.513	1293.31
426.735	1292.31
426.958	1408.31
427.18	1456.31
427.402	1354.31
427.625	1410.31
427.847	1344.31
428.069	1268.31
428.292	1221.31
428.514	1228.31
428.736	1184.31
428.958	1200.31
429.181	1245.31
429.403	1418.31
429.625	1742.31
429.847	1440.31
430.069	1294.31
430.292	1429.31
430.514	1395.31
430.736	1327.31
430.958	1357.31
431.18	1270.31
431.402	1222.31
431.624	1196.31
431.846	1181.31
432.068	1089.31
432.29	1125.31
432.512	1188.31
432.734	1228.31
432.956	1238.31
433.178	1304.31
433.4	1312.31
433.622	1304.31
433.844	1236.31
434.066	1183.31
434.287	1169.31
434.509	1182.31
434.731	1261.31
434.953	1349.31
435.175	1335.31
435.397	1251.31
435.618	1270.31
435.84	1240.31
436.062	1207.31
436.284	1242.31
436.505	1272.31
436.727	1313.31
436.949	1236.31
437.17	1202.31
437.392	1223.31
437.614	1197.31
437.835	1161.31
438.057	1220.31
438.278	1260.31
438.5	1195.31
438.721	1171.31
438.943	1215.31
439.165	1223.31
439.386	1206.31
439.608	1246.31
439.829	1233.31
440.05	1257.31
440.272	1212.31
440.493	1229.31
440.715	1246.31
440.936	1323.31
441.158	1411.31
441.379	1356.31
441.6	1342.31
441.822	1349.31
442.043	1329.31
442.264	1268.31
442.486	1278.31
442.707	1275.31
442.928	1237.31
443.149	1280.31
443.371	1326.31
443.592	1372.31
443.813	1334.31
444.034	1361.31
444.255	1336.31
444.476	1371.31
444.698	1382.31
444.919	1348.31
445.14	1455.31
445.361	1418.31
445.582	1444.31
445.803	1365.31
446.024	1371.31
446.245	1402.31
446.466	1379.31
446.687	1337.31
446.908	1312.31
447.129	1289.31
447.35	1254.31
447.571	1300.31
447.792	1240.31
448.013	1215.31
448.234	1266.31
448.455	1278.31
448.675	1321.31
448.896	1182.31
449.117	1173.31
449.338	1247.31
449.559	1283.31
449.779	1309.31
450	1390.31
450.221	1423.31
450.442	1410.31
450.662	1278.31
450.883	1137.31
451.104	1158.31
451.324	1173.31
451.545	1196.31
451.766	1180.31
451.986	1131.31
452.207	1119.31
452.428	1076.31
452.648	1086.31
452.869	1123.31
453.089	1146.31
453.31	1133.31
453.53	1124.31
453.751	1104.31
453.971	1041.31
454.192	1053.31
454.412	1148.31
454.633	1083.31
454.853	1083.31
455.073	1051.31
455.294	1037.31
455.514	1088.31
455.734	1062.31
455.955	1095.31
456.175	1064.31
456.395	1064.31
456.616	1050.31
456.836	1078.31
457.056	1055.31
457.276	1048.31
457.497	1035.31
457.717	984.31
457.937	1034.31
458.157	1037.31
458.377	1028.31
458.598	1029.31
458.818	1018.31
459.038	1098.31
459.258	1119.31
459.478	1133.31
459.698	1116.31
459.918	1104.31
460.138	1202.31
460.358	1188.31
460.578	1252.31
460.798	1267.31
461.018	1301.31
461.238	1294.31
461.458	1236.31
461.678	1227.31
461.898	1218.31
462.118	1193.31
462.338	1232.31
462.558	1222.31
462.777	1238.31
462.997	1304.31
463.217	1342.31
463.437	1332.31
463.657	1261.31
463.876	1218.31
464.096	1246.31
464.316	1249.31
464.536	1288.31
464.755	1267.31
464.975	1273.31
465.195	1242.31
465.414	1270.31
465.634	1287.31
465.854	1284.31
466.073	1358.31
466.293	1313.31
466.512	1196.31
466.732	1199.31
466.951	1267.31
467.171	1244.31
467.391	1181.31
467.61	1195.31
467.829	1199.31
468.049	1295.31
468.268	1427.31
468.488	1310.31
468.707	1239.31
468.927	1195.31
469.146	1179.31
469.365	1189.31
469.585	1192.31
469.804	1220.31
470.023	1222.31
470.243	1210.31
470.462	1224.31
470.681	1190.31
470.901	1198.31
471.12	1212.31
471.339	1194.31
471.558	1207.31
471.777	1161.31
471.997	1178.31
472.216	1163.31
472.435	1088.31
472.654	1092.31
472.873	1194.31
473.092	1196.31
473.311	1189.31
473.53	1115.31
473.749	1144.31
473.968	1186.31
474.187	1218.31
474.406	1236.31
474.625	1195.31
474.844	1205.31
475.063	1184.31
475.282	1209.31
475.501	1198.31
475.72	1182.31
475.939	1233.31
476.158	1242.31
476.377	1217.31
476.596	1205.31
476.814	1179.31
477.033	1217.31
477.252	1268.31
477.471	1272.31
477.69	1261.31
477.908	1264.31
478.127	1302.31
478.346	1394.31
478.564	1404.31
478.783	1419.31
479.002	1371.31
479.22	1422.31
479.439	1460.31
479.658	1531.31
479.876	1509.31
480.095	1336.31
480.313	1326.31
480.532	1290.31
480.751	1295.31
480.969	1283.31
481.188	1268.31
481.406	1226.31
481.624	1232.31
481.843	1260.31
482.061	1262.31
482.28	1309.31
482.498	1291.31
482.717	1306.31
482.935	1260.31
483.153	1350.31
483.372	1369.31
483.59	1327.31
483.808	1330.31
484.027	1336.31
484.245	1441.31
484.463	1680.31
484.681	1854.31
484.9	1428.31
485.118	1382.31
485.336	1330.31
485.554	1360.31
485.772	1403.31
485.99	1368.31
486.209	1409.31
486.427	1399.31
486.645	1372.31
486.863	1397.31
487.081	1422.31
487.299	1442.31
487.517	1411.31
487.735	1454.31
487.953	1485.31
488.171	1451.31
488.389	1439.31
488.607	1478.31
488.825	1583.31
489.043	1517.31
489.261	1381.31
489.479	1434.31
489.696	1462.31
489.914	1468.31
490.132	1412.31
490.35	1462.31
490.568	1485.31
490.786	1490.31
491.003	1470.31
491.221	1487.31
491.439	1576.31
491.657	1575.31
491.874	1590.31
492.092	1596.31
492.31	1640.31
492.527	1653.31
492.745	1604.31
492.963	1549.31
493.18	1622.31
493.398	1690.31
493.615	1680.31
493.833	1554.31
