Data from WStandard_LampEnergy8_LIBS07252019.E.O._I.C._HRD10591_16-00-51-929.txt Node
Date: Thu Jul 25 16:00:51 EDT 2019
User: cochatt
Spectrometer: HR+D1059
Trigger mode: 1
Integration Time (sec): 1.000000E-1
Scans to average: 1
Electric dark correction enabled: true
Nonlinearity correction enabled: false
Boxcar width: 0
XAxis mode: Wavelengths
Number of Pixels in Spectrum: 2048
>>>>>Begin Spectral Data<<<<<
223.165	-27.5
223.4	-27.5
223.635	-27.5
223.869	-26.5
224.104	-22.5
224.338	-10.5
224.573	-13.5
224.808	-10.5
225.042	-5.5
225.277	-0.5
225.511	-18.5
225.746	-2.5
225.98	9.5
226.215	20.5
226.449	22.5
226.683	34.5
226.918	21.5
227.152	29.5
227.387	47.5
227.621	33.5
227.856	53.5
228.09	49.5
228.324	48.5
228.559	62.5
228.793	105.5
229.027	183.5
229.262	200.5
229.496	212.5
229.73	220.5
229.964	247.5
230.199	238.5
230.433	255.5
230.667	267.5
230.901	281.5
231.136	266.5
231.37	253.5
231.604	249.5
231.838	270.5
232.072	268.5
232.306	263.5
232.541	248.5
232.775	307.5
233.009	328.5
233.243	311.5
233.477	293.5
233.711	289.5
233.945	310.5
234.179	281.5
234.413	296.5
234.647	343.5
234.881	299.5
235.115	288.5
235.349	299.5
235.583	313.5
235.817	290.5
236.051	295.5
236.285	307.5
236.519	316.5
236.753	346.5
236.987	331.5
237.221	338.5
237.455	374.5
237.689	378.5
237.922	341.5
238.156	336.5
238.39	347.5
238.624	368.5
238.858	385.5
239.091	394.5
239.325	422.5
239.559	454.5
239.793	474.5
240.027	497.5
240.26	497.5
240.494	381.5
240.728	382.5
240.961	372.5
241.195	389.5
241.429	423.5
241.662	410.5
241.896	382.5
242.13	379.5
242.363	431.5
242.597	462.5
242.83	445.5
243.064	460.5
243.298	461.5
243.531	442.5
243.765	454.5
243.998	461.5
244.232	409.5
244.465	389.5
244.699	406.5
244.932	461.5
245.166	492.5
245.399	483.5
245.633	469.5
245.866	442.5
246.099	449.5
246.333	473.5
246.566	487.5
246.8	525.5
247.033	568.5
247.266	538.5
247.5	545.5
247.733	539.5
247.966	549.5
248.2	627.5
248.433	605.5
248.666	591.5
248.899	649.5
249.133	724.5
249.366	789.5
249.599	660.5
249.832	592.5
250.066	604.5
250.299	597.5
250.532	577.5
250.765	547.5
250.998	571.5
251.231	586.5
251.465	584.5
251.698	568.5
251.931	558.5
252.164	577.5
252.397	619.5
252.63	590.5
252.863	534.5
253.096	556.5
253.329	557.5
253.562	575.5
253.795	577.5
254.028	607.5
254.261	582.5
254.494	549.5
254.727	541.5
254.96	570.5
255.193	627.5
255.426	703.5
255.659	776.5
255.892	775.5
256.124	653.5
256.357	633.5
256.59	670.5
256.823	684.5
257.056	705.5
257.289	819.5
257.521	863.5
257.754	783.5
257.987	771.5
258.22	831.5
258.452	791.5
258.685	684.5
258.918	684.5
259.151	637.5
259.383	641.5
259.616	571.5
259.849	616.5
260.081	674.5
260.314	735.5
260.547	819.5
260.779	814.5
261.012	750.5
261.244	690.5
261.477	662.5
261.71	663.5
261.942	662.5
262.175	666.5
262.407	700.5
262.64	673.5
262.872	597.5
263.105	621.5
263.337	623.5
263.57	648.5
263.802	599.5
264.035	585.5
264.267	568.5
264.499	564.5
264.732	597.5
264.964	649.5
265.197	681.5
265.429	695.5
265.661	774.5
265.894	878.5
266.126	854.5
266.358	762.5
266.591	803.5
266.823	839.5
267.055	770.5
267.287	762.5
267.52	725.5
267.752	753.5
267.984	747.5
268.216	791.5
268.448	776.5
268.681	791.5
268.913	727.5
269.145	705.5
269.377	681.5
269.609	751.5
269.841	855.5
270.073	998.5
270.306	1068.5
270.538	1081.5
270.77	943.5
271.002	825.5
271.234	785.5
271.466	809.5
271.698	889.5
271.93	1040.5
272.162	1018.5
272.394	929.5
272.626	912.5
272.858	793.5
273.09	699.5
273.322	697.5
273.553	669.5
273.785	665.5
274.017	691.5
274.249	737.5
274.481	728.5
274.713	704.5
274.945	686.5
275.176	685.5
275.408	679.5
275.64	660.5
275.872	666.5
276.104	731.5
276.335	824.5
276.567	884.5
276.799	888.5
277.031	812.5
277.262	774.5
277.494	812.5
277.726	883.5
277.957	876.5
278.189	790.5
278.421	755.5
278.652	725.5
278.884	728.5
279.115	748.5
279.347	727.5
279.579	719.5
279.81	750.5
280.042	794.5
280.273	872.5
280.505	868.5
280.736	874.5
280.968	803.5
281.199	742.5
281.431	693.5
281.662	703.5
281.894	722.5
282.125	718.5
282.356	772.5
282.588	768.5
282.819	787.5
283.051	826.5
283.282	874.5
283.513	815.5
283.745	733.5
283.976	707.5
284.207	731.5
284.439	735.5
284.67	726.5
284.901	743.5
285.132	797.5
285.364	769.5
285.595	782.5
285.826	758.5
286.057	754.5
286.288	756.5
286.52	790.5
286.751	827.5
286.982	826.5
287.213	767.5
287.444	726.5
287.675	707.5
287.906	768.5
288.138	827.5
288.369	787.5
288.6	756.5
288.831	703.5
289.062	729.5
289.293	735.5
289.524	780.5
289.755	784.5
289.986	747.5
290.217	711.5
290.448	747.5
290.679	747.5
290.91	772.5
291.141	787.5
291.371	825.5
291.602	801.5
291.833	795.5
292.064	819.5
292.295	789.5
292.526	844.5
292.757	845.5
292.987	803.5
293.218	794.5
293.449	861.5
293.68	939.5
293.91	978.5
294.141	946.5
294.372	917.5
294.603	917.5
294.833	953.5
295.064	895.5
295.295	816.5
295.525	809.5
295.756	755.5
295.987	719.5
296.217	764.5
296.448	766.5
296.679	762.5
296.909	767.5
297.14	754.5
297.37	782.5
297.601	834.5
297.831	874.5
298.062	886.5
298.292	805.5
298.523	773.5
298.753	773.5
298.984	782.5
299.214	780.5
299.445	789.5
299.675	831.5
299.905	822.5
300.136	811.5
300.366	795.5
300.597	746.5
300.827	775.5
301.057	793.5
301.288	845.5
301.518	837.5
301.748	852.5
301.979	891.5
302.209	896.5
302.439	975.5
302.669	1006.5
302.9	911.5
303.13	869.5
303.36	851.5
303.59	855.5
303.82	867.5
304.051	834.5
304.281	831.5
304.511	858.5
304.741	934.5
304.971	1023.5
305.201	1046.5
305.431	942.5
305.661	812.5
305.891	755.5
306.121	775.5
306.352	825.5
306.582	826.5
306.812	903.5
307.042	971.5
307.272	950.5
307.502	967.5
307.731	1012.5
307.961	1074.5
308.191	972.5
308.421	890.5
308.651	851.5
308.881	833.5
309.111	835.5
309.341	809.5
309.571	810.5
309.8	831.5
310.03	814.5
310.26	808.5
310.49	818.5
310.72	853.5
310.949	838.5
311.179	871.5
311.409	853.5
311.639	821.5
311.868	808.5
312.098	830.5
312.328	863.5
312.557	838.5
312.787	845.5
313.017	882.5
313.246	873.5
313.476	863.5
313.706	902.5
313.935	851.5
314.165	890.5
314.394	917.5
314.624	956.5
314.853	1017.5
315.083	1053.5
315.312	1075.5
315.542	963.5
315.771	887.5
316.001	911.5
316.23	950.5
316.46	917.5
316.689	937.5
316.919	890.5
317.148	854.5
317.377	887.5
317.607	962.5
317.836	1070.5
318.065	1040.5
318.295	1031.5
318.524	986.5
318.753	932.5
318.983	933.5
319.212	937.5
319.441	885.5
319.67	886.5
319.9	946.5
320.129	995.5
320.358	1023.5
320.587	1017.5
320.816	1026.5
321.046	997.5
321.275	991.5
321.504	975.5
321.733	1021.5
321.962	984.5
322.191	933.5
322.42	926.5
322.649	924.5
322.878	886.5
323.108	919.5
323.337	966.5
323.566	980.5
323.795	959.5
324.024	964.5
324.253	945.5
324.482	915.5
324.71	905.5
324.939	855.5
325.168	879.5
325.397	929.5
325.626	949.5
325.855	953.5
326.084	915.5
326.313	930.5
326.542	920.5
326.77	941.5
326.999	941.5
327.228	906.5
327.457	889.5
327.686	860.5
327.914	923.5
328.143	927.5
328.372	948.5
328.6	917.5
328.829	890.5
329.058	894.5
329.287	872.5
329.515	933.5
329.744	932.5
329.972	1018.5
330.201	1053.5
330.43	1032.5
330.658	987.5
330.887	985.5
331.115	986.5
331.344	1009.5
331.572	971.5
331.801	987.5
332.03	981.5
332.258	997.5
332.486	1001.5
332.715	990.5
332.943	988.5
333.172	983.5
333.4	974.5
333.629	1022.5
333.857	1078.5
334.085	1219.5
334.314	1360.5
334.542	1433.5
334.771	1307.5
334.999	1147.5
335.227	1076.5
335.455	1056.5
335.684	1045.5
335.912	1068.5
336.14	1097.5
336.369	1063.5
336.597	1033.5
336.825	1002.5
337.053	1069.5
337.281	1099.5
337.51	1156.5
337.738	1138.5
337.966	1051.5
338.194	1020.5
338.422	989.5
338.65	971.5
338.878	949.5
339.106	929.5
339.334	909.5
339.562	916.5
339.79	933.5
340.018	1017.5
340.246	1049.5
340.474	1062.5
340.702	1011.5
340.93	1026.5
341.158	1039.5
341.386	985.5
341.614	972.5
341.842	994.5
342.07	1001.5
342.298	985.5
342.526	987.5
342.754	957.5
342.981	952.5
343.209	975.5
343.437	934.5
343.665	947.5
343.893	996.5
344.12	1034.5
344.348	1017.5
344.576	983.5
344.804	971.5
345.031	966.5
345.259	952.5
345.487	954.5
345.714	916.5
345.942	907.5
346.17	920.5
346.397	945.5
346.625	925.5
346.853	870.5
347.08	901.5
347.308	887.5
347.535	935.5
347.763	953.5
347.99	933.5
348.218	897.5
348.445	916.5
348.673	915.5
348.9	929.5
349.128	1001.5
349.355	989.5
349.583	974.5
349.81	907.5
350.037	844.5
350.265	864.5
350.492	900.5
350.72	889.5
350.947	921.5
351.174	954.5
351.402	897.5
351.629	865.5
351.856	859.5
352.083	843.5
352.311	870.5
352.538	894.5
352.765	928.5
352.992	929.5
353.22	897.5
353.447	883.5
353.674	891.5
353.901	921.5
354.128	900.5
354.355	897.5
354.583	946.5
354.81	969.5
355.037	930.5
355.264	923.5
355.491	904.5
355.718	927.5
355.945	924.5
356.172	909.5
356.399	889.5
356.626	891.5
356.853	952.5
357.08	1003.5
357.307	1067.5
357.534	1039.5
357.761	927.5
357.988	901.5
358.215	877.5
358.441	885.5
358.668	882.5
358.895	871.5
359.122	965.5
359.349	1058.5
359.576	986.5
359.802	923.5
360.029	905.5
360.256	873.5
360.483	917.5
360.709	977.5
360.936	976.5
361.163	1005.5
361.39	1090.5
361.616	1142.5
361.843	1132.5
362.07	1057.5
362.296	927.5
362.523	913.5
362.749	904.5
362.976	942.5
363.203	946.5
363.429	910.5
363.656	881.5
363.882	945.5
364.109	1048.5
364.335	1092.5
364.562	998.5
364.788	964.5
365.015	897.5
365.241	920.5
365.468	909.5
365.694	957.5
365.92	989.5
366.147	949.5
366.373	898.5
366.599	886.5
366.826	901.5
367.052	879.5
367.278	909.5
367.505	935.5
367.731	935.5
367.957	961.5
368.184	984.5
368.41	1051.5
368.636	1052.5
368.862	1036.5
369.089	1026.5
369.315	975.5
369.541	973.5
369.767	933.5
369.993	901.5
370.219	935.5
370.445	956.5
370.672	1045.5
370.898	1067.5
371.124	1013.5
371.35	997.5
371.576	1008.5
371.802	1043.5
372.028	984.5
372.254	935.5
372.48	945.5
372.706	906.5
372.932	970.5
373.158	963.5
373.384	961.5
373.61	986.5
373.835	1025.5
374.061	989.5
374.287	984.5
374.513	951.5
374.739	985.5
374.965	987.5
375.191	990.5
375.416	1003.5
375.642	1025.5
375.868	1102.5
376.094	1107.5
376.319	1060.5
376.545	981.5
376.771	1002.5
376.997	1066.5
377.222	1044.5
377.448	1015.5
377.674	1034.5
377.899	1032.5
378.125	1103.5
378.35	1062.5
378.576	956.5
378.802	948.5
379.027	963.5
379.253	965.5
379.478	985.5
379.704	1000.5
379.929	996.5
380.155	999.5
380.38	1003.5
380.606	1008.5
380.831	983.5
381.057	1076.5
381.282	1046.5
381.507	1071.5
381.733	1127.5
381.958	1167.5
382.184	1066.5
382.409	1005.5
382.634	1045.5
382.86	1027.5
383.085	1040.5
383.31	1051.5
383.535	1174.5
383.761	1241.5
383.986	1151.5
384.211	1070.5
384.436	1134.5
384.662	1177.5
384.887	1171.5
385.112	1130.5
385.337	1161.5
385.562	1137.5
385.787	1129.5
386.013	1158.5
386.238	1180.5
386.463	1161.5
386.688	1253.5
386.913	1291.5
387.138	1275.5
387.363	1164.5
387.588	1139.5
387.813	1161.5
388.038	1174.5
388.263	1219.5
388.488	1149.5
388.713	1068.5
388.938	1056.5
389.163	1102.5
389.387	1132.5
389.612	1123.5
389.837	1114.5
390.062	1143.5
390.287	1119.5
390.512	1117.5
390.736	1103.5
390.961	1110.5
391.186	1061.5
391.411	1088.5
391.636	1117.5
391.86	1123.5
392.085	1141.5
392.31	1119.5
392.534	1117.5
392.759	1158.5
392.984	1109.5
393.208	1144.5
393.433	1167.5
393.658	1215.5
393.882	1210.5
394.107	1122.5
394.331	1139.5
394.556	1090.5
394.78	1145.5
395.005	1175.5
395.229	1230.5
395.454	1293.5
395.678	1284.5
395.903	1243.5
396.127	1209.5
396.352	1205.5
396.576	1254.5
396.801	1237.5
397.025	1236.5
397.249	1250.5
397.474	1187.5
397.698	1237.5
397.922	1253.5
398.147	1307.5
398.371	1398.5
398.595	1361.5
398.82	1276.5
399.044	1347.5
399.268	1383.5
399.492	1459.5
399.717	1469.5
399.941	1502.5
400.165	1458.5
400.389	1436.5
400.613	1440.5
400.837	1641.5
401.062	1827.5
401.286	1552.5
401.51	1443.5
401.734	1459.5
401.958	1394.5
402.182	1304.5
402.406	1277.5
402.63	1239.5
402.854	1297.5
403.078	1313.5
403.302	1290.5
403.526	1335.5
403.75	1370.5
403.974	1362.5
404.198	1348.5
404.422	1412.5
404.645	1466.5
404.869	1403.5
405.093	1305.5
405.317	1249.5
405.541	1346.5
405.765	1338.5
405.988	1347.5
406.212	1404.5
406.436	1401.5
406.66	1428.5
406.883	1465.5
407.107	1653.5
407.331	1774.5
407.555	1870.5
407.778	1664.5
408.002	1439.5
408.226	1394.5
408.449	1403.5
408.673	1359.5
408.896	1377.5
409.12	1369.5
409.344	1374.5
409.567	1339.5
409.791	1339.5
410.014	1390.5
410.238	1455.5
410.461	1516.5
410.685	1404.5
410.908	1321.5
411.132	1325.5
411.355	1337.5
411.578	1329.5
411.802	1320.5
412.025	1335.5
412.249	1303.5
412.472	1315.5
412.695	1295.5
412.919	1300.5
413.142	1303.5
413.365	1310.5
413.589	1343.5
413.812	1409.5
414.035	1427.5
414.258	1313.5
414.482	1304.5
414.705	1319.5
414.928	1302.5
415.151	1293.5
415.374	1287.5
415.597	1323.5
415.821	1323.5
416.044	1326.5
416.267	1357.5
416.49	1231.5
416.713	1244.5
416.936	1283.5
417.159	1388.5
417.382	1352.5
417.605	1280.5
417.828	1305.5
418.051	1313.5
418.274	1297.5
418.497	1287.5
418.72	1261.5
418.943	1285.5
419.166	1339.5
419.389	1370.5
419.611	1270.5
419.834	1309.5
420.057	1275.5
420.28	1271.5
420.503	1278.5
420.726	1283.5
420.948	1303.5
421.171	1260.5
421.394	1281.5
421.617	1329.5
421.839	1323.5
422.062	1322.5
422.285	1250.5
422.507	1286.5
422.73	1235.5
422.953	1227.5
423.175	1180.5
423.398	1273.5
423.621	1245.5
423.843	1269.5
424.066	1334.5
424.288	1371.5
424.511	1403.5
424.733	1353.5
424.956	1243.5
425.178	1251.5
425.401	1256.5
425.623	1255.5
425.846	1249.5
426.068	1305.5
426.291	1322.5
426.513	1317.5
426.735	1324.5
426.958	1414.5
427.18	1473.5
427.402	1363.5
427.625	1390.5
427.847	1369.5
428.069	1263.5
428.292	1285.5
428.514	1259.5
428.736	1231.5
428.958	1236.5
429.181	1285.5
429.403	1456.5
429.625	1743.5
429.847	1494.5
430.069	1315.5
430.292	1468.5
430.514	1419.5
430.736	1373.5
430.958	1345.5
431.18	1313.5
431.402	1186.5
431.624	1198.5
431.846	1185.5
432.068	1153.5
432.29	1145.5
432.512	1167.5
432.734	1272.5
432.956	1301.5
433.178	1324.5
433.4	1277.5
433.622	1256.5
433.844	1265.5
434.066	1183.5
434.287	1195.5
434.509	1187.5
434.731	1267.5
434.953	1344.5
435.175	1300.5
435.397	1258.5
435.618	1245.5
435.84	1236.5
436.062	1221.5
436.284	1226.5
436.505	1283.5
436.727	1296.5
436.949	1268.5
437.17	1237.5
437.392	1226.5
437.614	1209.5
437.835	1173.5
438.057	1216.5
438.278	1240.5
438.5	1193.5
438.721	1236.5
438.943	1221.5
439.165	1242.5
439.386	1217.5
439.608	1209.5
439.829	1234.5
440.05	1226.5
440.272	1240.5
440.493	1228.5
440.715	1258.5
440.936	1367.5
441.158	1409.5
441.379	1374.5
441.6	1368.5
441.822	1354.5
442.043	1362.5
442.264	1303.5
442.486	1274.5
442.707	1262.5
442.928	1246.5
443.149	1308.5
443.371	1322.5
443.592	1363.5
443.813	1380.5
444.034	1358.5
444.255	1333.5
444.476	1370.5
444.698	1409.5
444.919	1372.5
445.14	1463.5
445.361	1427.5
445.582	1446.5
445.803	1369.5
446.024	1372.5
446.245	1421.5
446.466	1329.5
446.687	1334.5
446.908	1339.5
447.129	1299.5
447.35	1294.5
447.571	1297.5
447.792	1262.5
448.013	1236.5
448.234	1223.5
448.455	1291.5
448.675	1299.5
448.896	1177.5
449.117	1212.5
449.338	1221.5
449.559	1254.5
449.779	1324.5
450	1427.5
450.221	1462.5
450.442	1429.5
450.662	1263.5
450.883	1180.5
451.104	1151.5
451.324	1205.5
451.545	1160.5
451.766	1163.5
451.986	1125.5
452.207	1129.5
452.428	1080.5
452.648	1083.5
452.869	1121.5
453.089	1147.5
453.31	1117.5
453.53	1129.5
453.751	1108.5
453.971	1042.5
454.192	1075.5
454.412	1151.5
454.633	1119.5
454.853	1080.5
455.073	1059.5
455.294	1067.5
455.514	1060.5
455.734	1069.5
455.955	1093.5
456.175	1087.5
456.395	1057.5
456.616	1071.5
456.836	1078.5
457.056	1063.5
457.276	1069.5
457.497	1055.5
457.717	1012.5
457.937	1053.5
458.157	1074.5
458.377	1025.5
458.598	1012.5
458.818	1041.5
459.038	1089.5
459.258	1130.5
459.478	1141.5
459.698	1099.5
459.918	1158.5
460.138	1210.5
460.358	1222.5
460.578	1235.5
460.798	1271.5
461.018	1313.5
461.238	1307.5
461.458	1276.5
461.678	1223.5
461.898	1216.5
462.118	1192.5
462.338	1236.5
462.558	1251.5
462.777	1253.5
462.997	1295.5
463.217	1327.5
463.437	1346.5
463.657	1272.5
463.876	1239.5
464.096	1221.5
464.316	1257.5
464.536	1300.5
464.755	1304.5
464.975	1324.5
465.195	1286.5
465.414	1291.5
465.634	1294.5
465.854	1253.5
466.073	1374.5
466.293	1317.5
466.512	1222.5
466.732	1208.5
466.951	1252.5
467.171	1219.5
467.391	1176.5
467.61	1151.5
467.829	1222.5
468.049	1324.5
468.268	1443.5
468.488	1331.5
468.707	1238.5
468.927	1243.5
469.146	1209.5
469.365	1223.5
469.585	1211.5
469.804	1214.5
470.023	1228.5
470.243	1236.5
470.462	1245.5
470.681	1196.5
470.901	1237.5
471.12	1219.5
471.339	1221.5
471.558	1206.5
471.777	1209.5
471.997	1193.5
472.216	1173.5
472.435	1115.5
472.654	1134.5
472.873	1135.5
473.092	1222.5
473.311	1182.5
473.53	1155.5
473.749	1146.5
473.968	1157.5
474.187	1253.5
474.406	1245.5
474.625	1210.5
474.844	1221.5
475.063	1187.5
475.282	1219.5
475.501	1160.5
475.72	1198.5
475.939	1302.5
476.158	1220.5
476.377	1212.5
476.596	1223.5
476.814	1238.5
477.033	1181.5
477.252	1236.5
477.471	1269.5
477.69	1253.5
477.908	1265.5
478.127	1313.5
478.346	1412.5
478.564	1414.5
478.783	1373.5
479.002	1497.5
479.22	1390.5
479.439	1459.5
479.658	1591.5
479.876	1512.5
480.095	1376.5
480.313	1353.5
480.532	1296.5
480.751	1277.5
480.969	1326.5
481.188	1265.5
481.406	1246.5
481.624	1231.5
481.843	1248.5
482.061	1306.5
482.28	1316.5
482.498	1319.5
482.717	1295.5
482.935	1283.5
483.153	1366.5
483.372	1386.5
483.59	1366.5
483.808	1338.5
484.027	1369.5
484.245	1425.5
484.463	1713.5
484.681	1867.5
484.9	1466.5
485.118	1366.5
485.336	1347.5
485.554	1359.5
485.772	1410.5
485.99	1387.5
486.209	1374.5
486.427	1380.5
486.645	1390.5
486.863	1402.5
487.081	1451.5
487.299	1482.5
487.517	1448.5
487.735	1441.5
487.953	1494.5
488.171	1471.5
488.389	1452.5
488.607	1446.5
488.825	1600.5
489.043	1541.5
489.261	1374.5
489.479	1499.5
489.696	1475.5
489.914	1483.5
490.132	1409.5
490.35	1399.5
490.568	1502.5
490.786	1520.5
491.003	1479.5
491.221	1521.5
491.439	1565.5
491.657	1577.5
491.874	1607.5
492.092	1692.5
492.31	1683.5
492.527	1682.5
492.745	1603.5
492.963	1605.5
493.18	1604.5
493.398	1746.5
493.615	1674.5
493.833	1574.5
494.05	1550.5
494.268	1536.5
494.485	1580.5
494.703	1539.5
494.92	1542.5
495.138	1543.5
495.355	1559.5
495.573	1580.5
495.79	1651.5
496.008	1672.5
496.225	1550.5
496.442	1551.5
496.66	1611.5
496.877	1592.5
497.094	1626.5
497.312	1631.5
497.529	1594.5
497.746	1641.5
497.963	1838.5
498.181	1971.5
498.398	1882.5
498.615	1855.5
498.832	1763.5
499.049	1777.5
499.267	1785.5
499.484	1934.5
499.701	1988.5
499.918	2011.5
500.135	2181.5
500.352	2321.5
500.569	2354.5
500.786	2497.5
501.003	2264.5
501.22	2089.5
501.437	2046.5
501.654	2051.5
501.871	1986.5
502.088	1786.5
502.305	1773.5
502.522	1653.5
502.739	1568.5
502.956	1603.5
503.172	1544.5
503.389	1493.5
503.606	1464.5
503.823	1475.5
504.04	1476.5
504.256	1515.5
504.473	1476.5
504.69	1535.5
504.907	1473.5
505.123	1428.5
505.34	1545.5
505.557	1923.5
505.773	1672.5
505.99	1348.5
506.207	1321.5
506.423	1310.5
506.64	1269.5
506.856	1301.5
507.073	1514.5
507.289	1562.5
507.506	1518.5
507.722	1300.5
507.939	1264.5
508.155	1257.5
508.372	1190.5
508.588	1187.5
508.805	1179.5
509.021	1149.5
509.238	1166.5
509.454	1163.5
509.67	1145.5
509.887	1130.5
510.103	1109.5
