Data from WStandard_LampEnergy8_LIBS07252019.E.O._I.C._HRD10591_15-58-13-929.txt Node
Date: Thu Jul 25 15:58:13 EDT 2019
User: cochatt
Spectrometer: HR+D1059
Trigger mode: 1
Integration Time (sec): 1.000000E-1
Scans to average: 1
Electric dark correction enabled: true
Nonlinearity correction enabled: false
Boxcar width: 0
XAxis mode: Wavelengths
Number of Pixels in Spectrum: 2048
>>>>>Begin Spectral Data<<<<<
223.165	-19.62
223.4	-19.62
223.635	-19.62
223.869	-11.62
224.104	-8.62
224.338	-16.62
224.573	-19.62
224.808	-18.62
225.042	-14.62
225.277	2.38
225.511	-7.62
225.746	4.38
225.98	12.38
226.215	5.38
226.449	19.38
226.683	27.38
226.918	24.38
227.152	21.38
227.387	28.38
227.621	30.38
227.856	44.38
228.09	41.38
228.324	68.38
228.559	55.38
228.793	83.38
229.027	207.38
229.262	199.38
229.496	206.38
229.73	219.38
229.964	251.38
230.199	270.38
230.433	271.38
230.667	274.38
230.901	278.38
231.136	274.38
231.37	263.38
231.604	267.38
231.838	256.38
232.072	274.38
232.306	258.38
232.541	267.38
232.775	313.38
233.009	327.38
233.243	292.38
233.477	276.38
233.711	295.38
233.945	317.38
234.179	307.38
234.413	325.38
234.647	346.38
234.881	345.38
235.115	309.38
235.349	299.38
235.583	306.38
235.817	328.38
236.051	315.38
236.285	290.38
236.519	311.38
236.753	364.38
236.987	375.38
237.221	371.38
237.455	386.38
237.689	378.38
237.922	369.38
238.156	367.38
238.39	349.38
238.624	367.38
238.858	388.38
239.091	390.38
239.325	411.38
239.559	481.38
239.793	500.38
240.027	501.38
240.26	533.38
240.494	396.38
240.728	383.38
240.961	387.38
241.195	389.38
241.429	422.38
241.662	423.38
241.896	394.38
242.13	412.38
242.363	445.38
242.597	459.38
242.83	461.38
243.064	444.38
243.298	468.38
243.531	470.38
243.765	453.38
243.998	474.38
244.232	419.38
244.465	417.38
244.699	400.38
244.932	482.38
245.166	516.38
245.399	487.38
245.633	452.38
245.866	466.38
246.099	487.38
246.333	492.38
246.566	501.38
246.8	540.38
247.033	590.38
247.266	521.38
247.5	532.38
247.733	561.38
247.966	585.38
248.2	634.38
248.433	628.38
248.666	642.38
248.899	676.38
249.133	783.38
249.366	797.38
249.599	703.38
249.832	629.38
250.066	617.38
250.299	661.38
250.532	592.38
250.765	561.38
250.998	586.38
251.231	601.38
251.465	602.38
251.698	589.38
251.931	588.38
252.164	597.38
252.397	620.38
252.63	609.38
252.863	572.38
253.096	545.38
253.329	571.38
253.562	607.38
253.795	646.38
254.028	628.38
254.261	592.38
254.494	577.38
254.727	574.38
254.96	577.38
255.193	659.38
255.426	717.38
255.659	811.38
255.892	793.38
256.124	699.38
256.357	671.38
256.59	732.38
256.823	726.38
257.056	753.38
257.289	859.38
257.521	917.38
257.754	805.38
257.987	777.38
258.22	866.38
258.452	840.38
258.685	698.38
258.918	688.38
259.151	679.38
259.383	665.38
259.616	603.38
259.849	657.38
260.081	732.38
260.314	776.38
260.547	856.38
260.779	836.38
261.012	792.38
261.244	711.38
261.477	681.38
261.71	719.38
261.942	715.38
262.175	691.38
262.407	698.38
262.64	687.38
262.872	627.38
263.105	642.38
263.337	653.38
263.57	661.38
263.802	650.38
264.035	614.38
264.267	589.38
264.499	589.38
264.732	621.38
264.964	676.38
265.197	678.38
265.429	695.38
265.661	801.38
265.894	881.38
266.126	852.38
266.358	804.38
266.591	839.38
266.823	879.38
267.055	816.38
267.287	780.38
267.52	775.38
267.752	766.38
267.984	772.38
268.216	795.38
268.448	830.38
268.681	792.38
268.913	737.38
269.145	720.38
269.377	726.38
269.609	783.38
269.841	902.38
270.073	1045.38
270.306	1128.38
270.538	1167.38
270.77	981.38
271.002	847.38
271.234	818.38
271.466	831.38
271.698	950.38
271.93	1095.38
272.162	1063.38
272.394	971.38
272.626	916.38
272.858	826.38
273.09	720.38
273.322	696.38
273.553	687.38
273.785	713.38
274.017	752.38
274.249	814.38
274.481	776.38
274.713	727.38
274.945	708.38
275.176	698.38
275.408	695.38
275.64	698.38
275.872	669.38
276.104	772.38
276.335	849.38
276.567	964.38
276.799	919.38
277.031	854.38
277.262	849.38
277.494	861.38
277.726	905.38
277.957	878.38
278.189	797.38
278.421	748.38
278.652	751.38
278.884	748.38
279.115	751.38
279.347	750.38
279.579	755.38
279.81	764.38
280.042	836.38
280.273	920.38
280.505	899.38
280.736	889.38
280.968	832.38
281.199	769.38
281.431	725.38
281.662	748.38
281.894	731.38
282.125	740.38
282.356	781.38
282.588	767.38
282.819	813.38
283.051	866.38
283.282	915.38
283.513	859.38
283.745	765.38
283.976	702.38
284.207	737.38
284.439	771.38
284.67	781.38
284.901	795.38
285.132	813.38
285.364	766.38
285.595	784.38
285.826	783.38
286.057	769.38
286.288	767.38
286.52	792.38
286.751	856.38
286.982	887.38
287.213	795.38
287.444	750.38
287.675	783.38
287.906	796.38
288.138	839.38
288.369	803.38
288.6	760.38
288.831	768.38
289.062	784.38
289.293	787.38
289.524	795.38
289.755	822.38
289.986	791.38
290.217	758.38
290.448	764.38
290.679	799.38
290.91	819.38
291.141	824.38
291.371	841.38
291.602	837.38
291.833	817.38
292.064	830.38
292.295	857.38
292.526	865.38
292.757	867.38
292.987	853.38
293.218	821.38
293.449	891.38
293.68	977.38
293.91	1045.38
294.141	957.38
294.372	923.38
294.603	1010.38
294.833	1008.38
295.064	929.38
295.295	851.38
295.525	820.38
295.756	773.38
295.987	716.38
296.217	755.38
296.448	776.38
296.679	785.38
296.909	806.38
297.14	772.38
297.37	792.38
297.601	864.38
297.831	917.38
298.062	915.38
298.292	833.38
298.523	815.38
298.753	803.38
298.984	829.38
299.214	835.38
299.445	852.38
299.675	855.38
299.905	851.38
300.136	827.38
300.366	789.38
300.597	770.38
300.827	799.38
301.057	838.38
301.288	863.38
301.518	837.38
301.748	885.38
301.979	925.38
302.209	955.38
302.439	995.38
302.669	1013.38
302.9	972.38
303.13	879.38
303.36	872.38
303.59	895.38
303.82	867.38
304.051	851.38
304.281	891.38
304.511	893.38
304.741	966.38
304.971	1026.38
305.201	1106.38
305.431	997.38
305.661	823.38
305.891	775.38
306.121	756.38
306.352	811.38
306.582	851.38
306.812	916.38
307.042	955.38
307.272	974.38
307.502	1004.38
307.731	1097.38
307.961	1100.38
308.191	1016.38
308.421	878.38
308.651	855.38
308.881	840.38
309.111	843.38
309.341	829.38
309.571	839.38
309.8	834.38
310.03	851.38
310.26	832.38
310.49	851.38
310.72	871.38
310.949	906.38
311.179	924.38
311.409	871.38
311.639	859.38
311.868	827.38
312.098	866.38
312.328	871.38
312.557	849.38
312.787	880.38
313.017	891.38
313.246	901.38
313.476	868.38
313.706	917.38
313.935	905.38
314.165	914.38
314.394	958.38
314.624	998.38
314.853	1053.38
315.083	1080.38
315.312	1071.38
315.542	999.38
315.771	900.38
316.001	923.38
316.23	979.38
316.46	948.38
316.689	956.38
316.919	904.38
317.148	884.38
317.377	886.38
317.607	970.38
317.836	1112.38
318.065	1085.38
318.295	1048.38
318.524	1012.38
318.753	967.38
318.983	966.38
319.212	969.38
319.441	931.38
319.67	944.38
319.9	949.38
320.129	982.38
320.358	1021.38
320.587	1053.38
320.816	1020.38
321.046	1008.38
321.275	980.38
321.504	1006.38
321.733	1064.38
321.962	1014.38
322.191	919.38
322.42	964.38
322.649	936.38
322.878	928.38
323.108	963.38
323.337	987.38
323.566	952.38
323.795	971.38
324.024	990.38
324.253	952.38
324.482	966.38
324.71	900.38
324.939	893.38
325.168	906.38
325.397	950.38
325.626	981.38
325.855	935.38
326.084	943.38
326.313	941.38
326.542	987.38
326.77	1000.38
326.999	998.38
327.228	940.38
327.457	900.38
327.686	875.38
327.914	904.38
328.143	965.38
328.372	931.38
328.6	950.38
328.829	942.38
329.058	950.38
329.287	925.38
329.515	949.38
329.744	979.38
329.972	1019.38
330.201	1045.38
330.43	1034.38
330.658	985.38
330.887	1028.38
331.115	1048.38
331.344	992.38
331.572	971.38
331.801	974.38
332.03	967.38
332.258	985.38
332.486	1008.38
332.715	1022.38
332.943	1009.38
333.172	979.38
333.4	1005.38
333.629	1046.38
333.857	1128.38
334.085	1256.38
334.314	1377.38
334.542	1449.38
334.771	1312.38
334.999	1171.38
335.227	1117.38
335.455	1052.38
335.684	1055.38
335.912	1096.38
336.14	1147.38
336.369	1085.38
336.597	1024.38
336.825	1046.38
337.053	1055.38
337.281	1104.38
337.51	1210.38
337.738	1201.38
337.966	1135.38
338.194	1025.38
338.422	990.38
338.65	986.38
338.878	1001.38
339.106	969.38
339.334	963.38
339.562	932.38
339.79	946.38
340.018	1055.38
340.246	1078.38
340.474	1069.38
340.702	1032.38
340.93	1028.38
341.158	1018.38
341.386	999.38
341.614	996.38
341.842	989.38
342.07	995.38
342.298	1021.38
342.526	1007.38
342.754	968.38
342.981	973.38
343.209	993.38
343.437	991.38
343.665	975.38
343.893	1037.38
344.12	1067.38
344.348	1057.38
344.576	1039.38
344.804	1029.38
345.031	1017.38
345.259	1000.38
345.487	959.38
345.714	917.38
345.942	884.38
346.17	917.38
346.397	954.38
346.625	936.38
346.853	877.38
347.08	891.38
347.308	918.38
347.535	933.38
347.763	966.38
347.99	921.38
348.218	928.38
348.445	941.38
348.673	958.38
348.9	979.38
349.128	1031.38
349.355	1027.38
349.583	970.38
349.81	939.38
350.037	859.38
350.265	855.38
350.492	881.38
350.72	885.38
350.947	927.38
351.174	944.38
351.402	909.38
351.629	879.38
351.856	879.38
352.083	867.38
352.311	891.38
352.538	921.38
352.765	955.38
352.992	952.38
353.22	923.38
353.447	907.38
353.674	923.38
353.901	935.38
354.128	913.38
354.355	867.38
354.583	967.38
354.81	999.38
355.037	971.38
355.264	934.38
355.491	951.38
355.718	944.38
355.945	926.38
356.172	910.38
356.399	917.38
356.626	915.38
356.853	962.38
357.08	1075.38
357.307	1112.38
357.534	1098.38
357.761	962.38
357.988	899.38
358.215	860.38
358.441	885.38
358.668	888.38
358.895	892.38
359.122	992.38
359.349	1033.38
359.576	1022.38
359.802	923.38
360.029	893.38
360.256	870.38
360.483	941.38
360.709	951.38
360.936	969.38
361.163	1025.38
361.39	1120.38
361.616	1230.38
361.843	1144.38
362.07	1079.38
362.296	943.38
362.523	945.38
362.749	950.38
362.976	940.38
363.203	945.38
363.429	957.38
363.656	909.38
363.882	956.38
364.109	1077.38
364.335	1127.38
364.562	1016.38
364.788	977.38
365.015	943.38
365.241	959.38
365.468	941.38
365.694	995.38
365.92	1013.38
366.147	975.38
366.373	926.38
366.599	915.38
366.826	902.38
367.052	912.38
367.278	947.38
367.505	932.38
367.731	965.38
367.957	981.38
368.184	996.38
368.41	1082.38
368.636	1112.38
368.862	1110.38
369.089	1071.38
369.315	1048.38
369.541	1012.38
369.767	953.38
369.993	961.38
370.219	924.38
370.445	955.38
370.672	1031.38
370.898	1068.38
371.124	1048.38
371.35	1022.38
371.576	1043.38
371.802	1055.38
372.028	1028.38
372.254	975.38
372.48	945.38
372.706	960.38
372.932	952.38
373.158	953.38
373.384	988.38
373.61	1032.38
373.835	1034.38
374.061	995.38
374.287	980.38
374.513	986.38
374.739	1016.38
374.965	1018.38
375.191	1048.38
375.416	1019.38
375.642	1050.38
375.868	1125.38
376.094	1109.38
376.319	1073.38
376.545	1010.38
376.771	1027.38
376.997	1088.38
377.222	1067.38
377.448	1030.38
377.674	1045.38
377.899	1084.38
378.125	1094.38
378.35	1091.38
378.576	1010.38
378.802	965.38
379.027	951.38
379.253	981.38
379.478	995.38
379.704	989.38
379.929	984.38
380.155	998.38
380.38	1025.38
380.606	1009.38
380.831	1021.38
381.057	1108.38
381.282	1072.38
381.507	1071.38
381.733	1134.38
381.958	1151.38
382.184	1032.38
382.409	1064.38
382.634	1045.38
382.86	1055.38
383.085	1038.38
383.31	1086.38
383.535	1180.38
383.761	1249.38
383.986	1159.38
384.211	1111.38
384.436	1148.38
384.662	1161.38
384.887	1209.38
385.112	1162.38
385.337	1156.38
385.562	1134.38
385.787	1137.38
386.013	1173.38
386.238	1182.38
386.463	1176.38
386.688	1288.38
386.913	1300.38
387.138	1240.38
387.363	1144.38
387.588	1190.38
387.813	1171.38
388.038	1193.38
388.263	1211.38
388.488	1181.38
388.713	1107.38
388.938	1097.38
389.163	1104.38
389.387	1141.38
389.612	1113.38
389.837	1165.38
390.062	1139.38
390.287	1155.38
390.512	1142.38
390.736	1131.38
390.961	1119.38
391.186	1072.38
391.411	1108.38
391.636	1093.38
391.86	1136.38
392.085	1145.38
392.31	1133.38
392.534	1129.38
392.759	1118.38
392.984	1130.38
393.208	1167.38
393.433	1195.38
393.658	1256.38
393.882	1247.38
394.107	1173.38
394.331	1122.38
394.556	1145.38
394.78	1159.38
395.005	1177.38
395.229	1259.38
395.454	1329.38
395.678	1288.38
395.903	1229.38
396.127	1204.38
396.352	1207.38
396.576	1262.38
396.801	1296.38
397.025	1244.38
397.249	1238.38
397.474	1253.38
397.698	1252.38
397.922	1307.38
398.147	1305.38
398.371	1410.38
398.595	1359.38
398.82	1316.38
399.044	1319.38
399.268	1382.38
399.492	1483.38
399.717	1505.38
399.941	1492.38
400.165	1478.38
400.389	1471.38
400.613	1464.38
400.837	1638.38
401.062	1831.38
401.286	1583.38
401.51	1458.38
401.734	1520.38
401.958	1435.38
402.182	1343.38
402.406	1304.38
402.63	1268.38
402.854	1329.38
403.078	1299.38
403.302	1339.38
403.526	1352.38
403.75	1375.38
403.974	1379.38
404.198	1366.38
404.422	1448.38
404.645	1480.38
404.869	1469.38
405.093	1348.38
405.317	1324.38
405.541	1355.38
405.765	1387.38
405.988	1399.38
406.212	1409.38
406.436	1429.38
406.66	1477.38
406.883	1522.38
407.107	1713.38
407.331	1791.38
407.555	1953.38
407.778	1726.38
408.002	1453.38
408.226	1426.38
408.449	1389.38
408.673	1405.38
408.896	1417.38
409.12	1415.38
409.344	1355.38
409.567	1377.38
409.791	1376.38
410.014	1413.38
410.238	1478.38
410.461	1570.38
410.685	1375.38
410.908	1327.38
411.132	1354.38
411.355	1349.38
411.578	1351.38
411.802	1338.38
412.025	1395.38
412.249	1355.38
412.472	1316.38
412.695	1288.38
412.919	1312.38
413.142	1304.38
413.365	1321.38
413.589	1372.38
413.812	1446.38
414.035	1487.38
414.258	1335.38
414.482	1329.38
414.705	1333.38
414.928	1289.38
415.151	1312.38
415.374	1343.38
415.597	1331.38
415.821	1362.38
416.044	1368.38
416.267	1365.38
416.49	1293.38
416.713	1311.38
416.936	1337.38
417.159	1392.38
417.382	1361.38
417.605	1317.38
417.828	1312.38
418.051	1342.38
418.274	1324.38
418.497	1297.38
418.72	1265.38
418.943	1281.38
419.166	1340.38
419.389	1373.38
419.611	1326.38
419.834	1318.38
420.057	1314.38
420.28	1263.38
420.503	1325.38
420.726	1355.38
420.948	1324.38
421.171	1298.38
421.394	1286.38
421.617	1361.38
421.839	1364.38
422.062	1315.38
422.285	1295.38
422.507	1286.38
422.73	1234.38
422.953	1229.38
423.175	1234.38
423.398	1295.38
423.621	1251.38
423.843	1277.38
424.066	1352.38
424.288	1396.38
424.511	1417.38
424.733	1410.38
424.956	1280.38
425.178	1260.38
425.401	1245.38
425.623	1304.38
425.846	1247.38
426.068	1366.38
426.291	1351.38
426.513	1348.38
426.735	1340.38
426.958	1447.38
427.18	1523.38
427.402	1421.38
427.625	1461.38
427.847	1399.38
428.069	1288.38
428.292	1263.38
428.514	1261.38
428.736	1207.38
428.958	1240.38
429.181	1285.38
429.403	1469.38
429.625	1767.38
429.847	1490.38
430.069	1322.38
430.292	1471.38
430.514	1460.38
430.736	1363.38
430.958	1422.38
431.18	1318.38
431.402	1237.38
431.624	1210.38
431.846	1201.38
432.068	1142.38
432.29	1134.38
432.512	1225.38
432.734	1277.38
432.956	1303.38
433.178	1325.38
433.4	1348.38
433.622	1330.38
433.844	1268.38
434.066	1211.38
434.287	1214.38
434.509	1219.38
434.731	1290.38
434.953	1374.38
435.175	1350.38
435.397	1266.38
435.618	1279.38
435.84	1255.38
436.062	1243.38
436.284	1286.38
436.505	1289.38
436.727	1312.38
436.949	1307.38
437.17	1259.38
437.392	1233.38
437.614	1249.38
437.835	1186.38
438.057	1261.38
438.278	1247.38
438.5	1222.38
438.721	1238.38
438.943	1229.38
439.165	1227.38
439.386	1232.38
439.608	1281.38
439.829	1263.38
440.05	1254.38
440.272	1239.38
440.493	1225.38
440.715	1303.38
440.936	1391.38
441.158	1453.38
441.379	1407.38
441.6	1406.38
441.822	1359.38
442.043	1361.38
442.264	1310.38
442.486	1310.38
442.707	1283.38
442.928	1239.38
443.149	1319.38
443.371	1368.38
443.592	1396.38
443.813	1392.38
444.034	1387.38
444.255	1401.38
444.476	1398.38
444.698	1433.38
444.919	1403.38
445.14	1525.38
445.361	1485.38
445.582	1465.38
445.803	1413.38
446.024	1397.38
446.245	1403.38
446.466	1393.38
446.687	1371.38
446.908	1360.38
447.129	1315.38
447.35	1315.38
447.571	1306.38
447.792	1262.38
448.013	1251.38
448.234	1281.38
448.455	1331.38
448.675	1363.38
448.896	1230.38
449.117	1218.38
449.338	1237.38
449.559	1287.38
449.779	1343.38
450	1413.38
450.221	1471.38
450.442	1451.38
450.662	1318.38
450.883	1165.38
451.104	1189.38
451.324	1217.38
451.545	1241.38
451.766	1199.38
451.986	1135.38
452.207	1167.38
452.428	1119.38
452.648	1092.38
452.869	1135.38
453.089	1167.38
453.31	1176.38
453.53	1176.38
453.751	1150.38
453.971	1040.38
454.192	1091.38
454.412	1153.38
454.633	1165.38
454.853	1113.38
455.073	1075.38
455.294	1088.38
455.514	1078.38
455.734	1077.38
455.955	1100.38
456.175	1122.38
456.395	1079.38
456.616	1101.38
456.836	1114.38
457.056	1086.38
457.276	1110.38
457.497	1062.38
457.717	977.38
457.937	1081.38
458.157	1062.38
458.377	1063.38
458.598	1101.38
458.818	1089.38
459.038	1103.38
459.258	1166.38
459.478	1153.38
459.698	1140.38
459.918	1173.38
460.138	1212.38
460.358	1260.38
460.578	1220.38
460.798	1334.38
461.018	1361.38
461.238	1321.38
461.458	1309.38
461.678	1290.38
461.898	1236.38
462.118	1238.38
462.338	1266.38
462.558	1266.38
462.777	1266.38
462.997	1329.38
463.217	1409.38
463.437	1359.38
463.657	1285.38
463.876	1250.38
464.096	1252.38
464.316	1296.38
464.536	1307.38
464.755	1295.38
464.975	1310.38
465.195	1324.38
465.414	1316.38
465.634	1346.38
465.854	1335.38
466.073	1424.38
466.293	1374.38
466.512	1195.38
466.732	1232.38
466.951	1236.38
467.171	1225.38
467.391	1199.38
467.61	1199.38
467.829	1235.38
468.049	1365.38
468.268	1448.38
468.488	1349.38
468.707	1302.38
468.927	1239.38
469.146	1226.38
469.365	1250.38
469.585	1220.38
469.804	1197.38
470.023	1268.38
470.243	1259.38
470.462	1251.38
470.681	1229.38
470.901	1244.38
471.12	1211.38
471.339	1246.38
471.558	1197.38
471.777	1203.38
471.997	1203.38
472.216	1187.38
472.435	1154.38
472.654	1183.38
472.873	1154.38
473.092	1256.38
473.311	1204.38
473.53	1146.38
473.749	1149.38
473.968	1161.38
474.187	1201.38
474.406	1243.38
474.625	1217.38
474.844	1188.38
475.063	1201.38
475.282	1210.38
475.501	1179.38
475.72	1222.38
475.939	1328.38
476.158	1284.38
476.377	1204.38
476.596	1229.38
476.814	1251.38
477.033	1213.38
477.252	1296.38
477.471	1316.38
477.69	1312.38
477.908	1280.38
478.127	1356.38
478.346	1453.38
478.564	1443.38
478.783	1437.38
479.002	1493.38
479.22	1409.38
479.439	1490.38
479.658	1586.38
479.876	1497.38
480.095	1376.38
480.313	1330.38
480.532	1287.38
480.751	1335.38
480.969	1299.38
481.188	1258.38
481.406	1291.38
481.624	1223.38
481.843	1236.38
482.061	1267.38
482.28	1344.38
482.498	1341.38
482.717	1327.38
482.935	1295.38
483.153	1333.38
483.372	1413.38
483.59	1387.38
483.808	1363.38
484.027	1365.38
484.245	1452.38
484.463	1747.38
484.681	1939.38
484.9	1502.38
485.118	1382.38
485.336	1347.38
485.554	1399.38
485.772	1395.38
485.99	1393.38
486.209	1414.38
486.427	1378.38
486.645	1409.38
486.863	1455.38
487.081	1495.38
487.299	1479.38
487.517	1499.38
487.735	1476.38
487.953	1517.38
488.171	1503.38
488.389	1448.38
488.607	1458.38
488.825	1624.38
489.043	1545.38
489.261	1422.38
489.479	1475.38
489.696	1472.38
489.914	1470.38
490.132	1484.38
490.35	1461.38
490.568	1539.38
490.786	1533.38
491.003	1452.38
491.221	1585.38
491.439	1606.38
491.657	1618.38
491.874	1620.38
492.092	1677.38
492.31	1695.38
492.527	1680.38
492.745	1645.38
492.963	1617.38
493.18	1623.38
493.398	1700.38
