Data from WStandard_LampEnergy10_LIBS07252019.E.O._I.C._HRD10591_15-55-46-928.txt Node
Date: Thu Jul 25 15:55:46 EDT 2019
User: cochatt
Spectrometer: HR+D1059
Trigger mode: 1
Integration Time (sec): 1.000000E-1
Scans to average: 1
Electric dark correction enabled: true
Nonlinearity correction enabled: false
Boxcar width: 0
XAxis mode: Wavelengths
Number of Pixels in Spectrum: 2048
>>>>>Begin Spectral Data<<<<<
223.165	-15.88
223.4	-15.88
223.635	-15.88
223.869	-26.88
224.104	-24.88
224.338	-18.88
224.573	-20.88
224.808	-9.88
225.042	0.12
225.277	-2.88
225.511	0.12
225.746	3.12
225.98	13.12
226.215	19.12
226.449	16.12
226.683	18.12
226.918	22.12
227.152	28.12
227.387	25.12
227.621	40.12
227.856	41.12
228.09	57.12
228.324	54.12
228.559	56.12
228.793	91.12
229.027	122.12
229.262	133.12
229.496	161.12
229.73	140.12
229.964	157.12
230.199	176.12
230.433	165.12
230.667	184.12
230.901	201.12
231.136	178.12
231.37	186.12
231.604	182.12
231.838	171.12
232.072	182.12
232.306	178.12
232.541	182.12
232.775	202.12
233.009	201.12
233.243	184.12
233.477	175.12
233.711	183.12
233.945	216.12
234.179	201.12
234.413	208.12
234.647	232.12
234.881	208.12
235.115	187.12
235.349	200.12
235.583	201.12
235.817	210.12
236.051	185.12
236.285	183.12
236.519	204.12
236.753	213.12
236.987	210.12
237.221	213.12
237.455	231.12
237.689	237.12
237.922	230.12
238.156	243.12
238.39	225.12
238.624	231.12
238.858	246.12
239.091	254.12
239.325	265.12
239.559	289.12
239.793	288.12
240.027	289.12
240.26	280.12
240.494	249.12
240.728	216.12
240.961	228.12
241.195	220.12
241.429	261.12
241.662	264.12
241.896	249.12
242.13	254.12
242.363	273.12
242.597	287.12
242.83	275.12
243.064	266.12
243.298	291.12
243.531	276.12
243.765	278.12
243.998	267.12
244.232	252.12
244.465	251.12
244.699	256.12
244.932	282.12
245.166	316.12
245.399	311.12
245.633	289.12
245.866	276.12
246.099	278.12
246.333	291.12
246.566	289.12
246.8	337.12
247.033	348.12
247.266	318.12
247.5	313.12
247.733	317.12
247.966	325.12
248.2	342.12
248.433	343.12
248.666	391.12
248.899	384.12
249.133	441.12
249.366	472.12
249.599	408.12
249.832	346.12
250.066	346.12
250.299	367.12
250.532	356.12
250.765	322.12
250.998	346.12
251.231	334.12
251.465	357.12
251.698	348.12
251.931	349.12
252.164	353.12
252.397	362.12
252.63	358.12
252.863	312.12
253.096	343.12
253.329	342.12
253.562	349.12
253.795	362.12
254.028	359.12
254.261	355.12
254.494	344.12
254.727	340.12
254.96	321.12
255.193	376.12
255.426	423.12
255.659	466.12
255.892	450.12
256.124	378.12
256.357	370.12
256.59	385.12
256.823	412.12
257.056	407.12
257.289	477.12
257.521	507.12
257.754	463.12
257.987	454.12
258.22	454.12
258.452	447.12
258.685	409.12
258.918	392.12
259.151	378.12
259.383	383.12
259.616	328.12
259.849	356.12
260.081	423.12
260.314	433.12
260.547	465.12
260.779	464.12
261.012	449.12
261.244	401.12
261.477	371.12
261.71	399.12
261.942	384.12
262.175	384.12
262.407	417.12
262.64	380.12
262.872	358.12
263.105	376.12
263.337	356.12
263.57	375.12
263.802	379.12
264.035	349.12
264.267	328.12
264.499	334.12
264.732	360.12
264.964	366.12
265.197	406.12
265.429	421.12
265.661	453.12
265.894	481.12
266.126	510.12
266.358	462.12
266.591	462.12
266.823	476.12
267.055	424.12
267.287	459.12
267.52	445.12
267.752	438.12
267.984	457.12
268.216	452.12
268.448	463.12
268.681	447.12
268.913	422.12
269.145	410.12
269.377	420.12
269.609	441.12
269.841	505.12
270.073	570.12
270.306	598.12
270.538	605.12
270.77	519.12
271.002	478.12
271.234	471.12
271.466	470.12
271.698	534.12
271.93	590.12
272.162	595.12
272.394	541.12
272.626	501.12
272.858	444.12
273.09	425.12
273.322	412.12
273.553	393.12
273.785	402.12
274.017	406.12
274.249	451.12
274.481	431.12
274.713	410.12
274.945	408.12
275.176	416.12
275.408	402.12
275.64	366.12
275.872	399.12
276.104	446.12
276.335	499.12
276.567	530.12
276.799	507.12
277.031	462.12
277.262	478.12
277.494	472.12
277.726	540.12
277.957	496.12
278.189	472.12
278.421	441.12
278.652	418.12
278.884	428.12
279.115	426.12
279.347	460.12
279.579	440.12
279.81	441.12
280.042	468.12
280.273	505.12
280.505	481.12
280.736	494.12
280.968	469.12
281.199	432.12
281.431	420.12
281.662	400.12
281.894	410.12
282.125	421.12
282.356	452.12
282.588	466.12
282.819	463.12
283.051	473.12
283.282	514.12
283.513	490.12
283.745	429.12
283.976	438.12
284.207	418.12
284.439	427.12
284.67	444.12
284.901	455.12
285.132	462.12
285.364	454.12
285.595	449.12
285.826	450.12
286.057	457.12
286.288	445.12
286.52	472.12
286.751	499.12
286.982	488.12
287.213	449.12
287.444	424.12
287.675	449.12
287.906	504.12
288.138	477.12
288.369	473.12
288.6	444.12
288.831	438.12
289.062	451.12
289.293	447.12
289.524	467.12
289.755	484.12
289.986	450.12
290.217	459.12
290.448	449.12
290.679	451.12
290.91	476.12
291.141	491.12
291.371	475.12
291.602	487.12
291.833	462.12
292.064	471.12
292.295	488.12
292.526	489.12
292.757	494.12
292.987	469.12
293.218	491.12
293.449	527.12
293.68	586.12
293.91	595.12
294.141	580.12
294.372	538.12
294.603	553.12
294.833	565.12
295.064	537.12
295.295	486.12
295.525	456.12
295.756	430.12
295.987	418.12
296.217	452.12
296.448	446.12
296.679	478.12
296.909	483.12
297.14	453.12
297.37	477.12
297.601	516.12
297.831	511.12
298.062	521.12
298.292	449.12
298.523	452.12
298.753	472.12
298.984	461.12
299.214	481.12
299.445	497.12
299.675	501.12
299.905	518.12
300.136	463.12
300.366	461.12
300.597	448.12
300.827	471.12
301.057	501.12
301.288	506.12
301.518	511.12
301.748	523.12
301.979	558.12
302.209	570.12
302.439	567.12
302.669	580.12
302.9	554.12
303.13	480.12
303.36	504.12
303.59	501.12
303.82	499.12
304.051	510.12
304.281	498.12
304.511	542.12
304.741	568.12
304.971	621.12
305.201	633.12
305.431	565.12
305.661	485.12
305.891	458.12
306.121	466.12
306.352	490.12
306.582	510.12
306.812	532.12
307.042	551.12
307.272	573.12
307.502	595.12
307.731	619.12
307.961	636.12
308.191	596.12
308.421	512.12
308.651	496.12
308.881	513.12
309.111	489.12
309.341	484.12
309.571	496.12
309.8	484.12
310.03	505.12
310.26	490.12
310.49	516.12
310.72	505.12
310.949	521.12
311.179	520.12
311.409	499.12
311.639	498.12
311.868	498.12
312.098	507.12
312.328	503.12
312.557	483.12
312.787	502.12
313.017	517.12
313.246	513.12
313.476	496.12
313.706	532.12
313.935	523.12
314.165	527.12
314.394	564.12
314.624	609.12
314.853	613.12
315.083	629.12
315.312	624.12
315.542	597.12
315.771	541.12
316.001	564.12
316.23	560.12
316.46	565.12
316.689	559.12
316.919	530.12
317.148	531.12
317.377	541.12
317.607	579.12
317.836	623.12
318.065	614.12
318.295	605.12
318.524	570.12
318.753	549.12
318.983	574.12
319.212	568.12
319.441	526.12
319.67	557.12
319.9	573.12
320.129	598.12
320.358	590.12
320.587	623.12
320.816	596.12
321.046	582.12
321.275	598.12
321.504	589.12
321.733	620.12
321.962	621.12
322.191	569.12
322.42	535.12
322.649	546.12
322.878	560.12
323.108	562.12
323.337	594.12
323.566	581.12
323.795	578.12
324.024	586.12
324.253	546.12
324.482	553.12
324.71	547.12
324.939	513.12
325.168	556.12
325.397	560.12
325.626	568.12
325.855	576.12
326.084	564.12
326.313	549.12
326.542	567.12
326.77	575.12
326.999	584.12
327.228	541.12
327.457	512.12
327.686	526.12
327.914	550.12
328.143	562.12
328.372	555.12
328.6	551.12
328.829	567.12
329.058	545.12
329.287	557.12
329.515	581.12
329.744	586.12
329.972	608.12
330.201	617.12
330.43	620.12
330.658	596.12
330.887	604.12
331.115	581.12
331.344	582.12
331.572	593.12
331.801	591.12
332.03	602.12
332.258	598.12
332.486	593.12
332.715	597.12
332.943	607.12
333.172	604.12
333.4	611.12
333.629	608.12
333.857	680.12
334.085	728.12
334.314	827.12
334.542	834.12
334.771	761.12
334.999	694.12
335.227	648.12
335.455	630.12
335.684	622.12
335.912	656.12
336.14	664.12
336.369	620.12
336.597	607.12
336.825	605.12
337.053	655.12
337.281	678.12
337.51	676.12
337.738	689.12
337.966	652.12
338.194	610.12
338.422	604.12
338.65	591.12
338.878	576.12
339.106	570.12
339.334	559.12
339.562	586.12
339.79	585.12
340.018	609.12
340.246	624.12
340.474	608.12
340.702	629.12
340.93	624.12
341.158	611.12
341.386	598.12
341.614	599.12
341.842	571.12
342.07	596.12
342.298	624.12
342.526	589.12
342.754	579.12
342.981	613.12
343.209	602.12
343.437	604.12
343.665	587.12
343.893	608.12
344.12	641.12
344.348	637.12
344.576	624.12
344.804	587.12
345.031	610.12
345.259	598.12
345.487	584.12
345.714	558.12
345.942	579.12
346.17	555.12
346.397	561.12
346.625	576.12
346.853	532.12
347.08	545.12
347.308	543.12
347.535	546.12
347.763	570.12
347.99	563.12
348.218	548.12
348.445	544.12
348.673	558.12
348.9	579.12
349.128	599.12
349.355	615.12
349.583	606.12
349.81	574.12
350.037	525.12
350.265	530.12
350.492	556.12
350.72	553.12
350.947	569.12
351.174	574.12
351.402	544.12
351.629	514.12
351.856	526.12
352.083	525.12
352.311	523.12
352.538	551.12
352.765	566.12
352.992	572.12
353.22	546.12
353.447	563.12
353.674	562.12
353.901	574.12
354.128	549.12
354.355	570.12
354.583	580.12
354.81	594.12
355.037	589.12
355.264	563.12
355.491	559.12
355.718	552.12
355.945	541.12
356.172	532.12
356.399	553.12
356.626	532.12
356.853	574.12
357.08	638.12
357.307	686.12
357.534	637.12
357.761	582.12
357.988	549.12
358.215	536.12
358.441	561.12
358.668	536.12
358.895	572.12
359.122	573.12
359.349	633.12
359.576	589.12
359.802	567.12
360.029	530.12
360.256	562.12
360.483	554.12
360.709	584.12
360.936	599.12
361.163	633.12
361.39	672.12
361.616	698.12
361.843	690.12
362.07	657.12
362.296	546.12
362.523	574.12
362.749	564.12
362.976	571.12
363.203	571.12
363.429	572.12
363.656	578.12
363.882	615.12
364.109	645.12
364.335	662.12
364.562	628.12
364.788	600.12
365.015	578.12
365.241	569.12
365.468	591.12
365.694	619.12
365.92	596.12
366.147	585.12
366.373	551.12
366.599	561.12
366.826	570.12
367.052	574.12
367.278	588.12
367.505	590.12
367.731	628.12
367.957	608.12
368.184	640.12
368.41	675.12
368.636	680.12
368.862	682.12
369.089	682.12
369.315	650.12
369.541	601.12
369.767	578.12
369.993	607.12
370.219	597.12
370.445	602.12
370.672	663.12
370.898	701.12
371.124	658.12
371.35	616.12
371.576	650.12
371.802	668.12
372.028	637.12
372.254	621.12
372.48	594.12
372.706	633.12
372.932	582.12
373.158	620.12
373.384	626.12
373.61	630.12
373.835	650.12
374.061	638.12
374.287	623.12
374.513	612.12
374.739	620.12
374.965	640.12
375.191	652.12
375.416	627.12
375.642	662.12
375.868	697.12
376.094	703.12
376.319	664.12
376.545	653.12
376.771	650.12
376.997	679.12
377.222	700.12
377.448	663.12
377.674	661.12
377.899	676.12
378.125	704.12
378.35	697.12
378.576	667.12
378.802	635.12
379.027	607.12
379.253	616.12
379.478	622.12
379.704	634.12
379.929	640.12
380.155	648.12
380.38	676.12
380.606	645.12
380.831	653.12
381.057	705.12
381.282	668.12
381.507	683.12
381.733	725.12
381.958	744.12
382.184	687.12
382.409	669.12
382.634	684.12
382.86	681.12
383.085	675.12
383.31	712.12
383.535	776.12
383.761	779.12
383.986	742.12
384.211	723.12
384.436	746.12
384.662	732.12
384.887	766.12
385.112	749.12
385.337	739.12
385.562	712.12
385.787	734.12
386.013	770.12
386.238	756.12
386.463	780.12
386.688	812.12
386.913	841.12
387.138	829.12
387.363	764.12
387.588	747.12
387.813	777.12
388.038	774.12
388.263	788.12
388.488	771.12
388.713	730.12
388.938	714.12
389.163	729.12
389.387	758.12
389.612	731.12
389.837	740.12
390.062	745.12
390.287	752.12
390.512	737.12
390.736	717.12
390.961	723.12
391.186	704.12
391.411	736.12
391.636	749.12
391.86	736.12
392.085	741.12
392.31	756.12
392.534	742.12
392.759	780.12
392.984	736.12
393.208	780.12
393.433	800.12
393.658	825.12
393.882	800.12
394.107	790.12
394.331	746.12
394.556	734.12
394.78	755.12
395.005	808.12
395.229	796.12
395.454	867.12
395.678	849.12
395.903	804.12
396.127	825.12
396.352	826.12
396.576	846.12
396.801	861.12
397.025	847.12
397.249	836.12
397.474	824.12
397.698	809.12
397.922	836.12
398.147	900.12
398.371	925.12
398.595	881.12
398.82	859.12
399.044	887.12
399.268	934.12
399.492	953.12
399.717	964.12
399.941	990.12
400.165	984.12
400.389	992.12
400.613	978.12
400.837	1121.12
401.062	1180.12
401.286	994.12
401.51	942.12
401.734	986.12
401.958	923.12
402.182	897.12
402.406	884.12
402.63	871.12
402.854	877.12
403.078	898.12
403.302	863.12
403.526	908.12
403.75	921.12
403.974	958.12
404.198	915.12
404.422	989.12
404.645	1028.12
404.869	974.12
405.093	899.12
405.317	863.12
405.541	937.12
405.765	941.12
405.988	918.12
406.212	939.12
406.436	971.12
406.66	978.12
406.883	1026.12
407.107	1122.12
407.331	1219.12
407.555	1280.12
407.778	1108.12
408.002	958.12
408.226	973.12
408.449	942.12
408.673	937.12
408.896	944.12
409.12	968.12
409.344	947.12
409.567	919.12
409.791	930.12
410.014	971.12
410.238	1022.12
410.461	1081.12
410.685	952.12
410.908	930.12
411.132	937.12
411.355	905.12
411.578	924.12
411.802	946.12
412.025	933.12
412.249	938.12
412.472	922.12
412.695	939.12
412.919	901.12
413.142	908.12
413.365	927.12
413.589	910.12
413.812	996.12
414.035	1022.12
414.258	932.12
414.482	894.12
414.705	929.12
414.928	929.12
415.151	929.12
415.374	916.12
415.597	956.12
415.821	931.12
416.044	945.12
416.267	926.12
416.49	884.12
416.713	869.12
416.936	927.12
417.159	953.12
417.382	974.12
417.605	908.12
417.828	910.12
418.051	942.12
418.274	933.12
418.497	894.12
418.72	922.12
418.943	899.12
419.166	969.12
419.389	1031.12
419.611	957.12
419.834	904.12
420.057	953.12
420.28	933.12
420.503	902.12
420.726	987.12
420.948	918.12
421.171	914.12
421.394	930.12
421.617	998.12
421.839	970.12
422.062	957.12
422.285	928.12
422.507	924.12
422.73	904.12
422.953	882.12
423.175	870.12
423.398	909.12
423.621	923.12
423.843	912.12
424.066	969.12
424.288	991.12
424.511	1026.12
424.733	986.12
424.956	930.12
425.178	915.12
425.401	927.12
425.623	935.12
425.846	927.12
426.068	982.12
426.291	933.12
426.513	958.12
426.735	946.12
426.958	1021.12
427.18	1073.12
427.402	957.12
427.625	1009.12
427.847	1011.12
428.069	891.12
428.292	903.12
428.514	905.12
428.736	901.12
428.958	911.12
429.181	917.12
429.403	1064.12
429.625	1206.12
429.847	1044.12
430.069	934.12
430.292	1021.12
430.514	1040.12
430.736	946.12
430.958	965.12
431.18	917.12
431.402	908.12
431.624	848.12
431.846	792.12
432.068	716.12
432.29	741.12
432.512	799.12
432.734	847.12
432.956	922.12
433.178	949.12
433.4	910.12
433.622	964.12
433.844	911.12
434.066	870.12
434.287	782.12
434.509	802.12
434.731	839.12
434.953	873.12
435.175	921.12
435.397	904.12
435.618	888.12
435.84	828.12
436.062	867.12
436.284	903.12
436.505	918.12
436.727	931.12
436.949	917.12
437.17	893.12
437.392	863.12
437.614	826.12
437.835	790.12
438.057	827.12
438.278	822.12
438.5	852.12
438.721	883.12
438.943	915.12
439.165	917.12
439.386	900.12
439.608	939.12
439.829	930.12
440.05	934.12
440.272	916.12
440.493	940.12
440.715	979.12
440.936	1027.12
441.158	1054.12
441.379	1020.12
441.6	1052.12
441.822	1022.12
442.043	1005.12
442.264	993.12
442.486	955.12
442.707	949.12
442.928	981.12
443.149	953.12
443.371	1001.12
443.592	1028.12
443.813	1018.12
444.034	1009.12
444.255	998.12
444.476	1004.12
444.698	1025.12
444.919	1034.12
445.14	1138.12
445.361	1092.12
445.582	1036.12
445.803	1057.12
446.024	1047.12
446.245	1066.12
446.466	1078.12
446.687	1014.12
446.908	1028.12
447.129	1005.12
447.35	1016.12
447.571	952.12
447.792	979.12
448.013	952.12
448.234	995.12
448.455	980.12
448.675	989.12
448.896	902.12
449.117	878.12
449.338	922.12
449.559	955.12
449.779	960.12
450	1019.12
450.221	1064.12
450.442	1031.12
450.662	929.12
450.883	896.12
451.104	889.12
451.324	897.12
451.545	895.12
451.766	862.12
451.986	846.12
452.207	838.12
452.428	821.12
452.648	803.12
452.869	760.12
453.089	788.12
453.31	785.12
453.53	752.12
453.751	739.12
453.971	695.12
454.192	736.12
454.412	770.12
454.633	790.12
454.853	769.12
455.073	728.12
455.294	778.12
455.514	744.12
455.734	749.12
455.955	748.12
456.175	744.12
456.395	736.12
456.616	747.12
456.836	748.12
457.056	742.12
457.276	709.12
457.497	699.12
457.717	685.12
457.937	716.12
458.157	705.12
458.377	696.12
458.598	672.12
458.818	682.12
459.038	718.12
459.258	718.12
459.478	726.12
459.698	700.12
459.918	739.12
460.138	814.12
460.358	822.12
460.578	833.12
460.798	879.12
461.018	888.12
461.238	883.12
461.458	833.12
461.678	811.12
461.898	827.12
462.118	801.12
462.338	853.12
462.558	857.12
462.777	859.12
462.997	861.12
463.217	905.12
463.437	854.12
463.657	864.12
463.876	822.12
464.096	844.12
464.316	818.12
464.536	895.12
464.755	888.12
464.975	872.12
465.195	845.12
465.414	871.12
465.634	866.12
465.854	891.12
466.073	936.12
466.293	938.12
466.512	846.12
466.732	888.12
466.951	896.12
467.171	895.12
467.391	896.12
467.61	892.12
467.829	882.12
468.049	989.12
468.268	1067.12
468.488	916.12
468.707	912.12
468.927	906.12
469.146	897.12
469.365	906.12
469.585	915.12
469.804	916.12
470.023	914.12
470.243	954.12
470.462	964.12
470.681	920.12
470.901	898.12
471.12	926.12
471.339	919.12
471.558	915.12
471.777	899.12
471.997	888.12
472.216	845.12
472.435	795.12
472.654	740.12
472.873	778.12
473.092	833.12
473.311	834.12
473.53	818.12
473.749	785.12
473.968	837.12
474.187	854.12
474.406	865.12
474.625	850.12
474.844	885.12
475.063	882.12
475.282	880.12
475.501	816.12
475.72	831.12
475.939	885.12
476.158	908.12
476.377	860.12
476.596	850.12
476.814	840.12
477.033	801.12
477.252	841.12
477.471	897.12
477.69	910.12
477.908	914.12
478.127	967.12
478.346	1024.12
478.564	998.12
478.783	972.12
479.002	1026.12
479.22	1002.12
479.439	1022.12
479.658	1031.12
479.876	991.12
480.095	923.12
480.313	902.12
480.532	866.12
480.751	860.12
480.969	846.12
481.188	778.12
481.406	777.12
481.624	790.12
481.843	807.12
482.061	832.12
482.28	869.12
482.498	877.12
482.717	837.12
482.935	880.12
483.153	976.12
483.372	1008.12
483.59	1057.12
483.808	977.12
484.027	928.12
484.245	1017.12
484.463	1227.12
484.681	1261.12
484.9	1017.12
485.118	958.12
485.336	926.12
485.554	908.12
485.772	890.12
485.99	890.12
486.209	908.12
486.427	896.12
486.645	931.12
486.863	1003.12
487.081	1031.12
487.299	1024.12
487.517	1032.12
487.735	1092.12
487.953	1187.12
488.171	1176.12
488.389	1113.12
488.607	1088.12
488.825	1132.12
489.043	1064.12
489.261	991.12
489.479	1056.12
489.696	1042.12
489.914	1034.12
490.132	1014.12
490.35	1063.12
490.568	1164.12
490.786	1184.12
491.003	1203.12
491.221	1236.12
491.439	1285.12
491.657	1316.12
491.874	1330.12
492.092	1421.12
492.31	1435.12
492.527	1437.12
492.745	1376.12
492.963	1313.12
493.18	1294.12
493.398	1330.12
493.615	1292.12
493.833	1263.12
494.05	1217.12
494.268	1228.12
494.485	1217.12
494.703	1216.12
494.92	1211.12
495.138	1234.12
495.355	1241.12
495.573	1266.12
495.79	1276.12
496.008	1260.12
496.225	1205.12
496.442	1226.12
496.66	1236.12
496.877	1197.12
497.094	1236.12
497.312	1235.12
497.529	1194.12
497.746	1221.12
497.963	1256.12
498.181	1303.12
498.398	1251.12
498.615	1184.12
498.832	1157.12
499.049	1150.12
499.267	1174.12
499.484	1251.12
499.701	1324.12
499.918	1376.12
500.135	1452.12
500.352	1551.12
