Data from WStandard_LampEnergy10_LIBS07252019.E.O._I.C._HRD10591_15-55-11-928.txt Node
Date: Thu Jul 25 15:55:11 EDT 2019
User: cochatt
Spectrometer: HR+D1059
Trigger mode: 1
Integration Time (sec): 1.000000E-1
Scans to average: 1
Electric dark correction enabled: true
Nonlinearity correction enabled: false
Boxcar width: 0
XAxis mode: Wavelengths
Number of Pixels in Spectrum: 2048
>>>>>Begin Spectral Data<<<<<
223.165	-2.94
223.4	-2.94
223.635	-2.94
223.869	-25.94
224.104	-23.94
224.338	-25.94
224.573	-9.94
224.808	-6.94
225.042	-16.94
225.277	8.06
225.511	13.06
225.746	-8.94
225.98	0.06
226.215	20.06
226.449	0.06
226.683	19.06
226.918	31.06
227.152	30.06
227.387	28.06
227.621	43.06
227.856	48.06
228.09	43.06
228.324	40.06
228.559	54.06
228.793	86.06
229.027	129.06
229.262	131.06
229.496	138.06
229.73	143.06
229.964	169.06
230.199	165.06
230.433	151.06
230.667	182.06
230.901	180.06
231.136	179.06
231.37	176.06
231.604	169.06
231.838	170.06
232.072	188.06
232.306	166.06
232.541	173.06
232.775	200.06
233.009	208.06
233.243	176.06
233.477	197.06
233.711	181.06
233.945	200.06
234.179	192.06
234.413	206.06
234.647	216.06
234.881	197.06
235.115	186.06
235.349	186.06
235.583	196.06
235.817	198.06
236.051	184.06
236.285	204.06
236.519	202.06
236.753	232.06
236.987	225.06
237.221	214.06
237.455	234.06
237.689	243.06
237.922	219.06
238.156	207.06
238.39	228.06
238.624	212.06
238.858	242.06
239.091	253.06
239.325	249.06
239.559	278.06
239.793	291.06
240.027	299.06
240.26	293.06
240.494	236.06
240.728	229.06
240.961	235.06
241.195	221.06
241.429	246.06
241.662	250.06
241.896	238.06
242.13	262.06
242.363	240.06
242.597	274.06
242.83	276.06
243.064	267.06
243.298	301.06
243.531	278.06
243.765	288.06
243.998	271.06
244.232	246.06
244.465	265.06
244.699	260.06
244.932	292.06
245.166	297.06
245.399	295.06
245.633	288.06
245.866	267.06
246.099	290.06
246.333	301.06
246.566	296.06
246.8	329.06
247.033	319.06
247.266	324.06
247.5	322.06
247.733	314.06
247.966	333.06
248.2	352.06
248.433	354.06
248.666	370.06
248.899	380.06
249.133	417.06
249.366	458.06
249.599	393.06
249.832	360.06
250.066	366.06
250.299	370.06
250.532	333.06
250.765	317.06
250.998	337.06
251.231	353.06
251.465	345.06
251.698	330.06
251.931	333.06
252.164	357.06
252.397	359.06
252.63	343.06
252.863	329.06
253.096	334.06
253.329	325.06
253.562	354.06
253.795	355.06
254.028	356.06
254.261	317.06
254.494	347.06
254.727	311.06
254.96	335.06
255.193	395.06
255.426	410.06
255.659	434.06
255.892	449.06
256.124	406.06
256.357	396.06
256.59	402.06
256.823	398.06
257.056	431.06
257.289	476.06
257.521	471.06
257.754	460.06
257.987	433.06
258.22	479.06
258.452	429.06
258.685	371.06
258.918	384.06
259.151	379.06
259.383	366.06
259.616	360.06
259.849	358.06
260.081	407.06
260.314	414.06
260.547	465.06
260.779	468.06
261.012	436.06
261.244	392.06
261.477	382.06
261.71	395.06
261.942	403.06
262.175	380.06
262.407	404.06
262.64	376.06
262.872	363.06
263.105	345.06
263.337	352.06
263.57	368.06
263.802	380.06
264.035	361.06
264.267	336.06
264.499	338.06
264.732	349.06
264.964	360.06
265.197	411.06
265.429	408.06
265.661	437.06
265.894	481.06
266.126	501.06
266.358	441.06
266.591	462.06
266.823	488.06
267.055	450.06
267.287	468.06
267.52	426.06
267.752	429.06
267.984	428.06
268.216	449.06
268.448	470.06
268.681	445.06
268.913	421.06
269.145	401.06
269.377	426.06
269.609	446.06
269.841	537.06
270.073	589.06
270.306	597.06
270.538	613.06
270.77	524.06
271.002	475.06
271.234	442.06
271.466	447.06
271.698	526.06
271.93	598.06
272.162	585.06
272.394	562.06
272.626	524.06
272.858	444.06
273.09	401.06
273.322	417.06
273.553	399.06
273.785	413.06
274.017	407.06
274.249	438.06
274.481	426.06
274.713	402.06
274.945	402.06
275.176	408.06
275.408	401.06
275.64	406.06
275.872	402.06
276.104	434.06
276.335	459.06
276.567	512.06
276.799	521.06
277.031	474.06
277.262	467.06
277.494	470.06
277.726	516.06
277.957	496.06
278.189	459.06
278.421	420.06
278.652	436.06
278.884	426.06
279.115	419.06
279.347	426.06
279.579	436.06
279.81	441.06
280.042	463.06
280.273	504.06
280.505	516.06
280.736	492.06
280.968	468.06
281.199	409.06
281.431	404.06
281.662	402.06
281.894	428.06
282.125	426.06
282.356	425.06
282.588	442.06
282.819	460.06
283.051	485.06
283.282	520.06
283.513	489.06
283.745	418.06
283.976	434.06
284.207	420.06
284.439	436.06
284.67	449.06
284.901	454.06
285.132	448.06
285.364	437.06
285.595	440.06
285.826	430.06
286.057	443.06
286.288	430.06
286.52	458.06
286.751	521.06
286.982	488.06
287.213	453.06
287.444	442.06
287.675	432.06
287.906	464.06
288.138	501.06
288.369	486.06
288.6	443.06
288.831	436.06
289.062	461.06
289.293	434.06
289.524	454.06
289.755	462.06
289.986	445.06
290.217	422.06
290.448	448.06
290.679	442.06
290.91	478.06
291.141	467.06
291.371	494.06
291.602	484.06
291.833	500.06
292.064	489.06
292.295	468.06
292.526	476.06
292.757	507.06
292.987	499.06
293.218	479.06
293.449	522.06
293.68	583.06
293.91	592.06
294.141	556.06
294.372	526.06
294.603	557.06
294.833	568.06
295.064	538.06
295.295	484.06
295.525	472.06
295.756	448.06
295.987	438.06
296.217	460.06
296.448	454.06
296.679	458.06
296.909	449.06
297.14	467.06
297.37	482.06
297.601	497.06
297.831	537.06
298.062	511.06
298.292	490.06
298.523	448.06
298.753	480.06
298.984	462.06
299.214	461.06
299.445	480.06
299.675	498.06
299.905	499.06
300.136	484.06
300.366	477.06
300.597	436.06
300.827	476.06
301.057	490.06
301.288	504.06
301.518	512.06
301.748	517.06
301.979	535.06
302.209	560.06
302.439	583.06
302.669	583.06
302.9	540.06
303.13	525.06
303.36	512.06
303.59	518.06
303.82	514.06
304.051	515.06
304.281	513.06
304.511	539.06
304.741	552.06
304.971	593.06
305.201	616.06
305.431	561.06
305.661	492.06
305.891	443.06
306.121	470.06
306.352	486.06
306.582	499.06
306.812	516.06
307.042	537.06
307.272	562.06
307.502	565.06
307.731	636.06
307.961	643.06
308.191	575.06
308.421	509.06
308.651	519.06
308.881	474.06
309.111	507.06
309.341	503.06
309.571	481.06
309.8	481.06
310.03	468.06
310.26	484.06
310.49	501.06
310.72	524.06
310.949	522.06
311.179	505.06
311.409	493.06
311.639	498.06
311.868	480.06
312.098	484.06
312.328	493.06
312.557	497.06
312.787	504.06
313.017	521.06
313.246	531.06
313.476	533.06
313.706	556.06
313.935	535.06
314.165	537.06
314.394	575.06
314.624	572.06
314.853	636.06
315.083	609.06
315.312	610.06
315.542	580.06
315.771	573.06
316.001	568.06
316.23	578.06
316.46	569.06
316.689	542.06
316.919	513.06
317.148	523.06
317.377	537.06
317.607	586.06
317.836	635.06
318.065	625.06
318.295	608.06
318.524	566.06
318.753	564.06
318.983	549.06
319.212	541.06
319.441	533.06
319.67	543.06
319.9	562.06
320.129	601.06
320.358	597.06
320.587	600.06
320.816	612.06
321.046	578.06
321.275	589.06
321.504	591.06
321.733	623.06
321.962	588.06
322.191	553.06
322.42	527.06
322.649	523.06
322.878	543.06
323.108	558.06
323.337	585.06
323.566	581.06
323.795	561.06
324.024	562.06
324.253	533.06
324.482	549.06
324.71	553.06
324.939	522.06
325.168	548.06
325.397	550.06
325.626	558.06
325.855	577.06
326.084	561.06
326.313	562.06
326.542	581.06
326.77	591.06
326.999	574.06
327.228	557.06
327.457	521.06
327.686	522.06
327.914	546.06
328.143	568.06
328.372	565.06
328.6	571.06
328.829	558.06
329.058	518.06
329.287	555.06
329.515	559.06
329.744	575.06
329.972	622.06
330.201	637.06
330.43	602.06
330.658	590.06
330.887	586.06
331.115	593.06
331.344	624.06
331.572	584.06
331.801	596.06
332.03	587.06
332.258	596.06
332.486	613.06
332.715	588.06
332.943	595.06
333.172	598.06
333.4	612.06
333.629	642.06
333.857	686.06
334.085	746.06
334.314	812.06
334.542	832.06
334.771	740.06
334.999	682.06
335.227	627.06
335.455	628.06
335.684	640.06
335.912	634.06
336.14	648.06
336.369	631.06
336.597	590.06
336.825	594.06
337.053	594.06
337.281	673.06
337.51	701.06
337.738	683.06
337.966	646.06
338.194	582.06
338.422	587.06
338.65	587.06
338.878	579.06
339.106	537.06
339.334	555.06
339.562	565.06
339.79	552.06
340.018	607.06
340.246	632.06
340.474	625.06
340.702	640.06
340.93	619.06
341.158	624.06
341.386	594.06
341.614	612.06
341.842	593.06
342.07	603.06
342.298	589.06
342.526	604.06
342.754	564.06
342.981	588.06
343.209	589.06
343.437	584.06
343.665	576.06
343.893	610.06
344.12	630.06
344.348	634.06
344.576	570.06
344.804	605.06
345.031	604.06
345.259	576.06
345.487	581.06
345.714	552.06
345.942	553.06
346.17	560.06
346.397	576.06
346.625	548.06
346.853	515.06
347.08	556.06
347.308	536.06
347.535	575.06
347.763	583.06
347.99	541.06
348.218	544.06
348.445	553.06
348.673	563.06
348.9	568.06
349.128	612.06
349.355	626.06
349.583	596.06
349.81	544.06
350.037	534.06
350.265	526.06
350.492	528.06
350.72	548.06
350.947	604.06
351.174	567.06
351.402	553.06
351.629	526.06
351.856	522.06
352.083	530.06
352.311	538.06
352.538	545.06
352.765	574.06
352.992	568.06
353.22	552.06
353.447	553.06
353.674	558.06
353.901	562.06
354.128	564.06
354.355	561.06
354.583	599.06
354.81	604.06
355.037	583.06
355.264	583.06
355.491	563.06
355.718	572.06
355.945	558.06
356.172	534.06
356.399	548.06
356.626	548.06
356.853	581.06
357.08	616.06
357.307	646.06
357.534	640.06
357.761	564.06
357.988	527.06
358.215	525.06
358.441	538.06
358.668	547.06
358.895	542.06
359.122	607.06
359.349	636.06
359.576	624.06
359.802	551.06
360.029	535.06
360.256	548.06
360.483	548.06
360.709	573.06
360.936	605.06
361.163	649.06
361.39	679.06
361.616	692.06
361.843	696.06
362.07	632.06
362.296	590.06
362.523	522.06
362.749	599.06
362.976	611.06
363.203	600.06
363.429	555.06
363.656	556.06
363.882	604.06
364.109	640.06
364.335	671.06
364.562	634.06
364.788	580.06
365.015	553.06
365.241	571.06
365.468	572.06
365.694	602.06
365.92	585.06
366.147	572.06
366.373	556.06
366.599	554.06
366.826	571.06
367.052	527.06
367.278	568.06
367.505	600.06
367.731	600.06
367.957	588.06
368.184	645.06
368.41	679.06
368.636	690.06
368.862	677.06
369.089	638.06
369.315	646.06
369.541	621.06
369.767	596.06
369.993	562.06
370.219	584.06
370.445	629.06
370.672	644.06
370.898	666.06
371.124	651.06
371.35	604.06
371.576	676.06
371.802	679.06
372.028	629.06
372.254	614.06
372.48	594.06
372.706	586.06
372.932	600.06
373.158	577.06
373.384	624.06
373.61	655.06
373.835	663.06
374.061	622.06
374.287	628.06
374.513	591.06
374.739	618.06
374.965	616.06
375.191	646.06
375.416	668.06
375.642	653.06
375.868	691.06
376.094	686.06
376.319	681.06
376.545	626.06
376.771	654.06
376.997	690.06
377.222	652.06
377.448	659.06
377.674	676.06
377.899	655.06
378.125	697.06
378.35	682.06
378.576	632.06
378.802	619.06
379.027	616.06
379.253	648.06
379.478	616.06
379.704	637.06
379.929	636.06
380.155	647.06
380.38	676.06
380.606	644.06
380.831	670.06
381.057	686.06
381.282	705.06
381.507	699.06
381.733	730.06
381.958	732.06
382.184	700.06
382.409	667.06
382.634	684.06
382.86	673.06
383.085	698.06
383.31	733.06
383.535	779.06
383.761	805.06
383.986	732.06
384.211	723.06
384.436	756.06
384.662	757.06
384.887	768.06
385.112	737.06
385.337	772.06
385.562	717.06
385.787	733.06
386.013	774.06
386.238	741.06
386.463	766.06
386.688	791.06
386.913	852.06
387.138	839.06
387.363	767.06
387.588	767.06
387.813	749.06
388.038	745.06
388.263	798.06
388.488	741.06
388.713	732.06
388.938	728.06
389.163	704.06
389.387	742.06
389.612	756.06
389.837	745.06
390.062	761.06
390.287	747.06
390.512	754.06
390.736	719.06
390.961	710.06
391.186	732.06
391.411	736.06
391.636	724.06
391.86	752.06
392.085	729.06
392.31	754.06
392.534	744.06
392.759	750.06
392.984	754.06
393.208	769.06
393.433	775.06
393.658	805.06
393.882	827.06
394.107	763.06
394.331	790.06
394.556	769.06
394.78	789.06
395.005	820.06
395.229	816.06
395.454	848.06
395.678	862.06
395.903	817.06
396.127	812.06
396.352	812.06
396.576	841.06
396.801	838.06
397.025	846.06
397.249	845.06
397.474	825.06
397.698	812.06
397.922	875.06
398.147	871.06
398.371	902.06
398.595	900.06
398.82	881.06
399.044	891.06
399.268	925.06
399.492	956.06
399.717	981.06
399.941	973.06
400.165	955.06
400.389	938.06
400.613	979.06
400.837	1118.06
401.062	1185.06
401.286	1024.06
401.51	966.06
401.734	974.06
401.958	938.06
402.182	890.06
402.406	876.06
402.63	880.06
402.854	873.06
403.078	903.06
403.302	880.06
403.526	911.06
403.75	926.06
403.974	934.06
404.198	954.06
404.422	972.06
404.645	1005.06
404.869	969.06
405.093	911.06
405.317	909.06
405.541	931.06
405.765	945.06
405.988	924.06
406.212	946.06
406.436	964.06
406.66	978.06
406.883	1016.06
407.107	1153.06
407.331	1220.06
407.555	1286.06
407.778	1126.06
408.002	998.06
408.226	961.06
408.449	965.06
408.673	945.06
408.896	957.06
409.12	953.06
409.344	938.06
409.567	910.06
409.791	934.06
410.014	928.06
410.238	1036.06
410.461	1068.06
410.685	974.06
410.908	928.06
411.132	931.06
411.355	931.06
411.578	888.06
411.802	934.06
412.025	956.06
412.249	957.06
412.472	896.06
412.695	915.06
412.919	898.06
413.142	916.06
413.365	895.06
413.589	942.06
413.812	976.06
414.035	978.06
414.258	931.06
414.482	928.06
414.705	938.06
414.928	894.06
415.151	894.06
415.374	922.06
415.597	931.06
415.821	952.06
416.044	912.06
416.267	917.06
416.49	900.06
416.713	904.06
416.936	946.06
417.159	973.06
417.382	947.06
417.605	915.06
417.828	920.06
418.051	940.06
418.274	922.06
418.497	928.06
418.72	897.06
418.943	889.06
419.166	949.06
419.389	973.06
419.611	957.06
419.834	946.06
420.057	954.06
420.28	939.06
420.503	928.06
420.726	928.06
420.948	898.06
421.171	905.06
421.394	926.06
421.617	938.06
421.839	974.06
422.062	997.06
422.285	939.06
422.507	914.06
422.73	911.06
422.953	889.06
423.175	878.06
423.398	905.06
423.621	902.06
423.843	932.06
424.066	975.06
424.288	1033.06
424.511	1025.06
424.733	958.06
424.956	926.06
425.178	908.06
425.401	913.06
425.623	941.06
425.846	931.06
426.068	961.06
426.291	968.06
426.513	939.06
426.735	955.06
426.958	1025.06
427.18	1078.06
427.402	976.06
427.625	988.06
427.847	977.06
428.069	921.06
428.292	912.06
428.514	879.06
428.736	884.06
428.958	912.06
429.181	915.06
429.403	1078.06
429.625	1236.06
429.847	1061.06
430.069	941.06
430.292	1064.06
430.514	1013.06
430.736	965.06
430.958	963.06
431.18	898.06
431.402	880.06
431.624	844.06
431.846	774.06
432.068	733.06
432.29	745.06
432.512	795.06
432.734	862.06
432.956	903.06
433.178	954.06
433.4	948.06
433.622	955.06
433.844	937.06
434.066	853.06
434.287	802.06
434.509	780.06
434.731	831.06
434.953	940.06
435.175	904.06
435.397	920.06
435.618	861.06
435.84	830.06
436.062	812.06
436.284	896.06
436.505	920.06
436.727	942.06
436.949	911.06
437.17	889.06
437.392	881.06
437.614	855.06
437.835	780.06
438.057	816.06
438.278	818.06
438.5	871.06
438.721	904.06
438.943	913.06
439.165	898.06
439.386	911.06
439.608	930.06
439.829	950.06
440.05	953.06
440.272	959.06
440.493	971.06
440.715	955.06
440.936	1027.06
441.158	1080.06
441.379	1065.06
441.6	1048.06
441.822	1012.06
442.043	1013.06
442.264	962.06
442.486	934.06
442.707	954.06
442.928	932.06
443.149	970.06
443.371	1016.06
443.592	1035.06
443.813	987.06
444.034	980.06
444.255	1009.06
444.476	1036.06
444.698	1043.06
444.919	1034.06
445.14	1163.06
445.361	1095.06
445.582	1088.06
445.803	1027.06
446.024	1064.06
446.245	1081.06
446.466	1052.06
446.687	1016.06
446.908	1044.06
447.129	1011.06
447.35	1044.06
447.571	1001.06
447.792	943.06
448.013	939.06
448.234	972.06
448.455	1016.06
448.675	989.06
448.896	905.06
449.117	910.06
449.338	944.06
449.559	971.06
449.779	969.06
450	1025.06
450.221	1054.06
450.442	998.06
450.662	914.06
450.883	860.06
451.104	868.06
451.324	885.06
451.545	884.06
451.766	857.06
451.986	844.06
452.207	818.06
452.428	788.06
452.648	777.06
452.869	775.06
453.089	779.06
453.31	794.06
453.53	766.06
453.751	725.06
453.971	666.06
454.192	738.06
454.412	771.06
454.633	811.06
454.853	786.06
455.073	768.06
455.294	765.06
455.514	774.06
455.734	769.06
455.955	741.06
456.175	729.06
456.395	727.06
456.616	753.06
456.836	730.06
457.056	731.06
457.276	738.06
457.497	698.06
457.717	694.06
457.937	708.06
458.157	714.06
458.377	684.06
458.598	664.06
458.818	646.06
459.038	696.06
459.258	720.06
459.478	693.06
459.698	706.06
459.918	728.06
460.138	797.06
460.358	822.06
460.578	833.06
460.798	841.06
461.018	887.06
461.238	879.06
461.458	852.06
461.678	836.06
461.898	788.06
462.118	789.06
462.338	823.06
462.558	847.06
462.777	853.06
462.997	853.06
463.217	876.06
463.437	865.06
463.657	826.06
463.876	817.06
464.096	820.06
464.316	840.06
464.536	857.06
464.755	866.06
464.975	843.06
465.195	866.06
465.414	879.06
465.634	851.06
465.854	892.06
466.073	951.06
466.293	932.06
466.512	851.06
466.732	860.06
466.951	920.06
467.171	877.06
467.391	872.06
467.61	872.06
467.829	888.06
468.049	974.06
468.268	1035.06
468.488	977.06
468.707	904.06
468.927	896.06
469.146	877.06
469.365	912.06
469.585	900.06
469.804	912.06
470.023	925.06
470.243	942.06
470.462	940.06
470.681	923.06
470.901	918.06
471.12	895.06
471.339	905.06
471.558	899.06
471.777	884.06
471.997	889.06
472.216	840.06
472.435	788.06
472.654	754.06
472.873	781.06
473.092	833.06
473.311	828.06
473.53	808.06
473.749	821.06
473.968	850.06
474.187	835.06
474.406	838.06
474.625	851.06
474.844	886.06
475.063	878.06
475.282	872.06
475.501	818.06
475.72	851.06
475.939	885.06
476.158	915.06
476.377	867.06
476.596	829.06
476.814	818.06
477.033	798.06
477.252	817.06
477.471	889.06
477.69	912.06
477.908	916.06
478.127	975.06
478.346	996.06
478.564	980.06
478.783	1010.06
479.002	1032.06
479.22	1005.06
479.439	1028.06
479.658	1046.06
479.876	986.06
480.095	886.06
480.313	852.06
480.532	881.06
480.751	882.06
480.969	804.06
481.188	807.06
481.406	777.06
481.624	746.06
481.843	783.06
482.061	812.06
482.28	889.06
482.498	888.06
482.717	857.06
482.935	898.06
483.153	962.06
483.372	1001.06
483.59	1032.06
483.808	961.06
484.027	932.06
484.245	990.06
484.463	1194.06
484.681	1304.06
484.9	1034.06
485.118	948.06
485.336	888.06
485.554	906.06
485.772	896.06
485.99	892.06
486.209	906.06
486.427	903.06
486.645	925.06
486.863	967.06
487.081	1032.06
487.299	1016.06
487.517	1012.06
487.735	1115.06
487.953	1151.06
488.171	1170.06
488.389	1154.06
488.607	1072.06
488.825	1149.06
489.043	1038.06
489.261	986.06
489.479	1049.06
489.696	1025.06
489.914	1038.06
490.132	1013.06
490.35	1074.06
490.568	1178.06
490.786	1197.06
491.003	1165.06
491.221	1233.06
491.439	1285.06
491.657	1297.06
491.874	1387.06
492.092	1458.06
492.31	1512.06
492.527	1434.06
492.745	1357.06
492.963	1269.06
493.18	1300.06
493.398	1352.06
493.615	1345.06
493.833	1271.06
494.05	1216.06
494.268	1219.06
494.485	1259.06
494.703	1228.06
494.92	1222.06
495.138	1217.06
495.355	1237.06
495.573	1228.06
495.79	1269.06
496.008	1261.06
496.225	1214.06
496.442	1236.06
496.66	1228.06
496.877	1221.06
497.094	1212.06
497.312	1206.06
497.529	1216.06
497.746	1195.06
497.963	1241.06
498.181	1280.06
498.398	1269.06
498.615	1198.06
498.832	1144.06
499.049	1148.06
499.267	1141.06
499.484	1243.06
499.701	1354.06
499.918	1382.06
500.135	1467.06
500.352	1579.06
500.569	1541.06
