Data from WStandard_LampEnergy5.5LIBS07252019.E.O._I.C._HRD10591_16-07-30-919.txt Node
Date: Thu Jul 25 16:07:30 EDT 2019
User: cochatt
Spectrometer: HR+D1059
Trigger mode: 1
Integration Time (sec): 1.000000E-1
Scans to average: 1
Electric dark correction enabled: true
Nonlinearity correction enabled: false
Boxcar width: 0
XAxis mode: Wavelengths
Number of Pixels in Spectrum: 2048
>>>>>Begin Spectral Data<<<<<
223.165	-11.31
223.4	-11.31
223.635	-11.31
223.869	-18.31
224.104	-19.31
224.338	-15.31
224.573	-11.31
224.808	-11.31
225.042	-7.31
225.277	-13.31
225.511	-13.31
225.746	5.69
225.98	10.69
226.215	16.69
226.449	18.69
226.683	14.69
226.918	21.69
227.152	32.69
227.387	36.69
227.621	36.69
227.856	43.69
228.09	56.69
228.324	55.69
228.559	62.69
228.793	149.69
229.027	386.69
229.262	389.69
229.496	378.69
229.73	394.69
229.964	452.69
230.199	479.69
230.433	478.69
230.667	515.69
230.901	552.69
231.136	499.69
231.37	473.69
231.604	460.69
231.838	497.69
232.072	491.69
232.306	457.69
232.541	480.69
232.775	575.69
233.009	590.69
233.243	609.69
233.477	546.69
233.711	577.69
233.945	608.69
234.179	568.69
234.413	589.69
234.647	666.69
234.881	601.69
235.115	565.69
235.349	564.69
235.583	587.69
235.817	599.69
236.051	548.69
236.285	575.69
236.519	612.69
236.753	686.69
236.987	751.69
237.221	687.69
237.455	799.69
237.689	735.69
237.922	727.69
238.156	680.69
238.39	681.69
238.624	744.69
238.858	774.69
239.091	809.69
239.325	839.69
239.559	950.69
239.793	989.69
240.027	1081.69
240.26	1092.69
240.494	782.69
240.728	746.69
240.961	748.69
241.195	738.69
241.429	843.69
241.662	840.69
241.896	785.69
242.13	794.69
242.363	888.69
242.597	923.69
242.83	902.69
243.064	902.69
243.298	980.69
243.531	953.69
243.765	954.69
243.998	994.69
244.232	840.69
244.465	804.69
244.699	811.69
244.932	923.69
245.166	1104.69
245.399	1034.69
245.633	947.69
245.866	954.69
246.099	983.69
246.333	972.69
246.566	998.69
246.8	1090.69
247.033	1218.69
247.266	1114.69
247.5	1074.69
247.733	1080.69
247.966	1141.69
248.2	1287.69
248.433	1218.69
248.666	1247.69
248.899	1375.69
249.133	1568.69
249.366	1830.69
249.599	1476.69
249.832	1287.69
250.066	1343.69
250.299	1341.69
250.532	1252.69
250.765	1127.69
250.998	1184.69
251.231	1268.69
251.465	1259.69
251.698	1236.69
251.931	1209.69
252.164	1234.69
252.397	1298.69
252.63	1287.69
252.863	1151.69
253.096	1113.69
253.329	1196.69
253.562	1245.69
253.795	1307.69
254.028	1305.69
254.261	1220.69
254.494	1197.69
254.727	1110.69
254.96	1174.69
255.193	1316.69
255.426	1450.69
255.659	1702.69
255.892	1742.69
256.124	1439.69
256.357	1398.69
256.59	1495.69
256.823	1489.69
257.056	1486.69
257.289	1734.69
257.521	1931.69
257.754	1783.69
257.987	1647.69
258.22	1855.69
258.452	1787.69
258.685	1473.69
258.918	1421.69
259.151	1427.69
259.383	1355.69
259.616	1223.69
259.849	1306.69
260.081	1426.69
260.314	1622.69
260.547	1759.69
260.779	1798.69
261.012	1655.69
261.244	1507.69
261.477	1395.69
261.71	1480.69
261.942	1460.69
262.175	1379.69
262.407	1493.69
262.64	1416.69
262.872	1358.69
263.105	1297.69
263.337	1304.69
263.57	1304.69
263.802	1358.69
264.035	1274.69
264.267	1205.69
264.499	1186.69
264.732	1262.69
264.964	1338.69
265.197	1340.69
265.429	1442.69
265.661	1626.69
265.894	1779.69
266.126	1861.69
266.358	1654.69
266.591	1707.69
266.823	1883.69
267.055	1680.69
267.287	1656.69
267.52	1639.69
267.752	1630.69
267.984	1643.69
268.216	1649.69
268.448	1749.69
268.681	1719.69
268.913	1555.69
269.145	1462.69
269.377	1422.69
269.609	1552.69
269.841	1820.69
270.073	2127.69
270.306	2362.69
270.538	2541.69
270.77	2137.69
271.002	1759.69
271.234	1709.69
271.466	1656.69
271.698	1874.69
271.93	2276.69
272.162	2269.69
272.394	2059.69
272.626	1975.69
272.858	1724.69
273.09	1488.69
273.322	1505.69
273.553	1411.69
273.785	1447.69
274.017	1504.69
274.249	1600.69
274.481	1619.69
274.713	1483.69
274.945	1452.69
275.176	1480.69
275.408	1438.69
275.64	1439.69
275.872	1386.69
276.104	1506.69
276.335	1700.69
276.567	1952.69
276.799	2002.69
277.031	1779.69
277.262	1632.69
277.494	1683.69
277.726	1954.69
277.957	1902.69
278.189	1722.69
278.421	1564.69
278.652	1541.69
278.884	1532.69
279.115	1517.69
279.347	1591.69
279.579	1480.69
279.81	1504.69
280.042	1687.69
280.273	1849.69
280.505	1843.69
280.736	1888.69
280.968	1785.69
281.199	1563.69
281.431	1477.69
281.662	1447.69
281.894	1477.69
282.125	1528.69
282.356	1561.69
282.588	1577.69
282.819	1581.69
283.051	1673.69
283.282	1835.69
283.513	1823.69
283.745	1561.69
283.976	1455.69
284.207	1470.69
284.439	1493.69
284.67	1516.69
284.901	1542.69
285.132	1601.69
285.364	1565.69
285.595	1624.69
285.826	1559.69
286.057	1569.69
286.288	1566.69
286.52	1594.69
286.751	1709.69
286.982	1778.69
287.213	1622.69
287.444	1500.69
287.675	1477.69
287.906	1570.69
288.138	1670.69
288.369	1667.69
288.6	1544.69
288.831	1506.69
289.062	1517.69
289.293	1524.69
289.524	1514.69
289.755	1607.69
289.986	1619.69
290.217	1493.69
290.448	1515.69
290.679	1582.69
290.91	1557.69
291.141	1593.69
291.371	1682.69
291.602	1663.69
291.833	1626.69
292.064	1723.69
292.295	1635.69
292.526	1666.69
292.757	1782.69
292.987	1726.69
293.218	1586.69
293.449	1706.69
293.68	1962.69
293.91	2125.69
294.141	1926.69
294.372	1836.69
294.603	1849.69
294.833	1960.69
295.064	1881.69
295.295	1715.69
295.525	1663.69
295.756	1556.69
295.987	1463.69
296.217	1474.69
296.448	1524.69
296.679	1540.69
296.909	1560.69
297.14	1548.69
297.37	1556.69
297.601	1629.69
297.831	1766.69
298.062	1794.69
298.292	1641.69
298.523	1544.69
298.753	1562.69
298.984	1548.69
299.214	1580.69
299.445	1616.69
299.675	1661.69
299.905	1661.69
300.136	1603.69
300.366	1574.69
300.597	1534.69
300.827	1517.69
301.057	1572.69
301.288	1651.69
301.518	1654.69
301.748	1696.69
301.979	1765.69
302.209	1787.69
302.439	1884.69
302.669	2027.69
302.9	1869.69
303.13	1675.69
303.36	1691.69
303.59	1719.69
303.82	1703.69
304.051	1665.69
304.281	1641.69
304.511	1694.69
304.741	1755.69
304.971	2001.69
305.201	2174.69
305.431	2024.69
305.661	1624.69
305.891	1480.69
306.121	1436.69
306.352	1523.69
306.582	1596.69
306.812	1723.69
307.042	1843.69
307.272	1865.69
307.502	1917.69
307.731	2053.69
307.961	2204.69
308.191	2056.69
308.421	1796.69
308.651	1629.69
308.881	1640.69
309.111	1605.69
309.341	1570.69
309.571	1608.69
309.8	1658.69
310.03	1609.69
310.26	1590.69
310.49	1602.69
310.72	1615.69
310.949	1692.69
311.179	1701.69
311.409	1684.69
311.639	1656.69
311.868	1610.69
312.098	1651.69
312.328	1662.69
312.557	1570.69
312.787	1666.69
313.017	1695.69
313.246	1693.69
313.476	1683.69
313.706	1726.69
313.935	1731.69
314.165	1724.69
314.394	1783.69
314.624	1863.69
314.853	1950.69
315.083	2064.69
315.312	2124.69
315.542	1992.69
315.771	1774.69
316.001	1758.69
316.23	1820.69
316.46	1839.69
316.689	1776.69
316.919	1728.69
317.148	1662.69
317.377	1661.69
317.607	1785.69
317.836	2010.69
318.065	2104.69
318.295	2039.69
318.524	1902.69
318.753	1809.69
318.983	1798.69
319.212	1799.69
319.441	1756.69
319.67	1758.69
319.9	1793.69
320.129	1853.69
320.358	1959.69
320.587	2006.69
320.816	1970.69
321.046	1935.69
321.275	1799.69
321.504	1836.69
321.733	2042.69
321.962	1982.69
322.191	1765.69
322.42	1779.69
322.649	1743.69
322.878	1715.69
323.108	1767.69
323.337	1841.69
323.566	1835.69
323.795	1833.69
324.024	1837.69
324.253	1780.69
324.482	1816.69
324.71	1751.69
324.939	1675.69
325.168	1689.69
325.397	1742.69
325.626	1852.69
325.855	1858.69
326.084	1749.69
326.313	1752.69
326.542	1794.69
326.77	1875.69
326.999	1852.69
327.228	1801.69
327.457	1691.69
327.686	1659.69
327.914	1719.69
328.143	1758.69
328.372	1784.69
328.6	1758.69
328.829	1745.69
329.058	1706.69
329.287	1719.69
329.515	1765.69
329.744	1796.69
329.972	1882.69
330.201	1927.69
330.43	1939.69
330.658	1845.69
330.887	1886.69
331.115	1836.69
331.344	1912.69
331.572	1844.69
331.801	1874.69
332.03	1843.69
332.258	1858.69
332.486	1869.69
332.715	1920.69
332.943	1925.69
333.172	1849.69
333.4	1871.69
333.629	1904.69
333.857	2012.69
334.085	2208.69
334.314	2515.69
334.542	2778.69
334.771	2575.69
334.999	2241.69
335.227	2131.69
335.455	1974.69
335.684	2025.69
335.912	2067.69
336.14	2084.69
336.369	2048.69
336.597	1885.69
336.825	1871.69
337.053	1936.69
337.281	2046.69
337.51	2104.69
337.738	2210.69
337.966	2172.69
338.194	1929.69
338.422	1840.69
338.65	1871.69
338.878	1831.69
339.106	1794.69
339.334	1765.69
339.562	1783.69
339.79	1814.69
340.018	1893.69
340.246	1929.69
340.474	2015.69
340.702	1936.69
340.93	1906.69
341.158	1911.69
341.386	1865.69
341.614	1878.69
341.842	1879.69
342.07	1878.69
342.298	1855.69
342.526	1869.69
342.754	1802.69
342.981	1827.69
343.209	1852.69
343.437	1820.69
343.665	1831.69
343.893	1883.69
344.12	1922.69
344.348	1986.69
344.576	1907.69
344.804	1861.69
345.031	1822.69
345.259	1880.69
345.487	1800.69
345.714	1711.69
345.942	1690.69
346.17	1723.69
346.397	1724.69
346.625	1794.69
346.853	1662.69
347.08	1661.69
347.308	1661.69
347.535	1690.69
347.763	1759.69
347.99	1724.69
348.218	1709.69
348.445	1666.69
348.673	1678.69
348.9	1747.69
349.128	1774.69
349.355	1884.69
349.583	1802.69
349.81	1763.69
350.037	1588.69
350.265	1605.69
350.492	1610.69
350.72	1639.69
350.947	1722.69
351.174	1790.69
351.402	1675.69
351.629	1611.69
351.856	1591.69
352.083	1591.69
352.311	1619.69
352.538	1648.69
352.765	1690.69
352.992	1779.69
353.22	1691.69
353.447	1623.69
353.674	1652.69
353.901	1687.69
354.128	1652.69
354.355	1646.69
354.583	1688.69
354.81	1786.69
355.037	1751.69
355.264	1735.69
355.491	1687.69
355.718	1722.69
355.945	1724.69
356.172	1676.69
356.399	1623.69
356.626	1606.69
356.853	1645.69
357.08	1834.69
357.307	2010.69
357.534	2062.69
357.761	1795.69
357.988	1611.69
358.215	1590.69
358.441	1628.69
358.668	1603.69
358.895	1652.69
359.122	1727.69
359.349	1879.69
359.576	1887.69
359.802	1723.69
360.029	1635.69
360.256	1602.69
360.483	1622.69
360.709	1670.69
360.936	1730.69
361.163	1798.69
361.39	2015.69
361.616	2114.69
361.843	2048.69
362.07	1973.69
362.296	1707.69
362.523	1641.69
362.749	1665.69
362.976	1698.69
363.203	1753.69
363.429	1700.69
363.656	1644.69
363.882	1661.69
364.109	1870.69
364.335	2032.69
364.562	1819.69
364.788	1765.69
365.015	1744.69
365.241	1637.69
365.468	1679.69
365.694	1763.69
365.92	1851.69
366.147	1783.69
366.373	1659.69
366.599	1616.69
366.826	1607.69
367.052	1603.69
367.278	1673.69
367.505	1676.69
367.731	1739.69
367.957	1702.69
368.184	1734.69
368.41	1858.69
368.636	1883.69
368.862	1886.69
369.089	1952.69
369.315	1878.69
369.541	1775.69
369.767	1711.69
369.993	1669.69
370.219	1680.69
370.445	1726.69
370.672	1780.69
370.898	1887.69
371.124	1913.69
371.35	1775.69
371.576	1780.69
371.802	1928.69
372.028	1806.69
372.254	1740.69
372.48	1738.69
372.706	1681.69
372.932	1664.69
373.158	1701.69
373.384	1734.69
373.61	1816.69
373.835	1867.69
374.061	1810.69
374.287	1754.69
374.513	1795.69
374.739	1802.69
374.965	1802.69
375.191	1804.69
375.416	1813.69
375.642	1817.69
375.868	1925.69
376.094	1966.69
376.319	1944.69
376.545	1755.69
376.771	1806.69
376.997	1931.69
377.222	1884.69
377.448	1826.69
377.674	1835.69
377.899	1834.69
378.125	1943.69
378.35	1976.69
378.576	1781.69
378.802	1717.69
379.027	1729.69
379.253	1701.69
379.478	1726.69
379.704	1769.69
379.929	1729.69
380.155	1763.69
380.38	1787.69
380.606	1775.69
380.831	1796.69
381.057	1871.69
381.282	1895.69
381.507	1803.69
381.733	1913.69
381.958	2048.69
382.184	1877.69
382.409	1808.69
382.634	1869.69
382.86	1823.69
383.085	1859.69
383.31	1892.69
383.535	2026.69
383.761	2183.69
383.986	2094.69
384.211	1988.69
384.436	1924.69
384.662	2076.69
384.887	2179.69
385.112	2028.69
385.337	2026.69
385.562	1985.69
385.787	1993.69
386.013	2055.69
386.238	2054.69
386.463	2034.69
386.688	2192.69
386.913	2298.69
387.138	2264.69
387.363	2095.69
387.588	2082.69
387.813	2084.69
388.038	2060.69
388.263	2146.69
388.488	2118.69
388.713	1943.69
388.938	1901.69
389.163	1914.69
389.387	1988.69
389.612	2011.69
389.837	2050.69
390.062	2043.69
390.287	2026.69
390.512	2012.69
390.736	1977.69
390.961	1912.69
391.186	1914.69
391.411	1898.69
391.636	1938.69
391.86	2020.69
392.085	1999.69
392.31	2022.69
392.534	1978.69
392.759	2074.69
392.984	2002.69
393.208	2069.69
393.433	2075.69
393.658	2171.69
393.882	2196.69
394.107	2092.69
394.331	1966.69
394.556	1953.69
394.78	2040.69
395.005	2091.69
395.229	2163.69
395.454	2308.69
395.678	2308.69
395.903	2254.69
396.127	2095.69
396.352	2131.69
396.576	2201.69
396.801	2198.69
397.025	2215.69
397.249	2202.69
397.474	2174.69
397.698	2131.69
397.922	2190.69
398.147	2283.69
398.371	2423.69
398.595	2389.69
398.82	2310.69
399.044	2312.69
399.268	2394.69
399.492	2564.69
399.717	2675.69
399.941	2703.69
400.165	2658.69
400.389	2630.69
400.613	2499.69
400.837	2820.69
401.062	3210.69
401.286	2779.69
401.51	2464.69
401.734	2643.69
401.958	2537.69
402.182	2367.69
402.406	2269.69
402.63	2272.69
402.854	2245.69
403.078	2307.69
403.302	2370.69
403.526	2419.69
403.75	2374.69
403.974	2391.69
404.198	2402.69
404.422	2443.69
404.645	2578.69
404.869	2559.69
405.093	2389.69
405.317	2354.69
405.541	2423.69
405.765	2448.69
405.988	2387.69
406.212	2408.69
406.436	2477.69
406.66	2570.69
406.883	2562.69
407.107	2849.69
407.331	3150.69
407.555	3354.69
407.778	3106.69
408.002	2602.69
408.226	2488.69
408.449	2514.69
408.673	2427.69
408.896	2455.69
409.12	2470.69
409.344	2471.69
409.567	2391.69
409.791	2409.69
410.014	2443.69
410.238	2543.69
410.461	2696.69
410.685	2420.69
410.908	2349.69
411.132	2390.69
411.355	2383.69
411.578	2332.69
411.802	2347.69
412.025	2414.69
412.249	2344.69
412.472	2239.69
412.695	2214.69
412.919	2284.69
413.142	2237.69
413.365	2270.69
413.589	2360.69
413.812	2420.69
414.035	2546.69
414.258	2314.69
414.482	2263.69
414.705	2298.69
414.928	2237.69
415.151	2266.69
415.374	2307.69
415.597	2302.69
415.821	2374.69
416.044	2447.69
416.267	2406.69
416.49	2190.69
416.713	2218.69
416.936	2298.69
417.159	2355.69
417.382	2378.69
417.605	2259.69
417.828	2282.69
418.051	2414.69
418.274	2292.69
418.497	2206.69
418.72	2188.69
418.943	2212.69
419.166	2341.69
419.389	2393.69
419.611	2328.69
419.834	2254.69
420.057	2307.69
420.28	2199.69
420.503	2208.69
420.726	2253.69
420.948	2284.69
421.171	2163.69
421.394	2215.69
421.617	2280.69
421.839	2238.69
422.062	2221.69
422.285	2133.69
422.507	2164.69
422.73	2132.69
422.953	2082.69
423.175	2150.69
423.398	2208.69
423.621	2196.69
423.843	2203.69
424.066	2234.69
424.288	2293.69
424.511	2388.69
424.733	2344.69
424.956	2100.69
425.178	2056.69
425.401	2104.69
425.623	2124.69
425.846	2118.69
426.068	2241.69
426.291	2277.69
426.513	2222.69
426.735	2199.69
426.958	2373.69
427.18	2525.69
427.402	2306.69
427.625	2400.69
427.847	2416.69
428.069	2255.69
428.292	2124.69
428.514	2083.69
428.736	2100.69
428.958	2098.69
429.181	2128.69
429.403	2359.69
429.625	2985.69
429.847	2645.69
430.069	2198.69
430.292	2418.69
430.514	2497.69
430.736	2317.69
430.958	2396.69
431.18	2289.69
431.402	2149.69
431.624	2132.69
431.846	2102.69
432.068	2065.69
432.29	2103.69
432.512	2116.69
432.734	2216.69
432.956	2228.69
433.178	2327.69
433.4	2278.69
433.622	2258.69
433.844	2177.69
434.066	2072.69
434.287	2056.69
434.509	2199.69
434.731	2296.69
434.953	2406.69
435.175	2407.69
435.397	2227.69
435.618	2299.69
435.84	2210.69
436.062	2188.69
436.284	2238.69
436.505	2243.69
436.727	2284.69
436.949	2211.69
437.17	2126.69
437.392	2142.69
437.614	2151.69
437.835	2094.69
438.057	2266.69
438.278	2281.69
438.5	2159.69
438.721	2100.69
438.943	2146.69
439.165	2102.69
439.386	2023.69
439.608	2054.69
439.829	2107.69
440.05	2146.69
440.272	2092.69
440.493	2064.69
440.715	2114.69
440.936	2275.69
441.158	2480.69
441.379	2427.69
441.6	2351.69
441.822	2286.69
442.043	2330.69
442.264	2234.69
442.486	2127.69
442.707	2083.69
442.928	2062.69
443.149	2140.69
443.371	2315.69
443.592	2377.69
443.813	2326.69
444.034	2302.69
444.255	2364.69
444.476	2377.69
444.698	2385.69
444.919	2401.69
445.14	2541.69
445.361	2461.69
445.582	2572.69
445.803	2462.69
446.024	2314.69
446.245	2400.69
446.466	2377.69
446.687	2218.69
446.908	2242.69
447.129	2146.69
447.35	2191.69
447.571	2198.69
447.792	2115.69
448.013	2054.69
448.234	2080.69
448.455	2191.69
448.675	2220.69
448.896	2034.69
449.117	2048.69
449.338	2044.69
449.559	2126.69
449.779	2267.69
450	2552.69
450.221	2692.69
450.442	2642.69
450.662	2284.69
450.883	2049.69
451.104	1965.69
451.324	2034.69
451.545	2093.69
451.766	2125.69
451.986	2001.69
452.207	1950.69
452.428	1914.69
452.648	1854.69
452.869	1966.69
453.089	2100.69
453.31	2130.69
453.53	2186.69
453.751	2034.69
453.971	1921.69
454.192	1957.69
454.412	2147.69
454.633	2044.69
454.853	1960.69
455.073	1864.69
455.294	1821.69
455.514	1853.69
455.734	1903.69
455.955	1934.69
456.175	1912.69
456.395	1913.69
456.616	1976.69
456.836	2024.69
457.056	1955.69
457.276	1965.69
457.497	1877.69
457.717	1824.69
457.937	1858.69
458.157	1937.69
458.377	1920.69
458.598	1922.69
458.818	1877.69
459.038	2019.69
459.258	2182.69
459.478	2159.69
459.698	2116.69
459.918	2107.69
460.138	2240.69
460.358	2314.69
460.578	2261.69
460.798	2390.69
461.018	2474.69
461.238	2397.69
461.458	2270.69
461.678	2273.69
461.898	2243.69
462.118	2172.69
462.338	2265.69
462.558	2297.69
462.777	2274.69
462.997	2396.69
463.217	2524.69
463.437	2493.69
463.657	2332.69
463.876	2308.69
464.096	2256.69
464.316	2261.69
464.536	2397.69
464.755	2343.69
464.975	2434.69
465.195	2309.69
465.414	2398.69
465.634	2409.69
465.854	2275.69
466.073	2413.69
466.293	2361.69
466.512	2094.69
466.732	2095.69
466.951	2183.69
467.171	2115.69
467.391	2062.69
467.61	2021.69
467.829	2063.69
468.049	2239.69
468.268	2514.69
468.488	2325.69
468.707	2189.69
468.927	2129.69
469.146	2144.69
469.365	2052.69
469.585	2051.69
469.804	2055.69
470.023	2054.69
470.243	2140.69
470.462	2109.69
470.681	2030.69
470.901	2018.69
471.12	2057.69
471.339	2035.69
471.558	1989.69
471.777	1990.69
471.997	2005.69
472.216	2000.69
472.435	1960.69
472.654	2006.69
472.873	2145.69
473.092	2231.69
473.311	2124.69
473.53	2000.69
473.749	1998.69
473.968	2051.69
474.187	2144.69
474.406	2266.69
474.625	2108.69
474.844	2081.69
475.063	2090.69
475.282	2167.69
475.501	2088.69
475.72	2092.69
475.939	2238.69
476.158	2175.69
476.377	2100.69
476.596	2143.69
476.814	2212.69
477.033	2178.69
477.252	2267.69
477.471	2366.69
477.69	2195.69
477.908	2140.69
478.127	2277.69
478.346	2491.69
478.564	2552.69
478.783	2486.69
479.002	2538.69
479.22	2461.69
479.439	2565.69
479.658	2938.69
479.876	2907.69
480.095	2514.69
480.313	2403.69
480.532	2283.69
480.751	2387.69
480.969	2447.69
481.188	2345.69
481.406	2312.69
481.624	2260.69
481.843	2328.69
482.061	2388.69
482.28	2401.69
482.498	2432.69
482.717	2451.69
482.935	2335.69
483.153	2322.69
483.372	2291.69
483.59	2278.69
483.808	2260.69
484.027	2351.69
484.245	2524.69
484.463	2887.69
484.681	3395.69
484.9	2565.69
485.118	2418.69
485.336	2358.69
485.554	2428.69
485.772	2555.69
485.99	2498.69
486.209	2526.69
486.427	2519.69
486.645	2523.69
486.863	2422.69
487.081	2536.69
487.299	2629.69
