Data from WStandard_LampEnergy5.5LIBS07252019.E.O._I.C._HRD10591_16-08-28-921.txt Node
Date: Thu Jul 25 16:08:28 EDT 2019
User: cochatt
Spectrometer: HR+D1059
Trigger mode: 1
Integration Time (sec): 1.000000E-1
Scans to average: 1
Electric dark correction enabled: true
Nonlinearity correction enabled: false
Boxcar width: 0
XAxis mode: Wavelengths
Number of Pixels in Spectrum: 2048
>>>>>Begin Spectral Data<<<<<
223.165	-21.19
223.4	-21.19
223.635	-21.19
223.869	-16.19
224.104	-0.19
224.338	-14.19
224.573	-19.19
224.808	-12.19
225.042	-2.19
225.277	0.81
225.511	0.81
225.746	1.81
225.98	-11.19
226.215	2.81
226.449	24.81
226.683	20.81
226.918	29.81
227.152	14.81
227.387	36.81
227.621	31.81
227.856	47.81
228.09	42.81
228.324	55.81
228.559	51.81
228.793	146.81
229.027	347.81
229.262	346.81
229.496	376.81
229.73	367.81
229.964	439.81
230.199	431.81
230.433	464.81
230.667	482.81
230.901	521.81
231.136	437.81
231.37	448.81
231.604	454.81
231.838	448.81
232.072	447.81
232.306	448.81
232.541	459.81
232.775	550.81
233.009	594.81
233.243	577.81
233.477	495.81
233.711	524.81
233.945	539.81
234.179	546.81
234.413	576.81
234.647	629.81
234.881	573.81
235.115	524.81
235.349	515.81
235.583	535.81
235.817	552.81
236.051	528.81
236.285	541.81
236.519	547.81
236.753	641.81
236.987	643.81
237.221	657.81
237.455	738.81
237.689	690.81
237.922	656.81
238.156	609.81
238.39	637.81
238.624	673.81
238.858	714.81
239.091	740.81
239.325	768.81
239.559	895.81
239.793	941.81
240.027	970.81
240.26	989.81
240.494	736.81
240.728	689.81
240.961	705.81
241.195	721.81
241.429	817.81
241.662	795.81
241.896	743.81
242.13	730.81
242.363	856.81
242.597	881.81
242.83	853.81
243.064	879.81
243.298	949.81
243.531	890.81
243.765	895.81
243.998	913.81
244.232	779.81
244.465	740.81
244.699	751.81
244.932	851.81
245.166	983.81
245.399	937.81
245.633	863.81
245.866	848.81
246.099	896.81
246.333	903.81
246.566	917.81
246.8	1012.81
247.033	1123.81
247.266	1018.81
247.5	1022.81
247.733	1029.81
247.966	1075.81
248.2	1154.81
248.433	1116.81
248.666	1175.81
248.899	1276.81
249.133	1470.81
249.366	1646.81
249.599	1360.81
249.832	1184.81
250.066	1191.81
250.299	1249.81
250.532	1169.81
250.765	1021.81
250.998	1081.81
251.231	1128.81
251.465	1165.81
251.698	1123.81
251.931	1136.81
252.164	1161.81
252.397	1200.81
252.63	1180.81
252.863	1081.81
253.096	1041.81
253.329	1130.81
253.562	1141.81
253.795	1248.81
254.028	1183.81
254.261	1139.81
254.494	1108.81
254.727	1052.81
254.96	1130.81
255.193	1207.81
255.426	1386.81
255.659	1575.81
255.892	1653.81
256.124	1307.81
256.357	1251.81
256.59	1400.81
256.823	1372.81
257.056	1409.81
257.289	1649.81
257.521	1818.81
257.754	1632.81
257.987	1516.81
258.22	1717.81
258.452	1649.81
258.685	1378.81
258.918	1288.81
259.151	1332.81
259.383	1289.81
259.616	1110.81
259.849	1211.81
260.081	1320.81
260.314	1468.81
260.547	1654.81
260.779	1647.81
261.012	1564.81
261.244	1427.81
261.477	1293.81
261.71	1347.81
261.942	1345.81
262.175	1298.81
262.407	1408.81
262.64	1324.81
262.872	1252.81
263.105	1221.81
263.337	1227.81
263.57	1244.81
263.802	1233.81
264.035	1172.81
264.267	1129.81
264.499	1067.81
264.732	1149.81
264.964	1269.81
265.197	1303.81
265.429	1340.81
265.661	1487.81
265.894	1649.81
266.126	1726.81
266.358	1546.81
266.591	1586.81
266.823	1769.81
267.055	1555.81
267.287	1547.81
267.52	1513.81
267.752	1478.81
267.984	1489.81
268.216	1545.81
268.448	1588.81
268.681	1568.81
268.913	1445.81
269.145	1370.81
269.377	1325.81
269.609	1469.81
269.841	1657.81
270.073	1935.81
270.306	2172.81
270.538	2337.81
270.77	1980.81
271.002	1641.81
271.234	1561.81
271.466	1564.81
271.698	1752.81
271.93	2124.81
272.162	2106.81
272.394	1866.81
272.626	1842.81
272.858	1600.81
273.09	1413.81
273.322	1420.81
273.553	1304.81
273.785	1368.81
274.017	1408.81
274.249	1509.81
274.481	1555.81
274.713	1407.81
274.945	1377.81
275.176	1381.81
275.408	1352.81
275.64	1318.81
275.872	1286.81
276.104	1367.81
276.335	1589.81
276.567	1765.81
276.799	1880.81
277.031	1637.81
277.262	1544.81
277.494	1542.81
277.726	1777.81
277.957	1767.81
278.189	1571.81
278.421	1468.81
278.652	1443.81
278.884	1404.81
279.115	1372.81
279.347	1443.81
279.579	1412.81
279.81	1378.81
280.042	1552.81
280.273	1693.81
280.505	1698.81
280.736	1733.81
280.968	1631.81
281.199	1416.81
281.431	1362.81
281.662	1393.81
281.894	1361.81
282.125	1385.81
282.356	1437.81
282.588	1483.81
282.819	1476.81
283.051	1595.81
283.282	1711.81
283.513	1713.81
283.745	1413.81
283.976	1322.81
284.207	1346.81
284.439	1394.81
284.67	1417.81
284.901	1457.81
285.132	1493.81
285.364	1455.81
285.595	1453.81
285.826	1442.81
286.057	1450.81
286.288	1405.81
286.52	1468.81
286.751	1595.81
286.982	1683.81
287.213	1548.81
287.444	1397.81
287.675	1412.81
287.906	1471.81
288.138	1594.81
288.369	1521.81
288.6	1448.81
288.831	1404.81
289.062	1433.81
289.293	1448.81
289.524	1428.81
289.755	1497.81
289.986	1529.81
290.217	1397.81
290.448	1411.81
290.679	1417.81
290.91	1448.81
291.141	1477.81
291.371	1567.81
291.602	1545.81
291.833	1520.81
292.064	1562.81
292.295	1510.81
292.526	1563.81
292.757	1666.81
292.987	1581.81
293.218	1513.81
293.449	1615.81
293.68	1804.81
293.91	1964.81
294.141	1817.81
294.372	1696.81
294.603	1757.81
294.833	1854.81
295.064	1728.81
295.295	1595.81
295.525	1537.81
295.756	1450.81
295.987	1360.81
296.217	1407.81
296.448	1435.81
296.679	1449.81
296.909	1455.81
297.14	1396.81
297.37	1421.81
297.601	1512.81
297.831	1629.81
298.062	1665.81
298.292	1514.81
298.523	1457.81
298.753	1436.81
298.984	1478.81
299.214	1493.81
299.445	1494.81
299.675	1563.81
299.905	1531.81
300.136	1496.81
300.366	1472.81
300.597	1435.81
300.827	1448.81
301.057	1523.81
301.288	1564.81
301.518	1542.81
301.748	1572.81
301.979	1648.81
302.209	1676.81
302.439	1795.81
302.669	1879.81
302.9	1751.81
303.13	1580.81
303.36	1546.81
303.59	1619.81
303.82	1572.81
304.051	1583.81
304.281	1558.81
304.511	1548.81
304.741	1642.81
304.971	1823.81
305.201	1954.81
305.431	1859.81
305.661	1515.81
305.891	1368.81
306.121	1373.81
306.352	1437.81
306.582	1485.81
306.812	1585.81
307.042	1753.81
307.272	1717.81
307.502	1789.81
307.731	1951.81
307.961	2053.81
308.191	1925.81
308.421	1620.81
308.651	1545.81
308.881	1511.81
309.111	1483.81
309.341	1446.81
309.571	1514.81
309.8	1525.81
310.03	1508.81
310.26	1515.81
310.49	1507.81
310.72	1529.81
310.949	1632.81
311.179	1611.81
311.409	1613.81
311.639	1549.81
311.868	1514.81
312.098	1516.81
312.328	1552.81
312.557	1501.81
312.787	1527.81
313.017	1619.81
313.246	1591.81
313.476	1589.81
313.706	1611.81
313.935	1586.81
314.165	1625.81
314.394	1654.81
314.624	1703.81
314.853	1815.81
315.083	1917.81
315.312	1973.81
315.542	1853.81
315.771	1611.81
316.001	1632.81
316.23	1693.81
316.46	1735.81
316.689	1676.81
316.919	1595.81
317.148	1532.81
317.377	1534.81
317.607	1670.81
317.836	1861.81
318.065	1963.81
318.295	1881.81
318.524	1799.81
318.753	1728.81
318.983	1735.81
319.212	1655.81
319.441	1610.81
319.67	1637.81
319.9	1640.81
320.129	1756.81
320.358	1827.81
320.587	1851.81
320.816	1873.81
321.046	1780.81
321.275	1680.81
321.504	1698.81
321.733	1864.81
321.962	1830.81
322.191	1664.81
322.42	1663.81
322.649	1664.81
322.878	1668.81
323.108	1666.81
323.337	1701.81
323.566	1728.81
323.795	1700.81
324.024	1716.81
324.253	1649.81
324.482	1653.81
324.71	1653.81
324.939	1587.81
325.168	1618.81
325.397	1671.81
325.626	1684.81
325.855	1722.81
326.084	1599.81
326.313	1658.81
326.542	1647.81
326.77	1733.81
326.999	1741.81
327.228	1651.81
327.457	1599.81
327.686	1564.81
327.914	1638.81
328.143	1636.81
328.372	1664.81
328.6	1673.81
328.829	1662.81
329.058	1611.81
329.287	1651.81
329.515	1645.81
329.744	1662.81
329.972	1741.81
330.201	1809.81
330.43	1782.81
330.658	1731.81
330.887	1705.81
331.115	1715.81
331.344	1813.81
331.572	1698.81
331.801	1729.81
332.03	1759.81
332.258	1698.81
332.486	1765.81
332.715	1779.81
332.943	1809.81
333.172	1732.81
333.4	1804.81
333.629	1820.81
333.857	1866.81
334.085	2091.81
334.314	2324.81
334.542	2611.81
334.771	2430.81
334.999	2035.81
335.227	2006.81
335.455	1855.81
335.684	1855.81
335.912	1864.81
336.14	1940.81
336.369	1898.81
336.597	1808.81
336.825	1793.81
337.053	1823.81
337.281	1916.81
337.51	1980.81
337.738	2111.81
337.966	2006.81
338.194	1795.81
338.422	1731.81
338.65	1696.81
338.878	1717.81
339.106	1676.81
339.334	1672.81
339.562	1622.81
339.79	1661.81
340.018	1809.81
340.246	1833.81
340.474	1838.81
340.702	1777.81
340.93	1760.81
341.158	1804.81
341.386	1769.81
341.614	1764.81
341.842	1721.81
342.07	1738.81
342.298	1740.81
342.526	1703.81
342.754	1719.81
342.981	1742.81
343.209	1709.81
343.437	1718.81
343.665	1663.81
343.893	1763.81
344.12	1840.81
344.348	1884.81
344.576	1781.81
344.804	1718.81
345.031	1687.81
345.259	1721.81
345.487	1722.81
345.714	1618.81
345.942	1565.81
346.17	1588.81
346.397	1637.81
346.625	1676.81
346.853	1570.81
347.08	1553.81
347.308	1591.81
347.535	1592.81
347.763	1674.81
347.99	1640.81
348.218	1551.81
348.445	1567.81
348.673	1600.81
348.9	1651.81
349.128	1683.81
349.355	1731.81
349.583	1674.81
349.81	1641.81
350.037	1496.81
350.265	1496.81
350.492	1500.81
350.72	1552.81
350.947	1591.81
351.174	1661.81
351.402	1572.81
351.629	1512.81
351.856	1487.81
352.083	1450.81
352.311	1506.81
352.538	1515.81
352.765	1602.81
352.992	1651.81
353.22	1595.81
353.447	1530.81
353.674	1583.81
353.901	1603.81
354.128	1554.81
354.355	1552.81
354.583	1628.81
354.81	1625.81
355.037	1623.81
355.264	1612.81
355.491	1542.81
355.718	1603.81
355.945	1591.81
356.172	1563.81
356.399	1534.81
356.626	1553.81
356.853	1561.81
357.08	1691.81
357.307	1920.81
357.534	1848.81
357.761	1650.81
357.988	1535.81
358.215	1498.81
358.441	1533.81
358.668	1519.81
358.895	1522.81
359.122	1611.81
359.349	1760.81
359.576	1753.81
359.802	1570.81
360.029	1558.81
360.256	1515.81
360.483	1573.81
360.709	1596.81
360.936	1659.81
361.163	1679.81
361.39	1844.81
361.616	1962.81
361.843	1956.81
362.07	1824.81
362.296	1577.81
362.523	1535.81
362.749	1548.81
362.976	1606.81
363.203	1645.81
363.429	1591.81
363.656	1521.81
363.882	1595.81
364.109	1703.81
364.335	1889.81
364.562	1755.81
364.788	1656.81
365.015	1628.81
365.241	1525.81
365.468	1562.81
365.694	1654.81
365.92	1752.81
366.147	1632.81
366.373	1541.81
366.599	1542.81
366.826	1487.81
367.052	1590.81
367.278	1559.81
367.505	1575.81
367.731	1613.81
367.957	1604.81
368.184	1634.81
368.41	1768.81
368.636	1775.81
368.862	1747.81
369.089	1791.81
369.315	1717.81
369.541	1657.81
369.767	1576.81
369.993	1580.81
370.219	1577.81
370.445	1598.81
370.672	1675.81
370.898	1745.81
371.124	1795.81
371.35	1665.81
371.576	1677.81
371.802	1782.81
372.028	1684.81
372.254	1610.81
372.48	1602.81
372.706	1580.81
372.932	1604.81
373.158	1591.81
373.384	1645.81
373.61	1694.81
373.835	1777.81
374.061	1687.81
374.287	1668.81
374.513	1641.81
374.739	1653.81
374.965	1657.81
375.191	1702.81
375.416	1739.81
375.642	1733.81
375.868	1800.81
376.094	1852.81
376.319	1809.81
376.545	1658.81
376.771	1713.81
376.997	1807.81
377.222	1800.81
377.448	1703.81
377.674	1766.81
377.899	1719.81
378.125	1823.81
378.35	1841.81
378.576	1692.81
378.802	1617.81
379.027	1581.81
379.253	1647.81
379.478	1666.81
379.704	1658.81
379.929	1669.81
380.155	1659.81
380.38	1641.81
380.606	1692.81
380.831	1631.81
381.057	1779.81
381.282	1779.81
381.507	1685.81
381.733	1803.81
381.958	1907.81
382.184	1748.81
382.409	1720.81
382.634	1736.81
382.86	1733.81
383.085	1744.81
383.31	1784.81
383.535	1930.81
383.761	2009.81
383.986	1929.81
384.211	1882.81
384.436	1805.81
384.662	1893.81
384.887	1991.81
385.112	1896.81
385.337	1938.81
385.562	1919.81
385.787	1891.81
386.013	1917.81
386.238	1971.81
386.463	1914.81
386.688	2069.81
386.913	2163.81
387.138	2132.81
387.363	1945.81
387.588	1979.81
387.813	1955.81
388.038	1946.81
388.263	2023.81
388.488	1951.81
388.713	1866.81
388.938	1844.81
389.163	1837.81
389.387	1841.81
389.612	1903.81
389.837	1921.81
390.062	1913.81
390.287	1911.81
390.512	1898.81
390.736	1872.81
390.961	1839.81
391.186	1781.81
391.411	1804.81
391.636	1834.81
391.86	1921.81
392.085	1951.81
392.31	1868.81
392.534	1897.81
392.759	1870.81
392.984	1887.81
393.208	1909.81
393.433	1914.81
393.658	1995.81
393.882	2027.81
394.107	1921.81
394.331	1870.81
394.556	1901.81
394.78	1886.81
395.005	1975.81
395.229	2021.81
395.454	2169.81
395.678	2199.81
395.903	2109.81
396.127	2042.81
396.352	1978.81
396.576	2055.81
396.801	2075.81
397.025	2036.81
397.249	2055.81
397.474	2033.81
397.698	2015.81
397.922	2061.81
398.147	2184.81
398.371	2268.81
398.595	2255.81
398.82	2167.81
399.044	2155.81
399.268	2290.81
399.492	2419.81
399.717	2495.81
399.941	2612.81
400.165	2506.81
400.389	2410.81
400.613	2410.81
400.837	2640.81
401.062	3031.81
401.286	2616.81
401.51	2353.81
401.734	2492.81
401.958	2384.81
402.182	2197.81
402.406	2146.81
402.63	2125.81
402.854	2143.81
403.078	2174.81
403.302	2251.81
403.526	2244.81
403.75	2221.81
403.974	2284.81
404.198	2241.81
404.422	2323.81
404.645	2408.81
404.869	2408.81
405.093	2245.81
405.317	2199.81
405.541	2199.81
405.765	2272.81
405.988	2234.81
406.212	2341.81
406.436	2387.81
406.66	2368.81
406.883	2405.81
407.107	2705.81
407.331	2905.81
407.555	3125.81
407.778	2929.81
408.002	2447.81
408.226	2351.81
408.449	2359.81
408.673	2327.81
408.896	2307.81
409.12	2375.81
409.344	2292.81
409.567	2235.81
409.791	2303.81
410.014	2308.81
410.238	2377.81
410.461	2468.81
410.685	2293.81
410.908	2172.81
411.132	2302.81
411.355	2254.81
411.578	2183.81
411.802	2169.81
412.025	2278.81
412.249	2229.81
412.472	2119.81
412.695	2091.81
412.919	2143.81
413.142	2131.81
413.365	2145.81
413.589	2175.81
413.812	2264.81
414.035	2363.81
414.258	2187.81
414.482	2176.81
414.705	2172.81
414.928	2160.81
415.151	2148.81
415.374	2139.81
415.597	2170.81
415.821	2192.81
416.044	2276.81
416.267	2291.81
416.49	2119.81
416.713	2098.81
416.936	2131.81
417.159	2204.81
417.382	2250.81
417.605	2113.81
417.828	2144.81
418.051	2203.81
418.274	2159.81
418.497	2082.81
418.72	2034.81
418.943	2061.81
419.166	2218.81
419.389	2339.81
419.611	2186.81
419.834	2155.81
420.057	2139.81
420.28	2081.81
420.503	2012.81
420.726	2152.81
420.948	2129.81
421.171	2057.81
421.394	2067.81
421.617	2131.81
421.839	2101.81
422.062	2057.81
422.285	2074.81
422.507	2042.81
422.73	1998.81
422.953	2013.81
423.175	1939.81
423.398	2036.81
423.621	2053.81
423.843	2092.81
424.066	2125.81
424.288	2152.81
424.511	2197.81
424.733	2165.81
424.956	1984.81
425.178	1949.81
425.401	1994.81
425.623	1988.81
425.846	2009.81
426.068	2087.81
426.291	2140.81
426.513	2099.81
426.735	2143.81
426.958	2232.81
427.18	2351.81
427.402	2175.81
427.625	2212.81
427.847	2257.81
428.069	2051.81
428.292	2021.81
428.514	1966.81
428.736	1954.81
428.958	2031.81
429.181	2014.81
429.403	2255.81
429.625	2849.81
429.847	2460.81
430.069	2063.81
430.292	2232.81
430.514	2332.81
430.736	2182.81
430.958	2272.81
431.18	2181.81
431.402	1991.81
431.624	1965.81
431.846	2005.81
432.068	1955.81
432.29	2035.81
432.512	2022.81
432.734	2073.81
432.956	2118.81
433.178	2161.81
433.4	2163.81
433.622	2153.81
433.844	2058.81
434.066	1983.81
434.287	1997.81
434.509	2052.81
434.731	2102.81
434.953	2312.81
435.175	2252.81
435.397	2130.81
435.618	2093.81
435.84	2138.81
436.062	2067.81
436.284	2113.81
436.505	2136.81
436.727	2132.81
436.949	2119.81
437.17	2034.81
437.392	2012.81
437.614	2017.81
437.835	1944.81
438.057	2117.81
438.278	2220.81
438.5	2052.81
438.721	2028.81
438.943	1985.81
439.165	1968.81
439.386	1954.81
439.608	1984.81
439.829	2011.81
440.05	2008.81
440.272	1965.81
440.493	1917.81
440.715	2004.81
440.936	2113.81
441.158	2346.81
441.379	2274.81
441.6	2215.81
441.822	2208.81
442.043	2144.81
442.264	2093.81
442.486	1979.81
442.707	2022.81
442.928	1982.81
443.149	2031.81
443.371	2178.81
443.592	2245.81
443.813	2177.81
444.034	2154.81
444.255	2202.81
444.476	2226.81
444.698	2252.81
444.919	2246.81
445.14	2369.81
445.361	2333.81
445.582	2406.81
445.803	2318.81
446.024	2203.81
446.245	2274.81
446.466	2228.81
446.687	2067.81
446.908	2086.81
447.129	2025.81
447.35	2098.81
447.571	2081.81
447.792	1952.81
448.013	1956.81
448.234	2012.81
448.455	2078.81
448.675	2110.81
448.896	1952.81
449.117	1955.81
449.338	1993.81
449.559	2028.81
449.779	2185.81
450	2399.81
450.221	2573.81
450.442	2484.81
450.662	2194.81
450.883	1914.81
451.104	1870.81
451.324	1879.81
451.545	1961.81
451.766	1925.81
451.986	1819.81
452.207	1869.81
452.428	1819.81
452.648	1778.81
452.869	1863.81
453.089	1982.81
453.31	1982.81
453.53	2026.81
453.751	1923.81
453.971	1803.81
454.192	1859.81
454.412	1992.81
454.633	1910.81
454.853	1867.81
455.073	1727.81
455.294	1739.81
455.514	1784.81
455.734	1751.81
455.955	1800.81
456.175	1799.81
456.395	1770.81
456.616	1815.81
456.836	1897.81
457.056	1856.81
457.276	1841.81
457.497	1738.81
457.717	1747.81
457.937	1751.81
458.157	1811.81
458.377	1771.81
458.598	1776.81
458.818	1793.81
459.038	1932.81
459.258	2038.81
459.478	2012.81
459.698	1963.81
459.918	2016.81
460.138	2061.81
460.358	2123.81
460.578	2172.81
460.798	2189.81
461.018	2339.81
461.238	2254.81
461.458	2145.81
461.678	2155.81
461.898	2076.81
462.118	2065.81
462.338	2173.81
462.558	2166.81
462.777	2145.81
462.997	2276.81
463.217	2369.81
463.437	2357.81
463.657	2182.81
463.876	2149.81
464.096	2145.81
464.316	2147.81
464.536	2184.81
464.755	2219.81
464.975	2292.81
465.195	2217.81
465.414	2284.81
465.634	2269.81
465.854	2107.81
466.073	2229.81
466.293	2235.81
466.512	1996.81
466.732	1975.81
466.951	2050.81
467.171	2058.81
467.391	1962.81
467.61	1898.81
467.829	1920.81
468.049	2081.81
468.268	2294.81
468.488	2208.81
468.707	2073.81
468.927	2006.81
469.146	1976.81
469.365	1960.81
469.585	1957.81
469.804	1925.81
470.023	1954.81
470.243	1956.81
470.462	1951.81
470.681	1923.81
470.901	1955.81
471.12	1968.81
471.339	1907.81
471.558	1894.81
471.777	1865.81
471.997	1908.81
472.216	1921.81
472.435	1867.81
472.654	1929.81
472.873	1951.81
473.092	2123.81
473.311	1971.81
473.53	1892.81
473.749	1814.81
473.968	1932.81
474.187	2028.81
474.406	2150.81
474.625	2047.81
474.844	1983.81
475.063	1984.81
475.282	2004.81
475.501	1976.81
475.72	1943.81
475.939	2090.81
476.158	2045.81
476.377	1963.81
476.596	2009.81
476.814	2066.81
477.033	2067.81
477.252	2170.81
477.471	2169.81
477.69	2087.81
477.908	2069.81
478.127	2174.81
478.346	2361.81
478.564	2368.81
478.783	2324.81
479.002	2389.81
479.22	2352.81
479.439	2414.81
479.658	2773.81
479.876	2730.81
480.095	2426.81
480.313	2270.81
480.532	2209.81
480.751	2154.81
480.969	2274.81
481.188	2235.81
481.406	2211.81
481.624	2095.81
481.843	2170.81
482.061	2259.81
482.28	2252.81
482.498	2299.81
482.717	2281.81
482.935	2147.81
483.153	2179.81
483.372	2208.81
483.59	2133.81
483.808	2213.81
484.027	2223.81
484.245	2349.81
484.463	2671.81
484.681	3080.81
484.9	2428.81
485.118	2264.81
485.336	2208.81
485.554	2283.81
485.772	2424.81
485.99	2342.81
486.209	2370.81
486.427	2367.81
486.645	2362.81
486.863	2303.81
487.081	2331.81
487.299	2414.81
487.517	2364.81
