Data from WStandard_LampEnergy5.5LIBS07252019.E.O._I.C._HRD10591_16-07-39-920.txt Node
Date: Thu Jul 25 16:07:39 EDT 2019
User: cochatt
Spectrometer: HR+D1059
Trigger mode: 1
Integration Time (sec): 1.000000E-1
Scans to average: 1
Electric dark correction enabled: true
Nonlinearity correction enabled: false
Boxcar width: 0
XAxis mode: Wavelengths
Number of Pixels in Spectrum: 2048
>>>>>Begin Spectral Data<<<<<
223.165	-16.94
223.4	-16.94
223.635	-16.94
223.869	-17.94
224.104	-7.94
224.338	-7.94
224.573	-17.94
224.808	-14.94
225.042	5.06
225.277	0.06
225.511	-22.94
225.746	8.06
225.98	9.06
226.215	-7.94
226.449	18.06
226.683	11.06
226.918	31.06
227.152	32.06
227.387	46.06
227.621	35.06
227.856	41.06
228.09	53.06
228.324	61.06
228.559	70.06
228.793	150.06
229.027	385.06
229.262	382.06
229.496	392.06
229.73	403.06
229.964	441.06
230.199	452.06
230.433	472.06
230.667	504.06
230.901	539.06
231.136	516.06
231.37	486.06
231.604	485.06
231.838	483.06
232.072	487.06
232.306	466.06
232.541	483.06
232.775	589.06
233.009	604.06
233.243	581.06
233.477	542.06
233.711	562.06
233.945	602.06
234.179	562.06
234.413	614.06
234.647	660.06
234.881	620.06
235.115	574.06
235.349	583.06
235.583	577.06
235.817	549.06
236.051	564.06
236.285	546.06
236.519	596.06
236.753	683.06
236.987	719.06
237.221	685.06
237.455	773.06
237.689	744.06
237.922	691.06
238.156	677.06
238.39	667.06
238.624	719.06
238.858	771.06
239.091	811.06
239.325	826.06
239.559	955.06
239.793	986.06
240.027	1060.06
240.26	1102.06
240.494	797.06
240.728	733.06
240.961	747.06
241.195	754.06
241.429	854.06
241.662	838.06
241.896	787.06
242.13	810.06
242.363	862.06
242.597	949.06
242.83	909.06
243.064	919.06
243.298	1000.06
243.531	966.06
243.765	929.06
243.998	981.06
244.232	852.06
244.465	771.06
244.699	807.06
244.932	957.06
245.166	1082.06
245.399	1029.06
245.633	940.06
245.866	900.06
246.099	991.06
246.333	953.06
246.566	997.06
246.8	1045.06
247.033	1232.06
247.266	1126.06
247.5	1086.06
247.733	1096.06
247.966	1181.06
248.2	1293.06
248.433	1229.06
248.666	1233.06
248.899	1337.06
249.133	1534.06
249.366	1825.06
249.599	1448.06
249.832	1288.06
250.066	1297.06
250.299	1333.06
250.532	1258.06
250.765	1083.06
250.998	1196.06
251.231	1259.06
251.465	1309.06
251.698	1198.06
251.931	1209.06
252.164	1253.06
252.397	1309.06
252.63	1288.06
252.863	1135.06
253.096	1159.06
253.329	1190.06
253.562	1240.06
253.795	1318.06
254.028	1309.06
254.261	1220.06
254.494	1229.06
254.727	1138.06
254.96	1178.06
255.193	1304.06
255.426	1465.06
255.659	1707.06
255.892	1735.06
256.124	1429.06
256.357	1382.06
256.59	1478.06
256.823	1458.06
257.056	1460.06
257.289	1761.06
257.521	1970.06
257.754	1755.06
257.987	1641.06
258.22	1826.06
258.452	1796.06
258.685	1457.06
258.918	1397.06
259.151	1451.06
259.383	1371.06
259.616	1213.06
259.849	1301.06
260.081	1458.06
260.314	1603.06
260.547	1735.06
260.779	1785.06
261.012	1678.06
261.244	1480.06
261.477	1426.06
261.71	1481.06
261.942	1460.06
262.175	1403.06
262.407	1497.06
262.64	1410.06
262.872	1341.06
263.105	1289.06
263.337	1284.06
263.57	1348.06
263.802	1325.06
264.035	1236.06
264.267	1201.06
264.499	1183.06
264.732	1262.06
264.964	1313.06
265.197	1409.06
265.429	1454.06
265.661	1623.06
265.894	1756.06
266.126	1857.06
266.358	1634.06
266.591	1722.06
266.823	1854.06
267.055	1637.06
267.287	1651.06
267.52	1598.06
267.752	1610.06
267.984	1573.06
268.216	1687.06
268.448	1717.06
268.681	1724.06
268.913	1599.06
269.145	1469.06
269.377	1414.06
269.609	1549.06
269.841	1807.06
270.073	2088.06
270.306	2343.06
270.538	2510.06
270.77	2133.06
271.002	1753.06
271.234	1703.06
271.466	1667.06
271.698	1865.06
271.93	2291.06
272.162	2254.06
272.394	2025.06
272.626	1961.06
272.858	1721.06
273.09	1496.06
273.322	1504.06
273.553	1460.06
273.785	1453.06
274.017	1494.06
274.249	1619.06
274.481	1670.06
274.713	1506.06
274.945	1412.06
275.176	1469.06
275.408	1451.06
275.64	1385.06
275.872	1417.06
276.104	1541.06
276.335	1719.06
276.567	1925.06
276.799	1974.06
277.031	1787.06
277.262	1650.06
277.494	1741.06
277.726	1892.06
277.957	1912.06
278.189	1735.06
278.421	1572.06
278.652	1512.06
278.884	1540.06
279.115	1551.06
279.347	1530.06
279.579	1511.06
279.81	1463.06
280.042	1660.06
280.273	1839.06
280.505	1823.06
280.736	1878.06
280.968	1813.06
281.199	1556.06
281.431	1487.06
281.662	1498.06
281.894	1499.06
282.125	1505.06
282.356	1585.06
282.588	1607.06
282.819	1555.06
283.051	1736.06
283.282	1857.06
283.513	1831.06
283.745	1579.06
283.976	1492.06
284.207	1461.06
284.439	1496.06
284.67	1543.06
284.901	1557.06
285.132	1594.06
285.364	1596.06
285.595	1579.06
285.826	1568.06
286.057	1523.06
286.288	1548.06
286.52	1575.06
286.751	1731.06
286.982	1799.06
287.213	1669.06
287.444	1498.06
287.675	1523.06
287.906	1575.06
288.138	1706.06
288.369	1655.06
288.6	1587.06
288.831	1473.06
289.062	1510.06
289.293	1573.06
289.524	1556.06
289.755	1605.06
289.986	1623.06
290.217	1465.06
290.448	1489.06
290.679	1579.06
290.91	1593.06
291.141	1631.06
291.371	1691.06
291.602	1657.06
291.833	1627.06
292.064	1709.06
292.295	1691.06
292.526	1688.06
292.757	1823.06
292.987	1725.06
293.218	1580.06
293.449	1685.06
293.68	1934.06
293.91	2117.06
294.141	1939.06
294.372	1823.06
294.603	1875.06
294.833	1954.06
295.064	1854.06
295.295	1697.06
295.525	1660.06
295.756	1552.06
295.987	1476.06
296.217	1519.06
296.448	1529.06
296.679	1589.06
296.909	1558.06
297.14	1510.06
297.37	1549.06
297.601	1657.06
297.831	1792.06
298.062	1793.06
298.292	1640.06
298.523	1577.06
298.753	1606.06
298.984	1573.06
299.214	1548.06
299.445	1594.06
299.675	1681.06
299.905	1654.06
300.136	1612.06
300.366	1557.06
300.597	1545.06
300.827	1528.06
301.057	1601.06
301.288	1659.06
301.518	1661.06
301.748	1739.06
301.979	1754.06
302.209	1799.06
302.439	1920.06
302.669	2059.06
302.9	1944.06
303.13	1692.06
303.36	1677.06
303.59	1734.06
303.82	1732.06
304.051	1697.06
304.281	1729.06
304.511	1678.06
304.741	1759.06
304.971	1946.06
305.201	2143.06
305.431	2030.06
305.661	1687.06
305.891	1498.06
306.121	1450.06
306.352	1537.06
306.582	1646.06
306.812	1710.06
307.042	1882.06
307.272	1872.06
307.502	1876.06
307.731	2055.06
307.961	2244.06
308.191	2044.06
308.421	1769.06
308.651	1660.06
308.881	1624.06
309.111	1637.06
309.341	1621.06
309.571	1642.06
309.8	1644.06
310.03	1592.06
310.26	1610.06
310.49	1580.06
310.72	1657.06
310.949	1689.06
311.179	1741.06
311.409	1670.06
311.639	1697.06
311.868	1616.06
312.098	1651.06
312.328	1645.06
312.557	1679.06
312.787	1660.06
313.017	1696.06
313.246	1658.06
313.476	1676.06
313.706	1768.06
313.935	1709.06
314.165	1732.06
314.394	1767.06
314.624	1869.06
314.853	1983.06
315.083	2089.06
315.312	2104.06
315.542	1943.06
315.771	1771.06
316.001	1729.06
316.23	1857.06
316.46	1837.06
316.689	1802.06
316.919	1728.06
317.148	1628.06
317.377	1674.06
317.607	1755.06
317.836	2047.06
318.065	2109.06
318.295	2022.06
318.524	1932.06
318.753	1873.06
318.983	1839.06
319.212	1783.06
319.441	1754.06
319.67	1747.06
319.9	1772.06
320.129	1887.06
320.358	1897.06
320.587	1989.06
320.816	1966.06
321.046	1889.06
321.275	1841.06
321.504	1841.06
321.733	1972.06
321.962	1963.06
322.191	1813.06
322.42	1771.06
322.649	1796.06
322.878	1751.06
323.108	1792.06
323.337	1843.06
323.566	1834.06
323.795	1828.06
324.024	1819.06
324.253	1780.06
324.482	1827.06
324.71	1764.06
324.939	1650.06
325.168	1658.06
325.397	1778.06
325.626	1812.06
325.855	1817.06
326.084	1777.06
326.313	1801.06
326.542	1828.06
326.77	1849.06
326.999	1879.06
327.228	1789.06
327.457	1714.06
327.686	1659.06
327.914	1717.06
328.143	1758.06
328.372	1791.06
328.6	1777.06
328.829	1763.06
329.058	1739.06
329.287	1726.06
329.515	1766.06
329.744	1768.06
329.972	1885.06
330.201	1991.06
330.43	1933.06
330.658	1867.06
330.887	1868.06
331.115	1913.06
331.344	1916.06
331.572	1874.06
331.801	1851.06
332.03	1870.06
332.258	1895.06
332.486	1941.06
332.715	1917.06
332.943	1909.06
333.172	1862.06
333.4	1906.06
333.629	1913.06
333.857	2049.06
334.085	2278.06
334.314	2547.06
334.542	2823.06
334.771	2592.06
334.999	2262.06
335.227	2173.06
335.455	1989.06
335.684	1990.06
335.912	2022.06
336.14	2130.06
336.369	2062.06
336.597	1897.06
336.825	1899.06
337.053	1912.06
337.281	2077.06
337.51	2132.06
337.738	2247.06
337.966	2138.06
338.194	1953.06
338.422	1905.06
338.65	1907.06
338.878	1831.06
339.106	1834.06
339.334	1743.06
339.562	1760.06
339.79	1767.06
340.018	1875.06
340.246	1976.06
340.474	1977.06
340.702	1940.06
340.93	1987.06
341.158	1896.06
341.386	1861.06
341.614	1866.06
341.842	1861.06
342.07	1867.06
342.298	1921.06
342.526	1900.06
342.754	1823.06
342.981	1809.06
343.209	1848.06
343.437	1843.06
343.665	1845.06
343.893	1889.06
344.12	1957.06
344.348	2029.06
344.576	1931.06
344.804	1855.06
345.031	1844.06
345.259	1855.06
345.487	1826.06
345.714	1730.06
345.942	1706.06
346.17	1732.06
346.397	1773.06
346.625	1766.06
346.853	1674.06
347.08	1634.06
347.308	1669.06
347.535	1711.06
347.763	1795.06
347.99	1742.06
348.218	1651.06
348.445	1655.06
348.673	1715.06
348.9	1777.06
349.128	1808.06
349.355	1881.06
349.583	1811.06
349.81	1736.06
350.037	1618.06
350.265	1566.06
350.492	1646.06
350.72	1678.06
350.947	1710.06
351.174	1793.06
351.402	1710.06
351.629	1630.06
351.856	1601.06
352.083	1586.06
352.311	1585.06
352.538	1645.06
352.765	1722.06
352.992	1769.06
353.22	1705.06
353.447	1606.06
353.674	1701.06
353.901	1704.06
354.128	1665.06
354.355	1643.06
354.583	1717.06
354.81	1769.06
355.037	1750.06
355.264	1734.06
355.491	1689.06
355.718	1691.06
355.945	1726.06
356.172	1678.06
356.399	1673.06
356.626	1646.06
356.853	1713.06
357.08	1864.06
357.307	2025.06
357.534	2058.06
357.761	1750.06
357.988	1617.06
358.215	1580.06
358.441	1628.06
358.668	1601.06
358.895	1647.06
359.122	1725.06
359.349	1906.06
359.576	1931.06
359.802	1724.06
360.029	1636.06
360.256	1622.06
360.483	1644.06
360.709	1682.06
360.936	1798.06
361.163	1777.06
361.39	1979.06
361.616	2153.06
361.843	2099.06
362.07	2014.06
362.296	1745.06
362.523	1657.06
362.749	1680.06
362.976	1700.06
363.203	1729.06
363.429	1698.06
363.656	1619.06
363.882	1694.06
364.109	1858.06
364.335	2027.06
364.562	1915.06
364.788	1777.06
365.015	1682.06
365.241	1649.06
365.468	1652.06
365.694	1781.06
365.92	1862.06
366.147	1777.06
366.373	1646.06
366.599	1625.06
366.826	1639.06
367.052	1641.06
367.278	1655.06
367.505	1681.06
367.731	1708.06
367.957	1711.06
368.184	1745.06
368.41	1858.06
368.636	1938.06
368.862	1901.06
369.089	1909.06
369.315	1860.06
369.541	1760.06
369.767	1722.06
369.993	1671.06
370.219	1666.06
370.445	1719.06
370.672	1780.06
370.898	1910.06
371.124	1902.06
371.35	1747.06
371.576	1829.06
371.802	1892.06
372.028	1833.06
372.254	1746.06
372.48	1672.06
372.706	1676.06
372.932	1695.06
373.158	1746.06
373.384	1727.06
373.61	1783.06
373.835	1869.06
374.061	1815.06
374.287	1755.06
374.513	1737.06
374.739	1781.06
374.965	1781.06
375.191	1810.06
375.416	1805.06
375.642	1818.06
375.868	1927.06
376.094	1993.06
376.319	1902.06
376.545	1768.06
376.771	1821.06
376.997	1877.06
377.222	1931.06
377.448	1825.06
377.674	1848.06
377.899	1820.06
378.125	1944.06
378.35	1995.06
378.576	1746.06
378.802	1717.06
379.027	1685.06
379.253	1766.06
379.478	1769.06
379.704	1770.06
379.929	1737.06
380.155	1779.06
380.38	1773.06
380.606	1803.06
380.831	1772.06
381.057	1845.06
381.282	1907.06
381.507	1862.06
381.733	1967.06
381.958	2023.06
382.184	1872.06
382.409	1779.06
382.634	1852.06
382.86	1847.06
383.085	1852.06
383.31	1867.06
383.535	2027.06
383.761	2159.06
383.986	2069.06
384.211	2003.06
384.436	1954.06
384.662	2035.06
384.887	2162.06
385.112	2052.06
385.337	2053.06
385.562	2023.06
385.787	2015.06
386.013	2110.06
386.238	2070.06
386.463	2014.06
386.688	2166.06
386.913	2309.06
387.138	2254.06
387.363	2122.06
387.588	2103.06
387.813	2046.06
388.038	2102.06
388.263	2157.06
388.488	2110.06
388.713	1949.06
388.938	1936.06
389.163	1988.06
389.387	1964.06
389.612	1991.06
389.837	2056.06
390.062	2082.06
390.287	2018.06
390.512	2021.06
390.736	1969.06
390.961	1951.06
391.186	1909.06
391.411	1953.06
391.636	1993.06
391.86	2006.06
392.085	2020.06
392.31	2001.06
392.534	2003.06
392.759	2055.06
392.984	2018.06
393.208	2041.06
393.433	2095.06
393.658	2142.06
393.882	2196.06
394.107	2081.06
394.331	1985.06
394.556	1998.06
394.78	1977.06
395.005	2088.06
395.229	2173.06
395.454	2289.06
395.678	2333.06
395.903	2247.06
396.127	2142.06
396.352	2163.06
396.576	2233.06
396.801	2230.06
397.025	2213.06
397.249	2233.06
397.474	2196.06
397.698	2137.06
397.922	2273.06
398.147	2294.06
398.371	2395.06
398.595	2425.06
398.82	2298.06
399.044	2353.06
399.268	2411.06
399.492	2683.06
399.717	2728.06
399.941	2729.06
400.165	2670.06
400.389	2566.06
400.613	2541.06
400.837	2753.06
401.062	3238.06
401.286	2773.06
401.51	2476.06
401.734	2627.06
401.958	2564.06
402.182	2387.06
402.406	2319.06
402.63	2305.06
402.854	2306.06
403.078	2354.06
403.302	2349.06
403.526	2446.06
403.75	2441.06
403.974	2471.06
404.198	2448.06
404.422	2487.06
404.645	2539.06
404.869	2525.06
405.093	2367.06
405.317	2332.06
405.541	2416.06
405.765	2410.06
405.988	2420.06
406.212	2459.06
406.436	2467.06
406.66	2555.06
406.883	2558.06
407.107	2904.06
407.331	3180.06
407.555	3393.06
407.778	3161.06
408.002	2623.06
408.226	2561.06
408.449	2593.06
408.673	2439.06
408.896	2417.06
409.12	2511.06
409.344	2406.06
409.567	2382.06
409.791	2430.06
410.014	2485.06
410.238	2583.06
410.461	2700.06
410.685	2487.06
410.908	2335.06
411.132	2371.06
411.355	2383.06
411.578	2330.06
411.802	2353.06
412.025	2372.06
412.249	2338.06
412.472	2294.06
412.695	2269.06
412.919	2291.06
413.142	2267.06
413.365	2323.06
413.589	2379.06
413.812	2451.06
414.035	2604.06
414.258	2348.06
414.482	2300.06
414.705	2267.06
414.928	2281.06
415.151	2269.06
415.374	2298.06
415.597	2297.06
415.821	2371.06
416.044	2426.06
416.267	2460.06
416.49	2212.06
416.713	2179.06
416.936	2267.06
417.159	2409.06
417.382	2345.06
417.605	2245.06
417.828	2280.06
418.051	2359.06
418.274	2305.06
418.497	2208.06
418.72	2211.06
418.943	2185.06
419.166	2364.06
419.389	2431.06
419.611	2289.06
419.834	2308.06
420.057	2258.06
420.28	2263.06
420.503	2211.06
420.726	2298.06
420.948	2279.06
421.171	2181.06
421.394	2198.06
421.617	2277.06
421.839	2244.06
422.062	2246.06
422.285	2166.06
422.507	2178.06
422.73	2123.06
422.953	2097.06
423.175	2094.06
423.398	2177.06
423.621	2178.06
423.843	2234.06
424.066	2238.06
424.288	2347.06
424.511	2375.06
424.733	2283.06
424.956	2094.06
425.178	2101.06
425.401	2133.06
425.623	2178.06
425.846	2122.06
426.068	2250.06
426.291	2321.06
426.513	2284.06
426.735	2292.06
426.958	2386.06
427.18	2525.06
427.402	2289.06
427.625	2335.06
427.847	2433.06
428.069	2249.06
428.292	2159.06
428.514	2096.06
428.736	2077.06
428.958	2164.06
429.181	2165.06
429.403	2421.06
429.625	2996.06
429.847	2649.06
430.069	2203.06
430.292	2402.06
430.514	2536.06
430.736	2317.06
430.958	2411.06
431.18	2268.06
431.402	2162.06
431.624	2100.06
431.846	2147.06
432.068	2078.06
432.29	2075.06
432.512	2177.06
432.734	2174.06
432.956	2235.06
433.178	2365.06
433.4	2250.06
433.622	2275.06
433.844	2185.06
434.066	2112.06
434.287	2109.06
434.509	2179.06
434.731	2293.06
434.953	2448.06
435.175	2449.06
435.397	2277.06
435.618	2275.06
435.84	2291.06
436.062	2213.06
436.284	2220.06
436.505	2309.06
436.727	2311.06
436.949	2220.06
437.17	2148.06
437.392	2157.06
437.614	2148.06
437.835	2114.06
438.057	2198.06
438.278	2331.06
438.5	2156.06
438.721	2127.06
438.943	2157.06
439.165	2110.06
439.386	2047.06
439.608	2107.06
439.829	2139.06
440.05	2129.06
440.272	2113.06
440.493	2049.06
440.715	2143.06
440.936	2241.06
441.158	2545.06
441.379	2447.06
441.6	2407.06
441.822	2290.06
442.043	2273.06
442.264	2259.06
442.486	2170.06
442.707	2099.06
442.928	2091.06
443.149	2185.06
443.371	2399.06
443.592	2375.06
443.813	2376.06
444.034	2341.06
444.255	2293.06
444.476	2429.06
444.698	2462.06
444.919	2470.06
445.14	2479.06
445.361	2453.06
445.582	2562.06
445.803	2438.06
446.024	2341.06
446.245	2499.06
446.466	2359.06
446.687	2239.06
446.908	2189.06
447.129	2147.06
447.35	2201.06
447.571	2179.06
447.792	2143.06
448.013	2066.06
448.234	2167.06
448.455	2208.06
448.675	2231.06
448.896	1998.06
449.117	2037.06
449.338	2061.06
449.559	2177.06
449.779	2292.06
450	2531.06
450.221	2741.06
450.442	2621.06
450.662	2307.06
450.883	2067.06
451.104	1997.06
451.324	2058.06
451.545	2107.06
451.766	2104.06
451.986	2021.06
452.207	1986.06
452.428	1969.06
452.648	1919.06
452.869	1920.06
453.089	2064.06
453.31	2038.06
453.53	2140.06
453.751	2057.06
453.971	1972.06
454.192	2013.06
454.412	2141.06
454.633	2022.06
454.853	2002.06
455.073	1875.06
455.294	1855.06
455.514	1871.06
455.734	1867.06
455.955	1968.06
456.175	1914.06
456.395	1923.06
456.616	1969.06
456.836	2028.06
457.056	1970.06
457.276	1979.06
457.497	1926.06
457.717	1815.06
457.937	1894.06
458.157	1951.06
458.377	1898.06
458.598	1879.06
458.818	1899.06
459.038	2065.06
459.258	2171.06
459.478	2197.06
459.698	2129.06
459.918	2140.06
460.138	2250.06
460.358	2278.06
460.578	2254.06
460.798	2363.06
461.018	2469.06
461.238	2393.06
461.458	2293.06
461.678	2306.06
461.898	2229.06
462.118	2128.06
462.338	2297.06
462.558	2292.06
462.777	2299.06
462.997	2417.06
463.217	2547.06
463.437	2514.06
463.657	2369.06
463.876	2323.06
464.096	2265.06
464.316	2309.06
464.536	2380.06
464.755	2371.06
464.975	2432.06
465.195	2349.06
465.414	2444.06
465.634	2388.06
465.854	2297.06
466.073	2411.06
466.293	2382.06
466.512	2113.06
466.732	2079.06
466.951	2219.06
467.171	2183.06
467.391	2057.06
467.61	2017.06
467.829	2037.06
468.049	2176.06
468.268	2478.06
468.488	2365.06
468.707	2189.06
468.927	2134.06
469.146	2127.06
469.365	2060.06
469.585	2111.06
469.804	2094.06
470.023	2084.06
470.243	2101.06
470.462	2076.06
470.681	2018.06
470.901	2097.06
471.12	2065.06
471.339	2014.06
471.558	2011.06
471.777	2026.06
471.997	2055.06
472.216	2038.06
472.435	1969.06
472.654	2016.06
472.873	2109.06
473.092	2241.06
473.311	2117.06
473.53	1989.06
473.749	1987.06
473.968	2036.06
474.187	2177.06
474.406	2266.06
474.625	2134.06
474.844	2138.06
475.063	2081.06
475.282	2148.06
475.501	2167.06
475.72	2095.06
475.939	2235.06
476.158	2173.06
476.377	2122.06
476.596	2110.06
476.814	2174.06
477.033	2162.06
477.252	2291.06
477.471	2390.06
477.69	2188.06
477.908	2189.06
478.127	2278.06
478.346	2502.06
478.564	2530.06
478.783	2467.06
479.002	2542.06
479.22	2535.06
479.439	2601.06
479.658	2985.06
479.876	2947.06
480.095	2526.06
480.313	2429.06
480.532	2324.06
480.751	2378.06
480.969	2437.06
481.188	2393.06
481.406	2372.06
481.624	2291.06
481.843	2341.06
482.061	2425.06
482.28	2405.06
482.498	2447.06
482.717	2418.06
482.935	2303.06
483.153	2319.06
483.372	2307.06
483.59	2267.06
483.808	2295.06
484.027	2342.06
484.245	2535.06
484.463	2953.06
484.681	3359.06
484.9	2610.06
485.118	2438.06
485.336	2355.06
485.554	2489.06
485.772	2569.06
485.99	2515.06
486.209	2516.06
486.427	2536.06
486.645	2417.06
486.863	2515.06
487.081	2531.06
487.299	2632.06
