Data from WStandard_LampEnergy10_LIBS07252019.E.O._I.C._HRD10591_15-55-31-928.txt Node
Date: Thu Jul 25 15:55:31 EDT 2019
User: cochatt
Spectrometer: HR+D1059
Trigger mode: 1
Integration Time (sec): 1.000000E-1
Scans to average: 1
Electric dark correction enabled: true
Nonlinearity correction enabled: false
Boxcar width: 0
XAxis mode: Wavelengths
Number of Pixels in Spectrum: 2048
>>>>>Begin Spectral Data<<<<<
223.165	-16.81
223.4	-16.81
223.635	-16.81
223.869	-13.81
224.104	-14.81
224.338	-15.81
224.573	-11.81
224.808	-30.81
225.042	-8.81
225.277	3.19
225.511	-1.81
225.746	12.19
225.98	7.19
226.215	19.19
226.449	5.19
226.683	23.19
226.918	13.19
227.152	31.19
227.387	49.19
227.621	40.19
227.856	35.19
228.09	47.19
228.324	57.19
228.559	63.19
228.793	85.19
229.027	139.19
229.262	147.19
229.496	143.19
229.73	155.19
229.964	157.19
230.199	164.19
230.433	163.19
230.667	185.19
230.901	195.19
231.136	172.19
231.37	168.19
231.604	185.19
231.838	181.19
232.072	182.19
232.306	183.19
232.541	176.19
232.775	199.19
233.009	203.19
233.243	206.19
233.477	191.19
233.711	184.19
233.945	191.19
234.179	185.19
234.413	217.19
234.647	204.19
234.881	199.19
235.115	189.19
235.349	192.19
235.583	175.19
235.817	182.19
236.051	189.19
236.285	197.19
236.519	221.19
236.753	218.19
236.987	194.19
237.221	199.19
237.455	220.19
237.689	224.19
237.922	205.19
238.156	205.19
238.39	216.19
238.624	226.19
238.858	247.19
239.091	243.19
239.325	255.19
239.559	283.19
239.793	291.19
240.027	305.19
240.26	298.19
240.494	243.19
240.728	225.19
240.961	235.19
241.195	233.19
241.429	262.19
241.662	239.19
241.896	244.19
242.13	254.19
242.363	264.19
242.597	257.19
242.83	263.19
243.064	294.19
243.298	289.19
243.531	279.19
243.765	281.19
243.998	268.19
244.232	241.19
244.465	245.19
244.699	272.19
244.932	285.19
245.166	294.19
245.399	294.19
245.633	285.19
245.866	267.19
246.099	279.19
246.333	285.19
246.566	313.19
246.8	309.19
247.033	336.19
247.266	315.19
247.5	312.19
247.733	310.19
247.966	333.19
248.2	348.19
248.433	345.19
248.666	353.19
248.899	385.19
249.133	409.19
249.366	447.19
249.599	390.19
249.832	349.19
250.066	359.19
250.299	371.19
250.532	335.19
250.765	336.19
250.998	327.19
251.231	346.19
251.465	341.19
251.698	330.19
251.931	329.19
252.164	333.19
252.397	358.19
252.63	345.19
252.863	297.19
253.096	306.19
253.329	342.19
253.562	351.19
253.795	381.19
254.028	366.19
254.261	345.19
254.494	321.19
254.727	332.19
254.96	348.19
255.193	368.19
255.426	402.19
255.659	434.19
255.892	447.19
256.124	373.19
256.357	362.19
256.59	411.19
256.823	403.19
257.056	389.19
257.289	468.19
257.521	519.19
257.754	461.19
257.987	445.19
258.22	486.19
258.452	436.19
258.685	397.19
258.918	385.19
259.151	375.19
259.383	391.19
259.616	357.19
259.849	360.19
260.081	398.19
260.314	444.19
260.547	465.19
260.779	450.19
261.012	415.19
261.244	408.19
261.477	367.19
261.71	388.19
261.942	387.19
262.175	371.19
262.407	380.19
262.64	365.19
262.872	378.19
263.105	358.19
263.337	360.19
263.57	377.19
263.802	362.19
264.035	346.19
264.267	333.19
264.499	347.19
264.732	355.19
264.964	373.19
265.197	394.19
265.429	415.19
265.661	453.19
265.894	479.19
266.126	468.19
266.358	431.19
266.591	461.19
266.823	488.19
267.055	454.19
267.287	459.19
267.52	445.19
267.752	450.19
267.984	443.19
268.216	457.19
268.448	443.19
268.681	441.19
268.913	422.19
269.145	421.19
269.377	406.19
269.609	437.19
269.841	490.19
270.073	559.19
270.306	615.19
270.538	635.19
270.77	545.19
271.002	469.19
271.234	482.19
271.466	460.19
271.698	520.19
271.93	602.19
272.162	578.19
272.394	547.19
272.626	491.19
272.858	467.19
273.09	401.19
273.322	414.19
273.553	408.19
273.785	396.19
274.017	433.19
274.249	431.19
274.481	434.19
274.713	403.19
274.945	412.19
275.176	398.19
275.408	389.19
275.64	413.19
275.872	391.19
276.104	437.19
276.335	494.19
276.567	495.19
276.799	518.19
277.031	485.19
277.262	475.19
277.494	487.19
277.726	507.19
277.957	496.19
278.189	434.19
278.421	433.19
278.652	433.19
278.884	406.19
279.115	451.19
279.347	435.19
279.579	439.19
279.81	431.19
280.042	484.19
280.273	500.19
280.505	503.19
280.736	486.19
280.968	476.19
281.199	438.19
281.431	405.19
281.662	425.19
281.894	419.19
282.125	434.19
282.356	442.19
282.588	441.19
282.819	452.19
283.051	460.19
283.282	490.19
283.513	473.19
283.745	436.19
283.976	400.19
284.207	435.19
284.439	437.19
284.67	444.19
284.901	439.19
285.132	439.19
285.364	436.19
285.595	457.19
285.826	452.19
286.057	428.19
286.288	435.19
286.52	456.19
286.751	501.19
286.982	504.19
287.213	457.19
287.444	460.19
287.675	428.19
287.906	457.19
288.138	483.19
288.369	451.19
288.6	431.19
288.831	417.19
289.062	441.19
289.293	459.19
289.524	433.19
289.755	464.19
289.986	448.19
290.217	450.19
290.448	433.19
290.679	436.19
290.91	464.19
291.141	477.19
291.371	486.19
291.602	490.19
291.833	459.19
292.064	475.19
292.295	483.19
292.526	492.19
292.757	518.19
292.987	481.19
293.218	482.19
293.449	498.19
293.68	573.19
293.91	570.19
294.141	557.19
294.372	529.19
294.603	554.19
294.833	558.19
295.064	543.19
295.295	470.19
295.525	457.19
295.756	461.19
295.987	438.19
296.217	433.19
296.448	464.19
296.679	451.19
296.909	457.19
297.14	452.19
297.37	485.19
297.601	485.19
297.831	538.19
298.062	533.19
298.292	473.19
298.523	463.19
298.753	457.19
298.984	472.19
299.214	469.19
299.445	493.19
299.675	501.19
299.905	465.19
300.136	476.19
300.366	468.19
300.597	461.19
300.827	471.19
301.057	474.19
301.288	490.19
301.518	486.19
301.748	514.19
301.979	556.19
302.209	535.19
302.439	581.19
302.669	595.19
302.9	534.19
303.13	528.19
303.36	501.19
303.59	485.19
303.82	510.19
304.051	521.19
304.281	530.19
304.511	521.19
304.741	557.19
304.971	602.19
305.201	601.19
305.431	562.19
305.661	486.19
305.891	459.19
306.121	453.19
306.352	492.19
306.582	487.19
306.812	543.19
307.042	564.19
307.272	564.19
307.502	593.19
307.731	626.19
307.961	611.19
308.191	592.19
308.421	519.19
308.651	485.19
308.881	495.19
309.111	488.19
309.341	500.19
309.571	501.19
309.8	497.19
310.03	493.19
310.26	492.19
310.49	501.19
310.72	500.19
310.949	538.19
311.179	508.19
311.409	506.19
311.639	519.19
311.868	505.19
312.098	483.19
312.328	523.19
312.557	498.19
312.787	498.19
313.017	537.19
313.246	505.19
313.476	513.19
313.706	518.19
313.935	545.19
314.165	555.19
314.394	549.19
314.624	593.19
314.853	603.19
315.083	633.19
315.312	612.19
315.542	600.19
315.771	558.19
316.001	519.19
316.23	556.19
316.46	561.19
316.689	545.19
316.919	511.19
317.148	475.19
317.377	537.19
317.607	590.19
317.836	644.19
318.065	635.19
318.295	602.19
318.524	595.19
318.753	565.19
318.983	568.19
319.212	551.19
319.441	542.19
319.67	559.19
319.9	569.19
320.129	582.19
320.358	610.19
320.587	621.19
320.816	608.19
321.046	604.19
321.275	584.19
321.504	591.19
321.733	613.19
321.962	589.19
322.191	568.19
322.42	556.19
322.649	525.19
322.878	543.19
323.108	559.19
323.337	571.19
323.566	593.19
323.795	555.19
324.024	570.19
324.253	552.19
324.482	548.19
324.71	543.19
324.939	532.19
325.168	544.19
325.397	537.19
325.626	566.19
325.855	567.19
326.084	578.19
326.313	559.19
326.542	551.19
326.77	559.19
326.999	576.19
327.228	549.19
327.457	499.19
327.686	521.19
327.914	552.19
328.143	541.19
328.372	525.19
328.6	548.19
328.829	544.19
329.058	552.19
329.287	542.19
329.515	561.19
329.744	595.19
329.972	595.19
330.201	615.19
330.43	589.19
330.658	576.19
330.887	575.19
331.115	610.19
331.344	617.19
331.572	582.19
331.801	596.19
332.03	571.19
332.258	597.19
332.486	583.19
332.715	605.19
332.943	597.19
333.172	588.19
333.4	611.19
333.629	623.19
333.857	660.19
334.085	725.19
334.314	812.19
334.542	821.19
334.771	739.19
334.999	695.19
335.227	653.19
335.455	629.19
335.684	623.19
335.912	651.19
336.14	638.19
336.369	623.19
336.597	599.19
336.825	594.19
337.053	643.19
337.281	637.19
337.51	660.19
337.738	687.19
337.966	637.19
338.194	612.19
338.422	604.19
338.65	588.19
338.878	569.19
339.106	567.19
339.334	545.19
339.562	557.19
339.79	573.19
340.018	619.19
340.246	620.19
340.474	630.19
340.702	614.19
340.93	603.19
341.158	604.19
341.386	596.19
341.614	588.19
341.842	581.19
342.07	609.19
342.298	597.19
342.526	574.19
342.754	562.19
342.981	573.19
343.209	604.19
343.437	564.19
343.665	589.19
343.893	633.19
344.12	643.19
344.348	633.19
344.576	604.19
344.804	577.19
345.031	591.19
345.259	565.19
345.487	580.19
345.714	544.19
345.942	572.19
346.17	565.19
346.397	590.19
346.625	563.19
346.853	551.19
347.08	538.19
347.308	553.19
347.535	548.19
347.763	572.19
347.99	558.19
348.218	563.19
348.445	553.19
348.673	567.19
348.9	594.19
349.128	589.19
349.355	620.19
349.583	589.19
349.81	541.19
350.037	552.19
350.265	517.19
350.492	542.19
350.72	549.19
350.947	562.19
351.174	567.19
351.402	542.19
351.629	528.19
351.856	520.19
352.083	523.19
352.311	553.19
352.538	534.19
352.765	570.19
352.992	599.19
353.22	536.19
353.447	538.19
353.674	554.19
353.901	574.19
354.128	557.19
354.355	555.19
354.583	572.19
354.81	585.19
355.037	592.19
355.264	593.19
355.491	575.19
355.718	570.19
355.945	549.19
356.172	554.19
356.399	556.19
356.626	565.19
356.853	583.19
357.08	630.19
357.307	682.19
357.534	647.19
357.761	567.19
357.988	534.19
358.215	522.19
358.441	557.19
358.668	538.19
358.895	559.19
359.122	597.19
359.349	611.19
359.576	596.19
359.802	568.19
360.029	565.19
360.256	546.19
360.483	545.19
360.709	549.19
360.936	589.19
361.163	609.19
361.39	662.19
361.616	687.19
361.843	673.19
362.07	646.19
362.296	572.19
362.523	547.19
362.749	558.19
362.976	579.19
363.203	600.19
363.429	557.19
363.656	547.19
363.882	605.19
364.109	666.19
364.335	651.19
364.562	611.19
364.788	585.19
365.015	584.19
365.241	549.19
365.468	595.19
365.694	604.19
365.92	619.19
366.147	568.19
366.373	563.19
366.599	559.19
366.826	569.19
367.052	553.19
367.278	556.19
367.505	576.19
367.731	610.19
367.957	593.19
368.184	600.19
368.41	671.19
368.636	657.19
368.862	687.19
369.089	665.19
369.315	631.19
369.541	634.19
369.767	589.19
369.993	590.19
370.219	599.19
370.445	592.19
370.672	660.19
370.898	648.19
371.124	673.19
371.35	636.19
371.576	645.19
371.802	693.19
372.028	663.19
372.254	609.19
372.48	596.19
372.706	600.19
372.932	634.19
373.158	617.19
373.384	628.19
373.61	649.19
373.835	659.19
374.061	616.19
374.287	625.19
374.513	638.19
374.739	634.19
374.965	637.19
375.191	643.19
375.416	623.19
375.642	673.19
375.868	688.19
376.094	702.19
376.319	696.19
376.545	654.19
376.771	661.19
376.997	683.19
377.222	675.19
377.448	692.19
377.674	673.19
377.899	680.19
378.125	699.19
378.35	699.19
378.576	628.19
378.802	616.19
379.027	616.19
379.253	626.19
379.478	657.19
379.704	639.19
379.929	614.19
380.155	667.19
380.38	649.19
380.606	646.19
380.831	655.19
381.057	673.19
381.282	658.19
381.507	706.19
381.733	737.19
381.958	744.19
382.184	656.19
382.409	669.19
382.634	663.19
382.86	643.19
383.085	665.19
383.31	708.19
383.535	768.19
383.761	793.19
383.986	749.19
384.211	714.19
384.436	740.19
384.662	759.19
384.887	729.19
385.112	715.19
385.337	730.19
385.562	749.19
385.787	717.19
386.013	771.19
386.238	738.19
386.463	745.19
386.688	815.19
386.913	848.19
387.138	817.19
387.363	758.19
387.588	748.19
387.813	760.19
388.038	767.19
388.263	809.19
388.488	729.19
388.713	713.19
388.938	722.19
389.163	734.19
389.387	740.19
389.612	757.19
389.837	748.19
390.062	764.19
390.287	721.19
390.512	719.19
390.736	737.19
390.961	723.19
391.186	708.19
391.411	745.19
391.636	737.19
391.86	740.19
392.085	732.19
392.31	764.19
392.534	733.19
392.759	744.19
392.984	803.19
393.208	763.19
393.433	786.19
393.658	811.19
393.882	803.19
394.107	792.19
394.331	763.19
394.556	753.19
394.78	748.19
395.005	787.19
395.229	831.19
395.454	859.19
395.678	864.19
395.903	798.19
396.127	810.19
396.352	803.19
396.576	843.19
396.801	848.19
397.025	829.19
397.249	817.19
397.474	804.19
397.698	811.19
397.922	844.19
398.147	867.19
398.371	891.19
398.595	899.19
398.82	887.19
399.044	887.19
399.268	917.19
399.492	945.19
399.717	977.19
399.941	1010.19
400.165	983.19
400.389	949.19
400.613	965.19
400.837	1129.19
401.062	1199.19
401.286	1000.19
401.51	961.19
401.734	975.19
401.958	938.19
402.182	905.19
402.406	889.19
402.63	868.19
402.854	871.19
403.078	880.19
403.302	903.19
403.526	904.19
403.75	906.19
403.974	925.19
404.198	892.19
404.422	940.19
404.645	1001.19
404.869	971.19
405.093	899.19
405.317	885.19
405.541	896.19
405.765	903.19
405.988	905.19
406.212	923.19
406.436	936.19
406.66	969.19
406.883	1007.19
407.107	1125.19
407.331	1219.19
407.555	1265.19
407.778	1121.19
408.002	970.19
408.226	963.19
408.449	974.19
408.673	931.19
408.896	932.19
409.12	939.19
409.344	940.19
409.567	923.19
409.791	952.19
410.014	949.19
410.238	1002.19
410.461	1019.19
410.685	934.19
410.908	931.19
411.132	960.19
411.355	964.19
411.578	930.19
411.802	926.19
412.025	937.19
412.249	915.19
412.472	900.19
412.695	919.19
412.919	883.19
413.142	881.19
413.365	904.19
413.589	948.19
413.812	983.19
414.035	990.19
414.258	893.19
414.482	898.19
414.705	914.19
414.928	923.19
415.151	865.19
415.374	927.19
415.597	921.19
415.821	924.19
416.044	924.19
416.267	898.19
416.49	906.19
416.713	870.19
416.936	945.19
417.159	959.19
417.382	954.19
417.605	908.19
417.828	931.19
418.051	942.19
418.274	947.19
418.497	910.19
418.72	931.19
418.943	918.19
419.166	917.19
419.389	999.19
419.611	947.19
419.834	935.19
420.057	956.19
420.28	949.19
420.503	907.19
420.726	961.19
420.948	945.19
421.171	904.19
421.394	914.19
421.617	993.19
421.839	991.19
422.062	974.19
422.285	922.19
422.507	924.19
422.73	898.19
422.953	879.19
423.175	874.19
423.398	934.19
423.621	895.19
423.843	924.19
424.066	937.19
424.288	1017.19
424.511	1023.19
424.733	982.19
424.956	931.19
425.178	906.19
425.401	916.19
425.623	949.19
425.846	917.19
426.068	972.19
426.291	955.19
426.513	917.19
426.735	936.19
426.958	1010.19
427.18	1056.19
427.402	985.19
427.625	998.19
427.847	987.19
428.069	911.19
428.292	889.19
428.514	868.19
428.736	900.19
428.958	891.19
429.181	907.19
429.403	1055.19
429.625	1226.19
429.847	1015.19
430.069	943.19
430.292	1019.19
430.514	1025.19
430.736	972.19
430.958	977.19
431.18	927.19
431.402	867.19
431.624	828.19
431.846	792.19
432.068	708.19
432.29	753.19
432.512	811.19
432.734	882.19
432.956	907.19
433.178	970.19
433.4	941.19
433.622	945.19
433.844	905.19
434.066	857.19
434.287	795.19
434.509	784.19
434.731	843.19
434.953	905.19
435.175	909.19
435.397	896.19
435.618	885.19
435.84	832.19
436.062	848.19
436.284	881.19
436.505	909.19
436.727	932.19
436.949	897.19
437.17	891.19
437.392	881.19
437.614	847.19
437.835	783.19
438.057	837.19
438.278	839.19
438.5	845.19
438.721	876.19
438.943	889.19
439.165	907.19
439.386	903.19
439.608	944.19
439.829	953.19
440.05	946.19
440.272	947.19
440.493	978.19
440.715	962.19
440.936	1013.19
441.158	1035.19
441.379	1023.19
441.6	1031.19
441.822	995.19
442.043	1013.19
442.264	984.19
442.486	963.19
442.707	959.19
442.928	958.19
443.149	972.19
443.371	993.19
443.592	1007.19
443.813	989.19
444.034	1011.19
444.255	1005.19
444.476	1007.19
444.698	1029.19
444.919	1053.19
445.14	1098.19
445.361	1065.19
445.582	1057.19
445.803	1008.19
446.024	1029.19
446.245	1035.19
446.466	1003.19
446.687	1032.19
446.908	1052.19
447.129	987.19
447.35	1010.19
447.571	990.19
447.792	943.19
448.013	972.19
448.234	967.19
448.455	987.19
448.675	959.19
448.896	887.19
449.117	887.19
449.338	904.19
449.559	945.19
449.779	973.19
450	1062.19
450.221	1037.19
450.442	1015.19
450.662	936.19
450.883	869.19
451.104	879.19
451.324	883.19
451.545	894.19
451.766	829.19
451.986	835.19
452.207	817.19
452.428	803.19
452.648	792.19
452.869	797.19
453.089	767.19
453.31	749.19
453.53	757.19
453.751	727.19
453.971	691.19
454.192	732.19
454.412	768.19
454.633	762.19
454.853	785.19
455.073	752.19
455.294	749.19
455.514	747.19
455.734	767.19
455.955	733.19
456.175	735.19
456.395	738.19
456.616	729.19
456.836	730.19
457.056	717.19
457.276	708.19
457.497	705.19
457.717	679.19
457.937	705.19
458.157	712.19
458.377	701.19
458.598	692.19
458.818	653.19
459.038	687.19
459.258	733.19
459.478	712.19
459.698	685.19
459.918	730.19
460.138	770.19
460.358	825.19
460.578	831.19
460.798	851.19
461.018	856.19
461.238	847.19
461.458	865.19
461.678	853.19
461.898	780.19
462.118	811.19
462.338	851.19
462.558	854.19
462.777	847.19
462.997	875.19
463.217	897.19
463.437	879.19
463.657	827.19
463.876	812.19
464.096	812.19
464.316	815.19
464.536	851.19
464.755	860.19
464.975	869.19
465.195	850.19
465.414	888.19
465.634	868.19
465.854	875.19
466.073	963.19
466.293	949.19
466.512	856.19
466.732	858.19
466.951	895.19
467.171	888.19
467.391	864.19
467.61	857.19
467.829	890.19
468.049	963.19
468.268	1021.19
468.488	925.19
468.707	920.19
468.927	882.19
469.146	882.19
469.365	883.19
469.585	886.19
469.804	930.19
470.023	899.19
470.243	933.19
470.462	936.19
470.681	909.19
470.901	908.19
471.12	923.19
471.339	925.19
471.558	896.19
471.777	890.19
471.997	875.19
472.216	835.19
472.435	786.19
472.654	755.19
472.873	780.19
473.092	839.19
473.311	789.19
473.53	792.19
473.749	808.19
473.968	842.19
474.187	840.19
474.406	831.19
474.625	837.19
474.844	885.19
475.063	856.19
475.282	849.19
475.501	805.19
475.72	828.19
475.939	910.19
476.158	858.19
476.377	859.19
476.596	833.19
476.814	799.19
477.033	798.19
477.252	835.19
477.471	901.19
477.69	902.19
477.908	937.19
478.127	977.19
478.346	982.19
478.564	981.19
478.783	991.19
479.002	1015.19
479.22	970.19
479.439	1025.19
479.658	1080.19
479.876	972.19
480.095	883.19
480.313	899.19
480.532	866.19
480.751	856.19
480.969	815.19
481.188	773.19
481.406	773.19
481.624	777.19
481.843	792.19
482.061	800.19
482.28	869.19
482.498	870.19
482.717	855.19
482.935	897.19
483.153	981.19
483.372	1001.19
483.59	1016.19
483.808	962.19
484.027	924.19
484.245	972.19
484.463	1197.19
484.681	1277.19
484.9	1006.19
485.118	965.19
485.336	920.19
485.554	895.19
485.772	893.19
485.99	860.19
486.209	883.19
486.427	891.19
486.645	928.19
486.863	949.19
487.081	1056.19
487.299	1045.19
487.517	1032.19
487.735	1098.19
487.953	1168.19
488.171	1166.19
488.389	1104.19
488.607	1052.19
488.825	1106.19
489.043	1053.19
489.261	964.19
489.479	1036.19
489.696	1050.19
489.914	1043.19
490.132	1035.19
490.35	1077.19
490.568	1149.19
490.786	1172.19
491.003	1184.19
491.221	1259.19
491.439	1298.19
491.657	1309.19
491.874	1363.19
492.092	1391.19
492.31	1472.19
492.527	1453.19
492.745	1361.19
492.963	1316.19
493.18	1318.19
493.398	1329.19
493.615	1303.19
493.833	1262.19
494.05	1226.19
494.268	1233.19
494.485	1244.19
494.703	1213.19
494.92	1177.19
495.138	1201.19
495.355	1209.19
495.573	1228.19
495.79	1274.19
496.008	1274.19
496.225	1208.19
496.442	1180.19
496.66	1223.19
496.877	1179.19
497.094	1209.19
497.312	1208.19
497.529	1187.19
497.746	1196.19
497.963	1265.19
498.181	1299.19
498.398	1284.19
498.615	1219.19
498.832	1176.19
499.049	1149.19
499.267	1166.19
499.484	1252.19
499.701	1333.19
499.918	1351.19
500.135	1481.19
500.352	1527.19
500.569	1533.19
