Data from WStandard_LampEnergy10_LIBS07252019.E.O._I.C._HRD10591_15-55-17-928.txt Node
Date: Thu Jul 25 15:55:17 EDT 2019
User: cochatt
Spectrometer: HR+D1059
Trigger mode: 1
Integration Time (sec): 1.000000E-1
Scans to average: 1
Electric dark correction enabled: true
Nonlinearity correction enabled: false
Boxcar width: 0
XAxis mode: Wavelengths
Number of Pixels in Spectrum: 2048
>>>>>Begin Spectral Data<<<<<
223.165	-9.62
223.4	-9.62
223.635	-9.62
223.869	-19.62
224.104	-24.62
224.338	-10.62
224.573	-21.62
224.808	-4.62
225.042	-0.62
225.277	-3.62
225.511	-2.62
225.746	4.38
225.98	15.38
226.215	-5.62
226.449	13.38
226.683	16.38
226.918	21.38
227.152	32.38
227.387	27.38
227.621	38.38
227.856	39.38
228.09	48.38
228.324	51.38
228.559	52.38
228.793	87.38
229.027	120.38
229.262	133.38
229.496	126.38
229.73	154.38
229.964	149.38
230.199	171.38
230.433	165.38
230.667	188.38
230.901	192.38
231.136	167.38
231.37	164.38
231.604	173.38
231.838	165.38
232.072	174.38
232.306	168.38
232.541	171.38
232.775	197.38
233.009	225.38
233.243	182.38
233.477	180.38
233.711	195.38
233.945	193.38
234.179	205.38
234.413	206.38
234.647	210.38
234.881	210.38
235.115	182.38
235.349	195.38
235.583	188.38
235.817	196.38
236.051	175.38
236.285	201.38
236.519	194.38
236.753	249.38
236.987	229.38
237.221	212.38
237.455	223.38
237.689	239.38
237.922	212.38
238.156	213.38
238.39	221.38
238.624	248.38
238.858	253.38
239.091	242.38
239.325	265.38
239.559	275.38
239.793	288.38
240.027	292.38
240.26	284.38
240.494	245.38
240.728	235.38
240.961	225.38
241.195	252.38
241.429	252.38
241.662	258.38
241.896	241.38
242.13	243.38
242.363	267.38
242.597	279.38
242.83	260.38
243.064	305.38
243.298	285.38
243.531	275.38
243.765	287.38
243.998	267.38
244.232	259.38
244.465	265.38
244.699	268.38
244.932	283.38
245.166	316.38
245.399	287.38
245.633	289.38
245.866	289.38
246.099	291.38
246.333	316.38
246.566	306.38
246.8	333.38
247.033	345.38
247.266	325.38
247.5	306.38
247.733	322.38
247.966	341.38
248.2	355.38
248.433	348.38
248.666	367.38
248.899	407.38
249.133	449.38
249.366	471.38
249.599	404.38
249.832	347.38
250.066	364.38
250.299	371.38
250.532	344.38
250.765	331.38
250.998	314.38
251.231	349.38
251.465	356.38
251.698	345.38
251.931	349.38
252.164	354.38
252.397	382.38
252.63	360.38
252.863	327.38
253.096	322.38
253.329	356.38
253.562	356.38
253.795	350.38
254.028	371.38
254.261	331.38
254.494	355.38
254.727	317.38
254.96	346.38
255.193	388.38
255.426	402.38
255.659	463.38
255.892	455.38
256.124	374.38
256.357	386.38
256.59	396.38
256.823	402.38
257.056	418.38
257.289	467.38
257.521	497.38
257.754	452.38
257.987	466.38
258.22	493.38
258.452	454.38
258.685	405.38
258.918	387.38
259.151	407.38
259.383	384.38
259.616	344.38
259.849	376.38
260.081	419.38
260.314	452.38
260.547	456.38
260.779	472.38
261.012	438.38
261.244	386.38
261.477	400.38
261.71	402.38
261.942	400.38
262.175	391.38
262.407	393.38
262.64	385.38
262.872	351.38
263.105	364.38
263.337	364.38
263.57	396.38
263.802	378.38
264.035	356.38
264.267	308.38
264.499	332.38
264.732	367.38
264.964	391.38
265.197	415.38
265.429	425.38
265.661	450.38
265.894	476.38
266.126	484.38
266.358	481.38
266.591	467.38
266.823	479.38
267.055	441.38
267.287	461.38
267.52	446.38
267.752	450.38
267.984	454.38
268.216	470.38
268.448	480.38
268.681	449.38
268.913	422.38
269.145	409.38
269.377	411.38
269.609	436.38
269.841	524.38
270.073	559.38
270.306	623.38
270.538	600.38
270.77	530.38
271.002	486.38
271.234	468.38
271.466	493.38
271.698	523.38
271.93	622.38
272.162	588.38
272.394	559.38
272.626	515.38
272.858	464.38
273.09	433.38
273.322	404.38
273.553	389.38
273.785	395.38
274.017	420.38
274.249	447.38
274.481	455.38
274.713	405.38
274.945	397.38
275.176	404.38
275.408	404.38
275.64	390.38
275.872	408.38
276.104	444.38
276.335	493.38
276.567	539.38
276.799	531.38
277.031	488.38
277.262	465.38
277.494	495.38
277.726	535.38
277.957	497.38
278.189	453.38
278.421	421.38
278.652	421.38
278.884	430.38
279.115	438.38
279.347	453.38
279.579	416.38
279.81	434.38
280.042	471.38
280.273	504.38
280.505	518.38
280.736	485.38
280.968	457.38
281.199	437.38
281.431	410.38
281.662	408.38
281.894	436.38
282.125	434.38
282.356	441.38
282.588	469.38
282.819	453.38
283.051	491.38
283.282	509.38
283.513	492.38
283.745	427.38
283.976	415.38
284.207	427.38
284.439	431.38
284.67	453.38
284.901	461.38
285.132	455.38
285.364	468.38
285.595	452.38
285.826	439.38
286.057	437.38
286.288	441.38
286.52	464.38
286.751	495.38
286.982	497.38
287.213	441.38
287.444	442.38
287.675	416.38
287.906	469.38
288.138	474.38
288.369	456.38
288.6	447.38
288.831	419.38
289.062	420.38
289.293	421.38
289.524	461.38
289.755	453.38
289.986	449.38
290.217	435.38
290.448	436.38
290.679	447.38
290.91	471.38
291.141	492.38
291.371	462.38
291.602	480.38
291.833	484.38
292.064	509.38
292.295	471.38
292.526	489.38
292.757	510.38
292.987	471.38
293.218	467.38
293.449	533.38
293.68	570.38
293.91	595.38
294.141	534.38
294.372	536.38
294.603	563.38
294.833	565.38
295.064	535.38
295.295	488.38
295.525	469.38
295.756	455.38
295.987	434.38
296.217	438.38
296.448	459.38
296.679	461.38
296.909	449.38
297.14	433.38
297.37	464.38
297.601	495.38
297.831	517.38
298.062	522.38
298.292	476.38
298.523	473.38
298.753	460.38
298.984	485.38
299.214	492.38
299.445	495.38
299.675	497.38
299.905	462.38
300.136	475.38
300.366	472.38
300.597	451.38
300.827	468.38
301.057	492.38
301.288	500.38
301.518	497.38
301.748	517.38
301.979	549.38
302.209	571.38
302.439	593.38
302.669	604.38
302.9	555.38
303.13	511.38
303.36	499.38
303.59	511.38
303.82	509.38
304.051	520.38
304.281	511.38
304.511	509.38
304.741	551.38
304.971	597.38
305.201	616.38
305.431	560.38
305.661	467.38
305.891	458.38
306.121	454.38
306.352	483.38
306.582	534.38
306.812	533.38
307.042	554.38
307.272	601.38
307.502	600.38
307.731	627.38
307.961	618.38
308.191	557.38
308.421	535.38
308.651	499.38
308.881	466.38
309.111	498.38
309.341	480.38
309.571	486.38
309.8	511.38
310.03	477.38
310.26	476.38
310.49	497.38
310.72	507.38
310.949	515.38
311.179	523.38
311.409	517.38
311.639	508.38
311.868	491.38
312.098	495.38
312.328	487.38
312.557	515.38
312.787	504.38
313.017	486.38
313.246	518.38
313.476	523.38
313.706	524.38
313.935	511.38
314.165	535.38
314.394	549.38
314.624	581.38
314.853	637.38
315.083	617.38
315.312	632.38
315.542	572.38
315.771	541.38
316.001	550.38
316.23	581.38
316.46	564.38
316.689	533.38
316.919	549.38
317.148	536.38
317.377	549.38
317.607	577.38
317.836	634.38
318.065	653.38
318.295	613.38
318.524	595.38
318.753	565.38
318.983	551.38
319.212	529.38
319.441	562.38
319.67	549.38
319.9	577.38
320.129	587.38
320.358	626.38
320.587	619.38
320.816	629.38
321.046	604.38
321.275	587.38
321.504	595.38
321.733	615.38
321.962	580.38
322.191	574.38
322.42	555.38
322.649	538.38
322.878	545.38
323.108	551.38
323.337	566.38
323.566	574.38
323.795	572.38
324.024	571.38
324.253	572.38
324.482	571.38
324.71	526.38
324.939	518.38
325.168	559.38
325.397	562.38
325.626	590.38
325.855	565.38
326.084	559.38
326.313	563.38
326.542	577.38
326.77	579.38
326.999	580.38
327.228	561.38
327.457	551.38
327.686	521.38
327.914	536.38
328.143	568.38
328.372	547.38
328.6	555.38
328.829	550.38
329.058	551.38
329.287	552.38
329.515	559.38
329.744	580.38
329.972	626.38
330.201	618.38
330.43	611.38
330.658	571.38
330.887	601.38
331.115	599.38
331.344	616.38
331.572	598.38
331.801	600.38
332.03	581.38
332.258	594.38
332.486	598.38
332.715	596.38
332.943	584.38
333.172	589.38
333.4	615.38
333.629	615.38
333.857	657.38
334.085	735.38
334.314	827.38
334.542	835.38
334.771	776.38
334.999	669.38
335.227	627.38
335.455	612.38
335.684	632.38
335.912	638.38
336.14	669.38
336.369	649.38
336.597	593.38
336.825	591.38
337.053	630.38
337.281	665.38
337.51	694.38
337.738	693.38
337.966	625.38
338.194	605.38
338.422	600.38
338.65	571.38
338.878	566.38
339.106	561.38
339.334	556.38
339.562	560.38
339.79	558.38
340.018	634.38
340.246	616.38
340.474	601.38
340.702	634.38
340.93	594.38
341.158	588.38
341.386	619.38
341.614	624.38
341.842	598.38
342.07	573.38
342.298	607.38
342.526	575.38
342.754	587.38
342.981	584.38
343.209	570.38
343.437	579.38
343.665	581.38
343.893	590.38
344.12	643.38
344.348	630.38
344.576	582.38
344.804	589.38
345.031	610.38
345.259	596.38
345.487	584.38
345.714	566.38
345.942	545.38
346.17	553.38
346.397	578.38
346.625	580.38
346.853	533.38
347.08	531.38
347.308	552.38
347.535	580.38
347.763	569.38
347.99	547.38
348.218	524.38
348.445	569.38
348.673	586.38
348.9	577.38
349.128	590.38
349.355	600.38
349.583	586.38
349.81	563.38
350.037	509.38
350.265	504.38
350.492	501.38
350.72	573.38
350.947	576.38
351.174	575.38
351.402	548.38
351.629	535.38
351.856	524.38
352.083	521.38
352.311	524.38
352.538	550.38
352.765	565.38
352.992	576.38
353.22	546.38
353.447	554.38
353.674	561.38
353.901	548.38
354.128	570.38
354.355	544.38
354.583	580.38
354.81	598.38
355.037	593.38
355.264	597.38
355.491	555.38
355.718	571.38
355.945	563.38
356.172	548.38
356.399	560.38
356.626	557.38
356.853	564.38
357.08	635.38
357.307	661.38
357.534	640.38
357.761	580.38
357.988	534.38
358.215	535.38
358.441	525.38
358.668	544.38
358.895	545.38
359.122	609.38
359.349	635.38
359.576	636.38
359.802	566.38
360.029	547.38
360.256	538.38
360.483	567.38
360.709	587.38
360.936	609.38
361.163	625.38
361.39	660.38
361.616	706.38
361.843	694.38
362.07	629.38
362.296	570.38
362.523	577.38
362.749	576.38
362.976	580.38
363.203	579.38
363.429	557.38
363.656	541.38
363.882	589.38
364.109	637.38
364.335	657.38
364.562	630.38
364.788	599.38
365.015	552.38
365.241	559.38
365.468	586.38
365.694	590.38
365.92	636.38
366.147	575.38
366.373	578.38
366.599	544.38
366.826	541.38
367.052	568.38
367.278	591.38
367.505	614.38
367.731	601.38
367.957	613.38
368.184	624.38
368.41	645.38
368.636	668.38
368.862	658.38
369.089	676.38
369.315	639.38
369.541	623.38
369.767	589.38
369.993	589.38
370.219	605.38
370.445	627.38
370.672	641.38
370.898	669.38
371.124	654.38
371.35	605.38
371.576	639.38
371.802	675.38
372.028	634.38
372.254	618.38
372.48	581.38
372.706	592.38
372.932	596.38
373.158	615.38
373.384	612.38
373.61	639.38
373.835	651.38
374.061	634.38
374.287	604.38
374.513	626.38
374.739	638.38
374.965	633.38
375.191	651.38
375.416	644.38
375.642	649.38
375.868	699.38
376.094	717.38
376.319	659.38
376.545	645.38
376.771	657.38
376.997	703.38
377.222	643.38
377.448	659.38
377.674	655.38
377.899	668.38
378.125	691.38
378.35	672.38
378.576	646.38
378.802	627.38
379.027	627.38
379.253	620.38
379.478	627.38
379.704	600.38
379.929	632.38
380.155	663.38
380.38	662.38
380.606	672.38
380.831	641.38
381.057	690.38
381.282	684.38
381.507	673.38
381.733	741.38
381.958	744.38
382.184	672.38
382.409	685.38
382.634	668.38
382.86	655.38
383.085	695.38
383.31	701.38
383.535	754.38
383.761	778.38
383.986	735.38
384.211	705.38
384.436	712.38
384.662	736.38
384.887	751.38
385.112	699.38
385.337	739.38
385.562	722.38
385.787	736.38
386.013	754.38
386.238	766.38
386.463	760.38
386.688	811.38
386.913	840.38
387.138	822.38
387.363	771.38
387.588	764.38
387.813	753.38
388.038	779.38
388.263	806.38
388.488	777.38
388.713	729.38
388.938	698.38
389.163	708.38
389.387	755.38
389.612	717.38
389.837	771.38
390.062	763.38
390.287	745.38
390.512	707.38
390.736	729.38
390.961	727.38
391.186	706.38
391.411	725.38
391.636	751.38
391.86	733.38
392.085	722.38
392.31	763.38
392.534	751.38
392.759	760.38
392.984	773.38
393.208	788.38
393.433	810.38
393.658	844.38
393.882	840.38
394.107	760.38
394.331	771.38
394.556	763.38
394.78	782.38
395.005	785.38
395.229	817.38
395.454	856.38
395.678	856.38
395.903	820.38
396.127	819.38
396.352	803.38
396.576	813.38
396.801	851.38
397.025	844.38
397.249	821.38
397.474	805.38
397.698	813.38
397.922	839.38
398.147	893.38
398.371	903.38
398.595	869.38
398.82	847.38
399.044	879.38
399.268	898.38
399.492	943.38
399.717	965.38
399.941	963.38
400.165	954.38
400.389	959.38
400.613	979.38
400.837	1096.38
401.062	1211.38
401.286	1017.38
401.51	965.38
401.734	979.38
401.958	916.38
402.182	886.38
402.406	868.38
402.63	827.38
402.854	847.38
403.078	872.38
403.302	884.38
403.526	905.38
403.75	920.38
403.974	936.38
404.198	904.38
404.422	959.38
404.645	998.38
404.869	968.38
405.093	905.38
405.317	910.38
405.541	896.38
405.765	915.38
405.988	909.38
406.212	931.38
406.436	962.38
406.66	1010.38
406.883	1039.38
407.107	1146.38
407.331	1216.38
407.555	1283.38
407.778	1090.38
408.002	955.38
408.226	953.38
408.449	949.38
408.673	931.38
408.896	923.38
409.12	933.38
409.344	943.38
409.567	905.38
409.791	943.38
410.014	969.38
410.238	1004.38
410.461	1035.38
410.685	937.38
410.908	936.38
411.132	933.38
411.355	909.38
411.578	920.38
411.802	904.38
412.025	927.38
412.249	924.38
412.472	910.38
412.695	915.38
412.919	916.38
413.142	925.38
413.365	905.38
413.589	946.38
413.812	968.38
414.035	991.38
414.258	919.38
414.482	922.38
414.705	913.38
414.928	913.38
415.151	903.38
415.374	892.38
415.597	951.38
415.821	914.38
416.044	935.38
416.267	928.38
416.49	902.38
416.713	879.38
416.936	924.38
417.159	973.38
417.382	951.38
417.605	943.38
417.828	918.38
418.051	949.38
418.274	929.38
418.497	922.38
418.72	911.38
418.943	897.38
419.166	959.38
419.389	958.38
419.611	977.38
419.834	923.38
420.057	936.38
420.28	933.38
420.503	951.38
420.726	960.38
420.948	941.38
421.171	924.38
421.394	914.38
421.617	964.38
421.839	959.38
422.062	983.38
422.285	931.38
422.507	893.38
422.73	901.38
422.953	881.38
423.175	853.38
423.398	881.38
423.621	901.38
423.843	948.38
424.066	976.38
424.288	1013.38
424.511	1045.38
424.733	962.38
424.956	933.38
425.178	915.38
425.401	913.38
425.623	951.38
425.846	945.38
426.068	940.38
426.291	967.38
426.513	929.38
426.735	947.38
426.958	1035.38
427.18	1049.38
427.402	959.38
427.625	992.38
427.847	950.38
428.069	929.38
428.292	911.38
428.514	897.38
428.736	887.38
428.958	896.38
429.181	940.38
429.403	1055.38
429.625	1233.38
429.847	1034.38
430.069	948.38
430.292	1035.38
430.514	1027.38
430.736	954.38
430.958	973.38
431.18	916.38
431.402	889.38
431.624	851.38
431.846	807.38
432.068	732.38
432.29	732.38
432.512	791.38
432.734	871.38
432.956	920.38
433.178	966.38
433.4	965.38
433.622	939.38
433.844	885.38
434.066	837.38
434.287	776.38
434.509	798.38
434.731	839.38
434.953	928.38
435.175	932.38
435.397	876.38
435.618	879.38
435.84	836.38
436.062	842.38
436.284	898.38
436.505	911.38
436.727	956.38
436.949	907.38
437.17	885.38
437.392	869.38
437.614	821.38
437.835	782.38
438.057	817.38
438.278	852.38
438.5	848.38
438.721	888.38
438.943	914.38
439.165	923.38
439.386	899.38
439.608	948.38
439.829	951.38
440.05	970.38
440.272	977.38
440.493	922.38
440.715	940.38
440.936	1018.38
441.158	1014.38
441.379	1005.38
441.6	1027.38
441.822	978.38
442.043	991.38
442.264	970.38
442.486	978.38
442.707	945.38
442.928	931.38
443.149	951.38
443.371	993.38
443.592	998.38
443.813	994.38
444.034	989.38
444.255	1007.38
444.476	992.38
444.698	1068.38
444.919	1045.38
445.14	1116.38
445.361	1083.38
445.582	1090.38
445.803	1063.38
446.024	1043.38
446.245	1059.38
446.466	1029.38
446.687	1038.38
446.908	1043.38
447.129	1036.38
447.35	1004.38
447.571	980.38
447.792	947.38
448.013	944.38
448.234	968.38
448.455	995.38
448.675	998.38
448.896	937.38
449.117	898.38
449.338	916.38
449.559	949.38
449.779	977.38
450	1007.38
450.221	1015.38
450.442	1019.38
450.662	934.38
450.883	883.38
451.104	878.38
451.324	912.38
451.545	882.38
451.766	856.38
451.986	845.38
452.207	797.38
452.428	803.38
452.648	780.38
452.869	791.38
453.089	763.38
453.31	790.38
453.53	791.38
453.751	728.38
453.971	709.38
454.192	713.38
454.412	754.38
454.633	795.38
454.853	787.38
455.073	729.38
455.294	770.38
455.514	765.38
455.734	747.38
455.955	767.38
456.175	721.38
456.395	714.38
456.616	709.38
456.836	723.38
457.056	716.38
457.276	729.38
457.497	709.38
457.717	648.38
457.937	705.38
458.157	729.38
458.377	701.38
458.598	667.38
458.818	665.38
459.038	723.38
459.258	707.38
459.478	705.38
459.698	709.38
459.918	739.38
460.138	783.38
460.358	789.38
460.578	846.38
460.798	833.38
461.018	871.38
461.238	844.38
461.458	809.38
461.678	835.38
461.898	828.38
462.118	792.38
462.338	830.38
462.558	823.38
462.777	854.38
462.997	840.38
463.217	866.38
463.437	866.38
463.657	846.38
463.876	819.38
464.096	831.38
464.316	857.38
464.536	855.38
464.755	856.38
464.975	861.38
465.195	850.38
465.414	863.38
465.634	857.38
465.854	872.38
466.073	941.38
466.293	923.38
466.512	826.38
466.732	859.38
466.951	897.38
467.171	899.38
467.391	898.38
467.61	882.38
467.829	896.38
468.049	974.38
468.268	1049.38
468.488	962.38
468.707	910.38
468.927	900.38
469.146	877.38
469.365	922.38
469.585	918.38
469.804	905.38
470.023	961.38
470.243	937.38
470.462	937.38
470.681	897.38
470.901	913.38
471.12	917.38
471.339	896.38
471.558	873.38
471.777	906.38
471.997	872.38
472.216	879.38
472.435	791.38
472.654	757.38
472.873	785.38
473.092	811.38
473.311	778.38
473.53	802.38
473.749	829.38
473.968	862.38
474.187	845.38
474.406	843.38
474.625	839.38
474.844	864.38
475.063	842.38
475.282	851.38
475.501	829.38
475.72	820.38
475.939	887.38
476.158	849.38
476.377	837.38
476.596	817.38
476.814	803.38
477.033	802.38
477.252	842.38
477.471	878.38
477.69	911.38
477.908	948.38
478.127	947.38
478.346	992.38
478.564	967.38
478.783	986.38
479.002	1036.38
479.22	1021.38
479.439	1032.38
479.658	1055.38
479.876	1003.38
480.095	901.38
480.313	892.38
480.532	871.38
480.751	848.38
480.969	820.38
481.188	771.38
481.406	760.38
481.624	749.38
481.843	775.38
482.061	825.38
482.28	850.38
482.498	891.38
482.717	817.38
482.935	886.38
483.153	975.38
483.372	1033.38
483.59	1000.38
483.808	982.38
484.027	954.38
484.245	987.38
484.463	1206.38
484.681	1281.38
484.9	1004.38
485.118	947.38
485.336	893.38
485.554	901.38
485.772	875.38
485.99	876.38
486.209	895.38
486.427	890.38
486.645	907.38
486.863	1016.38
487.081	1048.38
487.299	1023.38
487.517	988.38
487.735	1071.38
487.953	1173.38
488.171	1157.38
488.389	1101.38
488.607	1074.38
488.825	1146.38
489.043	1053.38
489.261	977.38
489.479	1042.38
489.696	1035.38
489.914	1030.38
490.132	1064.38
490.35	1059.38
490.568	1155.38
490.786	1153.38
491.003	1183.38
491.221	1206.38
491.439	1283.38
491.657	1289.38
491.874	1345.38
492.092	1436.38
492.31	1467.38
492.527	1451.38
492.745	1353.38
492.963	1307.38
493.18	1292.38
493.398	1327.38
493.615	1361.38
493.833	1243.38
494.05	1223.38
494.268	1211.38
494.485	1231.38
494.703	1201.38
494.92	1240.38
495.138	1228.38
495.355	1237.38
495.573	1254.38
495.79	1295.38
496.008	1268.38
496.225	1239.38
496.442	1200.38
496.66	1215.38
496.877	1203.38
497.094	1221.38
497.312	1219.38
497.529	1175.38
497.746	1179.38
497.963	1254.38
498.181	1294.38
498.398	1243.38
498.615	1177.38
498.832	1161.38
499.049	1128.38
499.267	1173.38
499.484	1253.38
499.701	1363.38
499.918	1336.38
500.135	1497.38
500.352	1576.38
500.569	1585.38
