Data from WStandard_LampEnergy5.5LIBS07252019.E.O._I.C._HRD10591_16-09-27-920.txt Node
Date: Thu Jul 25 16:09:27 EDT 2019
User: cochatt
Spectrometer: HR+D1059
Trigger mode: 1
Integration Time (sec): 1.000000E-1
Scans to average: 1
Electric dark correction enabled: true
Nonlinearity correction enabled: false
Boxcar width: 0
XAxis mode: Wavelengths
Number of Pixels in Spectrum: 2048
>>>>>Begin Spectral Data<<<<<
223.165	-13.69
223.4	-13.69
223.635	-13.69
223.869	-11.69
224.104	-16.69
224.338	-12.69
224.573	-9.69
224.808	-18.69
225.042	-3.69
225.277	-22.69
225.511	0.31
225.746	1.31
225.98	5.31
226.215	-8.69
226.449	19.31
226.683	26.31
226.918	33.31
227.152	32.31
227.387	24.31
227.621	38.31
227.856	30.31
228.09	32.31
228.324	43.31
228.559	69.31
228.793	122.31
229.027	357.31
229.262	349.31
229.496	356.31
229.73	380.31
229.964	408.31
230.199	410.31
230.433	434.31
230.667	439.31
230.901	493.31
231.136	442.31
231.37	433.31
231.604	421.31
231.838	448.31
232.072	444.31
232.306	433.31
232.541	467.31
232.775	509.31
233.009	581.31
233.243	553.31
233.477	510.31
233.711	515.31
233.945	526.31
234.179	518.31
234.413	550.31
234.647	592.31
234.881	561.31
235.115	500.31
235.349	526.31
235.583	533.31
235.817	516.31
236.051	496.31
236.285	515.31
236.519	572.31
236.753	640.31
236.987	633.31
237.221	628.31
237.455	706.31
237.689	686.31
237.922	629.31
238.156	637.31
238.39	640.31
238.624	675.31
238.858	693.31
239.091	722.31
239.325	732.31
239.559	872.31
239.793	882.31
240.027	969.31
240.26	965.31
240.494	742.31
240.728	654.31
240.961	681.31
241.195	686.31
241.429	776.31
241.662	744.31
241.896	709.31
242.13	685.31
242.363	774.31
242.597	875.31
242.83	827.31
243.064	863.31
243.298	919.31
243.531	871.31
243.765	860.31
243.998	866.31
244.232	753.31
244.465	730.31
244.699	730.31
244.932	850.31
245.166	954.31
245.399	931.31
245.633	846.31
245.866	818.31
246.099	846.31
246.333	875.31
246.566	925.31
246.8	986.31
247.033	1083.31
247.266	987.31
247.5	967.31
247.733	983.31
247.966	1038.31
248.2	1167.31
248.433	1121.31
248.666	1136.31
248.899	1250.31
249.133	1448.31
249.366	1636.31
249.599	1322.31
249.832	1144.31
250.066	1178.31
250.299	1210.31
250.532	1136.31
250.765	1025.31
250.998	1089.31
251.231	1112.31
251.465	1150.31
251.698	1098.31
251.931	1097.31
252.164	1119.31
252.397	1164.31
252.63	1180.31
252.863	1054.31
253.096	1010.31
253.329	1107.31
253.562	1131.31
253.795	1207.31
254.028	1183.31
254.261	1081.31
254.494	1085.31
254.727	1021.31
254.96	1043.31
255.193	1201.31
255.426	1326.31
255.659	1511.31
255.892	1579.31
256.124	1274.31
256.357	1248.31
256.59	1336.31
256.823	1321.31
257.056	1342.31
257.289	1546.31
257.521	1761.31
257.754	1613.31
257.987	1496.31
258.22	1661.31
258.452	1662.31
258.685	1329.31
258.918	1257.31
259.151	1263.31
259.383	1219.31
259.616	1075.31
259.849	1129.31
260.081	1310.31
260.314	1390.31
260.547	1560.31
260.779	1600.31
261.012	1495.31
261.244	1344.31
261.477	1255.31
261.71	1289.31
261.942	1330.31
262.175	1279.31
262.407	1328.31
262.64	1322.31
262.872	1194.31
263.105	1164.31
263.337	1185.31
263.57	1232.31
263.802	1201.31
264.035	1140.31
264.267	1059.31
264.499	1052.31
264.732	1099.31
264.964	1207.31
265.197	1262.31
265.429	1296.31
265.661	1475.31
265.894	1624.31
266.126	1674.31
266.358	1458.31
266.591	1525.31
266.823	1712.31
267.055	1509.31
267.287	1462.31
267.52	1460.31
267.752	1434.31
267.984	1441.31
268.216	1514.31
268.448	1562.31
268.681	1516.31
268.913	1416.31
269.145	1356.31
269.377	1298.31
269.609	1401.31
269.841	1627.31
270.073	1889.31
270.306	2078.31
270.538	2273.31
270.77	1948.31
271.002	1588.31
271.234	1560.31
271.466	1487.31
271.698	1700.31
271.93	2064.31
272.162	2042.31
272.394	1820.31
272.626	1777.31
272.858	1586.31
273.09	1368.31
273.322	1382.31
273.553	1282.31
273.785	1337.31
274.017	1358.31
274.249	1452.31
274.481	1468.31
274.713	1359.31
274.945	1319.31
275.176	1340.31
275.408	1290.31
275.64	1284.31
275.872	1256.31
276.104	1368.31
276.335	1536.31
276.567	1741.31
276.799	1764.31
277.031	1601.31
277.262	1502.31
277.494	1555.31
277.726	1712.31
277.957	1712.31
278.189	1555.31
278.421	1424.31
278.652	1395.31
278.884	1354.31
279.115	1367.31
279.347	1440.31
279.579	1348.31
279.81	1363.31
280.042	1520.31
280.273	1663.31
280.505	1662.31
280.736	1698.31
280.968	1630.31
281.199	1400.31
281.431	1334.31
281.662	1331.31
281.894	1378.31
282.125	1428.31
282.356	1448.31
282.588	1488.31
282.819	1411.31
283.051	1497.31
283.282	1675.31
283.513	1660.31
283.745	1445.31
283.976	1331.31
284.207	1340.31
284.439	1353.31
284.67	1421.31
284.901	1420.31
285.132	1467.31
285.364	1436.31
285.595	1457.31
285.826	1447.31
286.057	1380.31
286.288	1387.31
286.52	1477.31
286.751	1584.31
286.982	1630.31
287.213	1498.31
287.444	1371.31
287.675	1374.31
287.906	1454.31
288.138	1572.31
288.369	1483.31
288.6	1432.31
288.831	1382.31
289.062	1415.31
289.293	1398.31
289.524	1411.31
289.755	1497.31
289.986	1490.31
290.217	1352.31
290.448	1369.31
290.679	1451.31
290.91	1443.31
291.141	1472.31
291.371	1555.31
291.602	1512.31
291.833	1483.31
292.064	1552.31
292.295	1544.31
292.526	1543.31
292.757	1627.31
292.987	1540.31
293.218	1456.31
293.449	1541.31
293.68	1769.31
293.91	1908.31
294.141	1741.31
294.372	1650.31
294.603	1715.31
294.833	1827.31
295.064	1728.31
295.295	1539.31
295.525	1492.31
295.756	1426.31
295.987	1340.31
296.217	1370.31
296.448	1424.31
296.679	1430.31
296.909	1418.31
297.14	1404.31
297.37	1399.31
297.601	1522.31
297.831	1616.31
298.062	1632.31
298.292	1509.31
298.523	1397.31
298.753	1425.31
298.984	1431.31
299.214	1443.31
299.445	1474.31
299.675	1514.31
299.905	1523.31
300.136	1468.31
300.366	1437.31
300.597	1412.31
300.827	1424.31
301.057	1483.31
301.288	1534.31
301.518	1520.31
301.748	1557.31
301.979	1635.31
302.209	1641.31
302.439	1748.31
302.669	1857.31
302.9	1716.31
303.13	1514.31
303.36	1541.31
303.59	1594.31
303.82	1559.31
304.051	1569.31
304.281	1592.31
304.511	1546.31
304.741	1646.31
304.971	1781.31
305.201	1911.31
305.431	1842.31
305.661	1503.31
305.891	1380.31
306.121	1369.31
306.352	1415.31
306.582	1472.31
306.812	1567.31
307.042	1715.31
307.272	1666.31
307.502	1763.31
307.731	1871.31
307.961	2003.31
308.191	1891.31
308.421	1612.31
308.651	1512.31
308.881	1495.31
309.111	1496.31
309.341	1467.31
309.571	1525.31
309.8	1499.31
310.03	1506.31
310.26	1483.31
310.49	1471.31
310.72	1510.31
310.949	1556.31
311.179	1578.31
311.409	1564.31
311.639	1541.31
311.868	1512.31
312.098	1520.31
312.328	1503.31
312.557	1498.31
312.787	1507.31
313.017	1560.31
313.246	1564.31
313.476	1565.31
313.706	1586.31
313.935	1615.31
314.165	1602.31
314.394	1659.31
314.624	1698.31
314.853	1810.31
315.083	1840.31
315.312	1924.31
315.542	1808.31
315.771	1628.31
316.001	1626.31
316.23	1720.31
316.46	1662.31
316.689	1693.31
316.919	1564.31
317.148	1557.31
317.377	1540.31
317.607	1659.31
317.836	1850.31
318.065	1914.31
318.295	1859.31
318.524	1770.31
318.753	1714.31
318.983	1696.31
319.212	1663.31
319.441	1608.31
319.67	1621.31
319.9	1639.31
320.129	1716.31
320.358	1776.31
320.587	1858.31
320.816	1818.31
321.046	1745.31
321.275	1681.31
321.504	1700.31
321.733	1836.31
321.962	1767.31
322.191	1643.31
322.42	1651.31
322.649	1660.31
322.878	1645.31
323.108	1577.31
323.337	1718.31
323.566	1710.31
323.795	1705.31
324.024	1714.31
324.253	1650.31
324.482	1694.31
324.71	1617.31
324.939	1521.31
325.168	1579.31
325.397	1581.31
325.626	1694.31
325.855	1715.31
326.084	1614.31
326.313	1635.31
326.542	1660.31
326.77	1680.31
326.999	1713.31
327.228	1655.31
327.457	1561.31
327.686	1525.31
327.914	1590.31
328.143	1669.31
328.372	1604.31
328.6	1622.31
328.829	1640.31
329.058	1590.31
329.287	1604.31
329.515	1655.31
329.744	1646.31
329.972	1754.31
330.201	1827.31
330.43	1792.31
330.658	1737.31
330.887	1715.31
331.115	1739.31
331.344	1746.31
331.572	1730.31
331.801	1750.31
332.03	1704.31
332.258	1754.31
332.486	1733.31
332.715	1755.31
332.943	1786.31
333.172	1739.31
333.4	1782.31
333.629	1771.31
333.857	1924.31
334.085	2080.31
334.314	2312.31
334.542	2583.31
334.771	2395.31
334.999	2074.31
335.227	1991.31
335.455	1870.31
335.684	1865.31
335.912	1889.31
336.14	1922.31
336.369	1897.31
336.597	1808.31
336.825	1778.31
337.053	1826.31
337.281	1925.31
337.51	2006.31
337.738	2095.31
337.966	1999.31
338.194	1816.31
338.422	1705.31
338.65	1690.31
338.878	1680.31
339.106	1692.31
339.334	1618.31
339.562	1611.31
339.79	1700.31
340.018	1774.31
340.246	1866.31
340.474	1851.31
340.702	1784.31
340.93	1826.31
341.158	1795.31
341.386	1748.31
341.614	1701.31
341.842	1688.31
342.07	1690.31
342.298	1765.31
342.526	1743.31
342.754	1717.31
342.981	1702.31
343.209	1702.31
343.437	1711.31
343.665	1719.31
343.893	1753.31
344.12	1853.31
344.348	1828.31
344.576	1786.31
344.804	1748.31
345.031	1680.31
345.259	1743.31
345.487	1714.31
345.714	1603.31
345.942	1584.31
346.17	1609.31
346.397	1639.31
346.625	1648.31
346.853	1566.31
347.08	1540.31
347.308	1577.31
347.535	1631.31
347.763	1679.31
347.99	1640.31
348.218	1541.31
348.445	1569.31
348.673	1598.31
348.9	1654.31
349.128	1739.31
349.355	1738.31
349.583	1683.31
349.81	1626.31
350.037	1506.31
350.265	1490.31
350.492	1530.31
350.72	1551.31
350.947	1625.31
351.174	1634.31
351.402	1564.31
351.629	1487.31
351.856	1481.31
352.083	1516.31
352.311	1490.31
352.538	1523.31
352.765	1609.31
352.992	1626.31
353.22	1614.31
353.447	1524.31
353.674	1554.31
353.901	1633.31
354.128	1545.31
354.355	1547.31
354.583	1548.31
354.81	1635.31
355.037	1627.31
355.264	1628.31
355.491	1611.31
355.718	1593.31
355.945	1555.31
356.172	1557.31
356.399	1552.31
356.626	1573.31
356.853	1573.31
357.08	1682.31
357.307	1872.31
357.534	1858.31
357.761	1615.31
357.988	1540.31
358.215	1476.31
358.441	1513.31
358.668	1524.31
358.895	1507.31
359.122	1600.31
359.349	1726.31
359.576	1772.31
359.802	1584.31
360.029	1532.31
360.256	1488.31
360.483	1551.31
360.709	1548.31
360.936	1629.31
361.163	1666.31
361.39	1865.31
361.616	1974.31
361.843	1917.31
362.07	1830.31
362.296	1604.31
362.523	1561.31
362.749	1605.31
362.976	1594.31
363.203	1623.31
363.429	1568.31
363.656	1508.31
363.882	1584.31
364.109	1758.31
364.335	1910.31
364.562	1774.31
364.788	1696.31
365.015	1613.31
365.241	1549.31
365.468	1608.31
365.694	1648.31
365.92	1742.31
366.147	1640.31
366.373	1551.31
366.599	1540.31
366.826	1515.31
367.052	1529.31
367.278	1562.31
367.505	1587.31
367.731	1609.31
367.957	1602.31
368.184	1688.31
368.41	1753.31
368.636	1752.31
368.862	1723.31
369.089	1764.31
369.315	1736.31
369.541	1642.31
369.767	1616.31
369.993	1553.31
370.219	1552.31
370.445	1606.31
370.672	1663.31
370.898	1755.31
371.124	1736.31
371.35	1644.31
371.576	1698.31
371.802	1771.31
372.028	1700.31
372.254	1648.31
372.48	1612.31
372.706	1599.31
372.932	1606.31
373.158	1584.31
373.384	1672.31
373.61	1649.31
373.835	1783.31
374.061	1702.31
374.287	1606.31
374.513	1611.31
374.739	1658.31
374.965	1672.31
375.191	1697.31
375.416	1701.31
375.642	1722.31
375.868	1807.31
376.094	1845.31
376.319	1741.31
376.545	1667.31
376.771	1680.31
376.997	1743.31
377.222	1746.31
377.448	1697.31
377.674	1688.31
377.899	1698.31
378.125	1747.31
378.35	1839.31
378.576	1692.31
378.802	1621.31
379.027	1637.31
379.253	1612.31
379.478	1609.31
379.704	1634.31
379.929	1610.31
380.155	1636.31
380.38	1673.31
380.606	1685.31
380.831	1674.31
381.057	1734.31
381.282	1722.31
381.507	1743.31
381.733	1802.31
381.958	1898.31
382.184	1803.31
382.409	1720.31
382.634	1698.31
382.86	1716.31
383.085	1712.31
383.31	1753.31
383.535	1892.31
383.761	2011.31
383.986	1976.31
384.211	1862.31
384.436	1826.31
384.662	1895.31
384.887	2011.31
385.112	1911.31
385.337	1930.31
385.562	1896.31
385.787	1880.31
386.013	1930.31
386.238	1933.31
386.463	1936.31
386.688	2021.31
386.913	2182.31
387.138	2130.31
387.363	1974.31
387.588	1952.31
387.813	1953.31
388.038	1948.31
388.263	2007.31
388.488	1953.31
388.713	1860.31
388.938	1869.31
389.163	1838.31
389.387	1871.31
389.612	1898.31
389.837	1940.31
390.062	1928.31
390.287	1924.31
390.512	1923.31
390.736	1851.31
390.961	1847.31
391.186	1814.31
391.411	1810.31
391.636	1930.31
391.86	1894.31
392.085	1889.31
392.31	1887.31
392.534	1883.31
392.759	1954.31
392.984	1862.31
393.208	1933.31
393.433	1980.31
393.658	2035.31
393.882	2037.31
394.107	1964.31
394.331	1905.31
394.556	1867.31
394.78	1910.31
395.005	1977.31
395.229	2057.31
395.454	2148.31
395.678	2153.31
395.903	2075.31
396.127	2015.31
396.352	1986.31
396.576	2043.31
396.801	2076.31
397.025	2088.31
397.249	2046.31
397.474	2065.31
397.698	2027.31
397.922	2110.31
398.147	2184.31
398.371	2282.31
398.595	2237.31
398.82	2162.31
399.044	2213.31
399.268	2247.31
399.492	2454.31
399.717	2548.31
399.941	2564.31
400.165	2540.31
400.389	2442.31
400.613	2356.31
400.837	2618.31
401.062	2988.31
401.286	2597.31
401.51	2374.31
401.734	2469.31
401.958	2410.31
402.182	2261.31
402.406	2160.31
402.63	2130.31
402.854	2139.31
403.078	2217.31
403.302	2211.31
403.526	2256.31
403.75	2249.31
403.974	2281.31
404.198	2289.31
404.422	2334.31
404.645	2409.31
404.869	2397.31
405.093	2216.31
405.317	2204.31
405.541	2273.31
405.765	2288.31
405.988	2278.31
406.212	2309.31
406.436	2399.31
406.66	2411.31
406.883	2443.31
407.107	2679.31
407.331	2940.31
407.555	3149.31
407.778	2938.31
408.002	2480.31
408.226	2410.31
408.449	2396.31
408.673	2331.31
408.896	2299.31
409.12	2399.31
409.344	2284.31
409.567	2219.31
409.791	2281.31
410.014	2324.31
410.238	2398.31
410.461	2578.31
410.685	2294.31
410.908	2194.31
411.132	2260.31
411.355	2237.31
411.578	2215.31
411.802	2227.31
412.025	2271.31
412.249	2233.31
412.472	2152.31
412.695	2165.31
412.919	2145.31
413.142	2111.31
413.365	2186.31
413.589	2213.31
413.812	2241.31
414.035	2390.31
414.258	2235.31
414.482	2136.31
414.705	2162.31
414.928	2122.31
415.151	2143.31
415.374	2165.31
415.597	2231.31
415.821	2174.31
416.044	2271.31
416.267	2302.31
416.49	2071.31
416.713	2107.31
416.936	2162.31
417.159	2194.31
417.382	2220.31
417.605	2139.31
417.828	2194.31
418.051	2228.31
418.274	2142.31
418.497	2102.31
418.72	2095.31
418.943	2075.31
419.166	2206.31
419.389	2316.31
419.611	2187.31
419.834	2130.31
420.057	2153.31
420.28	2066.31
420.503	2079.31
420.726	2123.31
420.948	2145.31
421.171	2052.31
421.394	2076.31
421.617	2130.31
421.839	2119.31
422.062	2080.31
422.285	2052.31
422.507	2074.31
422.73	2020.31
422.953	2006.31
423.175	2022.31
423.398	2020.31
423.621	2076.31
423.843	2084.31
424.066	2104.31
424.288	2199.31
424.511	2224.31
424.733	2166.31
424.956	1991.31
425.178	2035.31
425.401	2005.31
425.623	2025.31
425.846	2025.31
426.068	2116.31
426.291	2140.31
426.513	2145.31
426.735	2073.31
426.958	2194.31
427.18	2361.31
427.402	2137.31
427.625	2198.31
427.847	2223.31
428.069	2111.31
428.292	2035.31
428.514	1982.31
428.736	2004.31
428.958	2014.31
429.181	2044.31
429.403	2268.31
429.625	2805.31
429.847	2417.31
430.069	2047.31
430.292	2222.31
430.514	2371.31
430.736	2210.31
430.958	2275.31
431.18	2160.31
431.402	2002.31
431.624	2014.31
431.846	2027.31
432.068	1954.31
432.29	1974.31
432.512	2014.31
432.734	2053.31
432.956	2063.31
433.178	2166.31
433.4	2174.31
433.622	2168.31
433.844	2053.31
434.066	2006.31
434.287	1996.31
434.509	2071.31
434.731	2191.31
434.953	2342.31
435.175	2295.31
435.397	2136.31
435.618	2103.31
435.84	2094.31
436.062	2105.31
436.284	2108.31
436.505	2110.31
436.727	2164.31
436.949	2039.31
437.17	2036.31
437.392	2035.31
437.614	2054.31
437.835	1977.31
438.057	2089.31
438.278	2207.31
438.5	2059.31
438.721	1985.31
438.943	2017.31
439.165	2018.31
439.386	1946.31
439.608	2010.31
439.829	1981.31
440.05	1966.31
440.272	1958.31
440.493	1962.31
440.715	2005.31
440.936	2133.31
441.158	2304.31
441.379	2260.31
441.6	2194.31
441.822	2155.31
442.043	2169.31
442.264	2115.31
442.486	2015.31
442.707	1980.31
442.928	1969.31
443.149	2032.31
443.371	2175.31
443.592	2245.31
443.813	2178.31
444.034	2162.31
444.255	2192.31
444.476	2227.31
444.698	2257.31
444.919	2214.31
445.14	2347.31
445.361	2275.31
445.582	2365.31
445.803	2304.31
446.024	2200.31
446.245	2245.31
446.466	2217.31
446.687	2090.31
446.908	2085.31
447.129	2007.31
447.35	2108.31
447.571	2066.31
447.792	1948.31
448.013	1923.31
448.234	1974.31
448.455	2096.31
448.675	2103.31
448.896	1951.31
449.117	1890.31
449.338	1916.31
449.559	2014.31
449.779	2110.31
450	2347.31
450.221	2559.31
450.442	2489.31
450.662	2146.31
450.883	1910.31
451.104	1883.31
451.324	1932.31
451.545	2020.31
451.766	1943.31
451.986	1858.31
452.207	1839.31
452.428	1771.31
452.648	1750.31
452.869	1838.31
453.089	1910.31
453.31	1941.31
453.53	2024.31
453.751	1986.31
453.971	1790.31
454.192	1919.31
454.412	2004.31
454.633	1897.31
454.853	1848.31
455.073	1735.31
455.294	1718.31
455.514	1730.31
455.734	1730.31
455.955	1825.31
456.175	1786.31
456.395	1762.31
456.616	1858.31
456.836	1868.31
457.056	1830.31
457.276	1826.31
457.497	1777.31
457.717	1739.31
457.937	1791.31
458.157	1818.31
458.377	1814.31
458.598	1786.31
458.818	1797.31
459.038	1880.31
459.258	1991.31
459.478	2014.31
459.698	1929.31
459.918	1976.31
460.138	2090.31
460.358	2143.31
460.578	2133.31
460.798	2233.31
461.018	2367.31
461.238	2232.31
461.458	2141.31
461.678	2158.31
461.898	2120.31
462.118	2060.31
462.338	2133.31
462.558	2158.31
462.777	2172.31
462.997	2248.31
463.217	2375.31
463.437	2407.31
463.657	2211.31
463.876	2139.31
464.096	2148.31
464.316	2114.31
464.536	2229.31
464.755	2243.31
464.975	2272.31
465.195	2147.31
465.414	2300.31
465.634	2276.31
465.854	2136.31
466.073	2226.31
466.293	2181.31
466.512	1983.31
466.732	1958.31
466.951	2014.31
467.171	2049.31
467.391	1977.31
467.61	1908.31
467.829	1915.31
468.049	2094.31
468.268	2268.31
468.488	2176.31
468.707	2054.31
468.927	2002.31
469.146	1951.31
469.365	1899.31
469.585	1991.31
469.804	1928.31
470.023	1923.31
470.243	2018.31
470.462	1937.31
470.681	1893.31
470.901	1976.31
471.12	1979.31
471.339	1960.31
471.558	1882.31
471.777	1901.31
471.997	1869.31
472.216	1931.31
472.435	1844.31
472.654	1902.31
472.873	1995.31
473.092	2086.31
473.311	1973.31
473.53	1866.31
473.749	1886.31
473.968	1918.31
474.187	2072.31
474.406	2127.31
474.625	2026.31
474.844	1968.31
475.063	1942.31
475.282	2038.31
475.501	1973.31
475.72	1944.31
475.939	2082.31
476.158	2031.31
476.377	1993.31
476.596	1987.31
476.814	2041.31
477.033	2070.31
477.252	2127.31
477.471	2176.31
477.69	2072.31
477.908	2057.31
478.127	2208.31
478.346	2358.31
478.564	2323.31
478.783	2299.31
479.002	2361.31
479.22	2376.31
479.439	2412.31
479.658	2735.31
479.876	2730.31
480.095	2385.31
480.313	2274.31
480.532	2172.31
480.751	2256.31
480.969	2282.31
481.188	2234.31
481.406	2223.31
481.624	2167.31
481.843	2187.31
482.061	2219.31
482.28	2254.31
482.498	2322.31
482.717	2308.31
482.935	2169.31
483.153	2201.31
483.372	2212.31
483.59	2161.31
483.808	2248.31
484.027	2251.31
484.245	2326.31
484.463	2689.31
484.681	3116.31
484.9	2478.31
485.118	2303.31
485.336	2198.31
485.554	2311.31
485.772	2363.31
485.99	2339.31
486.209	2353.31
486.427	2348.31
486.645	2363.31
486.863	2294.31
487.081	2394.31
487.299	2472.31
487.517	2362.31
