Data from WStandard_LampEnergy8_LIBS07252019.E.O._I.C._HRD10591_15-58-35-929.txt Node
Date: Thu Jul 25 15:58:35 EDT 2019
User: cochatt
Spectrometer: HR+D1059
Trigger mode: 1
Integration Time (sec): 1.000000E-1
Scans to average: 1
Electric dark correction enabled: true
Nonlinearity correction enabled: false
Boxcar width: 0
XAxis mode: Wavelengths
Number of Pixels in Spectrum: 2048
>>>>>Begin Spectral Data<<<<<
223.165	-15.5
223.4	-15.5
223.635	-15.5
223.869	-17.5
224.104	-27.5
224.338	-13.5
224.573	-21.5
224.808	-9.5
225.042	-16.5
225.277	2.5
225.511	7.5
225.746	2.5
225.98	1.5
226.215	4.5
226.449	14.5
226.683	31.5
226.918	17.5
227.152	39.5
227.387	40.5
227.621	29.5
227.856	37.5
228.09	39.5
228.324	43.5
228.559	42.5
228.793	86.5
229.027	186.5
229.262	193.5
229.496	224.5
229.73	211.5
229.964	244.5
230.199	241.5
230.433	250.5
230.667	280.5
230.901	284.5
231.136	268.5
231.37	276.5
231.604	225.5
231.838	267.5
232.072	251.5
232.306	262.5
232.541	263.5
232.775	311.5
233.009	324.5
233.243	334.5
233.477	279.5
233.711	290.5
233.945	298.5
234.179	310.5
234.413	334.5
234.647	317.5
234.881	304.5
235.115	279.5
235.349	314.5
235.583	305.5
235.817	296.5
236.051	284.5
236.285	293.5
236.519	308.5
236.753	350.5
236.987	348.5
237.221	338.5
237.455	377.5
237.689	359.5
237.922	361.5
238.156	348.5
238.39	320.5
238.624	371.5
238.858	362.5
239.091	384.5
239.325	422.5
239.559	456.5
239.793	474.5
240.027	505.5
240.26	506.5
240.494	379.5
240.728	360.5
240.961	388.5
241.195	394.5
241.429	421.5
241.662	407.5
241.896	387.5
242.13	390.5
242.363	435.5
242.597	444.5
242.83	446.5
243.064	471.5
243.298	443.5
243.531	452.5
243.765	456.5
243.998	461.5
244.232	410.5
244.465	398.5
244.699	411.5
244.932	454.5
245.166	495.5
245.399	490.5
245.633	472.5
245.866	444.5
246.099	469.5
246.333	473.5
246.566	478.5
246.8	520.5
247.033	578.5
247.266	536.5
247.5	514.5
247.733	530.5
247.966	564.5
248.2	609.5
248.433	562.5
248.666	612.5
248.899	677.5
249.133	724.5
249.366	804.5
249.599	666.5
249.832	601.5
250.066	622.5
250.299	604.5
250.532	575.5
250.765	515.5
250.998	575.5
251.231	589.5
251.465	606.5
251.698	575.5
251.931	576.5
252.164	595.5
252.397	606.5
252.63	590.5
252.863	557.5
253.096	536.5
253.329	551.5
253.562	580.5
253.795	631.5
254.028	585.5
254.261	572.5
254.494	577.5
254.727	551.5
254.96	587.5
255.193	605.5
255.426	692.5
255.659	770.5
255.892	779.5
256.124	666.5
256.357	661.5
256.59	699.5
256.823	694.5
257.056	713.5
257.289	849.5
257.521	892.5
257.754	800.5
257.987	748.5
258.22	836.5
258.452	794.5
258.685	659.5
258.918	642.5
259.151	679.5
259.383	617.5
259.616	590.5
259.849	612.5
260.081	685.5
260.314	742.5
260.547	829.5
260.779	825.5
261.012	752.5
261.244	679.5
261.477	666.5
261.71	694.5
261.942	675.5
262.175	668.5
262.407	719.5
262.64	666.5
262.872	662.5
263.105	614.5
263.337	617.5
263.57	625.5
263.802	640.5
264.035	585.5
264.267	567.5
264.499	566.5
264.732	607.5
264.964	638.5
265.197	672.5
265.429	724.5
265.661	795.5
265.894	829.5
266.126	855.5
266.358	772.5
266.591	825.5
266.823	850.5
267.055	807.5
267.287	778.5
267.52	737.5
267.752	751.5
267.984	774.5
268.216	794.5
268.448	808.5
268.681	789.5
268.913	733.5
269.145	696.5
269.377	678.5
269.609	768.5
269.841	881.5
270.073	992.5
270.306	1090.5
270.538	1095.5
270.77	938.5
271.002	826.5
271.234	809.5
271.466	814.5
271.698	902.5
271.93	1054.5
272.162	1071.5
272.394	966.5
272.626	892.5
272.858	797.5
273.09	711.5
273.322	688.5
273.553	669.5
273.785	679.5
274.017	704.5
274.249	791.5
274.481	754.5
274.713	689.5
274.945	700.5
275.176	697.5
275.408	666.5
275.64	666.5
275.872	680.5
276.104	740.5
276.335	825.5
276.567	900.5
276.799	900.5
277.031	857.5
277.262	771.5
277.494	812.5
277.726	898.5
277.957	876.5
278.189	810.5
278.421	758.5
278.652	740.5
278.884	748.5
279.115	726.5
279.347	737.5
279.579	723.5
279.81	736.5
280.042	820.5
280.273	866.5
280.505	877.5
280.736	872.5
280.968	823.5
281.199	733.5
281.431	708.5
281.662	712.5
281.894	737.5
282.125	738.5
282.356	742.5
282.588	744.5
282.819	762.5
283.051	838.5
283.282	868.5
283.513	841.5
283.745	748.5
283.976	739.5
284.207	737.5
284.439	724.5
284.67	752.5
284.901	746.5
285.132	768.5
285.364	761.5
285.595	770.5
285.826	737.5
286.057	772.5
286.288	772.5
286.52	785.5
286.751	816.5
286.982	838.5
287.213	798.5
287.444	745.5
287.675	717.5
287.906	781.5
288.138	813.5
288.369	797.5
288.6	762.5
288.831	713.5
289.062	738.5
289.293	746.5
289.524	790.5
289.755	788.5
289.986	785.5
290.217	717.5
290.448	720.5
290.679	761.5
290.91	778.5
291.141	821.5
291.371	817.5
291.602	804.5
291.833	806.5
292.064	801.5
292.295	830.5
292.526	858.5
292.757	886.5
292.987	818.5
293.218	810.5
293.449	860.5
293.68	973.5
293.91	1014.5
294.141	964.5
294.372	907.5
294.603	953.5
294.833	956.5
295.064	896.5
295.295	854.5
295.525	823.5
295.756	743.5
295.987	701.5
296.217	755.5
296.448	787.5
296.679	770.5
296.909	757.5
297.14	731.5
297.37	796.5
297.601	850.5
297.831	887.5
298.062	872.5
298.292	812.5
298.523	782.5
298.753	783.5
298.984	826.5
299.214	802.5
299.445	804.5
299.675	836.5
299.905	833.5
300.136	812.5
300.366	790.5
300.597	771.5
300.827	758.5
301.057	816.5
301.288	841.5
301.518	848.5
301.748	874.5
301.979	901.5
302.209	907.5
302.439	974.5
302.669	990.5
302.9	929.5
303.13	854.5
303.36	850.5
303.59	838.5
303.82	846.5
304.051	860.5
304.281	842.5
304.511	879.5
304.741	916.5
304.971	1031.5
305.201	1085.5
305.431	977.5
305.661	799.5
305.891	771.5
306.121	760.5
306.352	823.5
306.582	865.5
306.812	891.5
307.042	940.5
307.272	985.5
307.502	999.5
307.731	1024.5
307.961	1100.5
308.191	994.5
308.421	885.5
308.651	812.5
308.881	800.5
309.111	810.5
309.341	816.5
309.571	831.5
309.8	854.5
310.03	813.5
310.26	814.5
310.49	821.5
310.72	829.5
310.949	888.5
311.179	871.5
311.409	873.5
311.639	824.5
311.868	845.5
312.098	860.5
312.328	839.5
312.557	835.5
312.787	824.5
313.017	871.5
313.246	872.5
313.476	884.5
313.706	881.5
313.935	891.5
314.165	873.5
314.394	920.5
314.624	961.5
314.853	1012.5
315.083	1054.5
315.312	1035.5
315.542	972.5
315.771	884.5
316.001	894.5
316.23	959.5
316.46	930.5
316.689	898.5
316.919	877.5
317.148	868.5
317.377	882.5
317.607	967.5
317.836	1031.5
318.065	1073.5
318.295	1027.5
318.524	989.5
318.753	944.5
318.983	901.5
319.212	908.5
319.441	901.5
319.67	906.5
319.9	944.5
320.129	1018.5
320.358	1044.5
320.587	1027.5
320.816	993.5
321.046	1008.5
321.275	950.5
321.504	992.5
321.733	1037.5
321.962	969.5
322.191	941.5
322.42	912.5
322.649	927.5
322.878	922.5
323.108	932.5
323.337	962.5
323.566	968.5
323.795	934.5
324.024	953.5
324.253	931.5
324.482	935.5
324.71	885.5
324.939	848.5
325.168	876.5
325.397	904.5
325.626	936.5
325.855	952.5
326.084	929.5
326.313	907.5
326.542	936.5
326.77	971.5
326.999	947.5
327.228	920.5
327.457	875.5
327.686	890.5
327.914	910.5
328.143	919.5
328.372	878.5
328.6	924.5
328.829	908.5
329.058	917.5
329.287	899.5
329.515	949.5
329.744	940.5
329.972	986.5
330.201	1045.5
330.43	984.5
330.658	967.5
330.887	984.5
331.115	1026.5
331.344	979.5
331.572	975.5
331.801	974.5
332.03	950.5
332.258	978.5
332.486	1005.5
332.715	987.5
332.943	1004.5
333.172	968.5
333.4	972.5
333.629	1037.5
333.857	1128.5
334.085	1247.5
334.314	1358.5
334.542	1418.5
334.771	1283.5
334.999	1145.5
335.227	1105.5
335.455	1055.5
335.684	1038.5
335.912	1077.5
336.14	1085.5
336.369	1049.5
336.597	986.5
336.825	1007.5
337.053	1010.5
337.281	1116.5
337.51	1168.5
337.738	1154.5
337.966	1102.5
338.194	1004.5
338.422	994.5
338.65	999.5
338.878	953.5
339.106	969.5
339.334	915.5
339.562	924.5
339.79	952.5
340.018	1018.5
340.246	1053.5
340.474	1033.5
340.702	1031.5
340.93	1041.5
341.158	980.5
341.386	1008.5
341.614	983.5
341.842	980.5
342.07	961.5
342.298	978.5
342.526	983.5
342.754	970.5
342.981	959.5
343.209	954.5
343.437	937.5
343.665	954.5
343.893	998.5
344.12	1068.5
344.348	1025.5
344.576	1005.5
344.804	965.5
345.031	984.5
345.259	971.5
345.487	937.5
345.714	909.5
345.942	880.5
346.17	933.5
346.397	939.5
346.625	913.5
346.853	890.5
347.08	883.5
347.308	905.5
347.535	901.5
347.763	970.5
347.99	906.5
348.218	900.5
348.445	921.5
348.673	908.5
348.9	947.5
349.128	982.5
349.355	1020.5
349.583	940.5
349.81	927.5
350.037	879.5
350.265	869.5
350.492	876.5
350.72	896.5
350.947	921.5
351.174	942.5
351.402	875.5
351.629	881.5
351.856	840.5
352.083	868.5
352.311	838.5
352.538	865.5
352.765	944.5
352.992	932.5
353.22	884.5
353.447	908.5
353.674	920.5
353.901	909.5
354.128	879.5
354.355	889.5
354.583	912.5
354.81	970.5
355.037	942.5
355.264	905.5
355.491	912.5
355.718	928.5
355.945	938.5
356.172	902.5
356.399	899.5
356.626	892.5
356.853	924.5
357.08	1033.5
357.307	1095.5
357.534	1060.5
357.761	942.5
357.988	892.5
358.215	872.5
358.441	871.5
358.668	871.5
358.895	893.5
359.122	949.5
359.349	1045.5
359.576	1006.5
359.802	898.5
360.029	892.5
360.256	895.5
360.483	910.5
360.709	919.5
360.936	950.5
361.163	1004.5
361.39	1102.5
361.616	1181.5
361.843	1122.5
362.07	1033.5
362.296	887.5
362.523	891.5
362.749	880.5
362.976	951.5
363.203	946.5
363.429	918.5
363.656	881.5
363.882	945.5
364.109	1066.5
364.335	1088.5
364.562	1008.5
364.788	970.5
365.015	907.5
365.241	902.5
365.468	928.5
365.694	954.5
365.92	959.5
366.147	936.5
366.373	927.5
366.599	902.5
366.826	896.5
367.052	908.5
367.278	910.5
367.505	918.5
367.731	942.5
367.957	961.5
368.184	993.5
368.41	1054.5
368.636	1073.5
368.862	1058.5
369.089	1039.5
369.315	993.5
369.541	963.5
369.767	936.5
369.993	882.5
370.219	916.5
370.445	959.5
370.672	978.5
370.898	1068.5
371.124	993.5
371.35	968.5
371.576	977.5
371.802	1061.5
372.028	1011.5
372.254	938.5
372.48	920.5
372.706	921.5
372.932	940.5
373.158	927.5
373.384	960.5
373.61	966.5
373.835	1004.5
374.061	992.5
374.287	978.5
374.513	947.5
374.739	979.5
374.965	1002.5
375.191	990.5
375.416	1001.5
375.642	1006.5
375.868	1085.5
376.094	1122.5
376.319	1027.5
376.545	966.5
376.771	1024.5
376.997	1061.5
377.222	1033.5
377.448	1004.5
377.674	1017.5
377.899	1034.5
378.125	1109.5
378.35	1087.5
378.576	978.5
378.802	928.5
379.027	914.5
379.253	947.5
379.478	977.5
379.704	949.5
379.929	966.5
380.155	985.5
380.38	986.5
380.606	986.5
380.831	997.5
381.057	1061.5
381.282	1054.5
381.507	1025.5
381.733	1078.5
381.958	1154.5
382.184	1048.5
382.409	1021.5
382.634	1030.5
382.86	1028.5
383.085	1015.5
383.31	1072.5
383.535	1168.5
383.761	1189.5
383.986	1123.5
384.211	1102.5
384.436	1094.5
384.662	1152.5
384.887	1166.5
385.112	1123.5
385.337	1140.5
385.562	1129.5
385.787	1114.5
386.013	1160.5
386.238	1137.5
386.463	1162.5
386.688	1233.5
386.913	1261.5
387.138	1237.5
387.363	1163.5
387.588	1136.5
387.813	1143.5
388.038	1209.5
388.263	1176.5
388.488	1118.5
388.713	1058.5
388.938	1051.5
389.163	1085.5
389.387	1120.5
389.612	1104.5
389.837	1101.5
390.062	1134.5
390.287	1102.5
390.512	1128.5
390.736	1082.5
390.961	1085.5
391.186	1052.5
391.411	1093.5
391.636	1120.5
391.86	1136.5
392.085	1113.5
392.31	1102.5
392.534	1113.5
392.759	1163.5
392.984	1152.5
393.208	1106.5
393.433	1144.5
393.658	1200.5
393.882	1206.5
394.107	1188.5
394.331	1154.5
394.556	1124.5
394.78	1160.5
395.005	1184.5
395.229	1218.5
395.454	1291.5
395.678	1329.5
395.903	1252.5
396.127	1198.5
396.352	1190.5
396.576	1191.5
396.801	1257.5
397.025	1236.5
397.249	1222.5
397.474	1196.5
397.698	1220.5
397.922	1270.5
398.147	1334.5
398.371	1353.5
398.595	1345.5
398.82	1250.5
399.044	1299.5
399.268	1377.5
399.492	1458.5
399.717	1438.5
399.941	1496.5
400.165	1455.5
400.389	1423.5
400.613	1442.5
400.837	1617.5
401.062	1790.5
401.286	1505.5
401.51	1424.5
401.734	1422.5
401.958	1405.5
402.182	1335.5
402.406	1304.5
402.63	1298.5
402.854	1242.5
403.078	1286.5
403.302	1326.5
403.526	1294.5
403.75	1336.5
403.974	1337.5
404.198	1347.5
404.422	1426.5
404.645	1466.5
404.869	1429.5
405.093	1285.5
405.317	1308.5
405.541	1322.5
405.765	1325.5
405.988	1349.5
406.212	1354.5
406.436	1368.5
406.66	1430.5
406.883	1455.5
407.107	1648.5
407.331	1794.5
407.555	1908.5
407.778	1668.5
408.002	1437.5
408.226	1398.5
408.449	1410.5
408.673	1362.5
408.896	1358.5
409.12	1382.5
409.344	1357.5
409.567	1306.5
409.791	1336.5
410.014	1343.5
410.238	1469.5
410.461	1518.5
410.685	1357.5
410.908	1356.5
411.132	1320.5
411.355	1327.5
411.578	1304.5
411.802	1337.5
412.025	1390.5
412.249	1305.5
412.472	1278.5
412.695	1290.5
412.919	1312.5
413.142	1280.5
413.365	1306.5
413.589	1361.5
413.812	1409.5
414.035	1383.5
414.258	1309.5
414.482	1329.5
414.705	1332.5
414.928	1322.5
415.151	1260.5
415.374	1284.5
415.597	1321.5
415.821	1357.5
416.044	1314.5
416.267	1334.5
416.49	1239.5
416.713	1252.5
416.936	1314.5
417.159	1365.5
417.382	1336.5
417.605	1273.5
417.828	1317.5
418.051	1285.5
418.274	1288.5
418.497	1278.5
418.72	1275.5
418.943	1255.5
419.166	1293.5
419.389	1349.5
419.611	1326.5
419.834	1276.5
420.057	1291.5
420.28	1290.5
420.503	1291.5
420.726	1333.5
420.948	1279.5
421.171	1240.5
421.394	1260.5
421.617	1313.5
421.839	1316.5
422.062	1338.5
422.285	1281.5
422.507	1278.5
422.73	1217.5
422.953	1188.5
423.175	1229.5
423.398	1248.5
423.621	1249.5
423.843	1271.5
424.066	1285.5
424.288	1364.5
424.511	1377.5
424.733	1337.5
424.956	1257.5
425.178	1238.5
425.401	1238.5
425.623	1246.5
425.846	1255.5
426.068	1318.5
426.291	1301.5
426.513	1342.5
426.735	1341.5
426.958	1447.5
427.18	1450.5
427.402	1394.5
427.625	1415.5
427.847	1358.5
428.069	1288.5
428.292	1244.5
428.514	1223.5
428.736	1209.5
428.958	1233.5
429.181	1268.5
429.403	1463.5
429.625	1720.5
429.847	1470.5
430.069	1285.5
430.292	1420.5
430.514	1426.5
430.736	1336.5
430.958	1352.5
431.18	1297.5
431.402	1214.5
431.624	1185.5
431.846	1171.5
432.068	1118.5
432.29	1144.5
432.512	1159.5
432.734	1231.5
432.956	1262.5
433.178	1297.5
433.4	1321.5
433.622	1313.5
433.844	1242.5
434.066	1183.5
434.287	1157.5
434.509	1216.5
434.731	1228.5
434.953	1362.5
435.175	1344.5
435.397	1267.5
435.618	1278.5
435.84	1236.5
436.062	1214.5
436.284	1250.5
436.505	1279.5
436.727	1296.5
436.949	1238.5
437.17	1220.5
437.392	1235.5
437.614	1181.5
437.835	1161.5
438.057	1222.5
438.278	1262.5
438.5	1235.5
438.721	1225.5
438.943	1226.5
439.165	1239.5
439.386	1214.5
439.608	1252.5
439.829	1251.5
440.05	1255.5
440.272	1185.5
440.493	1199.5
440.715	1232.5
440.936	1338.5
441.158	1417.5
441.379	1376.5
441.6	1368.5
441.822	1360.5
442.043	1317.5
442.264	1304.5
442.486	1235.5
442.707	1257.5
442.928	1222.5
443.149	1289.5
443.371	1374.5
443.592	1363.5
443.813	1372.5
444.034	1364.5
444.255	1353.5
444.476	1376.5
444.698	1396.5
444.919	1369.5
445.14	1488.5
445.361	1428.5
445.582	1437.5
445.803	1391.5
446.024	1376.5
446.245	1401.5
446.466	1381.5
446.687	1306.5
446.908	1324.5
447.129	1250.5
447.35	1291.5
447.571	1318.5
447.792	1263.5
448.013	1241.5
448.234	1239.5
448.455	1304.5
448.675	1312.5
448.896	1217.5
449.117	1189.5
449.338	1238.5
449.559	1269.5
449.779	1308.5
450	1418.5
450.221	1449.5
450.442	1390.5
450.662	1277.5
450.883	1183.5
451.104	1162.5
451.324	1169.5
451.545	1193.5
451.766	1184.5
451.986	1164.5
452.207	1146.5
452.428	1109.5
452.648	1071.5
452.869	1102.5
453.089	1112.5
453.31	1148.5
453.53	1172.5
453.751	1084.5
453.971	1046.5
454.192	1086.5
454.412	1140.5
454.633	1141.5
454.853	1104.5
455.073	1026.5
455.294	1034.5
455.514	1039.5
455.734	1067.5
455.955	1094.5
456.175	1048.5
456.395	1064.5
456.616	1056.5
456.836	1082.5
457.056	1086.5
457.276	1056.5
457.497	1038.5
457.717	1000.5
457.937	1045.5
458.157	1037.5
458.377	1010.5
458.598	1027.5
458.818	1040.5
459.038	1090.5
459.258	1096.5
459.478	1126.5
459.698	1102.5
459.918	1124.5
460.138	1225.5
460.358	1224.5
460.578	1225.5
460.798	1252.5
461.018	1328.5
461.238	1282.5
461.458	1253.5
461.678	1252.5
461.898	1190.5
462.118	1208.5
462.338	1225.5
462.558	1247.5
462.777	1251.5
462.997	1304.5
463.217	1350.5
463.437	1320.5
463.657	1277.5
463.876	1238.5
464.096	1245.5
464.316	1272.5
464.536	1300.5
464.755	1272.5
464.975	1304.5
465.195	1285.5
465.414	1299.5
465.634	1309.5
465.854	1292.5
466.073	1366.5
466.293	1315.5
466.512	1200.5
466.732	1209.5
466.951	1249.5
467.171	1214.5
467.391	1193.5
467.61	1182.5
467.829	1243.5
468.049	1350.5
468.268	1456.5
468.488	1320.5
468.707	1248.5
468.927	1225.5
469.146	1188.5
469.365	1204.5
469.585	1210.5
469.804	1198.5
470.023	1249.5
470.243	1232.5
470.462	1228.5
470.681	1215.5
470.901	1209.5
471.12	1230.5
471.339	1224.5
471.558	1177.5
471.777	1194.5
471.997	1185.5
472.216	1178.5
472.435	1102.5
472.654	1119.5
472.873	1160.5
473.092	1217.5
473.311	1179.5
473.53	1148.5
473.749	1136.5
473.968	1160.5
474.187	1208.5
474.406	1197.5
474.625	1199.5
474.844	1196.5
475.063	1197.5
475.282	1212.5
475.501	1180.5
475.72	1190.5
475.939	1265.5
476.158	1248.5
476.377	1216.5
476.596	1180.5
476.814	1213.5
477.033	1212.5
477.252	1254.5
477.471	1297.5
477.69	1235.5
477.908	1229.5
478.127	1351.5
478.346	1399.5
478.564	1384.5
478.783	1404.5
479.002	1424.5
479.22	1385.5
479.439	1453.5
479.658	1587.5
479.876	1495.5
480.095	1365.5
480.313	1328.5
480.532	1268.5
480.751	1297.5
480.969	1280.5
481.188	1255.5
481.406	1237.5
481.624	1225.5
481.843	1236.5
482.061	1269.5
482.28	1322.5
482.498	1289.5
482.717	1312.5
482.935	1286.5
483.153	1367.5
483.372	1342.5
483.59	1344.5
483.808	1330.5
484.027	1321.5
484.245	1444.5
484.463	1735.5
484.681	1892.5
484.9	1437.5
485.118	1359.5
485.336	1342.5
485.554	1354.5
485.772	1358.5
485.99	1342.5
486.209	1353.5
486.427	1353.5
486.645	1385.5
486.863	1393.5
487.081	1468.5
487.299	1443.5
487.517	1446.5
487.735	1416.5
487.953	1483.5
488.171	1488.5
488.389	1442.5
488.607	1440.5
488.825	1607.5
489.043	1541.5
489.261	1385.5
489.479	1486.5
489.696	1512.5
489.914	1475.5
490.132	1417.5
490.35	1440.5
490.568	1553.5
490.786	1555.5
491.003	1429.5
491.221	1533.5
491.439	1594.5
491.657	1573.5
491.874	1586.5
492.092	1646.5
492.31	1681.5
492.527	1637.5
492.745	1592.5
492.963	1578.5
493.18	1581.5
493.398	1695.5
493.615	1715.5
493.833	1578.5
494.05	1552.5
494.268	1525.5
494.485	1576.5
494.703	1540.5
494.92	1532.5
495.138	1518.5
495.355	1581.5
495.573	1616.5
495.79	1675.5
496.008	1700.5
496.225	1583.5
496.442	1601.5
496.66	1622.5
496.877	1580.5
497.094	1625.5
497.312	1618.5
497.529	1565.5
497.746	1634.5
497.963	1833.5
498.181	1987.5
498.398	1869.5
498.615	1829.5
498.832	1752.5
499.049	1710.5
499.267	1746.5
499.484	1900.5
499.701	2030.5
499.918	2030.5
500.135	2171.5
500.352	2303.5
500.569	2371.5
500.786	2497.5
501.003	2269.5
501.22	2061.5
501.437	2049.5
501.654	2036.5
501.871	1938.5
502.088	1748.5
502.305	1740.5
502.522	1690.5
502.739	1576.5
502.956	1530.5
503.172	1557.5
503.389	1523.5
503.606	1463.5
503.823	1460.5
504.04	1486.5
504.256	1495.5
504.473	1473.5
504.69	1517.5
504.907	1416.5
505.123	1374.5
505.34	1530.5
505.557	1978.5
505.773	1636.5
505.99	1398.5
506.207	1332.5
506.423	1286.5
506.64	1280.5
506.856	1335.5
507.073	1467.5
507.289	1574.5
507.506	1497.5
507.722	1260.5
507.939	1218.5
508.155	1208.5
508.372	1217.5
508.588	1184.5
508.805	1144.5
509.021	1141.5
509.238	1128.5
509.454	1154.5
509.67	1141.5
509.887	1113.5
510.103	1121.5
510.319	1141.5
