Data from WStandard_LampEnergy5.5LIBS07252019.E.O._I.C._HRD10591_16-07-07-920.txt Node
Date: Thu Jul 25 16:07:07 EDT 2019
User: cochatt
Spectrometer: HR+D1059
Trigger mode: 1
Integration Time (sec): 1.000000E-1
Scans to average: 1
Electric dark correction enabled: true
Nonlinearity correction enabled: false
Boxcar width: 0
XAxis mode: Wavelengths
Number of Pixels in Spectrum: 2048
>>>>>Begin Spectral Data<<<<<
223.165	-12.12
223.4	-12.12
223.635	-12.12
223.869	-33.12
224.104	-6.12
224.338	-10.12
224.573	-7.12
224.808	-21.12
225.042	-9.12
225.277	7.88
225.511	-12.12
225.746	-6.12
225.98	-2.12
226.215	-2.12
226.449	25.88
226.683	13.88
226.918	29.88
227.152	43.88
227.387	29.88
227.621	27.88
227.856	31.88
228.09	33.88
228.324	49.88
228.559	60.88
228.793	153.88
229.027	367.88
229.262	392.88
229.496	401.88
229.73	438.88
229.964	475.88
230.199	493.88
230.433	506.88
230.667	543.88
230.901	582.88
231.136	534.88
231.37	468.88
231.604	485.88
231.838	506.88
232.072	492.88
232.306	463.88
232.541	511.88
232.775	589.88
233.009	658.88
233.243	637.88
233.477	580.88
233.711	580.88
233.945	608.88
234.179	587.88
234.413	609.88
234.647	679.88
234.881	650.88
235.115	574.88
235.349	595.88
235.583	616.88
235.817	617.88
236.051	576.88
236.285	565.88
236.519	618.88
236.753	703.88
236.987	723.88
237.221	746.88
237.455	829.88
237.689	765.88
237.922	708.88
238.156	706.88
238.39	729.88
238.624	747.88
238.858	807.88
239.091	845.88
239.325	872.88
239.559	1028.88
239.793	1057.88
240.027	1135.88
240.26	1121.88
240.494	834.88
240.728	785.88
240.961	803.88
241.195	776.88
241.429	896.88
241.662	923.88
241.896	812.88
242.13	832.88
242.363	923.88
242.597	1003.88
242.83	977.88
243.064	951.88
243.298	1050.88
243.531	1020.88
243.765	995.88
243.998	1000.88
244.232	857.88
244.465	849.88
244.699	825.88
244.932	969.88
245.166	1139.88
245.399	1076.88
245.633	977.88
245.866	957.88
246.099	1012.88
246.333	1030.88
246.566	998.88
246.8	1099.88
247.033	1298.88
247.266	1159.88
247.5	1138.88
247.733	1129.88
247.966	1184.88
248.2	1342.88
248.433	1268.88
248.666	1339.88
248.899	1444.88
249.133	1656.88
249.366	1931.88
249.599	1548.88
249.832	1356.88
250.066	1374.88
250.299	1416.88
250.532	1309.88
250.765	1145.88
250.998	1238.88
251.231	1281.88
251.465	1344.88
251.698	1249.88
251.931	1274.88
252.164	1297.88
252.397	1356.88
252.63	1353.88
252.863	1193.88
253.096	1167.88
253.329	1235.88
253.562	1269.88
253.795	1415.88
254.028	1400.88
254.261	1277.88
254.494	1246.88
254.727	1175.88
254.96	1228.88
255.193	1392.88
255.426	1515.88
255.659	1779.88
255.892	1862.88
256.124	1488.88
256.357	1459.88
256.59	1546.88
256.823	1557.88
257.056	1499.88
257.289	1885.88
257.521	2085.88
257.754	1829.88
257.987	1721.88
258.22	1967.88
258.452	1915.88
258.685	1532.88
258.918	1467.88
259.151	1508.88
259.383	1433.88
259.616	1234.88
259.849	1334.88
260.081	1506.88
260.314	1681.88
260.547	1839.88
260.779	1867.88
261.012	1727.88
261.244	1542.88
261.477	1464.88
261.71	1557.88
261.942	1524.88
262.175	1479.88
262.407	1583.88
262.64	1513.88
262.872	1361.88
263.105	1362.88
263.337	1363.88
263.57	1377.88
263.802	1398.88
264.035	1333.88
264.267	1240.88
264.499	1199.88
264.732	1290.88
264.964	1399.88
265.197	1443.88
265.429	1500.88
265.661	1685.88
265.894	1886.88
266.126	1983.88
266.358	1751.88
266.591	1755.88
266.823	1933.88
267.055	1753.88
267.287	1722.88
267.52	1700.88
267.752	1677.88
267.984	1643.88
268.216	1730.88
268.448	1809.88
268.681	1767.88
268.913	1623.88
269.145	1541.88
269.377	1479.88
269.609	1612.88
269.841	1904.88
270.073	2187.88
270.306	2466.88
270.538	2632.88
270.77	2277.88
271.002	1885.88
271.234	1809.88
271.466	1727.88
271.698	1981.88
271.93	2428.88
272.162	2439.88
272.394	2176.88
272.626	2092.88
272.858	1825.88
273.09	1599.88
273.322	1525.88
273.553	1449.88
273.785	1488.88
274.017	1539.88
274.249	1708.88
274.481	1704.88
274.713	1572.88
274.945	1501.88
275.176	1474.88
275.408	1499.88
275.64	1479.88
275.872	1484.88
276.104	1526.88
276.335	1794.88
276.567	2074.88
276.799	2113.88
277.031	1863.88
277.262	1740.88
277.494	1820.88
277.726	2015.88
277.957	1956.88
278.189	1783.88
278.421	1655.88
278.652	1607.88
278.884	1576.88
279.115	1587.88
279.347	1649.88
279.579	1571.88
279.81	1554.88
280.042	1709.88
280.273	1891.88
280.505	1895.88
280.736	1973.88
280.968	1847.88
281.199	1603.88
281.431	1546.88
281.662	1520.88
281.894	1528.88
282.125	1575.88
282.356	1639.88
282.588	1681.88
282.819	1652.88
283.051	1803.88
283.282	1948.88
283.513	1874.88
283.745	1623.88
283.976	1494.88
284.207	1510.88
284.439	1581.88
284.67	1565.88
284.901	1602.88
285.132	1651.88
285.364	1623.88
285.595	1652.88
285.826	1608.88
286.057	1593.88
286.288	1604.88
286.52	1634.88
286.751	1805.88
286.982	1868.88
287.213	1695.88
287.444	1553.88
287.675	1523.88
287.906	1618.88
288.138	1772.88
288.369	1711.88
288.6	1612.88
288.831	1561.88
289.062	1549.88
289.293	1604.88
289.524	1603.88
289.755	1656.88
289.986	1713.88
290.217	1473.88
290.448	1563.88
290.679	1645.88
290.91	1637.88
291.141	1686.88
291.371	1746.88
291.602	1708.88
291.833	1687.88
292.064	1733.88
292.295	1701.88
292.526	1747.88
292.757	1861.88
292.987	1784.88
293.218	1640.88
293.449	1794.88
293.68	2001.88
293.91	2239.88
294.141	2042.88
294.372	1857.88
294.603	1955.88
294.833	2048.88
295.064	1956.88
295.295	1742.88
295.525	1721.88
295.756	1596.88
295.987	1467.88
296.217	1510.88
296.448	1601.88
296.679	1589.88
296.909	1575.88
297.14	1607.88
297.37	1604.88
297.601	1684.88
297.831	1853.88
298.062	1827.88
298.292	1680.88
298.523	1599.88
298.753	1599.88
298.984	1638.88
299.214	1627.88
299.445	1644.88
299.675	1729.88
299.905	1715.88
300.136	1657.88
300.366	1634.88
300.597	1557.88
300.827	1571.88
301.057	1642.88
301.288	1720.88
301.518	1704.88
301.748	1732.88
301.979	1836.88
302.209	1857.88
302.439	1972.88
302.669	2096.88
302.9	1955.88
303.13	1740.88
303.36	1745.88
303.59	1793.88
303.82	1755.88
304.051	1743.88
304.281	1735.88
304.511	1766.88
304.741	1850.88
304.971	2025.88
305.201	2241.88
305.431	2088.88
305.661	1665.88
305.891	1537.88
306.121	1514.88
306.352	1519.88
306.582	1655.88
306.812	1805.88
307.042	1960.88
307.272	1985.88
307.502	1961.88
307.731	2130.88
307.961	2347.88
308.191	2143.88
308.421	1828.88
308.651	1695.88
308.881	1700.88
309.111	1670.88
309.341	1650.88
309.571	1675.88
309.8	1707.88
310.03	1643.88
310.26	1671.88
310.49	1641.88
310.72	1681.88
310.949	1756.88
311.179	1813.88
311.409	1769.88
311.639	1715.88
311.868	1665.88
312.098	1690.88
312.328	1648.88
312.557	1638.88
312.787	1711.88
313.017	1729.88
313.246	1712.88
313.476	1733.88
313.706	1764.88
313.935	1768.88
314.165	1776.88
314.394	1853.88
314.624	1976.88
314.853	2063.88
315.083	2092.88
315.312	2239.88
315.542	2053.88
315.771	1811.88
316.001	1754.88
316.23	1877.88
316.46	1907.88
316.689	1846.88
316.919	1759.88
317.148	1714.88
317.377	1699.88
317.607	1855.88
317.836	2101.88
318.065	2189.88
318.295	2059.88
318.524	2003.88
318.753	1876.88
318.983	1913.88
319.212	1871.88
319.441	1828.88
319.67	1739.88
319.9	1825.88
320.129	1916.88
320.358	2031.88
320.587	2067.88
320.816	2053.88
321.046	2000.88
321.275	1890.88
321.504	1873.88
321.733	2089.88
321.962	2021.88
322.191	1841.88
322.42	1865.88
322.649	1814.88
322.878	1788.88
323.108	1810.88
323.337	1908.88
323.566	1907.88
323.795	1857.88
324.024	1905.88
324.253	1842.88
324.482	1858.88
324.71	1809.88
324.939	1726.88
325.168	1763.88
325.397	1807.88
325.626	1889.88
325.855	1919.88
326.084	1821.88
326.313	1842.88
326.542	1837.88
326.77	1903.88
326.999	1933.88
327.228	1857.88
327.457	1731.88
327.686	1681.88
327.914	1787.88
328.143	1791.88
328.372	1842.88
328.6	1815.88
328.829	1799.88
329.058	1766.88
329.287	1744.88
329.515	1836.88
329.744	1859.88
329.972	1931.88
330.201	2024.88
330.43	1996.88
330.658	1931.88
330.887	1884.88
331.115	1918.88
331.344	1954.88
331.572	1890.88
331.801	1873.88
332.03	1907.88
332.258	1894.88
332.486	1980.88
332.715	1976.88
332.943	1948.88
333.172	1882.88
333.4	1980.88
333.629	1962.88
333.857	2084.88
334.085	2280.88
334.314	2670.88
334.542	2916.88
334.771	2649.88
334.999	2371.88
335.227	2199.88
335.455	2055.88
335.684	2035.88
335.912	2117.88
336.14	2177.88
336.369	2183.88
336.597	2007.88
336.825	1948.88
337.053	2033.88
337.281	2131.88
337.51	2249.88
337.738	2348.88
337.966	2214.88
338.194	1988.88
338.422	1900.88
338.65	1915.88
338.878	1860.88
339.106	1819.88
339.334	1845.88
339.562	1813.88
339.79	1818.88
340.018	1951.88
340.246	2018.88
340.474	2065.88
340.702	1988.88
340.93	2003.88
341.158	1959.88
341.386	1904.88
341.614	1933.88
341.842	1881.88
342.07	1932.88
342.298	1949.88
342.526	1938.88
342.754	1894.88
342.981	1848.88
343.209	1884.88
343.437	1845.88
343.665	1882.88
343.893	1921.88
344.12	2052.88
344.348	2056.88
344.576	1988.88
344.804	1890.88
345.031	1909.88
345.259	1928.88
345.487	1825.88
345.714	1744.88
345.942	1723.88
346.17	1766.88
346.397	1802.88
346.625	1812.88
346.853	1711.88
347.08	1668.88
347.308	1651.88
347.535	1751.88
347.763	1827.88
347.99	1762.88
348.218	1745.88
348.445	1717.88
348.673	1744.88
348.9	1802.88
349.128	1869.88
349.355	1945.88
349.583	1903.88
349.81	1796.88
350.037	1641.88
350.265	1585.88
350.492	1668.88
350.72	1640.88
350.947	1738.88
351.174	1841.88
351.402	1696.88
351.629	1664.88
351.856	1597.88
352.083	1641.88
352.311	1622.88
352.538	1658.88
352.765	1779.88
352.992	1843.88
353.22	1777.88
353.447	1655.88
353.674	1682.88
353.901	1759.88
354.128	1729.88
354.355	1690.88
354.583	1755.88
354.81	1773.88
355.037	1746.88
355.264	1821.88
355.491	1721.88
355.718	1777.88
355.945	1743.88
356.172	1716.88
356.399	1716.88
356.626	1628.88
356.853	1750.88
357.08	1898.88
357.307	2052.88
357.534	2128.88
357.761	1833.88
357.988	1706.88
358.215	1622.88
358.441	1659.88
358.668	1663.88
358.895	1661.88
359.122	1756.88
359.349	1994.88
359.576	1993.88
359.802	1752.88
360.029	1673.88
360.256	1694.88
360.483	1679.88
360.709	1712.88
360.936	1800.88
361.163	1883.88
361.39	2007.88
361.616	2252.88
361.843	2127.88
362.07	2018.88
362.296	1759.88
362.523	1681.88
362.749	1696.88
362.976	1742.88
363.203	1799.88
363.429	1723.88
363.656	1673.88
363.882	1720.88
364.109	1929.88
364.335	2101.88
364.562	1967.88
364.788	1874.88
365.015	1763.88
365.241	1670.88
365.468	1713.88
365.694	1790.88
365.92	1882.88
366.147	1834.88
366.373	1701.88
366.599	1643.88
366.826	1695.88
367.052	1680.88
367.278	1694.88
367.505	1726.88
367.731	1784.88
367.957	1795.88
368.184	1811.88
368.41	1939.88
368.636	1969.88
368.862	1955.88
369.089	1965.88
369.315	1884.88
369.541	1834.88
369.767	1813.88
369.993	1678.88
370.219	1691.88
370.445	1779.88
370.672	1859.88
370.898	1926.88
371.124	1951.88
371.35	1853.88
371.576	1896.88
371.802	1957.88
372.028	1885.88
372.254	1803.88
372.48	1739.88
372.706	1699.88
372.932	1728.88
373.158	1759.88
373.384	1762.88
373.61	1791.88
373.835	1939.88
374.061	1848.88
374.287	1822.88
374.513	1807.88
374.739	1835.88
374.965	1821.88
375.191	1850.88
375.416	1854.88
375.642	1861.88
375.868	1945.88
376.094	2011.88
376.319	1972.88
376.545	1813.88
376.771	1834.88
376.997	1932.88
377.222	1911.88
377.448	1878.88
377.674	1882.88
377.899	1882.88
378.125	2021.88
378.35	2004.88
378.576	1829.88
378.802	1754.88
379.027	1748.88
379.253	1768.88
379.478	1815.88
379.704	1807.88
379.929	1819.88
380.155	1772.88
380.38	1815.88
380.606	1788.88
380.831	1801.88
381.057	1954.88
381.282	1935.88
381.507	1870.88
381.733	1985.88
381.958	2085.88
382.184	1901.88
382.409	1845.88
382.634	1889.88
382.86	1887.88
383.085	1899.88
383.31	1939.88
383.535	2106.88
383.761	2225.88
383.986	2133.88
384.211	2028.88
384.436	1985.88
384.662	2103.88
384.887	2214.88
385.112	2117.88
385.337	2102.88
385.562	2059.88
385.787	2083.88
386.013	2117.88
386.238	2125.88
386.463	2129.88
386.688	2240.88
386.913	2387.88
387.138	2335.88
387.363	2132.88
387.588	2150.88
387.813	2128.88
388.038	2107.88
388.263	2163.88
388.488	2160.88
388.713	1958.88
388.938	1941.88
389.163	1979.88
389.387	2020.88
389.612	2027.88
389.837	2075.88
390.062	2124.88
390.287	2102.88
390.512	2031.88
390.736	2018.88
390.961	1975.88
391.186	1968.88
391.411	1971.88
391.636	2026.88
391.86	2042.88
392.085	2069.88
392.31	2024.88
392.534	2059.88
392.759	2077.88
392.984	2063.88
393.208	2095.88
393.433	2128.88
393.658	2250.88
393.882	2253.88
394.107	2091.88
394.331	2063.88
394.556	2007.88
394.78	2115.88
395.005	2145.88
395.229	2190.88
395.454	2389.88
395.678	2400.88
395.903	2295.88
396.127	2201.88
396.352	2175.88
396.576	2274.88
396.801	2305.88
397.025	2268.88
397.249	2268.88
397.474	2251.88
397.698	2189.88
397.922	2246.88
398.147	2332.88
398.371	2451.88
398.595	2483.88
398.82	2370.88
399.044	2380.88
399.268	2481.88
399.492	2632.88
399.717	2731.88
399.941	2769.88
400.165	2715.88
400.389	2648.88
400.613	2625.88
400.837	2860.88
401.062	3342.88
401.286	2859.88
401.51	2559.88
401.734	2676.88
401.958	2643.88
402.182	2433.88
402.406	2385.88
402.63	2331.88
402.854	2326.88
403.078	2346.88
403.302	2445.88
403.526	2418.88
403.75	2440.88
403.974	2524.88
404.198	2435.88
404.422	2532.88
404.645	2648.88
404.869	2650.88
405.093	2425.88
405.317	2359.88
405.541	2459.88
405.765	2464.88
405.988	2426.88
406.212	2485.88
406.436	2567.88
406.66	2583.88
406.883	2689.88
407.107	2998.88
407.331	3194.88
407.555	3472.88
407.778	3231.88
408.002	2680.88
408.226	2588.88
408.449	2569.88
408.673	2487.88
408.896	2517.88
409.12	2571.88
409.344	2509.88
409.567	2410.88
409.791	2479.88
410.014	2524.88
410.238	2608.88
410.461	2783.88
410.685	2490.88
410.908	2396.88
411.132	2422.88
411.355	2420.88
411.578	2358.88
411.802	2386.88
412.025	2448.88
412.249	2429.88
412.472	2316.88
412.695	2304.88
412.919	2338.88
413.142	2319.88
413.365	2348.88
413.589	2424.88
413.812	2524.88
414.035	2640.88
414.258	2394.88
414.482	2309.88
414.705	2384.88
414.928	2361.88
415.151	2334.88
415.374	2354.88
415.597	2343.88
415.821	2402.88
416.044	2492.88
416.267	2471.88
416.49	2271.88
416.713	2197.88
416.936	2239.88
417.159	2429.88
417.382	2457.88
417.605	2260.88
417.828	2363.88
418.051	2396.88
418.274	2324.88
418.497	2262.88
418.72	2257.88
418.943	2257.88
419.166	2408.88
419.389	2490.88
419.611	2323.88
419.834	2261.88
420.057	2338.88
420.28	2291.88
420.503	2259.88
420.726	2332.88
420.948	2353.88
421.171	2240.88
421.394	2288.88
421.617	2376.88
421.839	2332.88
422.062	2269.88
422.285	2205.88
422.507	2275.88
422.73	2234.88
422.953	2167.88
423.175	2184.88
423.398	2248.88
423.621	2269.88
423.843	2258.88
424.066	2300.88
424.288	2369.88
424.511	2445.88
424.733	2372.88
424.956	2135.88
425.178	2185.88
425.401	2172.88
425.623	2187.88
425.846	2168.88
426.068	2278.88
426.291	2329.88
426.513	2321.88
426.735	2375.88
426.958	2465.88
427.18	2613.88
427.402	2424.88
427.625	2467.88
427.847	2459.88
428.069	2333.88
428.292	2224.88
428.514	2124.88
428.736	2145.88
428.958	2189.88
429.181	2201.88
429.403	2491.88
429.625	3091.88
429.847	2725.88
430.069	2256.88
430.292	2479.88
430.514	2619.88
430.736	2406.88
430.958	2519.88
431.18	2359.88
431.402	2195.88
431.624	2154.88
431.846	2206.88
432.068	2139.88
432.29	2166.88
432.512	2165.88
432.734	2239.88
432.956	2280.88
433.178	2358.88
433.4	2315.88
433.622	2385.88
433.844	2247.88
434.066	2210.88
434.287	2169.88
434.509	2213.88
434.731	2411.88
434.953	2517.88
435.175	2450.88
435.397	2330.88
435.618	2369.88
435.84	2351.88
436.062	2265.88
436.284	2307.88
436.505	2342.88
436.727	2361.88
436.949	2304.88
437.17	2184.88
437.392	2188.88
437.614	2250.88
437.835	2157.88
438.057	2295.88
438.278	2410.88
438.5	2200.88
438.721	2169.88
438.943	2173.88
439.165	2175.88
439.386	2170.88
439.608	2168.88
439.829	2161.88
440.05	2154.88
440.272	2150.88
440.493	2146.88
440.715	2165.88
440.936	2359.88
441.158	2596.88
441.379	2527.88
441.6	2441.88
441.822	2344.88
442.043	2372.88
442.264	2253.88
442.486	2157.88
442.707	2168.88
442.928	2131.88
443.149	2223.88
443.371	2425.88
443.592	2471.88
443.813	2440.88
444.034	2378.88
444.255	2387.88
444.476	2428.88
444.698	2521.88
444.919	2482.88
445.14	2530.88
445.361	2539.88
445.582	2655.88
445.803	2542.88
446.024	2399.88
446.245	2507.88
446.466	2452.88
446.687	2299.88
446.908	2245.88
447.129	2255.88
447.35	2280.88
447.571	2239.88
447.792	2143.88
448.013	2158.88
448.234	2156.88
448.455	2359.88
448.675	2288.88
448.896	2086.88
449.117	2095.88
449.338	2119.88
449.559	2243.88
449.779	2417.88
450	2601.88
450.221	2852.88
450.442	2763.88
450.662	2380.88
450.883	2100.88
451.104	2023.88
451.324	2120.88
451.545	2199.88
451.766	2179.88
451.986	2051.88
452.207	2011.88
452.428	1970.88
452.648	1913.88
452.869	1980.88
453.089	2133.88
453.31	2137.88
453.53	2271.88
453.751	2151.88
453.971	2007.88
454.192	2035.88
454.412	2202.88
454.633	2103.88
454.853	2052.88
455.073	1932.88
455.294	1906.88
455.514	1906.88
455.734	1922.88
455.955	1964.88
456.175	1981.88
456.395	2002.88
456.616	2054.88
456.836	2071.88
457.056	2025.88
457.276	1993.88
457.497	1959.88
457.717	1895.88
457.937	1919.88
458.157	2003.88
458.377	1991.88
458.598	1911.88
458.818	1953.88
459.038	2093.88
459.258	2251.88
459.478	2240.88
459.698	2159.88
459.918	2200.88
460.138	2327.88
460.358	2310.88
460.578	2342.88
460.798	2411.88
461.018	2594.88
461.238	2480.88
461.458	2363.88
461.678	2362.88
461.898	2292.88
462.118	2217.88
462.338	2337.88
462.558	2323.88
462.777	2333.88
462.997	2426.88
463.217	2601.88
463.437	2550.88
463.657	2404.88
463.876	2355.88
464.096	2377.88
464.316	2308.88
464.536	2434.88
464.755	2422.88
464.975	2473.88
465.195	2395.88
465.414	2532.88
465.634	2481.88
465.854	2351.88
466.073	2502.88
466.293	2455.88
466.512	2167.88
466.732	2149.88
466.951	2239.88
467.171	2252.88
467.391	2114.88
467.61	2060.88
467.829	2081.88
468.049	2288.88
468.268	2612.88
468.488	2443.88
468.707	2293.88
468.927	2212.88
469.146	2143.88
469.365	2119.88
469.585	2143.88
469.804	2132.88
470.023	2137.88
470.243	2172.88
470.462	2147.88
470.681	2057.88
470.901	2131.88
471.12	2146.88
471.339	2128.88
471.558	2063.88
471.777	2071.88
471.997	2059.88
472.216	2103.88
472.435	2043.88
472.654	2047.88
472.873	2205.88
473.092	2344.88
473.311	2177.88
473.53	2019.88
473.749	2035.88
473.968	2126.88
474.187	2207.88
474.406	2376.88
474.625	2219.88
474.844	2126.88
475.063	2137.88
475.282	2242.88
475.501	2165.88
475.72	2164.88
475.939	2290.88
476.158	2265.88
476.377	2168.88
476.596	2187.88
476.814	2267.88
477.033	2264.88
477.252	2344.88
477.471	2435.88
477.69	2284.88
477.908	2293.88
478.127	2388.88
478.346	2638.88
478.564	2604.88
478.783	2601.88
479.002	2658.88
479.22	2547.88
479.439	2657.88
479.658	3029.88
479.876	3025.88
480.095	2646.88
480.313	2457.88
480.532	2390.88
480.751	2402.88
480.969	2477.88
481.188	2450.88
481.406	2421.88
481.624	2332.88
481.843	2361.88
482.061	2452.88
482.28	2521.88
482.498	2517.88
482.717	2526.88
482.935	2382.88
483.153	2375.88
483.372	2373.88
483.59	2352.88
483.808	2397.88
484.027	2430.88
484.245	2616.88
484.463	2980.88
484.681	3473.88
484.9	2635.88
485.118	2464.88
485.336	2444.88
485.554	2519.88
485.772	2689.88
485.99	2585.88
486.209	2652.88
486.427	2571.88
486.645	2590.88
486.863	2549.88
487.081	2617.88
487.299	2719.88
