Data from WStandard_LampEnergy5.5LIBS07252019.E.O._I.C._HRD10591_16-09-21-921.txt Node
Date: Thu Jul 25 16:09:21 EDT 2019
User: cochatt
Spectrometer: HR+D1059
Trigger mode: 1
Integration Time (sec): 1.000000E-1
Scans to average: 1
Electric dark correction enabled: true
Nonlinearity correction enabled: false
Boxcar width: 0
XAxis mode: Wavelengths
Number of Pixels in Spectrum: 2048
>>>>>Begin Spectral Data<<<<<
223.165	-17.44
223.4	-17.44
223.635	-17.44
223.869	-10.44
224.104	-12.44
224.338	-22.44
224.573	-5.44
224.808	-22.44
225.042	-20.44
225.277	-4.44
225.511	-0.44
225.746	-2.44
225.98	8.56
226.215	15.56
226.449	3.56
226.683	18.56
226.918	35.56
227.152	36.56
227.387	57.56
227.621	36.56
227.856	52.56
228.09	42.56
228.324	36.56
228.559	52.56
228.793	149.56
229.027	345.56
229.262	350.56
229.496	385.56
229.73	377.56
229.964	415.56
230.199	452.56
230.433	454.56
230.667	474.56
230.901	499.56
231.136	466.56
231.37	451.56
231.604	422.56
231.838	456.56
232.072	445.56
232.306	433.56
232.541	449.56
232.775	540.56
233.009	559.56
233.243	564.56
233.477	490.56
233.711	520.56
233.945	541.56
234.179	532.56
234.413	569.56
234.647	612.56
234.881	566.56
235.115	542.56
235.349	545.56
235.583	570.56
235.817	542.56
236.051	538.56
236.285	539.56
236.519	573.56
236.753	614.56
236.987	659.56
237.221	645.56
237.455	735.56
237.689	701.56
237.922	653.56
238.156	618.56
238.39	653.56
238.624	682.56
238.858	718.56
239.091	749.56
239.325	769.56
239.559	877.56
239.793	928.56
240.027	985.56
240.26	987.56
240.494	707.56
240.728	703.56
240.961	700.56
241.195	698.56
241.429	797.56
241.662	811.56
241.896	734.56
242.13	726.56
242.363	792.56
242.597	897.56
242.83	843.56
243.064	872.56
243.298	917.56
243.531	891.56
243.765	881.56
243.998	878.56
244.232	783.56
244.465	746.56
244.699	758.56
244.932	877.56
245.166	1004.56
245.399	968.56
245.633	874.56
245.866	853.56
246.099	873.56
246.333	921.56
246.566	907.56
246.8	993.56
247.033	1115.56
247.266	1055.56
247.5	1019.56
247.733	993.56
247.966	1078.56
248.2	1165.56
248.433	1133.56
248.666	1167.56
248.899	1262.56
249.133	1459.56
249.366	1680.56
249.599	1347.56
249.832	1204.56
250.066	1228.56
250.299	1254.56
250.532	1146.56
250.765	1035.56
250.998	1105.56
251.231	1124.56
251.465	1182.56
251.698	1127.56
251.931	1102.56
252.164	1142.56
252.397	1204.56
252.63	1202.56
252.863	1039.56
253.096	1028.56
253.329	1126.56
253.562	1130.56
253.795	1224.56
254.028	1231.56
254.261	1130.56
254.494	1116.56
254.727	1065.56
254.96	1107.56
255.193	1176.56
255.426	1315.56
255.659	1591.56
255.892	1627.56
256.124	1351.56
256.357	1305.56
256.59	1373.56
256.823	1346.56
257.056	1319.56
257.289	1636.56
257.521	1795.56
257.754	1631.56
257.987	1497.56
258.22	1718.56
258.452	1676.56
258.685	1338.56
258.918	1337.56
259.151	1342.56
259.383	1269.56
259.616	1141.56
259.849	1170.56
260.081	1319.56
260.314	1474.56
260.547	1653.56
260.779	1634.56
261.012	1509.56
261.244	1380.56
261.477	1291.56
261.71	1371.56
261.942	1362.56
262.175	1301.56
262.407	1425.56
262.64	1326.56
262.872	1246.56
263.105	1177.56
263.337	1206.56
263.57	1225.56
263.802	1227.56
264.035	1166.56
264.267	1083.56
264.499	1079.56
264.732	1176.56
264.964	1251.56
265.197	1317.56
265.429	1305.56
265.661	1519.56
265.894	1702.56
266.126	1698.56
266.358	1550.56
266.591	1613.56
266.823	1709.56
267.055	1565.56
267.287	1524.56
267.52	1495.56
267.752	1437.56
267.984	1498.56
268.216	1555.56
268.448	1619.56
268.681	1588.56
268.913	1426.56
269.145	1345.56
269.377	1337.56
269.609	1436.56
269.841	1670.56
270.073	1921.56
270.306	2164.56
270.538	2346.56
270.77	1975.56
271.002	1656.56
271.234	1578.56
271.466	1568.56
271.698	1764.56
271.93	2120.56
272.162	2120.56
272.394	1891.56
272.626	1837.56
272.858	1594.56
273.09	1406.56
273.322	1373.56
273.553	1317.56
273.785	1325.56
274.017	1424.56
274.249	1470.56
274.481	1496.56
274.713	1365.56
274.945	1356.56
275.176	1358.56
275.408	1378.56
275.64	1338.56
275.872	1303.56
276.104	1421.56
276.335	1593.56
276.567	1808.56
276.799	1846.56
277.031	1667.56
277.262	1531.56
277.494	1625.56
277.726	1780.56
277.957	1719.56
278.189	1598.56
278.421	1486.56
278.652	1457.56
278.884	1429.56
279.115	1399.56
279.347	1431.56
279.579	1403.56
279.81	1386.56
280.042	1543.56
280.273	1697.56
280.505	1689.56
280.736	1685.56
280.968	1624.56
281.199	1450.56
281.431	1417.56
281.662	1394.56
281.894	1353.56
282.125	1461.56
282.356	1490.56
282.588	1506.56
282.819	1492.56
283.051	1601.56
283.282	1750.56
283.513	1681.56
283.745	1455.56
283.976	1357.56
284.207	1404.56
284.439	1417.56
284.67	1437.56
284.901	1485.56
285.132	1481.56
285.364	1486.56
285.595	1489.56
285.826	1446.56
286.057	1403.56
286.288	1453.56
286.52	1483.56
286.751	1613.56
286.982	1657.56
287.213	1519.56
287.444	1416.56
287.675	1429.56
287.906	1468.56
288.138	1611.56
288.369	1523.56
288.6	1423.56
288.831	1397.56
289.062	1433.56
289.293	1441.56
289.524	1465.56
289.755	1518.56
289.986	1536.56
290.217	1421.56
290.448	1430.56
290.679	1454.56
290.91	1471.56
291.141	1489.56
291.371	1562.56
291.602	1541.56
291.833	1571.56
292.064	1581.56
292.295	1554.56
292.526	1589.56
292.757	1641.56
292.987	1577.56
293.218	1488.56
293.449	1576.56
293.68	1829.56
293.91	1948.56
294.141	1813.56
294.372	1704.56
294.603	1744.56
294.833	1865.56
295.064	1762.56
295.295	1626.56
295.525	1555.56
295.756	1425.56
295.987	1345.56
296.217	1409.56
296.448	1441.56
296.679	1427.56
296.909	1458.56
297.14	1429.56
297.37	1449.56
297.601	1525.56
297.831	1640.56
298.062	1663.56
298.292	1550.56
298.523	1421.56
298.753	1462.56
298.984	1483.56
299.214	1463.56
299.445	1489.56
299.675	1530.56
299.905	1575.56
300.136	1523.56
300.366	1491.56
300.597	1410.56
300.827	1443.56
301.057	1481.56
301.288	1574.56
301.518	1576.56
301.748	1603.56
301.979	1664.56
302.209	1707.56
302.439	1849.56
302.669	1902.56
302.9	1743.56
303.13	1570.56
303.36	1551.56
303.59	1619.56
303.82	1581.56
304.051	1553.56
304.281	1614.56
304.511	1595.56
304.741	1629.56
304.971	1816.56
305.201	1953.56
305.431	1877.56
305.661	1557.56
305.891	1404.56
306.121	1423.56
306.352	1447.56
306.582	1528.56
306.812	1604.56
307.042	1743.56
307.272	1761.56
307.502	1781.56
307.731	1925.56
307.961	2051.56
308.191	1900.56
308.421	1648.56
308.651	1585.56
308.881	1532.56
309.111	1556.56
309.341	1535.56
309.571	1508.56
309.8	1519.56
310.03	1511.56
310.26	1518.56
310.49	1494.56
310.72	1555.56
310.949	1592.56
311.179	1641.56
311.409	1610.56
311.639	1539.56
311.868	1508.56
312.098	1549.56
312.328	1527.56
312.557	1533.56
312.787	1530.56
313.017	1630.56
313.246	1622.56
313.476	1596.56
313.706	1623.56
313.935	1604.56
314.165	1613.56
314.394	1678.56
314.624	1739.56
314.853	1850.56
315.083	1869.56
315.312	1942.56
315.542	1865.56
315.771	1658.56
316.001	1672.56
316.23	1774.56
316.46	1722.56
316.689	1699.56
316.919	1618.56
317.148	1580.56
317.377	1566.56
317.607	1675.56
317.836	1857.56
318.065	1957.56
318.295	1901.56
318.524	1789.56
318.753	1732.56
318.983	1729.56
319.212	1673.56
319.441	1644.56
319.67	1644.56
319.9	1670.56
320.129	1764.56
320.358	1851.56
320.587	1889.56
320.816	1848.56
321.046	1820.56
321.275	1732.56
321.504	1699.56
321.733	1896.56
321.962	1813.56
322.191	1699.56
322.42	1690.56
322.649	1651.56
322.878	1694.56
323.108	1665.56
323.337	1723.56
323.566	1717.56
323.795	1702.56
324.024	1697.56
324.253	1660.56
324.482	1703.56
324.71	1664.56
324.939	1575.56
325.168	1597.56
325.397	1652.56
325.626	1695.56
325.855	1741.56
326.084	1636.56
326.313	1663.56
326.542	1686.56
326.77	1746.56
326.999	1777.56
327.228	1696.56
327.457	1602.56
327.686	1588.56
327.914	1605.56
328.143	1671.56
328.372	1703.56
328.6	1717.56
328.829	1685.56
329.058	1621.56
329.287	1640.56
329.515	1667.56
329.744	1679.56
329.972	1793.56
330.201	1870.56
330.43	1846.56
330.658	1748.56
330.887	1769.56
331.115	1798.56
331.344	1764.56
331.572	1718.56
331.801	1741.56
332.03	1749.56
332.258	1760.56
332.486	1821.56
332.715	1837.56
332.943	1817.56
333.172	1801.56
333.4	1794.56
333.629	1837.56
333.857	1948.56
334.085	2100.56
334.314	2350.56
334.542	2556.56
334.771	2393.56
334.999	2122.56
335.227	1965.56
335.455	1917.56
335.684	1873.56
335.912	1951.56
336.14	1973.56
336.369	1914.56
336.597	1842.56
336.825	1751.56
337.053	1795.56
337.281	1905.56
337.51	2009.56
337.738	2076.56
337.966	2011.56
338.194	1858.56
338.422	1778.56
338.65	1764.56
338.878	1735.56
339.106	1700.56
339.334	1695.56
339.562	1651.56
339.79	1673.56
340.018	1775.56
340.246	1837.56
340.474	1852.56
340.702	1806.56
340.93	1797.56
341.158	1808.56
341.386	1751.56
341.614	1777.56
341.842	1769.56
342.07	1766.56
342.298	1747.56
342.526	1762.56
342.754	1742.56
342.981	1717.56
343.209	1729.56
343.437	1717.56
343.665	1746.56
343.893	1825.56
344.12	1880.56
344.348	1903.56
344.576	1825.56
344.804	1713.56
345.031	1749.56
345.259	1741.56
345.487	1710.56
345.714	1655.56
345.942	1576.56
346.17	1604.56
346.397	1678.56
346.625	1689.56
346.853	1582.56
347.08	1543.56
347.308	1582.56
347.535	1598.56
347.763	1685.56
347.99	1675.56
348.218	1610.56
348.445	1592.56
348.673	1611.56
348.9	1661.56
349.128	1721.56
349.355	1776.56
349.583	1735.56
349.81	1685.56
350.037	1507.56
350.265	1553.56
350.492	1528.56
350.72	1581.56
350.947	1639.56
351.174	1694.56
351.402	1600.56
351.629	1560.56
351.856	1542.56
352.083	1479.56
352.311	1500.56
352.538	1569.56
352.765	1610.56
352.992	1678.56
353.22	1626.56
353.447	1565.56
353.674	1583.56
353.901	1619.56
354.128	1597.56
354.355	1543.56
354.583	1637.56
354.81	1648.56
355.037	1669.56
355.264	1650.56
355.491	1630.56
355.718	1597.56
355.945	1588.56
356.172	1562.56
356.399	1485.56
356.626	1533.56
356.853	1621.56
357.08	1721.56
357.307	1867.56
357.534	1906.56
357.761	1657.56
357.988	1561.56
358.215	1505.56
358.441	1512.56
358.668	1548.56
358.895	1524.56
359.122	1618.56
359.349	1813.56
359.576	1758.56
359.802	1595.56
360.029	1561.56
360.256	1533.56
360.483	1603.56
360.709	1641.56
360.936	1665.56
361.163	1690.56
361.39	1859.56
361.616	1984.56
361.843	1959.56
362.07	1894.56
362.296	1650.56
362.523	1573.56
362.749	1580.56
362.976	1636.56
363.203	1656.56
363.429	1618.56
363.656	1540.56
363.882	1581.56
364.109	1766.56
364.335	1863.56
364.562	1727.56
364.788	1703.56
365.015	1614.56
365.241	1573.56
365.468	1583.56
365.694	1692.56
365.92	1764.56
366.147	1700.56
366.373	1549.56
366.599	1545.56
366.826	1559.56
367.052	1557.56
367.278	1530.56
367.505	1617.56
367.731	1649.56
367.957	1610.56
368.184	1663.56
368.41	1791.56
368.636	1804.56
368.862	1758.56
369.089	1802.56
369.315	1770.56
369.541	1691.56
369.767	1632.56
369.993	1601.56
370.219	1558.56
370.445	1619.56
370.672	1739.56
370.898	1805.56
371.124	1797.56
371.35	1707.56
371.576	1765.56
371.802	1765.56
372.028	1709.56
372.254	1661.56
372.48	1606.56
372.706	1613.56
372.932	1626.56
373.158	1619.56
373.384	1674.56
373.61	1704.56
373.835	1800.56
374.061	1667.56
374.287	1686.56
374.513	1694.56
374.739	1705.56
374.965	1715.56
375.191	1715.56
375.416	1719.56
375.642	1737.56
375.868	1848.56
376.094	1883.56
376.319	1807.56
376.545	1679.56
376.771	1710.56
376.997	1795.56
377.222	1768.56
377.448	1712.56
377.674	1753.56
377.899	1769.56
378.125	1853.56
378.35	1899.56
378.576	1691.56
378.802	1639.56
379.027	1603.56
379.253	1633.56
379.478	1667.56
379.704	1665.56
379.929	1634.56
380.155	1657.56
380.38	1678.56
380.606	1709.56
380.831	1665.56
381.057	1749.56
381.282	1814.56
381.507	1760.56
381.733	1852.56
381.958	1908.56
382.184	1813.56
382.409	1747.56
382.634	1771.56
382.86	1757.56
383.085	1788.56
383.31	1750.56
383.535	1947.56
383.761	2036.56
383.986	1977.56
384.211	1898.56
384.436	1886.56
384.662	1964.56
384.887	2043.56
385.112	1905.56
385.337	1967.56
385.562	1926.56
385.787	1917.56
386.013	1919.56
386.238	1954.56
386.463	1972.56
386.688	2097.56
386.913	2204.56
387.138	2138.56
387.363	1985.56
387.588	1969.56
387.813	1950.56
388.038	1976.56
388.263	1991.56
388.488	1989.56
388.713	1843.56
388.938	1860.56
389.163	1815.56
389.387	1901.56
389.612	1878.56
389.837	1941.56
390.062	1956.56
390.287	1945.56
390.512	1927.56
390.736	1864.56
390.961	1897.56
391.186	1829.56
391.411	1845.56
391.636	1945.56
391.86	1945.56
392.085	1905.56
392.31	1942.56
392.534	1920.56
392.759	1935.56
392.984	1948.56
393.208	1931.56
393.433	1929.56
393.658	2031.56
393.882	2053.56
394.107	1987.56
394.331	1914.56
394.556	1918.56
394.78	1969.56
395.005	1997.56
395.229	2054.56
395.454	2144.56
395.678	2209.56
395.903	2132.56
396.127	2012.56
396.352	2068.56
396.576	2128.56
396.801	2100.56
397.025	2099.56
397.249	2111.56
397.474	2038.56
397.698	2056.56
397.922	2140.56
398.147	2185.56
398.371	2301.56
398.595	2287.56
398.82	2203.56
399.044	2195.56
399.268	2354.56
399.492	2460.56
399.717	2588.56
399.941	2628.56
400.165	2527.56
400.389	2513.56
400.613	2389.56
400.837	2662.56
401.062	3098.56
401.286	2625.56
401.51	2387.56
401.734	2508.56
401.958	2460.56
402.182	2266.56
402.406	2198.56
402.63	2163.56
402.854	2199.56
403.078	2239.56
403.302	2236.56
403.526	2306.56
403.75	2282.56
403.974	2269.56
404.198	2295.56
404.422	2367.56
404.645	2455.56
404.869	2421.56
405.093	2216.56
405.317	2227.56
405.541	2323.56
405.765	2342.56
405.988	2299.56
406.212	2303.56
406.436	2426.56
406.66	2448.56
406.883	2481.56
407.107	2720.56
407.331	2935.56
407.555	3191.56
407.778	2989.56
408.002	2449.56
408.226	2371.56
408.449	2451.56
408.673	2303.56
408.896	2359.56
409.12	2415.56
409.344	2315.56
409.567	2294.56
409.791	2339.56
410.014	2313.56
410.238	2437.56
410.461	2589.56
410.685	2331.56
410.908	2232.56
411.132	2322.56
411.355	2292.56
411.578	2238.56
411.802	2197.56
412.025	2297.56
412.249	2211.56
412.472	2158.56
412.695	2171.56
412.919	2197.56
413.142	2140.56
413.365	2180.56
413.589	2240.56
413.812	2318.56
414.035	2377.56
414.258	2220.56
414.482	2202.56
414.705	2203.56
414.928	2185.56
415.151	2154.56
415.374	2153.56
415.597	2205.56
415.821	2209.56
416.044	2295.56
416.267	2338.56
416.49	2129.56
416.713	2092.56
416.936	2158.56
417.159	2242.56
417.382	2222.56
417.605	2143.56
417.828	2203.56
418.051	2235.56
418.274	2151.56
418.497	2133.56
418.72	2144.56
418.943	2124.56
419.166	2270.56
419.389	2366.56
419.611	2217.56
419.834	2135.56
420.057	2181.56
420.28	2146.56
420.503	2074.56
420.726	2148.56
420.948	2148.56
421.171	2090.56
421.394	2067.56
421.617	2149.56
421.839	2162.56
422.062	2152.56
422.285	2078.56
422.507	2102.56
422.73	2027.56
422.953	1992.56
423.175	2009.56
423.398	2090.56
423.621	2116.56
423.843	2134.56
424.066	2163.56
424.288	2229.56
424.511	2233.56
424.733	2228.56
424.956	2045.56
425.178	2010.56
425.401	2025.56
425.623	2056.56
425.846	2004.56
426.068	2125.56
426.291	2174.56
426.513	2146.56
426.735	2132.56
426.958	2290.56
427.18	2418.56
427.402	2216.56
427.625	2237.56
427.847	2242.56
428.069	2141.56
428.292	2102.56
428.514	2027.56
428.736	1993.56
428.958	2052.56
429.181	2055.56
429.403	2308.56
429.625	2882.56
429.847	2494.56
430.069	2128.56
430.292	2235.56
430.514	2398.56
430.736	2211.56
430.958	2280.56
431.18	2181.56
431.402	2037.56
431.624	2008.56
431.846	2044.56
432.068	2003.56
432.29	2010.56
432.512	2048.56
432.734	2103.56
432.956	2185.56
433.178	2229.56
433.4	2187.56
433.622	2122.56
433.844	2054.56
434.066	2010.56
434.287	2013.56
434.509	2057.56
434.731	2187.56
434.953	2364.56
435.175	2282.56
435.397	2133.56
435.618	2129.56
435.84	2157.56
436.062	2120.56
436.284	2082.56
436.505	2132.56
436.727	2184.56
436.949	2112.56
437.17	2069.56
437.392	2021.56
437.614	2090.56
437.835	2041.56
438.057	2162.56
438.278	2235.56
438.5	2045.56
438.721	1998.56
438.943	2052.56
439.165	2014.56
439.386	1975.56
439.608	1978.56
439.829	2056.56
440.05	2030.56
440.272	1970.56
440.493	1956.56
440.715	1995.56
440.936	2138.56
441.158	2355.56
441.379	2333.56
441.6	2227.56
441.822	2196.56
442.043	2206.56
442.264	2141.56
442.486	2051.56
442.707	2018.56
442.928	2023.56
443.149	2075.56
443.371	2205.56
443.592	2265.56
443.813	2194.56
444.034	2203.56
444.255	2210.56
444.476	2246.56
444.698	2311.56
444.919	2291.56
445.14	2335.56
445.361	2348.56
445.582	2452.56
445.803	2325.56
446.024	2217.56
446.245	2236.56
446.466	2193.56
446.687	2086.56
446.908	2130.56
447.129	2067.56
447.35	2088.56
447.571	2121.56
447.792	2001.56
448.013	1959.56
448.234	2040.56
448.455	2113.56
448.675	2171.56
448.896	1981.56
449.117	1966.56
449.338	2005.56
449.559	2019.56
449.779	2138.56
450	2416.56
450.221	2586.56
450.442	2495.56
450.662	2184.56
450.883	1977.56
451.104	1906.56
451.324	1949.56
451.545	2024.56
451.766	1995.56
451.986	1919.56
452.207	1913.56
452.428	1805.56
452.648	1811.56
452.869	1855.56
453.089	1953.56
453.31	1989.56
453.53	2020.56
453.751	1950.56
453.971	1878.56
454.192	1914.56
454.412	2015.56
454.633	1929.56
454.853	1882.56
455.073	1779.56
455.294	1768.56
455.514	1770.56
455.734	1804.56
455.955	1843.56
456.175	1763.56
456.395	1828.56
456.616	1891.56
456.836	1933.56
457.056	1891.56
457.276	1873.56
457.497	1815.56
457.717	1717.56
457.937	1789.56
458.157	1825.56
458.377	1811.56
458.598	1799.56
458.818	1828.56
459.038	1934.56
459.258	2064.56
459.478	2081.56
459.698	1995.56
459.918	2065.56
460.138	2158.56
460.358	2164.56
460.578	2148.56
460.798	2245.56
461.018	2367.56
461.238	2284.56
461.458	2241.56
461.678	2172.56
461.898	2120.56
462.118	2069.56
462.338	2157.56
462.558	2175.56
462.777	2139.56
462.997	2295.56
463.217	2462.56
463.437	2324.56
463.657	2229.56
463.876	2201.56
464.096	2188.56
464.316	2194.56
464.536	2212.56
464.755	2244.56
464.975	2289.56
465.195	2161.56
465.414	2299.56
465.634	2293.56
465.854	2163.56
466.073	2298.56
466.293	2232.56
466.512	2006.56
466.732	2008.56
466.951	2077.56
467.171	2078.56
467.391	1980.56
467.61	1918.56
467.829	1979.56
468.049	2082.56
468.268	2307.56
468.488	2234.56
468.707	2059.56
468.927	2032.56
469.146	1974.56
469.365	1929.56
469.585	1953.56
469.804	1961.56
470.023	1999.56
470.243	1982.56
470.462	1977.56
470.681	1960.56
470.901	1993.56
471.12	1997.56
471.339	1964.56
471.558	1913.56
471.777	1913.56
471.997	1931.56
472.216	1926.56
472.435	1895.56
472.654	1887.56
472.873	2043.56
473.092	2153.56
473.311	2018.56
473.53	1928.56
473.749	1888.56
473.968	1941.56
474.187	2038.56
474.406	2162.56
474.625	2090.56
474.844	1961.56
475.063	1954.56
475.282	2014.56
475.501	1985.56
475.72	2002.56
475.939	2150.56
476.158	2067.56
476.377	2013.56
476.596	2036.56
476.814	2054.56
477.033	2045.56
477.252	2145.56
477.471	2197.56
477.69	2108.56
477.908	2059.56
478.127	2186.56
478.346	2357.56
478.564	2373.56
478.783	2346.56
479.002	2387.56
479.22	2339.56
479.439	2470.56
479.658	2849.56
479.876	2776.56
480.095	2438.56
480.313	2303.56
480.532	2205.56
480.751	2277.56
480.969	2238.56
481.188	2261.56
481.406	2267.56
481.624	2165.56
481.843	2188.56
482.061	2231.56
482.28	2286.56
482.498	2304.56
482.717	2323.56
482.935	2198.56
483.153	2198.56
483.372	2216.56
483.59	2199.56
483.808	2175.56
484.027	2296.56
484.245	2417.56
484.463	2751.56
484.681	3161.56
484.9	2423.56
485.118	2309.56
485.336	2218.56
485.554	2311.56
485.772	2451.56
485.99	2389.56
486.209	2454.56
486.427	2399.56
486.645	2398.56
486.863	2357.56
487.081	2425.56
487.299	2487.56
487.517	2435.56
