Data from WStandard_LampEnergy5.5LIBS07252019.E.O._I.C._HRD10591_16-09-08-921.txt Node
Date: Thu Jul 25 16:09:08 EDT 2019
User: cochatt
Spectrometer: HR+D1059
Trigger mode: 1
Integration Time (sec): 1.000000E-1
Scans to average: 1
Electric dark correction enabled: true
Nonlinearity correction enabled: false
Boxcar width: 0
XAxis mode: Wavelengths
Number of Pixels in Spectrum: 2048
>>>>>Begin Spectral Data<<<<<
223.165	-5
223.4	-5
223.635	-5
223.869	-22
224.104	-28
224.338	-16
224.573	-5
224.808	-12
225.042	-6
225.277	1
225.511	-12
225.746	-4
225.98	5
226.215	13
226.449	12
226.683	23
226.918	20
227.152	36
227.387	42
227.621	37
227.856	47
228.09	51
228.324	44
228.559	73
228.793	142
229.027	349
229.262	357
229.496	374
229.73	384
229.964	422
230.199	430
230.433	446
230.667	473
230.901	502
231.136	468
231.37	452
231.604	458
231.838	428
232.072	458
232.306	455
232.541	472
232.775	534
233.009	566
233.243	573
233.477	507
233.711	545
233.945	539
234.179	543
234.413	566
234.647	617
234.881	574
235.115	506
235.349	534
235.583	535
235.817	540
236.051	528
236.285	523
236.519	575
236.753	655
236.987	649
237.221	639
237.455	717
237.689	696
237.922	652
238.156	619
238.39	634
238.624	667
238.858	699
239.091	748
239.325	759
239.559	894
239.793	918
240.027	1022
240.26	1011
240.494	746
240.728	706
240.961	679
241.195	695
241.429	778
241.662	791
241.896	702
242.13	723
242.363	825
242.597	900
242.83	840
243.064	845
243.298	918
243.531	904
243.765	889
243.998	869
244.232	755
244.465	744
244.699	748
244.932	867
245.166	978
245.399	934
245.633	863
245.866	849
246.099	897
246.333	904
246.566	918
246.8	980
247.033	1090
247.266	1023
247.5	1040
247.733	1011
247.966	1057
248.2	1178
248.433	1133
248.666	1159
248.899	1266
249.133	1482
249.366	1655
249.599	1359
249.832	1203
250.066	1184
250.299	1248
250.532	1130
250.765	1000
250.998	1106
251.231	1143
251.465	1179
251.698	1117
251.931	1120
252.164	1139
252.397	1205
252.63	1221
252.863	1065
253.096	1026
253.329	1102
253.562	1126
253.795	1220
254.028	1206
254.261	1151
254.494	1107
254.727	1060
254.96	1079
255.193	1180
255.426	1336
255.659	1556
255.892	1595
256.124	1335
256.357	1253
256.59	1368
256.823	1375
257.056	1354
257.289	1606
257.521	1796
257.754	1620
257.987	1496
258.22	1690
258.452	1660
258.685	1355
258.918	1338
259.151	1335
259.383	1243
259.616	1122
259.849	1204
260.081	1319
260.314	1471
260.547	1596
260.779	1616
261.012	1542
261.244	1359
261.477	1316
261.71	1385
261.942	1333
262.175	1272
262.407	1420
262.64	1355
262.872	1238
263.105	1212
263.337	1244
263.57	1227
263.802	1270
264.035	1210
264.267	1117
264.499	1074
264.732	1170
264.964	1279
265.197	1280
265.429	1317
265.661	1496
265.894	1693
266.126	1761
266.358	1539
266.591	1598
266.823	1712
267.055	1547
267.287	1521
267.52	1494
267.752	1458
267.984	1469
268.216	1527
268.448	1614
268.681	1608
268.913	1442
269.145	1348
269.377	1327
269.609	1431
269.841	1668
270.073	1894
270.306	2111
270.538	2294
270.77	1958
271.002	1655
271.234	1605
271.466	1531
271.698	1701
271.93	2041
272.162	2124
272.394	1870
272.626	1784
272.858	1599
273.09	1386
273.322	1386
273.553	1311
273.785	1351
274.017	1390
274.249	1520
274.481	1526
274.713	1413
274.945	1336
275.176	1367
275.408	1342
275.64	1310
275.872	1341
276.104	1399
276.335	1587
276.567	1790
276.799	1814
277.031	1656
277.262	1577
277.494	1579
277.726	1769
277.957	1752
278.189	1626
278.421	1480
278.652	1450
278.884	1433
279.115	1443
279.347	1487
279.579	1396
279.81	1404
280.042	1567
280.273	1678
280.505	1704
280.736	1727
280.968	1636
281.199	1462
281.431	1364
281.662	1407
281.894	1381
282.125	1416
282.356	1518
282.588	1470
282.819	1452
283.051	1607
283.282	1703
283.513	1709
283.745	1493
283.976	1382
284.207	1408
284.439	1434
284.67	1437
284.901	1440
285.132	1522
285.364	1496
285.595	1493
285.826	1465
286.057	1429
286.288	1443
286.52	1491
286.751	1623
286.982	1667
287.213	1538
287.444	1412
287.675	1398
287.906	1503
288.138	1588
288.369	1571
288.6	1486
288.831	1410
289.062	1402
289.293	1456
289.524	1463
289.755	1487
289.986	1524
290.217	1402
290.448	1445
290.679	1463
290.91	1462
291.141	1483
291.371	1608
291.602	1525
291.833	1536
292.064	1598
292.295	1571
292.526	1563
292.757	1660
292.987	1597
293.218	1481
293.449	1595
293.68	1783
293.91	1931
294.141	1788
294.372	1733
294.603	1780
294.833	1843
295.064	1760
295.295	1580
295.525	1573
295.756	1481
295.987	1372
296.217	1416
296.448	1434
296.679	1471
296.909	1482
297.14	1424
297.37	1480
297.601	1559
297.831	1614
298.062	1671
298.292	1508
298.523	1466
298.753	1496
298.984	1482
299.214	1466
299.445	1556
299.675	1554
299.905	1541
300.136	1511
300.366	1480
300.597	1429
300.827	1440
301.057	1510
301.288	1576
301.518	1586
301.748	1597
301.979	1650
302.209	1694
302.439	1847
302.669	1875
302.9	1790
303.13	1580
303.36	1566
303.59	1616
303.82	1566
304.051	1615
304.281	1582
304.511	1564
304.741	1661
304.971	1831
305.201	1994
305.431	1863
305.661	1511
305.891	1404
306.121	1399
306.352	1441
306.582	1500
306.812	1597
307.042	1775
307.272	1763
307.502	1749
307.731	1868
307.961	2026
308.191	1874
308.421	1639
308.651	1554
308.881	1541
309.111	1499
309.341	1500
309.571	1495
309.8	1528
310.03	1498
310.26	1523
310.49	1529
310.72	1543
310.949	1628
311.179	1610
311.409	1577
311.639	1596
311.868	1552
312.098	1559
312.328	1556
312.557	1521
312.787	1558
313.017	1629
313.246	1606
313.476	1588
313.706	1645
313.935	1605
314.165	1635
314.394	1668
314.624	1728
314.853	1815
315.083	1917
315.312	2013
315.542	1873
315.771	1643
316.001	1646
316.23	1694
316.46	1759
316.689	1663
316.919	1625
317.148	1568
317.377	1559
317.607	1679
317.836	1872
318.065	1956
318.295	1864
318.524	1784
318.753	1731
318.983	1722
319.212	1656
319.441	1639
319.67	1653
319.9	1688
320.129	1756
320.358	1785
320.587	1885
320.816	1846
321.046	1827
321.275	1737
321.504	1706
321.733	1883
321.962	1854
322.191	1669
322.42	1716
322.649	1684
322.878	1664
323.108	1686
323.337	1728
323.566	1726
323.795	1727
324.024	1715
324.253	1696
324.482	1740
324.71	1638
324.939	1578
325.168	1635
325.397	1660
325.626	1721
325.855	1760
326.084	1663
326.313	1657
326.542	1698
326.77	1743
326.999	1758
327.228	1714
327.457	1652
327.686	1604
327.914	1619
328.143	1702
328.372	1642
328.6	1680
328.829	1646
329.058	1663
329.287	1652
329.515	1656
329.744	1700
329.972	1806
330.201	1811
330.43	1828
330.658	1766
330.887	1788
331.115	1733
331.344	1795
331.572	1750
331.801	1770
332.03	1751
332.258	1767
332.486	1816
332.715	1832
332.943	1810
333.172	1753
333.4	1801
333.629	1860
333.857	1937
334.085	2097
334.314	2365
334.542	2568
334.771	2412
334.999	2094
335.227	1990
335.455	1940
335.684	1874
335.912	1902
336.14	1981
336.369	1938
336.597	1860
336.825	1786
337.053	1850
337.281	1959
337.51	1986
337.738	2130
337.966	1963
338.194	1822
338.422	1782
338.65	1769
338.878	1734
339.106	1725
339.334	1678
339.562	1679
339.79	1717
340.018	1821
340.246	1868
340.474	1863
340.702	1800
340.93	1813
341.158	1787
341.386	1763
341.614	1783
341.842	1739
342.07	1748
342.298	1779
342.526	1755
342.754	1740
342.981	1722
343.209	1726
343.437	1743
343.665	1737
343.893	1763
344.12	1860
344.348	1885
344.576	1848
344.804	1783
345.031	1739
345.259	1740
345.487	1747
345.714	1651
345.942	1636
346.17	1616
346.397	1657
346.625	1693
346.853	1562
347.08	1586
347.308	1592
347.535	1579
347.763	1693
347.99	1650
348.218	1590
348.445	1612
348.673	1620
348.9	1640
349.128	1710
349.355	1738
349.583	1691
349.81	1678
350.037	1558
350.265	1564
350.492	1548
350.72	1563
350.947	1611
351.174	1662
351.402	1592
351.629	1531
351.856	1525
352.083	1485
352.311	1516
352.538	1590
352.765	1598
352.992	1662
353.22	1602
353.447	1560
353.674	1599
353.901	1630
354.128	1619
354.355	1564
354.583	1623
354.81	1666
355.037	1679
355.264	1638
355.491	1638
355.718	1632
355.945	1624
356.172	1588
356.399	1564
356.626	1537
356.853	1601
357.08	1740
357.307	1904
357.534	1923
357.761	1662
357.988	1598
358.215	1516
358.441	1537
358.668	1541
358.895	1574
359.122	1623
359.349	1743
359.576	1769
359.802	1621
360.029	1570
360.256	1511
360.483	1548
360.709	1607
360.936	1660
361.163	1727
361.39	1842
361.616	2006
361.843	1974
362.07	1854
362.296	1643
362.523	1596
362.749	1594
362.976	1647
363.203	1665
363.429	1628
363.656	1544
363.882	1624
364.109	1722
364.335	1890
364.562	1763
364.788	1735
365.015	1639
365.241	1587
365.468	1595
365.694	1658
365.92	1737
366.147	1683
366.373	1570
366.599	1559
366.826	1590
367.052	1547
367.278	1580
367.505	1602
367.731	1614
367.957	1640
368.184	1676
368.41	1754
368.636	1806
368.862	1798
369.089	1802
369.315	1763
369.541	1702
369.767	1667
369.993	1582
370.219	1607
370.445	1655
370.672	1717
370.898	1816
371.124	1807
371.35	1705
371.576	1755
371.802	1826
372.028	1708
372.254	1652
372.48	1685
372.706	1632
372.932	1631
373.158	1637
373.384	1673
373.61	1687
373.835	1835
374.061	1740
374.287	1686
374.513	1734
374.739	1731
374.965	1758
375.191	1724
375.416	1732
375.642	1766
375.868	1797
376.094	1853
376.319	1815
376.545	1666
376.771	1752
376.997	1813
377.222	1813
377.448	1747
377.674	1801
377.899	1740
378.125	1827
378.35	1806
378.576	1658
378.802	1610
379.027	1634
379.253	1662
379.478	1698
379.704	1700
379.929	1659
380.155	1670
380.38	1705
380.606	1698
380.831	1711
381.057	1786
381.282	1793
381.507	1743
381.733	1839
381.958	1908
382.184	1800
382.409	1741
382.634	1790
382.86	1767
383.085	1753
383.31	1767
383.535	1924
383.761	2023
383.986	1996
384.211	1907
384.436	1878
384.662	1966
384.887	2060
385.112	1915
385.337	1937
385.562	1954
385.787	1901
386.013	2007
386.238	1978
386.463	2003
386.688	2104
386.913	2196
387.138	2141
387.363	1997
387.588	1959
387.813	1961
388.038	2008
388.263	2072
388.488	2064
388.713	1877
388.938	1875
389.163	1845
389.387	1910
389.612	1876
389.837	1930
390.062	1970
390.287	1924
390.512	1909
390.736	1928
390.961	1905
391.186	1848
391.411	1831
391.636	1873
391.86	1919
392.085	1933
392.31	1885
392.534	1914
392.759	1992
392.984	1933
393.208	1941
393.433	1990
393.658	2022
393.882	2063
394.107	1993
394.331	1920
394.556	1893
394.78	1950
395.005	1969
395.229	2071
395.454	2209
395.678	2229
395.903	2175
396.127	2007
396.352	2052
396.576	2123
396.801	2108
397.025	2119
397.249	2083
397.474	2096
397.698	2121
397.922	2092
398.147	2213
398.371	2304
398.595	2322
398.82	2206
399.044	2247
399.268	2324
399.492	2489
399.717	2575
399.941	2606
400.165	2611
400.389	2490
400.613	2469
400.837	2713
401.062	3092
401.286	2690
401.51	2384
401.734	2514
401.958	2425
402.182	2261
402.406	2213
402.63	2171
402.854	2165
403.078	2259
403.302	2277
403.526	2294
403.75	2330
403.974	2345
404.198	2326
404.422	2394
404.645	2463
404.869	2501
405.093	2268
405.317	2242
405.541	2274
405.765	2371
405.988	2323
406.212	2355
406.436	2391
406.66	2465
406.883	2479
407.107	2725
407.331	2944
407.555	3212
407.778	2996
408.002	2533
408.226	2422
408.449	2455
408.673	2352
408.896	2370
409.12	2372
409.344	2342
409.567	2269
409.791	2349
410.014	2386
410.238	2423
410.461	2580
410.685	2379
410.908	2236
411.132	2332
411.355	2293
411.578	2225
411.802	2217
412.025	2302
412.249	2186
412.472	2172
412.695	2144
412.919	2204
413.142	2202
413.365	2237
413.589	2248
413.812	2355
414.035	2370
414.258	2246
414.482	2188
414.705	2175
414.928	2203
415.151	2174
415.374	2200
415.597	2221
415.821	2244
416.044	2311
416.267	2320
416.49	2127
416.713	2090
416.936	2170
417.159	2287
417.382	2280
417.605	2123
417.828	2219
418.051	2281
418.274	2200
418.497	2128
418.72	2131
418.943	2086
419.166	2283
419.389	2432
419.611	2234
419.834	2154
420.057	2230
420.28	2153
420.503	2108
420.726	2174
420.948	2198
421.171	2095
421.394	2145
421.617	2228
421.839	2182
422.062	2104
422.285	2087
422.507	2090
422.73	2090
422.953	2058
423.175	2022
423.398	2050
423.621	2054
423.843	2179
424.066	2170
424.288	2200
424.511	2250
424.733	2197
424.956	2005
425.178	2054
425.401	2056
425.623	2059
425.846	2054
426.068	2135
426.291	2155
426.513	2133
426.735	2131
426.958	2303
427.18	2430
427.402	2212
427.625	2275
427.847	2252
428.069	2155
428.292	2066
428.514	2042
428.736	2018
428.958	2046
429.181	2009
429.403	2261
429.625	2837
429.847	2515
430.069	2092
430.292	2316
430.514	2445
430.736	2176
430.958	2321
431.18	2233
431.402	2054
431.624	2035
431.846	2079
432.068	2022
432.29	2028
432.512	2035
432.734	2096
432.956	2134
433.178	2213
433.4	2204
433.622	2196
433.844	2091
434.066	2007
434.287	2054
434.509	2100
434.731	2141
434.953	2300
435.175	2289
435.397	2138
435.618	2133
435.84	2129
436.062	2141
436.284	2126
436.505	2164
436.727	2182
436.949	2079
437.17	1997
437.392	2063
437.614	2085
437.835	2034
438.057	2141
438.278	2178
438.5	2068
438.721	2026
438.943	2033
439.165	2021
439.386	2020
439.608	2047
439.829	1996
440.05	1978
440.272	1983
440.493	2001
440.715	2024
440.936	2128
441.158	2403
441.379	2328
441.6	2226
441.822	2210
442.043	2240
442.264	2111
442.486	2061
442.707	2053
442.928	2030
443.149	2101
443.371	2273
443.592	2256
443.813	2223
444.034	2225
444.255	2202
444.476	2229
444.698	2325
444.919	2244
445.14	2349
445.361	2354
445.582	2441
445.803	2345
446.024	2217
446.245	2311
446.466	2249
446.687	2116
446.908	2136
447.129	2013
447.35	2148
447.571	2087
447.792	2021
448.013	1927
448.234	2051
448.455	2114
448.675	2087
448.896	1957
449.117	1931
449.338	1980
449.559	2096
449.779	2178
450	2397
450.221	2588
450.442	2518
450.662	2163
450.883	1949
451.104	1900
451.324	1938
451.545	1994
451.766	1970
451.986	1887
452.207	1875
452.428	1842
452.648	1791
452.869	1894
453.089	1988
453.31	2011
453.53	2041
453.751	2015
453.971	1830
454.192	1897
454.412	2036
454.633	1971
454.853	1895
455.073	1805
455.294	1756
455.514	1793
455.734	1780
455.955	1823
456.175	1841
456.395	1793
456.616	1873
456.836	1926
457.056	1855
457.276	1869
457.497	1880
457.717	1751
457.937	1763
458.157	1830
458.377	1872
458.598	1840
458.818	1880
459.038	1925
459.258	2050
459.478	2038
459.698	2030
459.918	2032
460.138	2144
460.358	2135
460.578	2202
460.798	2257
461.018	2416
461.238	2294
461.458	2179
461.678	2186
461.898	2140
462.118	2124
462.338	2177
462.558	2182
462.777	2175
462.997	2357
463.217	2399
463.437	2418
463.657	2232
463.876	2196
464.096	2161
464.316	2156
464.536	2312
464.755	2268
464.975	2335
465.195	2224
465.414	2331
465.634	2311
465.854	2143
466.073	2275
466.293	2245
466.512	2006
466.732	1993
466.951	2104
467.171	2117
467.391	2011
467.61	1930
467.829	1964
468.049	2109
468.268	2362
468.488	2233
468.707	2109
468.927	2045
469.146	1981
469.365	1968
469.585	1981
469.804	1950
470.023	1955
470.243	2023
470.462	1951
470.681	1950
470.901	1991
471.12	2010
471.339	1996
471.558	1921
471.777	1887
471.997	1988
472.216	1935
472.435	1895
472.654	1907
472.873	1987
473.092	2119
473.311	2041
473.53	1901
473.749	1909
473.968	1958
474.187	2047
474.406	2137
474.625	2039
474.844	1999
475.063	2030
475.282	2079
475.501	2047
475.72	1983
475.939	2127
476.158	2032
476.377	2057
476.596	2035
476.814	2111
477.033	2108
477.252	2173
477.471	2235
477.69	2164
477.908	2111
478.127	2163
478.346	2381
478.564	2413
478.783	2386
479.002	2438
479.22	2378
479.439	2496
479.658	2838
479.876	2810
480.095	2428
480.313	2335
480.532	2215
480.751	2250
480.969	2317
481.188	2244
481.406	2252
481.624	2182
481.843	2195
482.061	2254
482.28	2319
482.498	2322
482.717	2330
482.935	2220
483.153	2231
483.372	2246
483.59	2230
483.808	2261
484.027	2284
484.245	2424
484.463	2719
484.681	3163
484.9	2428
485.118	2314
485.336	2271
485.554	2411
485.772	2423
485.99	2394
486.209	2448
486.427	2398
486.645	2390
486.863	2344
487.081	2405
487.299	2506
487.517	2437
487.735	2346
487.953	2316
488.171	2320
488.389	2320
488.607	2324
488.825	2515
489.043	2605
489.261	2302
489.479	2444
489.696	2500
489.914	2441
490.132	2362
490.35	2362
490.568	2466
490.786	2372
491.003	2269
491.221	2362
491.439	2406
491.657	2386
491.874	2399
492.092	2419
492.31	2419
492.527	2403
492.745	2377
492.963	2390
493.18	2453
493.398	2645
493.615	2739
493.833	2515
494.05	2453
494.268	2441
494.485	2528
494.703	2441
494.92	2382
495.138	2391
495.355	2413
495.573	2477
495.79	2682
496.008	2737
496.225	2539
496.442	2566
496.66	2595
496.877	2551
497.094	2660
497.312	2655
497.529	2625
497.746	2714
497.963	3118
498.181	3462
498.398	3251
498.615	3162
498.832	3197
499.049	3064
499.267	3109
499.484	3281
499.701	3552
499.918	3640
500.135	3897
500.352	4154
500.569	4098
500.786	4357
501.003	4082
501.22	3732
501.437	3612
501.654	3556
501.871	3488
502.088	3073
502.305	3104
502.522	2975
502.739	2811
502.956	2684
503.172	2688
503.389	2636
503.606	2537
503.823	2599
504.04	2586
504.256	2575
504.473	2622
504.69	2688
504.907	2464
505.123	2407
505.34	2500
505.557	3248
505.773	2670
505.99	2364
506.207	2257
506.423	2177
506.64	2159
506.856	2224
507.073	2413
507.289	2678
507.506	2526
507.722	2247
507.939	2098
508.155	2086
508.372	2155
508.588	2068
508.805	2056
509.021	2012
509.238	1996
509.454	2015
509.67	2004
509.887	2003
510.103	1961
510.319	1990
510.536	2137
510.752	2187
510.968	2150
511.184	2269
511.401	2261
511.617	2002
511.833	1936
512.049	1933
512.265	1965
512.481	1937
512.698	2004
512.914	2172
513.13	2101
513.346	1931
513.562	1926
513.778	1945
513.994	2060
514.21	2132
514.426	2165
514.642	2376
514.858	2231
515.074	2012
515.29	1949
515.506	2039
515.721	2058
515.937	2050
516.153	2339
516.369	2238
516.585	2156
516.801	2008
517.016	2043
517.232	2112
517.448	2138
517.664	2168
517.879	2165
518.095	2250
518.311	2209
518.527	2081
518.742	2002
518.958	2008
519.173	1988
519.389	1968
519.605	1984
519.82	2029
520.036	2043
520.251	1965
520.467	1968
520.682	2117
520.898	2254
521.113	2004
521.329	1913
521.544	2072
521.76	1959
521.975	1892
522.19	1908
522.406	1890
522.621	2202
522.836	2222
523.052	1867
523.267	1868
523.482	1882
523.698	1781
523.913	1742
524.128	1806
524.343	1895
524.559	1922
524.774	1812
524.989	1770
525.204	1805
525.419	1776
525.634	1780
525.849	1765
526.064	1778
526.28	1800
526.495	1722
526.71	1736
526.925	1762
527.14	1733
527.355	1667
527.57	1698
527.785	1732
527.999	1718
528.214	1665
528.429	1641
528.644	1654
528.859	1692
529.074	1717
529.289	1726
529.503	1734
529.718	1727
529.933	1685
530.148	1666
530.363	1640
530.577	1696
530.792	1732
531.007	1744
531.221	1684
531.436	1702
531.651	1769
531.865	1848
532.08	1768
532.295	1675
532.509	1599
532.724	1634
532.938	1691
533.153	1814
533.367	1732
533.582	1724
533.796	1696
534.011	1691
534.225	1705
534.44	1652
534.654	1633
534.868	1622
535.083	1741
535.297	1690
535.511	1694
535.726	1669
535.94	1682
536.154	1656
536.369	1638
536.583	1626
536.797	1598
537.011	1659
537.225	1613
537.44	1594
537.654	1640
537.868	1608
538.082	1530
538.296	1497
538.51	1545
538.724	1570
538.938	1517
539.153	1574
539.367	1588
539.581	1553
539.795	1672
540.009	1625
540.222	1606
540.436	1630
540.65	1745
540.864	1761
541.078	1678
541.292	1578
541.506	1552
541.72	1592
541.934	1594
