Data from WStandard_LampEnergy8_LIBS07252019.E.O._I.C._HRD10591_15-59-35-929.txt Node
Date: Thu Jul 25 15:59:35 EDT 2019
User: cochatt
Spectrometer: HR+D1059
Trigger mode: 1
Integration Time (sec): 1.000000E-1
Scans to average: 1
Electric dark correction enabled: true
Nonlinearity correction enabled: false
Boxcar width: 0
XAxis mode: Wavelengths
Number of Pixels in Spectrum: 2048
>>>>>Begin Spectral Data<<<<<
223.165	-13.69
223.4	-13.69
223.635	-13.69
223.869	-20.69
224.104	-13.69
224.338	-17.69
224.573	-7.69
224.808	-12.69
225.042	-13.69
225.277	-11.69
225.511	-7.69
225.746	7.31
225.98	0.31
226.215	19.31
226.449	14.31
226.683	24.31
226.918	27.31
227.152	26.31
227.387	24.31
227.621	40.31
227.856	44.31
228.09	21.31
228.324	56.31
228.559	59.31
228.793	85.31
229.027	198.31
229.262	203.31
229.496	212.31
229.73	216.31
229.964	225.31
230.199	241.31
230.433	264.31
230.667	275.31
230.901	298.31
231.136	270.31
231.37	256.31
231.604	246.31
231.838	250.31
232.072	252.31
232.306	254.31
232.541	287.31
232.775	313.31
233.009	327.31
233.243	306.31
233.477	294.31
233.711	306.31
233.945	307.31
234.179	296.31
234.413	312.31
234.647	338.31
234.881	329.31
235.115	277.31
235.349	304.31
235.583	316.31
235.817	310.31
236.051	287.31
236.285	304.31
236.519	310.31
236.753	345.31
236.987	356.31
237.221	366.31
237.455	378.31
237.689	378.31
237.922	345.31
238.156	350.31
238.39	340.31
238.624	371.31
238.858	366.31
239.091	395.31
239.325	419.31
239.559	486.31
239.793	508.31
240.027	521.31
240.26	478.31
240.494	404.31
240.728	368.31
240.961	394.31
241.195	374.31
241.429	403.31
241.662	424.31
241.896	383.31
242.13	389.31
242.363	419.31
242.597	462.31
242.83	439.31
243.064	455.31
243.298	476.31
243.531	477.31
243.765	470.31
243.998	471.31
244.232	406.31
244.465	401.31
244.699	423.31
244.932	474.31
245.166	540.31
245.399	501.31
245.633	467.31
245.866	460.31
246.099	466.31
246.333	470.31
246.566	485.31
246.8	520.31
247.033	570.31
247.266	576.31
247.5	554.31
247.733	530.31
247.966	570.31
248.2	629.31
248.433	604.31
248.666	617.31
248.899	663.31
249.133	731.31
249.366	823.31
249.599	687.31
249.832	602.31
250.066	631.31
250.299	633.31
250.532	600.31
250.765	555.31
250.998	585.31
251.231	593.31
251.465	592.31
251.698	577.31
251.931	583.31
252.164	592.31
252.397	634.31
252.63	586.31
252.863	539.31
253.096	550.31
253.329	582.31
253.562	581.31
253.795	602.31
254.028	607.31
254.261	582.31
254.494	580.31
254.727	556.31
254.96	550.31
255.193	627.31
255.426	730.31
255.659	800.31
255.892	818.31
256.124	671.31
256.357	652.31
256.59	703.31
256.823	700.31
257.056	731.31
257.289	839.31
257.521	915.31
257.754	812.31
257.987	767.31
258.22	812.31
258.452	802.31
258.685	707.31
258.918	687.31
259.151	680.31
259.383	649.31
259.616	596.31
259.849	641.31
260.081	698.31
260.314	788.31
260.547	830.31
260.779	838.31
261.012	788.31
261.244	679.31
261.477	668.31
261.71	678.31
261.942	688.31
262.175	662.31
262.407	707.31
262.64	670.31
262.872	648.31
263.105	627.31
263.337	633.31
263.57	628.31
263.802	640.31
264.035	598.31
264.267	586.31
264.499	595.31
264.732	640.31
264.964	653.31
265.197	675.31
265.429	714.31
265.661	800.31
265.894	840.31
266.126	860.31
266.358	794.31
266.591	798.31
266.823	853.31
267.055	779.31
267.287	783.31
267.52	754.31
267.752	752.31
267.984	764.31
268.216	818.31
268.448	808.31
268.681	794.31
268.913	735.31
269.145	704.31
269.377	705.31
269.609	802.31
269.841	882.31
270.073	1027.31
270.306	1097.31
270.538	1113.31
270.77	940.31
271.002	837.31
271.234	782.31
271.466	811.31
271.698	904.31
271.93	1050.31
272.162	1048.31
272.394	940.31
272.626	908.31
272.858	813.31
273.09	710.31
273.322	695.31
273.553	672.31
273.785	702.31
274.017	705.31
274.249	747.31
274.481	750.31
274.713	704.31
274.945	682.31
275.176	716.31
275.408	707.31
275.64	663.31
275.872	668.31
276.104	753.31
276.335	844.31
276.567	938.31
276.799	909.31
277.031	832.31
277.262	814.31
277.494	844.31
277.726	923.31
277.957	866.31
278.189	827.31
278.421	779.31
278.652	753.31
278.884	725.31
279.115	734.31
279.347	770.31
279.579	748.31
279.81	750.31
280.042	814.31
280.273	886.31
280.505	886.31
280.736	894.31
280.968	835.31
281.199	752.31
281.431	726.31
281.662	716.31
281.894	735.31
282.125	738.31
282.356	771.31
282.588	780.31
282.819	787.31
283.051	852.31
283.282	902.31
283.513	828.31
283.745	753.31
283.976	719.31
284.207	733.31
284.439	766.31
284.67	769.31
284.901	786.31
285.132	786.31
285.364	777.31
285.595	783.31
285.826	766.31
286.057	773.31
286.288	770.31
286.52	806.31
286.751	867.31
286.982	886.31
287.213	789.31
287.444	754.31
287.675	752.31
287.906	799.31
288.138	831.31
288.369	807.31
288.6	739.31
288.831	744.31
289.062	740.31
289.293	806.31
289.524	756.31
289.755	816.31
289.986	780.31
290.217	740.31
290.448	750.31
290.679	773.31
290.91	804.31
291.141	800.31
291.371	855.31
291.602	814.31
291.833	816.31
292.064	832.31
292.295	831.31
292.526	839.31
292.757	901.31
292.987	834.31
293.218	814.31
293.449	907.31
293.68	991.31
293.91	1008.31
294.141	934.31
294.372	922.31
294.603	952.31
294.833	961.31
295.064	929.31
295.295	840.31
295.525	816.31
295.756	785.31
295.987	742.31
296.217	764.31
296.448	775.31
296.679	767.31
296.909	778.31
297.14	775.31
297.37	808.31
297.601	851.31
297.831	921.31
298.062	881.31
298.292	816.31
298.523	751.31
298.753	771.31
298.984	807.31
299.214	830.31
299.445	859.31
299.675	859.31
299.905	858.31
300.136	831.31
300.366	805.31
300.597	752.31
300.827	779.31
301.057	849.31
301.288	839.31
301.518	864.31
301.748	867.31
301.979	904.31
302.209	930.31
302.439	988.31
302.669	1046.31
302.9	927.31
303.13	873.31
303.36	864.31
303.59	871.31
303.82	889.31
304.051	852.31
304.281	864.31
304.511	895.31
304.741	931.31
304.971	1033.31
305.201	1100.31
305.431	963.31
305.661	826.31
305.891	776.31
306.121	766.31
306.352	814.31
306.582	839.31
306.812	907.31
307.042	971.31
307.272	950.31
307.502	1033.31
307.731	1068.31
307.961	1099.31
308.191	997.31
308.421	916.31
308.651	868.31
308.881	830.31
309.111	832.31
309.341	805.31
309.571	844.31
309.8	837.31
310.03	839.31
310.26	819.31
310.49	849.31
310.72	842.31
310.949	885.31
311.179	926.31
311.409	872.31
311.639	841.31
311.868	847.31
312.098	838.31
312.328	873.31
312.557	864.31
312.787	898.31
313.017	892.31
313.246	874.31
313.476	875.31
313.706	905.31
313.935	912.31
314.165	905.31
314.394	944.31
314.624	1009.31
314.853	1060.31
315.083	1051.31
315.312	1096.31
315.542	992.31
315.771	920.31
316.001	914.31
316.23	996.31
316.46	947.31
316.689	954.31
316.919	894.31
317.148	849.31
317.377	898.31
317.607	992.31
317.836	1091.31
318.065	1100.31
318.295	1055.31
318.524	981.31
318.753	973.31
318.983	938.31
319.212	939.31
319.441	918.31
319.67	909.31
319.9	943.31
320.129	990.31
320.358	1042.31
320.587	1050.31
320.816	1039.31
321.046	1022.31
321.275	978.31
321.504	1002.31
321.733	1047.31
321.962	1003.31
322.191	958.31
322.42	926.31
322.649	931.31
322.878	929.31
323.108	936.31
323.337	994.31
323.566	988.31
323.795	965.31
324.024	978.31
324.253	946.31
324.482	928.31
324.71	926.31
324.939	859.31
325.168	904.31
325.397	940.31
325.626	944.31
325.855	951.31
326.084	928.31
326.313	930.31
326.542	960.31
326.77	978.31
326.999	956.31
327.228	934.31
327.457	895.31
327.686	886.31
327.914	902.31
328.143	921.31
328.372	921.31
328.6	908.31
328.829	913.31
329.058	885.31
329.287	923.31
329.515	930.31
329.744	966.31
329.972	1047.31
330.201	1048.31
330.43	1014.31
330.658	979.31
330.887	976.31
331.115	1011.31
331.344	1016.31
331.572	980.31
331.801	982.31
332.03	981.31
332.258	995.31
332.486	1008.31
332.715	1012.31
332.943	1033.31
333.172	988.31
333.4	1024.31
333.629	1026.31
333.857	1092.31
334.085	1262.31
334.314	1375.31
334.542	1420.31
334.771	1305.31
334.999	1182.31
335.227	1086.31
335.455	1076.31
335.684	1044.31
335.912	1062.31
336.14	1137.31
336.369	1078.31
336.597	1005.31
336.825	1038.31
337.053	1048.31
337.281	1093.31
337.51	1142.31
337.738	1182.31
337.966	1097.31
338.194	1022.31
338.422	991.31
338.65	980.31
338.878	977.31
339.106	991.31
339.334	939.31
339.562	930.31
339.79	960.31
340.018	1031.31
340.246	1045.31
340.474	1048.31
340.702	1034.31
340.93	1033.31
341.158	1031.31
341.386	987.31
341.614	968.31
341.842	996.31
342.07	994.31
342.298	1007.31
342.526	986.31
342.754	963.31
342.981	982.31
343.209	988.31
343.437	972.31
343.665	975.31
343.893	1012.31
344.12	1062.31
344.348	1048.31
344.576	1027.31
344.804	1008.31
345.031	982.31
345.259	968.31
345.487	951.31
345.714	924.31
345.942	908.31
346.17	952.31
346.397	916.31
346.625	940.31
346.853	902.31
347.08	849.31
347.308	914.31
347.535	925.31
347.763	946.31
347.99	953.31
348.218	931.31
348.445	899.31
348.673	936.31
348.9	960.31
349.128	1013.31
349.355	1002.31
349.583	991.31
349.81	938.31
350.037	880.31
350.265	884.31
350.492	905.31
350.72	909.31
350.947	951.31
351.174	947.31
351.402	887.31
351.629	882.31
351.856	863.31
352.083	865.31
352.311	869.31
352.538	927.31
352.765	965.31
352.992	966.31
353.22	944.31
353.447	904.31
353.674	922.31
353.901	916.31
354.128	930.31
354.355	907.31
354.583	946.31
354.81	984.31
355.037	964.31
355.264	944.31
355.491	907.31
355.718	933.31
355.945	921.31
356.172	901.31
356.399	903.31
356.626	930.31
356.853	946.31
357.08	1044.31
357.307	1107.31
357.534	1091.31
357.761	947.31
357.988	914.31
358.215	882.31
358.441	892.31
358.668	885.31
358.895	913.31
359.122	967.31
359.349	1048.31
359.576	1000.31
359.802	941.31
360.029	883.31
360.256	898.31
360.483	913.31
360.709	940.31
360.936	959.31
361.163	1010.31
361.39	1106.31
361.616	1183.31
361.843	1134.31
362.07	1050.31
362.296	939.31
362.523	929.31
362.749	923.31
362.976	936.31
363.203	955.31
363.429	937.31
363.656	908.31
363.882	959.31
364.109	1081.31
364.335	1088.31
364.562	1049.31
364.788	980.31
365.015	949.31
365.241	936.31
365.468	955.31
365.694	992.31
365.92	1032.31
366.147	976.31
366.373	890.31
366.599	912.31
366.826	921.31
367.052	899.31
367.278	926.31
367.505	960.31
367.731	964.31
367.957	976.31
368.184	999.31
368.41	1066.31
368.636	1093.31
368.862	1067.31
369.089	1081.31
369.315	1006.31
369.541	963.31
369.767	942.31
369.993	942.31
370.219	946.31
370.445	998.31
370.672	1038.31
370.898	1090.31
371.124	1024.31
371.35	997.31
371.576	1038.31
371.802	1041.31
372.028	999.31
372.254	985.31
372.48	944.31
372.706	954.31
372.932	975.31
373.158	975.31
373.384	972.31
373.61	1022.31
373.835	1042.31
374.061	988.31
374.287	979.31
374.513	982.31
374.739	994.31
374.965	975.31
375.191	1028.31
375.416	1032.31
375.642	1056.31
375.868	1106.31
376.094	1101.31
376.319	1068.31
376.545	1019.31
376.771	1030.31
376.997	1090.31
377.222	1049.31
377.448	1056.31
377.674	1043.31
377.899	1063.31
378.125	1104.31
378.35	1066.31
378.576	998.31
378.802	941.31
379.027	978.31
379.253	1001.31
379.478	992.31
379.704	961.31
379.929	1003.31
380.155	1006.31
380.38	999.31
380.606	986.31
380.831	1032.31
381.057	1053.31
381.282	1059.31
381.507	1071.31
381.733	1116.31
381.958	1147.31
382.184	1080.31
382.409	1021.31
382.634	1048.31
382.86	1062.31
383.085	1062.31
383.31	1109.31
383.535	1202.31
383.761	1247.31
383.986	1157.31
384.211	1145.31
384.436	1157.31
384.662	1184.31
384.887	1200.31
385.112	1160.31
385.337	1162.31
385.562	1136.31
385.787	1150.31
386.013	1161.31
386.238	1180.31
386.463	1166.31
386.688	1255.31
386.913	1332.31
387.138	1272.31
387.363	1178.31
387.588	1187.31
387.813	1189.31
388.038	1194.31
388.263	1240.31
388.488	1169.31
388.713	1097.31
388.938	1087.31
389.163	1111.31
389.387	1140.31
389.612	1158.31
389.837	1158.31
390.062	1131.31
390.287	1140.31
390.512	1152.31
390.736	1120.31
390.961	1100.31
391.186	1104.31
391.411	1086.31
391.636	1128.31
391.86	1132.31
392.085	1131.31
392.31	1119.31
392.534	1140.31
392.759	1191.31
392.984	1154.31
393.208	1176.31
393.433	1183.31
393.658	1241.31
393.882	1264.31
394.107	1187.31
394.331	1157.31
394.556	1159.31
394.78	1170.31
395.005	1238.31
395.229	1232.31
395.454	1311.31
395.678	1319.31
395.903	1210.31
396.127	1241.31
396.352	1209.31
396.576	1263.31
396.801	1241.31
397.025	1277.31
397.249	1258.31
397.474	1230.31
397.698	1249.31
397.922	1267.31
398.147	1350.31
398.371	1402.31
398.595	1382.31
398.82	1289.31
399.044	1330.31
399.268	1386.31
399.492	1473.31
399.717	1482.31
399.941	1529.31
400.165	1506.31
400.389	1442.31
400.613	1456.31
400.837	1672.31
401.062	1818.31
401.286	1521.31
401.51	1451.31
401.734	1503.31
401.958	1426.31
402.182	1322.31
402.406	1326.31
402.63	1304.31
402.854	1309.31
403.078	1317.31
403.302	1323.31
403.526	1359.31
403.75	1374.31
403.974	1390.31
404.198	1383.31
404.422	1418.31
404.645	1480.31
404.869	1442.31
405.093	1346.31
405.317	1304.31
405.541	1338.31
405.765	1377.31
405.988	1332.31
406.212	1388.31
406.436	1434.31
406.66	1488.31
406.883	1524.31
407.107	1665.31
407.331	1801.31
407.555	1915.31
407.778	1722.31
408.002	1460.31
408.226	1434.31
408.449	1418.31
408.673	1386.31
408.896	1365.31
409.12	1412.31
409.344	1358.31
409.567	1327.31
409.791	1351.31
410.014	1391.31
410.238	1464.31
410.461	1560.31
410.685	1398.31
410.908	1348.31
411.132	1396.31
411.355	1350.31
411.578	1333.31
411.802	1365.31
412.025	1384.31
412.249	1314.31
412.472	1321.31
412.695	1294.31
412.919	1307.31
413.142	1333.31
413.365	1344.31
413.589	1363.31
413.812	1408.31
414.035	1483.31
414.258	1319.31
414.482	1317.31
414.705	1322.31
414.928	1295.31
415.151	1283.31
415.374	1332.31
415.597	1365.31
415.821	1337.31
416.044	1359.31
416.267	1387.31
416.49	1282.31
416.713	1283.31
416.936	1303.31
417.159	1392.31
417.382	1360.31
417.605	1331.31
417.828	1313.31
418.051	1342.31
418.274	1294.31
418.497	1301.31
418.72	1299.31
418.943	1259.31
419.166	1309.31
419.389	1368.31
419.611	1324.31
419.834	1331.31
420.057	1328.31
420.28	1289.31
420.503	1298.31
420.726	1309.31
420.948	1325.31
421.171	1296.31
421.394	1316.31
421.617	1355.31
421.839	1355.31
422.062	1317.31
422.285	1297.31
422.507	1301.31
422.73	1254.31
422.953	1217.31
423.175	1219.31
423.398	1260.31
423.621	1303.31
423.843	1304.31
424.066	1310.31
424.288	1391.31
424.511	1414.31
424.733	1374.31
424.956	1250.31
425.178	1250.31
425.401	1243.31
425.623	1289.31
425.846	1299.31
426.068	1343.31
426.291	1346.31
426.513	1312.31
426.735	1328.31
426.958	1438.31
427.18	1488.31
427.402	1359.31
427.625	1394.31
427.847	1380.31
428.069	1314.31
428.292	1279.31
428.514	1242.31
428.736	1220.31
428.958	1265.31
429.181	1256.31
429.403	1479.31
429.625	1762.31
429.847	1500.31
430.069	1303.31
430.292	1480.31
430.514	1474.31
430.736	1351.31
430.958	1378.31
431.18	1296.31
431.402	1223.31
431.624	1206.31
431.846	1195.31
432.068	1141.31
432.29	1144.31
432.512	1192.31
432.734	1235.31
432.956	1305.31
433.178	1346.31
433.4	1327.31
433.622	1342.31
433.844	1266.31
434.066	1203.31
434.287	1200.31
434.509	1221.31
434.731	1299.31
434.953	1348.31
435.175	1338.31
435.397	1289.31
435.618	1287.31
435.84	1270.31
436.062	1243.31
436.284	1280.31
436.505	1278.31
436.727	1345.31
436.949	1282.31
437.17	1282.31
437.392	1234.31
437.614	1211.31
437.835	1181.31
438.057	1239.31
438.278	1252.31
438.5	1220.31
438.721	1255.31
438.943	1240.31
439.165	1243.31
439.386	1224.31
439.608	1236.31
439.829	1213.31
440.05	1272.31
440.272	1262.31
440.493	1239.31
440.715	1277.31
440.936	1396.31
441.158	1454.31
441.379	1395.31
441.6	1401.31
441.822	1371.31
442.043	1347.31
442.264	1298.31
442.486	1271.31
442.707	1248.31
442.928	1296.31
443.149	1313.31
443.371	1335.31
443.592	1407.31
443.813	1415.31
444.034	1342.31
444.255	1378.31
444.476	1386.31
444.698	1411.31
444.919	1391.31
445.14	1526.31
445.361	1458.31
445.582	1432.31
445.803	1416.31
446.024	1370.31
446.245	1400.31
446.466	1380.31
446.687	1323.31
446.908	1385.31
447.129	1303.31
447.35	1322.31
447.571	1288.31
447.792	1241.31
448.013	1255.31
448.234	1253.31
448.455	1291.31
448.675	1304.31
448.896	1214.31
449.117	1213.31
449.338	1253.31
449.559	1286.31
449.779	1340.31
450	1428.31
450.221	1491.31
450.442	1436.31
450.662	1295.31
450.883	1207.31
451.104	1188.31
451.324	1206.31
451.545	1226.31
451.766	1182.31
451.986	1157.31
452.207	1156.31
452.428	1115.31
452.648	1106.31
452.869	1127.31
453.089	1145.31
453.31	1131.31
453.53	1152.31
453.751	1128.31
453.971	1067.31
454.192	1130.31
454.412	1168.31
454.633	1150.31
454.853	1102.31
455.073	1082.31
455.294	1077.31
455.514	1110.31
455.734	1096.31
455.955	1090.31
456.175	1103.31
456.395	1062.31
456.616	1091.31
456.836	1100.31
457.056	1104.31
457.276	1075.31
457.497	1076.31
457.717	1029.31
457.937	1018.31
458.157	1088.31
458.377	1047.31
458.598	1032.31
458.818	1057.31
459.038	1133.31
459.258	1169.31
459.478	1172.31
459.698	1122.31
459.918	1192.31
460.138	1215.31
460.358	1230.31
460.578	1268.31
460.798	1302.31
461.018	1347.31
461.238	1298.31
461.458	1296.31
461.678	1290.31
461.898	1236.31
462.118	1224.31
462.338	1253.31
462.558	1283.31
462.777	1258.31
462.997	1331.31
463.217	1352.31
463.437	1370.31
463.657	1291.31
463.876	1262.31
464.096	1268.31
464.316	1291.31
464.536	1324.31
464.755	1292.31
464.975	1337.31
465.195	1278.31
465.414	1328.31
465.634	1311.31
465.854	1305.31
466.073	1390.31
466.293	1374.31
466.512	1202.31
466.732	1209.31
466.951	1283.31
467.171	1250.31
467.391	1195.31
467.61	1210.31
467.829	1223.31
468.049	1338.31
468.268	1450.31
468.488	1331.31
468.707	1295.31
468.927	1247.31
469.146	1225.31
469.365	1240.31
469.585	1239.31
469.804	1204.31
470.023	1291.31
470.243	1302.31
470.462	1256.31
470.681	1247.31
470.901	1224.31
471.12	1257.31
471.339	1242.31
471.558	1210.31
471.777	1189.31
471.997	1214.31
472.216	1176.31
472.435	1163.31
472.654	1131.31
472.873	1170.31
473.092	1252.31
473.311	1193.31
473.53	1132.31
473.749	1126.31
473.968	1177.31
474.187	1227.31
474.406	1224.31
474.625	1222.31
474.844	1231.31
475.063	1190.31
475.282	1218.31
475.501	1198.31
475.72	1224.31
475.939	1312.31
476.158	1269.31
476.377	1233.31
476.596	1244.31
476.814	1222.31
477.033	1214.31
477.252	1324.31
477.471	1350.31
477.69	1283.31
477.908	1304.31
478.127	1352.31
478.346	1411.31
478.564	1426.31
478.783	1440.31
479.002	1444.31
479.22	1440.31
479.439	1429.31
479.658	1565.31
479.876	1540.31
480.095	1405.31
480.313	1320.31
480.532	1298.31
480.751	1291.31
480.969	1298.31
481.188	1269.31
481.406	1278.31
481.624	1229.31
481.843	1251.31
482.061	1293.31
482.28	1340.31
482.498	1339.31
482.717	1323.31
482.935	1313.31
483.153	1363.31
483.372	1369.31
483.59	1364.31
483.808	1399.31
484.027	1348.31
484.245	1439.31
484.463	1750.31
484.681	1888.31
484.9	1482.31
485.118	1394.31
485.336	1361.31
485.554	1430.31
485.772	1421.31
485.99	1370.31
486.209	1379.31
486.427	1406.31
486.645	1429.31
486.863	1434.31
487.081	1482.31
487.299	1489.31
487.517	1435.31
487.735	1490.31
487.953	1519.31
488.171	1518.31
488.389	1479.31
488.607	1443.31
488.825	1576.31
489.043	1557.31
489.261	1402.31
489.479	1501.31
489.696	1484.31
489.914	1478.31
490.132	1475.31
490.35	1457.31
490.568	1540.31
490.786	1506.31
491.003	1486.31
491.221	1583.31
491.439	1580.31
491.657	1634.31
491.874	1587.31
492.092	1704.31
492.31	1737.31
492.527	1700.31
492.745	1652.31
492.963	1612.31
493.18	1629.31
493.398	1735.31
