Data from WStandard_LampEnergy10_LIBS07252019.E.O._I.C._HRD10591_15-54-38-928.txt Node
Date: Thu Jul 25 15:54:38 EDT 2019
User: cochatt
Spectrometer: HR+D1059
Trigger mode: 1
Integration Time (sec): 1.000000E-1
Scans to average: 1
Electric dark correction enabled: true
Nonlinearity correction enabled: false
Boxcar width: 0
XAxis mode: Wavelengths
Number of Pixels in Spectrum: 2048
>>>>>Begin Spectral Data<<<<<
223.165	-13.94
223.4	-13.94
223.635	-13.94
223.869	-24.94
224.104	-14.94
224.338	-20.94
224.573	-8.94
224.808	-13.94
225.042	-13.94
225.277	-4.94
225.511	14.06
225.746	-6.94
225.98	-4.94
226.215	11.06
226.449	15.06
226.683	31.06
226.918	25.06
227.152	32.06
227.387	43.06
227.621	58.06
227.856	41.06
228.09	44.06
228.324	62.06
228.559	54.06
228.793	74.06
229.027	130.06
229.262	138.06
229.496	145.06
229.73	167.06
229.964	176.06
230.199	168.06
230.433	172.06
230.667	186.06
230.901	174.06
231.136	170.06
231.37	182.06
231.604	170.06
231.838	187.06
232.072	185.06
232.306	168.06
232.541	176.06
232.775	201.06
233.009	203.06
233.243	208.06
233.477	188.06
233.711	205.06
233.945	186.06
234.179	195.06
234.413	198.06
234.647	213.06
234.881	205.06
235.115	200.06
235.349	200.06
235.583	199.06
235.817	197.06
236.051	194.06
236.285	202.06
236.519	216.06
236.753	231.06
236.987	228.06
237.221	208.06
237.455	236.06
237.689	226.06
237.922	226.06
238.156	212.06
238.39	207.06
238.624	237.06
238.858	231.06
239.091	244.06
239.325	253.06
239.559	270.06
239.793	280.06
240.027	305.06
240.26	280.06
240.494	242.06
240.728	220.06
240.961	234.06
241.195	220.06
241.429	244.06
241.662	237.06
241.896	251.06
242.13	258.06
242.363	258.06
242.597	270.06
242.83	293.06
243.064	286.06
243.298	292.06
243.531	289.06
243.765	284.06
243.998	288.06
244.232	263.06
244.465	240.06
244.699	256.06
244.932	288.06
245.166	295.06
245.399	285.06
245.633	295.06
245.866	276.06
246.099	298.06
246.333	278.06
246.566	274.06
246.8	305.06
247.033	334.06
247.266	317.06
247.5	315.06
247.733	315.06
247.966	341.06
248.2	359.06
248.433	375.06
248.666	359.06
248.899	396.06
249.133	420.06
249.366	461.06
249.599	403.06
249.832	364.06
250.066	370.06
250.299	368.06
250.532	341.06
250.765	316.06
250.998	341.06
251.231	332.06
251.465	352.06
251.698	333.06
251.931	323.06
252.164	342.06
252.397	378.06
252.63	368.06
252.863	330.06
253.096	320.06
253.329	321.06
253.562	325.06
253.795	356.06
254.028	357.06
254.261	326.06
254.494	330.06
254.727	341.06
254.96	349.06
255.193	359.06
255.426	408.06
255.659	421.06
255.892	419.06
256.124	395.06
256.357	382.06
256.59	392.06
256.823	408.06
257.056	410.06
257.289	455.06
257.521	491.06
257.754	451.06
257.987	423.06
258.22	491.06
258.452	450.06
258.685	393.06
258.918	380.06
259.151	394.06
259.383	365.06
259.616	338.06
259.849	348.06
260.081	405.06
260.314	448.06
260.547	461.06
260.779	450.06
261.012	437.06
261.244	391.06
261.477	415.06
261.71	398.06
261.942	394.06
262.175	380.06
262.407	402.06
262.64	382.06
262.872	369.06
263.105	357.06
263.337	382.06
263.57	377.06
263.802	353.06
264.035	357.06
264.267	338.06
264.499	330.06
264.732	369.06
264.964	404.06
265.197	402.06
265.429	409.06
265.661	443.06
265.894	471.06
266.126	499.06
266.358	452.06
266.591	474.06
266.823	492.06
267.055	455.06
267.287	437.06
267.52	429.06
267.752	437.06
267.984	463.06
268.216	464.06
268.448	466.06
268.681	461.06
268.913	425.06
269.145	402.06
269.377	412.06
269.609	456.06
269.841	538.06
270.073	576.06
270.306	619.06
270.538	614.06
270.77	532.06
271.002	478.06
271.234	462.06
271.466	468.06
271.698	517.06
271.93	605.06
272.162	596.06
272.394	528.06
272.626	490.06
272.858	451.06
273.09	421.06
273.322	377.06
273.553	388.06
273.785	411.06
274.017	400.06
274.249	426.06
274.481	436.06
274.713	418.06
274.945	409.06
275.176	398.06
275.408	412.06
275.64	401.06
275.872	412.06
276.104	434.06
276.335	483.06
276.567	530.06
276.799	516.06
277.031	467.06
277.262	473.06
277.494	487.06
277.726	511.06
277.957	524.06
278.189	466.06
278.421	433.06
278.652	428.06
278.884	416.06
279.115	437.06
279.347	408.06
279.579	396.06
279.81	441.06
280.042	470.06
280.273	502.06
280.505	501.06
280.736	507.06
280.968	482.06
281.199	424.06
281.431	418.06
281.662	439.06
281.894	414.06
282.125	422.06
282.356	470.06
282.588	454.06
282.819	424.06
283.051	489.06
283.282	531.06
283.513	493.06
283.745	460.06
283.976	395.06
284.207	418.06
284.439	438.06
284.67	435.06
284.901	432.06
285.132	449.06
285.364	432.06
285.595	454.06
285.826	446.06
286.057	459.06
286.288	437.06
286.52	462.06
286.751	493.06
286.982	483.06
287.213	472.06
287.444	444.06
287.675	432.06
287.906	478.06
288.138	490.06
288.369	469.06
288.6	449.06
288.831	416.06
289.062	457.06
289.293	441.06
289.524	454.06
289.755	467.06
289.986	473.06
290.217	448.06
290.448	445.06
290.679	448.06
290.91	450.06
291.141	479.06
291.371	492.06
291.602	506.06
291.833	475.06
292.064	474.06
292.295	497.06
292.526	492.06
292.757	499.06
292.987	476.06
293.218	496.06
293.449	493.06
293.68	574.06
293.91	565.06
294.141	534.06
294.372	517.06
294.603	559.06
294.833	544.06
295.064	530.06
295.295	496.06
295.525	468.06
295.756	430.06
295.987	436.06
296.217	476.06
296.448	437.06
296.679	459.06
296.909	466.06
297.14	446.06
297.37	488.06
297.601	475.06
297.831	518.06
298.062	518.06
298.292	489.06
298.523	470.06
298.753	469.06
298.984	480.06
299.214	459.06
299.445	481.06
299.675	485.06
299.905	516.06
300.136	476.06
300.366	467.06
300.597	466.06
300.827	462.06
301.057	474.06
301.288	504.06
301.518	499.06
301.748	520.06
301.979	553.06
302.209	557.06
302.439	587.06
302.669	584.06
302.9	563.06
303.13	482.06
303.36	512.06
303.59	532.06
303.82	520.06
304.051	516.06
304.281	495.06
304.511	536.06
304.741	568.06
304.971	627.06
305.201	620.06
305.431	548.06
305.661	471.06
305.891	443.06
306.121	438.06
306.352	475.06
306.582	530.06
306.812	526.06
307.042	560.06
307.272	560.06
307.502	603.06
307.731	629.06
307.961	603.06
308.191	580.06
308.421	517.06
308.651	533.06
308.881	477.06
309.111	471.06
309.341	491.06
309.571	462.06
309.8	504.06
310.03	491.06
310.26	486.06
310.49	475.06
310.72	482.06
310.949	533.06
311.179	545.06
311.409	501.06
311.639	498.06
311.868	506.06
312.098	499.06
312.328	501.06
312.557	498.06
312.787	508.06
313.017	502.06
313.246	534.06
313.476	524.06
313.706	510.06
313.935	516.06
314.165	532.06
314.394	554.06
314.624	569.06
314.853	618.06
315.083	628.06
315.312	619.06
315.542	594.06
315.771	537.06
316.001	565.06
316.23	564.06
316.46	569.06
316.689	534.06
316.919	530.06
317.148	520.06
317.377	542.06
317.607	606.06
317.836	633.06
318.065	639.06
318.295	594.06
318.524	588.06
318.753	560.06
318.983	556.06
319.212	544.06
319.441	565.06
319.67	553.06
319.9	574.06
320.129	579.06
320.358	632.06
320.587	620.06
320.816	608.06
321.046	595.06
321.275	572.06
321.504	597.06
321.733	611.06
321.962	581.06
322.191	554.06
322.42	544.06
322.649	548.06
322.878	535.06
323.108	570.06
323.337	584.06
323.566	569.06
323.795	557.06
324.024	543.06
324.253	552.06
324.482	561.06
324.71	547.06
324.939	508.06
325.168	548.06
325.397	580.06
325.626	555.06
325.855	566.06
326.084	556.06
326.313	572.06
326.542	563.06
326.77	587.06
326.999	575.06
327.228	556.06
327.457	519.06
327.686	540.06
327.914	560.06
328.143	563.06
328.372	553.06
328.6	555.06
328.829	580.06
329.058	533.06
329.287	562.06
329.515	554.06
329.744	592.06
329.972	592.06
330.201	635.06
330.43	600.06
330.658	572.06
330.887	581.06
331.115	605.06
331.344	601.06
331.572	598.06
331.801	599.06
332.03	560.06
332.258	584.06
332.486	599.06
332.715	587.06
332.943	597.06
333.172	594.06
333.4	600.06
333.629	603.06
333.857	640.06
334.085	721.06
334.314	810.06
334.542	837.06
334.771	765.06
334.999	688.06
335.227	644.06
335.455	634.06
335.684	626.06
335.912	644.06
336.14	660.06
336.369	626.06
336.597	610.06
336.825	590.06
337.053	625.06
337.281	659.06
337.51	688.06
337.738	679.06
337.966	656.06
338.194	610.06
338.422	588.06
338.65	577.06
338.878	578.06
339.106	557.06
339.334	572.06
339.562	566.06
339.79	584.06
340.018	608.06
340.246	632.06
340.474	615.06
340.702	647.06
340.93	638.06
341.158	613.06
341.386	599.06
341.614	617.06
341.842	588.06
342.07	594.06
342.298	598.06
342.526	582.06
342.754	573.06
342.981	590.06
343.209	584.06
343.437	579.06
343.665	600.06
343.893	619.06
344.12	644.06
344.348	627.06
344.576	612.06
344.804	584.06
345.031	594.06
345.259	589.06
345.487	566.06
345.714	567.06
345.942	534.06
346.17	582.06
346.397	561.06
346.625	553.06
346.853	543.06
347.08	547.06
347.308	545.06
347.535	573.06
347.763	565.06
347.99	536.06
348.218	544.06
348.445	533.06
348.673	581.06
348.9	573.06
349.128	601.06
349.355	613.06
349.583	604.06
349.81	564.06
350.037	539.06
350.265	538.06
350.492	533.06
350.72	556.06
350.947	571.06
351.174	560.06
351.402	539.06
351.629	549.06
351.856	515.06
352.083	543.06
352.311	532.06
352.538	555.06
352.765	547.06
352.992	586.06
353.22	533.06
353.447	562.06
353.674	549.06
353.901	546.06
354.128	537.06
354.355	565.06
354.583	566.06
354.81	569.06
355.037	578.06
355.264	595.06
355.491	574.06
355.718	547.06
355.945	556.06
356.172	572.06
356.399	564.06
356.626	544.06
356.853	580.06
357.08	640.06
357.307	685.06
357.534	649.06
357.761	563.06
357.988	556.06
358.215	548.06
358.441	520.06
358.668	542.06
358.895	567.06
359.122	599.06
359.349	642.06
359.576	616.06
359.802	577.06
360.029	553.06
360.256	543.06
360.483	546.06
360.709	581.06
360.936	580.06
361.163	635.06
361.39	668.06
361.616	724.06
361.843	709.06
362.07	634.06
362.296	539.06
362.523	546.06
362.749	564.06
362.976	599.06
363.203	587.06
363.429	563.06
363.656	551.06
363.882	600.06
364.109	663.06
364.335	670.06
364.562	624.06
364.788	592.06
365.015	584.06
365.241	558.06
365.468	602.06
365.694	609.06
365.92	614.06
366.147	585.06
366.373	578.06
366.599	558.06
366.826	572.06
367.052	570.06
367.278	572.06
367.505	586.06
367.731	594.06
367.957	600.06
368.184	629.06
368.41	672.06
368.636	674.06
368.862	684.06
369.089	688.06
369.315	624.06
369.541	621.06
369.767	606.06
369.993	592.06
370.219	576.06
370.445	606.06
370.672	689.06
370.898	684.06
371.124	642.06
371.35	639.06
371.576	634.06
371.802	666.06
372.028	625.06
372.254	618.06
372.48	580.06
372.706	610.06
372.932	613.06
373.158	604.06
373.384	628.06
373.61	617.06
373.835	661.06
374.061	648.06
374.287	633.06
374.513	625.06
374.739	617.06
374.965	642.06
375.191	642.06
375.416	645.06
375.642	640.06
375.868	705.06
376.094	704.06
376.319	684.06
376.545	642.06
376.771	702.06
376.997	681.06
377.222	668.06
377.448	661.06
377.674	692.06
377.899	666.06
378.125	710.06
378.35	713.06
378.576	650.06
378.802	612.06
379.027	654.06
379.253	645.06
379.478	632.06
379.704	631.06
379.929	659.06
380.155	634.06
380.38	633.06
380.606	647.06
380.831	655.06
381.057	693.06
381.282	688.06
381.507	695.06
381.733	733.06
381.958	729.06
382.184	677.06
382.409	674.06
382.634	674.06
382.86	680.06
383.085	698.06
383.31	719.06
383.535	763.06
383.761	809.06
383.986	766.06
384.211	717.06
384.436	738.06
384.662	743.06
384.887	772.06
385.112	729.06
385.337	734.06
385.562	717.06
385.787	742.06
386.013	747.06
386.238	758.06
386.463	780.06
386.688	822.06
386.913	842.06
387.138	799.06
387.363	788.06
387.588	763.06
387.813	770.06
388.038	776.06
388.263	794.06
388.488	742.06
388.713	701.06
388.938	737.06
389.163	724.06
389.387	738.06
389.612	758.06
389.837	733.06
390.062	752.06
390.287	746.06
390.512	735.06
390.736	745.06
390.961	714.06
391.186	717.06
391.411	728.06
391.636	736.06
391.86	737.06
392.085	740.06
392.31	741.06
392.534	762.06
392.759	746.06
392.984	782.06
393.208	770.06
393.433	771.06
393.658	837.06
393.882	803.06
394.107	787.06
394.331	770.06
394.556	778.06
394.78	804.06
395.005	805.06
395.229	813.06
395.454	893.06
395.678	857.06
395.903	814.06
396.127	808.06
396.352	820.06
396.576	844.06
396.801	850.06
397.025	812.06
397.249	836.06
397.474	818.06
397.698	816.06
397.922	853.06
398.147	889.06
398.371	896.06
398.595	900.06
398.82	868.06
399.044	874.06
399.268	910.06
399.492	969.06
399.717	964.06
399.941	1017.06
400.165	986.06
400.389	973.06
400.613	991.06
400.837	1124.06
401.062	1157.06
401.286	1006.06
401.51	994.06
401.734	977.06
401.958	939.06
402.182	884.06
402.406	855.06
402.63	853.06
402.854	868.06
403.078	881.06
403.302	923.06
403.526	918.06
403.75	908.06
403.974	938.06
404.198	924.06
404.422	965.06
404.645	998.06
404.869	982.06
405.093	921.06
405.317	904.06
405.541	922.06
405.765	925.06
405.988	892.06
406.212	936.06
406.436	936.06
406.66	1010.06
406.883	1015.06
407.107	1111.06
407.331	1241.06
407.555	1269.06
407.778	1139.06
408.002	973.06
408.226	976.06
408.449	960.06
408.673	955.06
408.896	942.06
409.12	987.06
409.344	926.06
409.567	928.06
409.791	960.06
410.014	965.06
410.238	1061.06
410.461	1029.06
410.685	973.06
410.908	931.06
411.132	926.06
411.355	922.06
411.578	929.06
411.802	932.06
412.025	955.06
412.249	916.06
412.472	930.06
412.695	935.06
412.919	931.06
413.142	894.06
413.365	902.06
413.589	928.06
413.812	993.06
414.035	962.06
414.258	933.06
414.482	890.06
414.705	920.06
414.928	892.06
415.151	897.06
415.374	943.06
415.597	930.06
415.821	934.06
416.044	969.06
416.267	940.06
416.49	921.06
416.713	911.06
416.936	957.06
417.159	993.06
417.382	985.06
417.605	948.06
417.828	950.06
418.051	921.06
418.274	926.06
418.497	924.06
418.72	948.06
418.943	899.06
419.166	958.06
419.389	983.06
419.611	936.06
419.834	925.06
420.057	921.06
420.28	915.06
420.503	944.06
420.726	982.06
420.948	943.06
421.171	927.06
421.394	913.06
421.617	964.06
421.839	1009.06
422.062	986.06
422.285	936.06
422.507	918.06
422.73	918.06
422.953	874.06
423.175	858.06
423.398	909.06
423.621	932.06
423.843	929.06
424.066	986.06
424.288	1026.06
424.511	1046.06
424.733	1028.06
424.956	921.06
425.178	924.06
425.401	926.06
425.623	950.06
425.846	906.06
426.068	948.06
426.291	980.06
426.513	967.06
426.735	978.06
426.958	1027.06
427.18	1044.06
427.402	996.06
427.625	1024.06
427.847	966.06
428.069	937.06
428.292	907.06
428.514	887.06
428.736	893.06
428.958	916.06
429.181	929.06
429.403	1052.06
429.625	1236.06
429.847	1036.06
430.069	950.06
430.292	1058.06
430.514	1028.06
430.736	957.06
430.958	974.06
431.18	940.06
431.402	871.06
431.624	858.06
431.846	780.06
432.068	752.06
432.29	760.06
432.512	791.06
432.734	912.06
432.956	913.06
433.178	971.06
433.4	955.06
433.622	965.06
433.844	897.06
434.066	824.06
434.287	789.06
434.509	776.06
434.731	824.06
434.953	896.06
435.175	913.06
435.397	905.06
435.618	898.06
435.84	844.06
436.062	828.06
436.284	874.06
436.505	919.06
436.727	935.06
436.949	924.06
437.17	904.06
437.392	891.06
437.614	848.06
437.835	828.06
438.057	817.06
438.278	865.06
438.5	841.06
438.721	917.06
438.943	929.06
439.165	941.06
439.386	950.06
439.608	936.06
439.829	946.06
440.05	971.06
440.272	971.06
440.493	952.06
440.715	967.06
440.936	1034.06
441.158	1052.06
441.379	1041.06
441.6	1051.06
441.822	1009.06
442.043	1010.06
442.264	981.06
442.486	941.06
442.707	952.06
442.928	965.06
443.149	1011.06
443.371	986.06
443.592	1020.06
443.813	964.06
444.034	1000.06
444.255	992.06
444.476	1027.06
444.698	1032.06
444.919	1042.06
445.14	1157.06
445.361	1113.06
445.582	1077.06
445.803	1059.06
446.024	1001.06
446.245	1061.06
446.466	1080.06
446.687	1028.06
446.908	1042.06
447.129	986.06
447.35	1015.06
447.571	987.06
447.792	986.06
448.013	945.06
448.234	981.06
448.455	997.06
448.675	972.06
448.896	922.06
449.117	891.06
449.338	903.06
449.559	957.06
449.779	973.06
450	1028.06
450.221	1034.06
450.442	1028.06
450.662	946.06
450.883	886.06
451.104	881.06
451.324	875.06
451.545	895.06
451.766	867.06
451.986	851.06
452.207	807.06
452.428	786.06
452.648	789.06
452.869	775.06
453.089	766.06
453.31	800.06
453.53	759.06
453.751	718.06
453.971	688.06
454.192	698.06
454.412	772.06
454.633	800.06
454.853	775.06
455.073	780.06
455.294	778.06
455.514	773.06
455.734	764.06
455.955	749.06
456.175	752.06
456.395	726.06
456.616	754.06
456.836	746.06
457.056	747.06
457.276	736.06
457.497	728.06
457.717	691.06
457.937	677.06
458.157	711.06
458.377	701.06
458.598	687.06
458.818	673.06
459.038	692.06
459.258	702.06
459.478	710.06
459.698	716.06
459.918	755.06
460.138	797.06
460.358	805.06
460.578	828.06
460.798	875.06
461.018	890.06
461.238	866.06
461.458	873.06
461.678	830.06
461.898	832.06
462.118	800.06
462.338	848.06
462.558	857.06
462.777	811.06
462.997	870.06
463.217	858.06
463.437	882.06
463.657	857.06
463.876	851.06
464.096	827.06
464.316	850.06
464.536	845.06
464.755	871.06
464.975	857.06
465.195	860.06
465.414	875.06
465.634	881.06
465.854	876.06
466.073	954.06
466.293	926.06
466.512	864.06
466.732	873.06
466.951	898.06
467.171	904.06
467.391	890.06
467.61	876.06
467.829	892.06
468.049	992.06
468.268	1026.06
468.488	953.06
468.707	928.06
468.927	920.06
469.146	893.06
469.365	912.06
469.585	938.06
469.804	903.06
470.023	968.06
470.243	929.06
470.462	939.06
470.681	925.06
470.901	908.06
471.12	926.06
471.339	942.06
471.558	894.06
471.777	916.06
471.997	907.06
472.216	852.06
472.435	768.06
472.654	757.06
472.873	797.06
473.092	860.06
473.311	842.06
473.53	831.06
473.749	819.06
473.968	837.06
474.187	844.06
474.406	854.06
474.625	861.06
474.844	871.06
475.063	856.06
475.282	870.06
475.501	849.06
475.72	829.06
475.939	884.06
476.158	860.06
476.377	881.06
476.596	842.06
476.814	828.06
477.033	826.06
477.252	849.06
477.471	890.06
477.69	899.06
477.908	920.06
478.127	980.06
478.346	1000.06
478.564	1002.06
478.783	1009.06
479.002	1024.06
479.22	1026.06
479.439	1019.06
479.658	1049.06
479.876	982.06
480.095	894.06
480.313	863.06
480.532	883.06
480.751	869.06
480.969	834.06
481.188	789.06
481.406	773.06
481.624	754.06
481.843	790.06
482.061	832.06
482.28	866.06
482.498	921.06
482.717	872.06
482.935	884.06
483.153	992.06
483.372	1030.06
483.59	1032.06
483.808	973.06
484.027	947.06
484.245	983.06
484.463	1195.06
484.681	1320.06
484.9	1008.06
485.118	967.06
485.336	926.06
485.554	908.06
485.772	893.06
485.99	882.06
486.209	906.06
486.427	887.06
486.645	935.06
486.863	977.06
487.081	1035.06
487.299	993.06
487.517	1036.06
487.735	1117.06
487.953	1188.06
488.171	1153.06
488.389	1143.06
488.607	1087.06
488.825	1141.06
489.043	1047.06
489.261	982.06
489.479	1045.06
489.696	1045.06
489.914	1055.06
490.132	1044.06
490.35	1084.06
490.568	1202.06
490.786	1175.06
491.003	1205.06
491.221	1281.06
491.439	1261.06
491.657	1335.06
491.874	1373.06
492.092	1433.06
492.31	1488.06
492.527	1483.06
492.745	1360.06
492.963	1312.06
493.18	1345.06
493.398	1353.06
493.615	1324.06
493.833	1286.06
494.05	1228.06
494.268	1228.06
494.485	1243.06
494.703	1224.06
494.92	1242.06
495.138	1211.06
495.355	1222.06
495.573	1253.06
495.79	1292.06
496.008	1282.06
496.225	1232.06
496.442	1196.06
496.66	1240.06
496.877	1190.06
497.094	1224.06
497.312	1218.06
497.529	1195.06
497.746	1195.06
497.963	1284.06
498.181	1299.06
498.398	1296.06
498.615	1218.06
498.832	1163.06
499.049	1113.06
499.267	1177.06
499.484	1238.06
499.701	1336.06
499.918	1356.06
500.135	1471.06
500.352	1559.06
