Data from WStandard_LampEnergy5.5LIBS07252019.E.O._I.C._HRD10591_16-08-27-920.txt Node
Date: Thu Jul 25 16:08:27 EDT 2019
User: cochatt
Spectrometer: HR+D1059
Trigger mode: 1
Integration Time (sec): 1.000000E-1
Scans to average: 1
Electric dark correction enabled: true
Nonlinearity correction enabled: false
Boxcar width: 0
XAxis mode: Wavelengths
Number of Pixels in Spectrum: 2048
>>>>>Begin Spectral Data<<<<<
223.165	-10.62
223.4	-10.62
223.635	-10.62
223.869	-19.62
224.104	-24.62
224.338	-7.62
224.573	-17.62
224.808	-4.62
225.042	-0.62
225.277	-9.62
225.511	-2.62
225.746	-3.62
225.98	4.38
226.215	-0.62
226.449	11.38
226.683	20.38
226.918	31.38
227.152	34.38
227.387	27.38
227.621	33.38
227.856	49.38
228.09	39.38
228.324	53.38
228.559	65.38
228.793	122.38
229.027	351.38
229.262	347.38
229.496	357.38
229.73	377.38
229.964	425.38
230.199	431.38
230.433	431.38
230.667	480.38
230.901	515.38
231.136	477.38
231.37	435.38
231.604	442.38
231.838	445.38
232.072	461.38
232.306	427.38
232.541	465.38
232.775	534.38
233.009	565.38
233.243	561.38
233.477	507.38
233.711	519.38
233.945	543.38
234.179	529.38
234.413	564.38
234.647	612.38
234.881	581.38
235.115	535.38
235.349	520.38
235.583	543.38
235.817	533.38
236.051	511.38
236.285	521.38
236.519	564.38
236.753	650.38
236.987	659.38
237.221	639.38
237.455	711.38
237.689	671.38
237.922	660.38
238.156	628.38
238.39	652.38
238.624	664.38
238.858	713.38
239.091	725.38
239.325	744.38
239.559	892.38
239.793	905.38
240.027	980.38
240.26	969.38
240.494	771.38
240.728	687.38
240.961	715.38
241.195	700.38
241.429	763.38
241.662	771.38
241.896	710.38
242.13	722.38
242.363	831.38
242.597	885.38
242.83	867.38
243.064	829.38
243.298	921.38
243.531	883.38
243.765	856.38
243.998	909.38
244.232	795.38
244.465	707.38
244.699	768.38
244.932	857.38
245.166	1035.38
245.399	961.38
245.633	833.38
245.866	857.38
246.099	889.38
246.333	915.38
246.566	908.38
246.8	1037.38
247.033	1130.38
247.266	1036.38
247.5	1012.38
247.733	1017.38
247.966	1077.38
248.2	1215.38
248.433	1109.38
248.666	1149.38
248.899	1286.38
249.133	1475.38
249.366	1669.38
249.599	1332.38
249.832	1193.38
250.066	1241.38
250.299	1220.38
250.532	1153.38
250.765	1022.38
250.998	1119.38
251.231	1180.38
251.465	1183.38
251.698	1129.38
251.931	1129.38
252.164	1161.38
252.397	1215.38
252.63	1217.38
252.863	1034.38
253.096	1059.38
253.329	1098.38
253.562	1099.38
253.795	1220.38
254.028	1235.38
254.261	1151.38
254.494	1109.38
254.727	1051.38
254.96	1076.38
255.193	1177.38
255.426	1351.38
255.659	1555.38
255.892	1607.38
256.124	1340.38
256.357	1253.38
256.59	1365.38
256.823	1375.38
257.056	1355.38
257.289	1632.38
257.521	1843.38
257.754	1611.38
257.987	1496.38
258.22	1734.38
258.452	1651.38
258.685	1327.38
258.918	1309.38
259.151	1373.38
259.383	1258.38
259.616	1123.38
259.849	1179.38
260.081	1350.38
260.314	1467.38
260.547	1624.38
260.779	1649.38
261.012	1559.38
261.244	1370.38
261.477	1304.38
261.71	1319.38
261.942	1345.38
262.175	1315.38
262.407	1395.38
262.64	1306.38
262.872	1239.38
263.105	1191.38
263.337	1200.38
263.57	1225.38
263.802	1223.38
264.035	1165.38
264.267	1087.38
264.499	1065.38
264.732	1111.38
264.964	1228.38
265.197	1260.38
265.429	1364.38
265.661	1481.38
265.894	1597.38
266.126	1670.38
266.358	1514.38
266.591	1553.38
266.823	1716.38
267.055	1505.38
267.287	1533.38
267.52	1507.38
267.752	1446.38
267.984	1440.38
268.216	1549.38
268.448	1549.38
268.681	1574.38
268.913	1434.38
269.145	1385.38
269.377	1307.38
269.609	1414.38
269.841	1645.38
270.073	1888.38
270.306	2133.38
270.538	2274.38
270.77	1960.38
271.002	1661.38
271.234	1574.38
271.466	1563.38
271.698	1714.38
271.93	2115.38
272.162	2084.38
272.394	1855.38
272.626	1820.38
272.858	1583.38
273.09	1375.38
273.322	1386.38
273.553	1312.38
273.785	1348.38
274.017	1372.38
274.249	1490.38
274.481	1493.38
274.713	1387.38
274.945	1317.38
275.176	1377.38
275.408	1339.38
275.64	1331.38
275.872	1281.38
276.104	1395.38
276.335	1563.38
276.567	1786.38
276.799	1807.38
277.031	1628.38
277.262	1506.38
277.494	1578.38
277.726	1785.38
277.957	1739.38
278.189	1583.38
278.421	1479.38
278.652	1422.38
278.884	1380.38
279.115	1366.38
279.347	1427.38
279.579	1397.38
279.81	1361.38
280.042	1519.38
280.273	1689.38
280.505	1657.38
280.736	1685.38
280.968	1624.38
281.199	1413.38
281.431	1357.38
281.662	1354.38
281.894	1396.38
282.125	1414.38
282.356	1460.38
282.588	1483.38
282.819	1473.38
283.051	1545.38
283.282	1732.38
283.513	1685.38
283.745	1455.38
283.976	1332.38
284.207	1323.38
284.439	1402.38
284.67	1398.38
284.901	1431.38
285.132	1475.38
285.364	1471.38
285.595	1439.38
285.826	1414.38
286.057	1398.38
286.288	1418.38
286.52	1503.38
286.751	1605.38
286.982	1604.38
287.213	1510.38
287.444	1400.38
287.675	1372.38
287.906	1448.38
288.138	1514.38
288.369	1540.38
288.6	1431.38
288.831	1392.38
289.062	1439.38
289.293	1408.38
289.524	1432.38
289.755	1503.38
289.986	1511.38
290.217	1352.38
290.448	1428.38
290.679	1427.38
290.91	1451.38
291.141	1507.38
291.371	1542.38
291.602	1556.38
291.833	1503.38
292.064	1587.38
292.295	1503.38
292.526	1562.38
292.757	1685.38
292.987	1570.38
293.218	1439.38
293.449	1563.38
293.68	1817.38
293.91	1958.38
294.141	1779.38
294.372	1685.38
294.603	1711.38
294.833	1828.38
295.064	1697.38
295.295	1562.38
295.525	1526.38
295.756	1406.38
295.987	1323.38
296.217	1351.38
296.448	1410.38
296.679	1445.38
296.909	1418.38
297.14	1399.38
297.37	1401.38
297.601	1522.38
297.831	1615.38
298.062	1659.38
298.292	1503.38
298.523	1450.38
298.753	1418.38
298.984	1453.38
299.214	1445.38
299.445	1475.38
299.675	1561.38
299.905	1500.38
300.136	1446.38
300.366	1472.38
300.597	1412.38
300.827	1379.38
301.057	1445.38
301.288	1555.38
301.518	1523.38
301.748	1552.38
301.979	1656.38
302.209	1658.38
302.439	1745.38
302.669	1878.38
302.9	1752.38
303.13	1571.38
303.36	1537.38
303.59	1572.38
303.82	1567.38
304.051	1511.38
304.281	1565.38
304.511	1547.38
304.741	1643.38
304.971	1793.38
305.201	1997.38
305.431	1840.38
305.661	1539.38
305.891	1370.38
306.121	1346.38
306.352	1440.38
306.582	1467.38
306.812	1590.38
307.042	1696.38
307.272	1727.38
307.502	1757.38
307.731	1899.38
307.961	2032.38
308.191	1871.38
308.421	1627.38
308.651	1497.38
308.881	1466.38
309.111	1483.38
309.341	1481.38
309.571	1491.38
309.8	1507.38
310.03	1478.38
310.26	1481.38
310.49	1493.38
310.72	1498.38
310.949	1569.38
311.179	1607.38
311.409	1546.38
311.639	1540.38
311.868	1537.38
312.098	1524.38
312.328	1520.38
312.557	1496.38
312.787	1496.38
313.017	1561.38
313.246	1538.38
313.476	1558.38
313.706	1579.38
313.935	1562.38
314.165	1576.38
314.394	1652.38
314.624	1701.38
314.853	1803.38
315.083	1916.38
315.312	1912.38
315.542	1844.38
315.771	1617.38
316.001	1574.38
316.23	1696.38
316.46	1721.38
316.689	1667.38
316.919	1585.38
317.148	1513.38
317.377	1539.38
317.607	1671.38
317.836	1830.38
318.065	1919.38
318.295	1825.38
318.524	1772.38
318.753	1682.38
318.983	1691.38
319.212	1665.38
319.441	1611.38
319.67	1606.38
319.9	1597.38
320.129	1704.38
320.358	1760.38
320.587	1808.38
320.816	1812.38
321.046	1764.38
321.275	1674.38
321.504	1676.38
321.733	1849.38
321.962	1808.38
322.191	1656.38
322.42	1620.38
322.649	1577.38
322.878	1598.38
323.108	1595.38
323.337	1661.38
323.566	1709.38
323.795	1740.38
324.024	1732.38
324.253	1657.38
324.482	1676.38
324.71	1622.38
324.939	1563.38
325.168	1573.38
325.397	1595.38
325.626	1679.38
325.855	1681.38
326.084	1626.38
326.313	1634.38
326.542	1637.38
326.77	1718.38
326.999	1697.38
327.228	1633.38
327.457	1535.38
327.686	1508.38
327.914	1562.38
328.143	1664.38
328.372	1624.38
328.6	1580.38
328.829	1642.38
329.058	1579.38
329.287	1589.38
329.515	1634.38
329.744	1684.38
329.972	1743.38
330.201	1823.38
330.43	1771.38
330.658	1707.38
330.887	1696.38
331.115	1703.38
331.344	1710.38
331.572	1692.38
331.801	1652.38
332.03	1700.38
332.258	1725.38
332.486	1737.38
332.715	1765.38
332.943	1760.38
333.172	1684.38
333.4	1712.38
333.629	1747.38
333.857	1841.38
334.085	2034.38
334.314	2305.38
334.542	2536.38
334.771	2369.38
334.999	2099.38
335.227	1931.38
335.455	1829.38
335.684	1840.38
335.912	1869.38
336.14	1920.38
336.369	1868.38
336.597	1740.38
336.825	1708.38
337.053	1783.38
337.281	1902.38
337.51	2001.38
337.738	2062.38
337.966	2005.38
338.194	1805.38
338.422	1738.38
338.65	1687.38
338.878	1662.38
339.106	1657.38
339.334	1641.38
339.562	1619.38
339.79	1649.38
340.018	1724.38
340.246	1817.38
340.474	1779.38
340.702	1747.38
340.93	1742.38
341.158	1762.38
341.386	1717.38
341.614	1728.38
341.842	1724.38
342.07	1698.38
342.298	1711.38
342.526	1701.38
342.754	1690.38
342.981	1641.38
343.209	1672.38
343.437	1684.38
343.665	1713.38
343.893	1706.38
344.12	1825.38
344.348	1858.38
344.576	1794.38
344.804	1677.38
345.031	1709.38
345.259	1713.38
345.487	1646.38
345.714	1578.38
345.942	1562.38
346.17	1562.38
346.397	1622.38
346.625	1612.38
346.853	1561.38
347.08	1456.38
347.308	1555.38
347.535	1567.38
347.763	1634.38
347.99	1599.38
348.218	1512.38
348.445	1555.38
348.673	1569.38
348.9	1603.38
349.128	1652.38
349.355	1698.38
349.583	1685.38
349.81	1568.38
350.037	1479.38
350.265	1477.38
350.492	1498.38
350.72	1527.38
350.947	1575.38
351.174	1641.38
351.402	1529.38
351.629	1464.38
351.856	1431.38
352.083	1471.38
352.311	1456.38
352.538	1481.38
352.765	1567.38
352.992	1636.38
353.22	1570.38
353.447	1511.38
353.674	1529.38
353.901	1537.38
354.128	1502.38
354.355	1546.38
354.583	1583.38
354.81	1610.38
355.037	1634.38
355.264	1629.38
355.491	1554.38
355.718	1591.38
355.945	1545.38
356.172	1521.38
356.399	1497.38
356.626	1524.38
356.853	1541.38
357.08	1649.38
357.307	1855.38
357.534	1855.38
357.761	1644.38
357.988	1513.38
358.215	1465.38
358.441	1487.38
358.668	1470.38
358.895	1536.38
359.122	1597.38
359.349	1715.38
359.576	1735.38
359.802	1538.38
360.029	1503.38
360.256	1484.38
360.483	1547.38
360.709	1572.38
360.936	1596.38
361.163	1643.38
361.39	1801.38
361.616	1973.38
361.843	1884.38
362.07	1777.38
362.296	1590.38
362.523	1559.38
362.749	1488.38
362.976	1539.38
363.203	1587.38
363.429	1585.38
363.656	1465.38
363.882	1531.38
364.109	1690.38
364.335	1851.38
364.562	1749.38
364.788	1641.38
365.015	1577.38
365.241	1515.38
365.468	1567.38
365.694	1606.38
365.92	1697.38
366.147	1611.38
366.373	1521.38
366.599	1468.38
366.826	1472.38
367.052	1533.38
367.278	1546.38
367.505	1547.38
367.731	1594.38
367.957	1618.38
368.184	1585.38
368.41	1689.38
368.636	1740.38
368.862	1732.38
369.089	1764.38
369.315	1706.38
369.541	1649.38
369.767	1578.38
369.993	1531.38
370.219	1580.38
370.445	1546.38
370.672	1672.38
370.898	1734.38
371.124	1728.38
371.35	1642.38
371.576	1686.38
371.802	1693.38
372.028	1656.38
372.254	1611.38
372.48	1570.38
372.706	1595.38
372.932	1573.38
373.158	1575.38
373.384	1611.38
373.61	1658.38
373.835	1769.38
374.061	1634.38
374.287	1620.38
374.513	1635.38
374.739	1612.38
374.965	1669.38
375.191	1668.38
375.416	1677.38
375.642	1696.38
375.868	1751.38
376.094	1883.38
376.319	1752.38
376.545	1651.38
376.771	1675.38
376.997	1703.38
377.222	1719.38
377.448	1674.38
377.674	1702.38
377.899	1690.38
378.125	1789.38
378.35	1813.38
378.576	1632.38
378.802	1589.38
379.027	1596.38
379.253	1591.38
379.478	1611.38
379.704	1578.38
379.929	1604.38
380.155	1634.38
380.38	1640.38
380.606	1674.38
380.831	1615.38
381.057	1718.38
381.282	1739.38
381.507	1665.38
381.733	1749.38
381.958	1874.38
382.184	1745.38
382.409	1693.38
382.634	1704.38
382.86	1702.38
383.085	1711.38
383.31	1761.38
383.535	1884.38
383.761	1944.38
383.986	1880.38
384.211	1820.38
384.436	1786.38
384.662	1884.38
384.887	1921.38
385.112	1850.38
385.337	1907.38
385.562	1859.38
385.787	1885.38
386.013	1896.38
386.238	1915.38
386.463	1891.38
386.688	2005.38
386.913	2099.38
387.138	2028.38
387.363	1899.38
387.588	1917.38
387.813	1856.38
388.038	1908.38
388.263	1976.38
388.488	1959.38
388.713	1781.38
388.938	1783.38
389.163	1787.38
389.387	1812.38
389.612	1826.38
389.837	1872.38
390.062	1905.38
390.287	1898.38
390.512	1859.38
390.736	1833.38
390.961	1790.38
391.186	1760.38
391.411	1768.38
391.636	1820.38
391.86	1847.38
392.085	1858.38
392.31	1801.38
392.534	1867.38
392.759	1877.38
392.984	1869.38
393.208	1855.38
393.433	1918.38
393.658	1949.38
393.882	1989.38
394.107	1919.38
394.331	1878.38
394.556	1811.38
394.78	1879.38
395.005	1896.38
395.229	1987.38
395.454	2119.38
395.678	2140.38
395.903	2055.38
396.127	1948.38
396.352	2013.38
396.576	2045.38
396.801	2042.38
397.025	2027.38
397.249	2045.38
397.474	2005.38
397.698	1938.38
397.922	2049.38
398.147	2115.38
398.371	2254.38
398.595	2216.38
398.82	2103.38
399.044	2122.38
399.268	2247.38
399.492	2395.38
399.717	2470.38
399.941	2498.38
400.165	2401.38
400.389	2365.38
400.613	2347.38
400.837	2541.38
401.062	2967.38
401.286	2590.38
401.51	2297.38
401.734	2384.38
401.958	2354.38
402.182	2165.38
402.406	2125.38
402.63	2104.38
402.854	2061.38
403.078	2131.38
403.302	2185.38
403.526	2248.38
403.75	2183.38
403.974	2203.38
404.198	2210.38
404.422	2257.38
404.645	2409.38
404.869	2388.38
405.093	2164.38
405.317	2131.38
405.541	2212.38
405.765	2227.38
405.988	2205.38
406.212	2231.38
406.436	2284.38
406.66	2339.38
406.883	2339.38
407.107	2603.38
407.331	2857.38
407.555	3123.38
407.778	2843.38
408.002	2388.38
408.226	2307.38
408.449	2374.38
408.673	2227.38
408.896	2241.38
409.12	2305.38
409.344	2252.38
409.567	2200.38
409.791	2207.38
410.014	2253.38
410.238	2370.38
410.461	2545.38
410.685	2279.38
410.908	2146.38
411.132	2201.38
411.355	2208.38
411.578	2108.38
411.802	2119.38
412.025	2201.38
412.249	2138.38
412.472	2069.38
412.695	2109.38
412.919	2115.38
413.142	2098.38
413.365	2112.38
413.589	2162.38
413.812	2267.38
414.035	2322.38
414.258	2187.38
414.482	2118.38
414.705	2160.38
414.928	2072.38
415.151	2080.38
415.374	2095.38
415.597	2117.38
415.821	2188.38
416.044	2273.38
416.267	2208.38
416.49	2055.38
416.713	2027.38
416.936	2071.38
417.159	2153.38
417.382	2167.38
417.605	2047.38
417.828	2124.38
418.051	2193.38
418.274	2117.38
418.497	2039.38
418.72	2073.38
418.943	2027.38
419.166	2156.38
419.389	2254.38
419.611	2132.38
419.834	2035.38
420.057	2087.38
420.28	2026.38
420.503	2048.38
420.726	2061.38
420.948	2090.38
421.171	1992.38
421.394	2014.38
421.617	2096.38
421.839	2069.38
422.062	2027.38
422.285	1967.38
422.507	2016.38
422.73	1948.38
422.953	1955.38
423.175	1965.38
423.398	2050.38
423.621	2049.38
423.843	2038.38
424.066	2084.38
424.288	2143.38
424.511	2164.38
424.733	2111.38
424.956	1910.38
425.178	1938.38
425.401	1947.38
425.623	1974.38
425.846	1936.38
426.068	2080.38
426.291	2140.38
426.513	2093.38
426.735	2060.38
426.958	2182.38
427.18	2337.38
427.402	2145.38
427.625	2243.38
427.847	2229.38
428.069	2069.38
428.292	2023.38
428.514	1948.38
428.736	1925.38
428.958	1933.38
429.181	1985.38
429.403	2214.38
429.625	2775.38
429.847	2404.38
430.069	2038.38
430.292	2225.38
430.514	2287.38
430.736	2154.38
430.958	2220.38
431.18	2159.38
431.402	1977.38
431.624	1920.38
431.846	1948.38
432.068	1915.38
432.29	1933.38
432.512	1996.38
432.734	1996.38
432.956	2044.38
433.178	2161.38
433.4	2157.38
433.622	2152.38
433.844	2012.38
434.066	1918.38
434.287	1972.38
434.509	2021.38
434.731	2089.38
434.953	2199.38
435.175	2226.38
435.397	2108.38
435.618	2075.38
435.84	2106.38
436.062	2061.38
436.284	2068.38
436.505	2081.38
436.727	2069.38
436.949	2032.38
437.17	1979.38
437.392	1965.38
437.614	1988.38
437.835	1912.38
438.057	2093.38
438.278	2177.38
438.5	1991.38
438.721	1935.38
438.943	1925.38
439.165	1937.38
439.386	1890.38
439.608	1951.38
439.829	1932.38
440.05	1960.38
440.272	1933.38
440.493	1955.38
440.715	1973.38
440.936	2085.38
441.158	2294.38
441.379	2274.38
441.6	2181.38
441.822	2126.38
442.043	2098.38
442.264	2033.38
442.486	1933.38
442.707	1952.38
442.928	1950.38
443.149	1986.38
443.371	2104.38
443.592	2211.38
443.813	2151.38
444.034	2143.38
444.255	2152.38
444.476	2219.38
444.698	2219.38
444.919	2179.38
445.14	2362.38
445.361	2279.38
445.582	2359.38
445.803	2268.38
446.024	2151.38
446.245	2237.38
446.466	2165.38
446.687	2060.38
446.908	2005.38
447.129	1983.38
447.35	2045.38
447.571	2023.38
447.792	1933.38
448.013	1927.38
448.234	1975.38
448.455	2015.38
448.675	2056.38
448.896	1886.38
449.117	1888.38
449.338	1936.38
449.559	2037.38
449.779	2111.38
450	2279.38
450.221	2509.38
450.442	2433.38
450.662	2111.38
450.883	1867.38
451.104	1809.38
451.324	1876.38
451.545	1938.38
451.766	1962.38
451.986	1871.38
452.207	1816.38
452.428	1787.38
452.648	1752.38
452.869	1824.38
453.089	1915.38
453.31	1890.38
453.53	1980.38
453.751	1884.38
453.971	1793.38
454.192	1839.38
454.412	1953.38
454.633	1875.38
454.853	1819.38
455.073	1706.38
455.294	1698.38
455.514	1716.38
455.734	1728.38
455.955	1772.38
456.175	1754.38
456.395	1786.38
456.616	1791.38
456.836	1837.38
457.056	1800.38
457.276	1812.38
457.497	1731.38
457.717	1740.38
457.937	1764.38
458.157	1775.38
458.377	1797.38
458.598	1752.38
458.818	1751.38
459.038	1887.38
459.258	2020.38
459.478	1991.38
459.698	1918.38
459.918	1996.38
460.138	2059.38
460.358	2090.38
460.578	2112.38
460.798	2191.38
461.018	2289.38
461.238	2147.38
461.458	2053.38
461.678	2091.38
461.898	2089.38
462.118	2012.38
462.338	2095.38
462.558	2086.38
462.777	2113.38
462.997	2202.38
463.217	2289.38
463.437	2331.38
463.657	2160.38
463.876	2130.38
464.096	2071.38
464.316	2084.38
464.536	2169.38
464.755	2180.38
464.975	2210.38
465.195	2095.38
465.414	2218.38
465.634	2228.38
465.854	2112.38
466.073	2220.38
466.293	2194.38
466.512	1984.38
466.732	1952.38
466.951	1990.38
467.171	2018.38
467.391	1900.38
467.61	1840.38
467.829	1911.38
468.049	2006.38
468.268	2284.38
468.488	2157.38
468.707	2022.38
468.927	1969.38
469.146	1948.38
469.365	1878.38
469.585	1913.38
469.804	1922.38
470.023	1920.38
470.243	1938.38
470.462	1910.38
470.681	1832.38
470.901	1907.38
471.12	1948.38
471.339	1916.38
471.558	1843.38
471.777	1803.38
471.997	1879.38
472.216	1875.38
472.435	1835.38
472.654	1843.38
472.873	1927.38
473.092	2086.38
473.311	1963.38
473.53	1838.38
473.749	1810.38
473.968	1860.38
474.187	1992.38
474.406	2110.38
474.625	1958.38
474.844	1942.38
475.063	1942.38
475.282	2001.38
475.501	1947.38
475.72	1921.38
475.939	2020.38
476.158	1988.38
476.377	1915.38
476.596	1953.38
476.814	2023.38
477.033	2048.38
477.252	2128.38
477.471	2178.38
477.69	2052.38
477.908	1997.38
478.127	2167.38
478.346	2313.38
478.564	2311.38
478.783	2287.38
479.002	2346.38
479.22	2305.38
479.439	2415.38
479.658	2723.38
479.876	2678.38
480.095	2332.38
480.313	2229.38
480.532	2167.38
480.751	2132.38
480.969	2231.38
481.188	2186.38
481.406	2139.38
481.624	2108.38
481.843	2106.38
482.061	2187.38
482.28	2261.38
482.498	2260.38
482.717	2208.38
482.935	2127.38
483.153	2161.38
483.372	2174.38
483.59	2135.38
483.808	2159.38
484.027	2191.38
484.245	2346.38
484.463	2679.38
484.681	3053.38
484.9	2342.38
485.118	2227.38
485.336	2178.38
485.554	2255.38
485.772	2372.38
485.99	2341.38
486.209	2360.38
486.427	2327.38
486.645	2308.38
486.863	2265.38
487.081	2348.38
487.299	2401.38
487.517	2345.38
