Data from WStandard_LampEnergy10_LIBS07252019.E.O._I.C._HRD10591_15-53-23-928.txt Node
Date: Thu Jul 25 15:53:23 EDT 2019
User: cochatt
Spectrometer: HR+D1059
Trigger mode: 1
Integration Time (sec): 1.000000E-1
Scans to average: 1
Electric dark correction enabled: true
Nonlinearity correction enabled: false
Boxcar width: 0
XAxis mode: Wavelengths
Number of Pixels in Spectrum: 2048
>>>>>Begin Spectral Data<<<<<
223.165	-15.12
223.4	-15.12
223.635	-15.12
223.869	-10.12
224.104	-20.12
224.338	-15.12
224.573	-6.12
224.808	-10.12
225.042	-10.12
225.277	-12.12
225.511	-1.12
225.746	-2.12
225.98	-6.12
226.215	18.88
226.449	19.88
226.683	14.88
226.918	34.88
227.152	19.88
227.387	31.88
227.621	43.88
227.856	42.88
228.09	57.88
228.324	57.88
228.559	59.88
228.793	78.88
229.027	146.88
229.262	145.88
229.496	147.88
229.73	148.88
229.964	178.88
230.199	169.88
230.433	176.88
230.667	180.88
230.901	192.88
231.136	182.88
231.37	167.88
231.604	165.88
231.838	200.88
232.072	185.88
232.306	187.88
232.541	184.88
232.775	208.88
233.009	211.88
233.243	210.88
233.477	202.88
233.711	193.88
233.945	204.88
234.179	208.88
234.413	218.88
234.647	218.88
234.881	213.88
235.115	186.88
235.349	205.88
235.583	202.88
235.817	201.88
236.051	202.88
236.285	195.88
236.519	206.88
236.753	228.88
236.987	227.88
237.221	234.88
237.455	250.88
237.689	241.88
237.922	252.88
238.156	219.88
238.39	222.88
238.624	242.88
238.858	244.88
239.091	267.88
239.325	270.88
239.559	304.88
239.793	317.88
240.027	298.88
240.26	308.88
240.494	241.88
240.728	227.88
240.961	250.88
241.195	232.88
241.429	246.88
241.662	251.88
241.896	258.88
242.13	247.88
242.363	277.88
242.597	274.88
242.83	279.88
243.064	282.88
243.298	283.88
243.531	287.88
243.765	277.88
243.998	305.88
244.232	253.88
244.465	269.88
244.699	267.88
244.932	300.88
245.166	325.88
245.399	306.88
245.633	275.88
245.866	315.88
246.099	315.88
246.333	301.88
246.566	306.88
246.8	312.88
247.033	354.88
247.266	317.88
247.5	315.88
247.733	327.88
247.966	330.88
248.2	384.88
248.433	359.88
248.666	381.88
248.899	404.88
249.133	443.88
249.366	473.88
249.599	408.88
249.832	368.88
250.066	366.88
250.299	369.88
250.532	361.88
250.765	345.88
250.998	340.88
251.231	367.88
251.465	367.88
251.698	343.88
251.931	339.88
252.164	367.88
252.397	375.88
252.63	350.88
252.863	332.88
253.096	330.88
253.329	341.88
253.562	352.88
253.795	383.88
254.028	371.88
254.261	347.88
254.494	358.88
254.727	359.88
254.96	366.88
255.193	362.88
255.426	411.88
255.659	445.88
255.892	484.88
256.124	393.88
256.357	394.88
256.59	412.88
256.823	422.88
257.056	434.88
257.289	475.88
257.521	521.88
257.754	468.88
257.987	467.88
258.22	484.88
258.452	478.88
258.685	408.88
258.918	405.88
259.151	393.88
259.383	384.88
259.616	357.88
259.849	381.88
260.081	413.88
260.314	442.88
260.547	486.88
260.779	473.88
261.012	445.88
261.244	408.88
261.477	387.88
261.71	413.88
261.942	407.88
262.175	394.88
262.407	429.88
262.64	400.88
262.872	379.88
263.105	373.88
263.337	387.88
263.57	379.88
263.802	369.88
264.035	372.88
264.267	365.88
264.499	347.88
264.732	379.88
264.964	389.88
265.197	414.88
265.429	436.88
265.661	445.88
265.894	503.88
266.126	504.88
266.358	468.88
266.591	477.88
266.823	507.88
267.055	459.88
267.287	457.88
267.52	453.88
267.752	472.88
267.984	445.88
268.216	471.88
268.448	467.88
268.681	472.88
268.913	439.88
269.145	412.88
269.377	402.88
269.609	476.88
269.841	517.88
270.073	567.88
270.306	635.88
270.538	624.88
270.77	559.88
271.002	489.88
271.234	500.88
271.466	488.88
271.698	520.88
271.93	599.88
272.162	590.88
272.394	550.88
272.626	507.88
272.858	490.88
273.09	423.88
273.322	421.88
273.553	408.88
273.785	432.88
274.017	407.88
274.249	447.88
274.481	430.88
274.713	423.88
274.945	434.88
275.176	430.88
275.408	402.88
275.64	411.88
275.872	439.88
276.104	450.88
276.335	470.88
276.567	531.88
276.799	527.88
277.031	495.88
277.262	505.88
277.494	535.88
277.726	523.88
277.957	525.88
278.189	491.88
278.421	464.88
278.652	430.88
278.884	439.88
279.115	435.88
279.347	447.88
279.579	433.88
279.81	443.88
280.042	472.88
280.273	545.88
280.505	525.88
280.736	528.88
280.968	507.88
281.199	437.88
281.431	424.88
281.662	425.88
281.894	430.88
282.125	452.88
282.356	443.88
282.588	460.88
282.819	459.88
283.051	488.88
283.282	513.88
283.513	479.88
283.745	449.88
283.976	445.88
284.207	422.88
284.439	457.88
284.67	457.88
284.901	440.88
285.132	469.88
285.364	467.88
285.595	481.88
285.826	443.88
286.057	465.88
286.288	465.88
286.52	466.88
286.751	518.88
286.982	510.88
287.213	477.88
287.444	433.88
287.675	445.88
287.906	486.88
288.138	489.88
288.369	480.88
288.6	465.88
288.831	443.88
289.062	464.88
289.293	466.88
289.524	465.88
289.755	459.88
289.986	458.88
290.217	456.88
290.448	435.88
290.679	472.88
290.91	467.88
291.141	482.88
291.371	494.88
291.602	492.88
291.833	494.88
292.064	509.88
292.295	530.88
292.526	522.88
292.757	519.88
292.987	484.88
293.218	486.88
293.449	507.88
293.68	576.88
293.91	593.88
294.141	567.88
294.372	579.88
294.603	555.88
294.833	578.88
295.064	544.88
295.295	505.88
295.525	474.88
295.756	465.88
295.987	467.88
296.217	462.88
296.448	484.88
296.679	479.88
296.909	464.88
297.14	477.88
297.37	507.88
297.601	517.88
297.831	530.88
298.062	519.88
298.292	491.88
298.523	483.88
298.753	487.88
298.984	501.88
299.214	485.88
299.445	517.88
299.675	511.88
299.905	515.88
300.136	513.88
300.366	486.88
300.597	467.88
300.827	472.88
301.057	498.88
301.288	489.88
301.518	517.88
301.748	525.88
301.979	544.88
302.209	585.88
302.439	588.88
302.669	593.88
302.9	565.88
303.13	519.88
303.36	522.88
303.59	528.88
303.82	525.88
304.051	529.88
304.281	554.88
304.511	552.88
304.741	562.88
304.971	640.88
305.201	608.88
305.431	557.88
305.661	499.88
305.891	433.88
306.121	467.88
306.352	490.88
306.582	530.88
306.812	547.88
307.042	558.88
307.272	577.88
307.502	599.88
307.731	647.88
307.961	659.88
308.191	606.88
308.421	543.88
308.651	504.88
308.881	498.88
309.111	518.88
309.341	507.88
309.571	511.88
309.8	505.88
310.03	483.88
310.26	489.88
310.49	506.88
310.72	519.88
310.949	542.88
311.179	545.88
311.409	521.88
311.639	521.88
311.868	532.88
312.098	509.88
312.328	505.88
312.557	509.88
312.787	507.88
313.017	531.88
313.246	544.88
313.476	547.88
313.706	548.88
313.935	543.88
314.165	569.88
314.394	550.88
314.624	585.88
314.853	622.88
315.083	629.88
315.312	611.88
315.542	592.88
315.771	553.88
316.001	548.88
316.23	577.88
316.46	585.88
316.689	565.88
316.919	544.88
317.148	521.88
317.377	548.88
317.607	585.88
317.836	635.88
318.065	629.88
318.295	615.88
318.524	602.88
318.753	561.88
318.983	562.88
319.212	561.88
319.441	572.88
319.67	570.88
319.9	586.88
320.129	588.88
320.358	620.88
320.587	636.88
320.816	630.88
321.046	603.88
321.275	593.88
321.504	587.88
321.733	629.88
321.962	606.88
322.191	562.88
322.42	545.88
322.649	570.88
322.878	584.88
323.108	567.88
323.337	581.88
323.566	598.88
323.795	583.88
324.024	579.88
324.253	566.88
324.482	562.88
324.71	562.88
324.939	534.88
325.168	554.88
325.397	590.88
325.626	567.88
325.855	577.88
326.084	567.88
326.313	569.88
326.542	575.88
326.77	624.88
326.999	587.88
327.228	567.88
327.457	549.88
327.686	535.88
327.914	544.88
328.143	549.88
328.372	550.88
328.6	554.88
328.829	540.88
329.058	541.88
329.287	536.88
329.515	552.88
329.744	606.88
329.972	618.88
330.201	624.88
330.43	624.88
330.658	620.88
330.887	601.88
331.115	612.88
331.344	603.88
331.572	584.88
331.801	587.88
332.03	604.88
332.258	596.88
332.486	617.88
332.715	620.88
332.943	633.88
333.172	626.88
333.4	614.88
333.629	613.88
333.857	679.88
334.085	742.88
334.314	813.88
334.542	843.88
334.771	777.88
334.999	689.88
335.227	633.88
335.455	645.88
335.684	638.88
335.912	634.88
336.14	675.88
336.369	606.88
336.597	618.88
336.825	623.88
337.053	635.88
337.281	681.88
337.51	695.88
337.738	701.88
337.966	675.88
338.194	611.88
338.422	619.88
338.65	586.88
338.878	604.88
339.106	573.88
339.334	565.88
339.562	567.88
339.79	605.88
340.018	630.88
340.246	651.88
340.474	631.88
340.702	614.88
340.93	650.88
341.158	613.88
341.386	608.88
341.614	644.88
341.842	605.88
342.07	624.88
342.298	621.88
342.526	612.88
342.754	618.88
342.981	622.88
343.209	598.88
343.437	601.88
343.665	604.88
343.893	619.88
344.12	649.88
344.348	650.88
344.576	622.88
344.804	597.88
345.031	593.88
345.259	595.88
345.487	576.88
345.714	556.88
345.942	565.88
346.17	587.88
346.397	589.88
346.625	598.88
346.853	535.88
347.08	567.88
347.308	560.88
347.535	587.88
347.763	581.88
347.99	571.88
348.218	565.88
348.445	565.88
348.673	570.88
348.9	579.88
349.128	605.88
349.355	644.88
349.583	592.88
349.81	591.88
350.037	529.88
350.265	532.88
350.492	547.88
350.72	559.88
350.947	594.88
351.174	586.88
351.402	557.88
351.629	554.88
351.856	535.88
352.083	535.88
352.311	575.88
352.538	554.88
352.765	603.88
352.992	577.88
353.22	581.88
353.447	555.88
353.674	583.88
353.901	574.88
354.128	540.88
354.355	575.88
354.583	594.88
354.81	599.88
355.037	601.88
355.264	563.88
355.491	577.88
355.718	575.88
355.945	571.88
356.172	559.88
356.399	534.88
356.626	540.88
356.853	600.88
357.08	647.88
357.307	673.88
357.534	671.88
357.761	577.88
357.988	561.88
358.215	537.88
358.441	553.88
358.668	552.88
358.895	568.88
359.122	621.88
359.349	649.88
359.576	631.88
359.802	569.88
360.029	571.88
360.256	559.88
360.483	573.88
360.709	590.88
360.936	600.88
361.163	622.88
361.39	689.88
361.616	756.88
361.843	698.88
362.07	661.88
362.296	586.88
362.523	579.88
362.749	569.88
362.976	595.88
363.203	584.88
363.429	574.88
363.656	580.88
363.882	607.88
364.109	674.88
364.335	679.88
364.562	623.88
364.788	610.88
365.015	581.88
365.241	565.88
365.468	589.88
365.694	602.88
365.92	636.88
366.147	599.88
366.373	575.88
366.599	572.88
366.826	556.88
367.052	567.88
367.278	591.88
367.505	589.88
367.731	598.88
367.957	603.88
368.184	643.88
368.41	666.88
368.636	663.88
368.862	681.88
369.089	682.88
369.315	653.88
369.541	618.88
369.767	593.88
369.993	593.88
370.219	605.88
370.445	618.88
370.672	674.88
370.898	671.88
371.124	665.88
371.35	653.88
371.576	659.88
371.802	678.88
372.028	644.88
372.254	640.88
372.48	612.88
372.706	618.88
372.932	603.88
373.158	626.88
373.384	641.88
373.61	659.88
373.835	669.88
374.061	631.88
374.287	641.88
374.513	640.88
374.739	639.88
374.965	634.88
375.191	641.88
375.416	691.88
375.642	659.88
375.868	721.88
376.094	704.88
376.319	662.88
376.545	641.88
376.771	663.88
376.997	704.88
377.222	683.88
377.448	675.88
377.674	656.88
377.899	669.88
378.125	718.88
378.35	685.88
378.576	625.88
378.802	619.88
379.027	613.88
379.253	646.88
379.478	646.88
379.704	677.88
379.929	637.88
380.155	625.88
380.38	657.88
380.606	664.88
380.831	685.88
381.057	717.88
381.282	708.88
381.507	707.88
381.733	747.88
381.958	751.88
382.184	672.88
382.409	681.88
382.634	695.88
382.86	692.88
383.085	659.88
383.31	695.88
383.535	806.88
383.761	803.88
383.986	761.88
384.211	745.88
384.436	739.88
384.662	768.88
384.887	772.88
385.112	733.88
385.337	747.88
385.562	757.88
385.787	765.88
386.013	786.88
386.238	752.88
386.463	776.88
386.688	798.88
386.913	843.88
387.138	810.88
387.363	781.88
387.588	773.88
387.813	774.88
388.038	791.88
388.263	816.88
388.488	786.88
388.713	753.88
388.938	747.88
389.163	742.88
389.387	771.88
389.612	765.88
389.837	768.88
390.062	773.88
390.287	763.88
390.512	761.88
390.736	746.88
390.961	751.88
391.186	741.88
391.411	746.88
391.636	766.88
391.86	749.88
392.085	752.88
392.31	746.88
392.534	760.88
392.759	773.88
392.984	749.88
393.208	750.88
393.433	817.88
393.658	827.88
393.882	817.88
394.107	809.88
394.331	771.88
394.556	771.88
394.78	794.88
395.005	825.88
395.229	862.88
395.454	871.88
395.678	854.88
395.903	849.88
396.127	825.88
396.352	829.88
396.576	849.88
396.801	841.88
397.025	850.88
397.249	846.88
397.474	845.88
397.698	795.88
397.922	849.88
398.147	906.88
398.371	897.88
398.595	917.88
398.82	861.88
399.044	893.88
399.268	933.88
399.492	955.88
399.717	977.88
399.941	1004.88
400.165	980.88
400.389	958.88
400.613	1013.88
400.837	1105.88
401.062	1163.88
401.286	1039.88
401.51	983.88
401.734	986.88
401.958	955.88
402.182	914.88
402.406	875.88
402.63	873.88
402.854	899.88
403.078	901.88
403.302	920.88
403.526	913.88
403.75	959.88
403.974	919.88
404.198	950.88
404.422	969.88
404.645	1015.88
404.869	980.88
405.093	897.88
405.317	892.88
405.541	939.88
405.765	930.88
405.988	919.88
406.212	951.88
406.436	968.88
406.66	989.88
406.883	1033.88
407.107	1149.88
407.331	1206.88
407.555	1290.88
407.778	1129.88
408.002	1007.88
408.226	977.88
408.449	969.88
408.673	953.88
408.896	958.88
409.12	937.88
409.344	955.88
409.567	938.88
409.791	962.88
410.014	988.88
410.238	1033.88
410.461	1077.88
410.685	952.88
410.908	938.88
411.132	938.88
411.355	955.88
411.578	941.88
411.802	945.88
412.025	958.88
412.249	935.88
412.472	918.88
412.695	925.88
412.919	894.88
413.142	946.88
413.365	938.88
413.589	949.88
413.812	1000.88
414.035	1046.88
414.258	919.88
414.482	929.88
414.705	963.88
414.928	907.88
415.151	909.88
415.374	937.88
415.597	930.88
415.821	953.88
416.044	944.88
416.267	957.88
416.49	931.88
416.713	913.88
416.936	962.88
417.159	990.88
417.382	945.88
417.605	934.88
417.828	957.88
418.051	959.88
418.274	911.88
418.497	941.88
418.72	961.88
418.943	931.88
419.166	975.88
419.389	982.88
419.611	968.88
419.834	984.88
420.057	937.88
420.28	937.88
420.503	933.88
420.726	959.88
420.948	963.88
421.171	960.88
421.394	939.88
421.617	980.88
421.839	1000.88
422.062	992.88
422.285	966.88
422.507	959.88
422.73	914.88
422.953	905.88
423.175	877.88
423.398	917.88
423.621	917.88
423.843	957.88
424.066	982.88
424.288	1041.88
424.511	1040.88
424.733	1016.88
424.956	935.88
425.178	924.88
425.401	933.88
425.623	957.88
425.846	955.88
426.068	997.88
426.291	979.88
426.513	961.88
426.735	970.88
426.958	1033.88
427.18	1085.88
427.402	1014.88
427.625	1031.88
427.847	993.88
428.069	938.88
428.292	941.88
428.514	913.88
428.736	909.88
428.958	906.88
429.181	943.88
429.403	1085.88
429.625	1258.88
429.847	1061.88
430.069	951.88
430.292	1021.88
430.514	1025.88
430.736	976.88
430.958	971.88
431.18	931.88
431.402	872.88
431.624	863.88
431.846	818.88
432.068	721.88
432.29	748.88
432.512	787.88
432.734	860.88
432.956	911.88
433.178	969.88
433.4	983.88
433.622	951.88
433.844	911.88
434.066	874.88
434.287	825.88
434.509	789.88
434.731	825.88
434.953	918.88
435.175	909.88
435.397	901.88
435.618	898.88
435.84	854.88
436.062	875.88
436.284	938.88
436.505	944.88
436.727	929.88
436.949	933.88
437.17	906.88
437.392	928.88
437.614	855.88
437.835	812.88
438.057	802.88
438.278	878.88
438.5	869.88
438.721	905.88
438.943	951.88
439.165	933.88
439.386	925.88
439.608	966.88
439.829	956.88
440.05	976.88
440.272	962.88
440.493	946.88
440.715	986.88
440.936	1029.88
441.158	1085.88
441.379	1077.88
441.6	1068.88
441.822	1029.88
442.043	1029.88
442.264	979.88
442.486	957.88
442.707	964.88
442.928	965.88
443.149	987.88
443.371	1024.88
443.592	1045.88
443.813	1039.88
444.034	1029.88
444.255	1010.88
444.476	1037.88
444.698	1056.88
444.919	1057.88
445.14	1150.88
445.361	1106.88
445.582	1081.88
445.803	1083.88
446.024	1053.88
446.245	1087.88
446.466	1081.88
446.687	1044.88
446.908	1026.88
447.129	1049.88
447.35	1033.88
447.571	1014.88
447.792	997.88
448.013	957.88
448.234	955.88
448.455	1003.88
448.675	1027.88
448.896	935.88
449.117	901.88
449.338	914.88
449.559	966.88
449.779	953.88
450	1045.88
450.221	1015.88
450.442	1056.88
450.662	952.88
450.883	905.88
451.104	894.88
451.324	890.88
451.545	913.88
451.766	851.88
451.986	827.88
452.207	838.88
452.428	831.88
452.648	791.88
452.869	763.88
453.089	791.88
453.31	793.88
453.53	773.88
453.751	753.88
453.971	727.88
454.192	753.88
454.412	781.88
454.633	809.88
454.853	777.88
455.073	754.88
455.294	784.88
455.514	746.88
455.734	787.88
455.955	769.88
456.175	765.88
456.395	726.88
456.616	743.88
456.836	763.88
457.056	734.88
457.276	737.88
457.497	715.88
457.717	706.88
457.937	726.88
458.157	724.88
458.377	708.88
458.598	714.88
458.818	658.88
459.038	720.88
459.258	700.88
459.478	729.88
459.698	706.88
459.918	760.88
460.138	804.88
460.358	821.88
460.578	853.88
460.798	839.88
461.018	906.88
461.238	876.88
461.458	863.88
461.678	840.88
461.898	803.88
462.118	816.88
462.338	828.88
462.558	872.88
462.777	874.88
462.997	896.88
463.217	900.88
463.437	887.88
463.657	830.88
463.876	843.88
464.096	862.88
464.316	840.88
464.536	870.88
464.755	918.88
464.975	892.88
465.195	864.88
465.414	874.88
465.634	883.88
465.854	887.88
466.073	967.88
466.293	951.88
466.512	872.88
466.732	890.88
466.951	907.88
467.171	913.88
467.391	874.88
467.61	884.88
467.829	925.88
468.049	995.88
468.268	1044.88
468.488	977.88
468.707	913.88
468.927	901.88
469.146	911.88
469.365	901.88
469.585	945.88
469.804	926.88
470.023	946.88
470.243	930.88
470.462	974.88
470.681	959.88
470.901	933.88
471.12	940.88
471.339	935.88
471.558	894.88
471.777	912.88
471.997	933.88
472.216	861.88
472.435	791.88
472.654	775.88
472.873	797.88
473.092	826.88
473.311	859.88
473.53	817.88
473.749	848.88
473.968	846.88
474.187	856.88
474.406	847.88
474.625	873.88
474.844	872.88
475.063	885.88
475.282	897.88
475.501	844.88
475.72	846.88
475.939	937.88
476.158	881.88
476.377	881.88
476.596	858.88
476.814	836.88
477.033	810.88
477.252	868.88
477.471	897.88
477.69	939.88
477.908	962.88
478.127	1001.88
478.346	1029.88
478.564	1021.88
478.783	1002.88
479.002	1032.88
479.22	1017.88
479.439	1035.88
479.658	1040.88
479.876	991.88
480.095	893.88
480.313	892.88
480.532	913.88
480.751	894.88
480.969	867.88
481.188	817.88
481.406	789.88
481.624	785.88
481.843	801.88
482.061	803.88
482.28	902.88
482.498	903.88
482.717	871.88
482.935	892.88
483.153	973.88
483.372	1060.88
483.59	1026.88
483.808	997.88
484.027	963.88
484.245	987.88
484.463	1177.88
484.681	1307.88
484.9	1054.88
485.118	955.88
485.336	935.88
485.554	936.88
485.772	872.88
485.99	890.88
486.209	901.88
486.427	906.88
486.645	929.88
486.863	1010.88
487.081	1036.88
487.299	1034.88
487.517	1021.88
487.735	1105.88
487.953	1221.88
488.171	1186.88
488.389	1141.88
488.607	1149.88
488.825	1162.88
489.043	1078.88
489.261	1009.88
489.479	1063.88
489.696	1049.88
489.914	1039.88
490.132	1039.88
490.35	1095.88
490.568	1177.88
490.786	1205.88
491.003	1213.88
491.221	1247.88
491.439	1293.88
491.657	1314.88
491.874	1362.88
492.092	1453.88
492.31	1525.88
492.527	1455.88
492.745	1402.88
492.963	1311.88
493.18	1320.88
493.398	1341.88
493.615	1340.88
493.833	1263.88
494.05	1277.88
494.268	1217.88
494.485	1232.88
494.703	1279.88
494.92	1251.88
495.138	1253.88
495.355	1248.88
495.573	1249.88
495.79	1280.88
496.008	1271.88
496.225	1213.88
496.442	1242.88
496.66	1275.88
496.877	1240.88
497.094	1252.88
497.312	1220.88
497.529	1190.88
497.746	1215.88
497.963	1317.88
498.181	1289.88
498.398	1275.88
498.615	1172.88
498.832	1155.88
499.049	1150.88
499.267	1156.88
499.484	1271.88
499.701	1366.88
499.918	1356.88
500.135	1495.88
