Data from WStandard_LampEnergy8_LIBS07252019.E.O._I.C._HRD10591_16-00-41-929.txt Node
Date: Thu Jul 25 16:00:41 EDT 2019
User: cochatt
Spectrometer: HR+D1059
Trigger mode: 1
Integration Time (sec): 1.000000E-1
Scans to average: 1
Electric dark correction enabled: true
Nonlinearity correction enabled: false
Boxcar width: 0
XAxis mode: Wavelengths
Number of Pixels in Spectrum: 2048
>>>>>Begin Spectral Data<<<<<
223.165	-21.62
223.4	-21.62
223.635	-21.62
223.869	-23.62
224.104	-17.62
224.338	-19.62
224.573	-15.62
224.808	-15.62
225.042	-9.62
225.277	0.38
225.511	16.38
225.746	12.38
225.98	10.38
226.215	6.38
226.449	16.38
226.683	12.38
226.918	25.38
227.152	23.38
227.387	36.38
227.621	32.38
227.856	46.38
228.09	53.38
228.324	54.38
228.559	54.38
228.793	99.38
229.027	197.38
229.262	212.38
229.496	207.38
229.73	214.38
229.964	236.38
230.199	256.38
230.433	240.38
230.667	259.38
230.901	276.38
231.136	257.38
231.37	260.38
231.604	289.38
231.838	273.38
232.072	270.38
232.306	265.38
232.541	275.38
232.775	294.38
233.009	309.38
233.243	294.38
233.477	269.38
233.711	272.38
233.945	283.38
234.179	299.38
234.413	304.38
234.647	327.38
234.881	303.38
235.115	283.38
235.349	280.38
235.583	295.38
235.817	281.38
236.051	283.38
236.285	291.38
236.519	321.38
236.753	335.38
236.987	336.38
237.221	314.38
237.455	360.38
237.689	347.38
237.922	347.38
238.156	338.38
238.39	352.38
238.624	348.38
238.858	390.38
239.091	391.38
239.325	415.38
239.559	462.38
239.793	460.38
240.027	485.38
240.26	485.38
240.494	389.38
240.728	363.38
240.961	375.38
241.195	347.38
241.429	395.38
241.662	417.38
241.896	360.38
242.13	380.38
242.363	407.38
242.597	464.38
242.83	423.38
243.064	446.38
243.298	458.38
243.531	447.38
243.765	456.38
243.998	437.38
244.232	386.38
244.465	372.38
244.699	408.38
244.932	427.38
245.166	502.38
245.399	469.38
245.633	452.38
245.866	434.38
246.099	468.38
246.333	449.38
246.566	485.38
246.8	514.38
247.033	572.38
247.266	505.38
247.5	495.38
247.733	510.38
247.966	538.38
248.2	614.38
248.433	566.38
248.666	594.38
248.899	658.38
249.133	729.38
249.366	793.38
249.599	658.38
249.832	603.38
250.066	612.38
250.299	582.38
250.532	549.38
250.765	522.38
250.998	531.38
251.231	564.38
251.465	585.38
251.698	572.38
251.931	572.38
252.164	573.38
252.397	599.38
252.63	591.38
252.863	527.38
253.096	537.38
253.329	562.38
253.562	578.38
253.795	628.38
254.028	590.38
254.261	562.38
254.494	560.38
254.727	551.38
254.96	584.38
255.193	617.38
255.426	682.38
255.659	755.38
255.892	763.38
256.124	639.38
256.357	610.38
256.59	646.38
256.823	663.38
257.056	691.38
257.289	818.38
257.521	871.38
257.754	760.38
257.987	742.38
258.22	791.38
258.452	743.38
258.685	675.38
258.918	638.38
259.151	617.38
259.383	638.38
259.616	585.38
259.849	614.38
260.081	650.38
260.314	729.38
260.547	764.38
260.779	836.38
261.012	730.38
261.244	681.38
261.477	662.38
261.71	684.38
261.942	644.38
262.175	623.38
262.407	663.38
262.64	653.38
262.872	592.38
263.105	600.38
263.337	602.38
263.57	609.38
263.802	604.38
264.035	554.38
264.267	567.38
264.499	539.38
264.732	579.38
264.964	623.38
265.197	655.38
265.429	699.38
265.661	724.38
265.894	822.38
266.126	841.38
266.358	746.38
266.591	794.38
266.823	835.38
267.055	775.38
267.287	751.38
267.52	746.38
267.752	728.38
267.984	742.38
268.216	772.38
268.448	782.38
268.681	750.38
268.913	703.38
269.145	656.38
269.377	675.38
269.609	730.38
269.841	857.38
270.073	931.38
270.306	1059.38
270.538	1070.38
270.77	898.38
271.002	799.38
271.234	780.38
271.466	780.38
271.698	885.38
271.93	1004.38
272.162	994.38
272.394	912.38
272.626	878.38
272.858	776.38
273.09	678.38
273.322	659.38
273.553	666.38
273.785	673.38
274.017	714.38
274.249	743.38
274.481	752.38
274.713	690.38
274.945	659.38
275.176	679.38
275.408	662.38
275.64	671.38
275.872	660.38
276.104	710.38
276.335	772.38
276.567	889.38
276.799	888.38
277.031	815.38
277.262	789.38
277.494	811.38
277.726	863.38
277.957	839.38
278.189	798.38
278.421	744.38
278.652	710.38
278.884	705.38
279.115	724.38
279.347	730.38
279.579	727.38
279.81	734.38
280.042	796.38
280.273	861.38
280.505	858.38
280.736	810.38
280.968	774.38
281.199	722.38
281.431	710.38
281.662	706.38
281.894	689.38
282.125	711.38
282.356	746.38
282.588	758.38
282.819	758.38
283.051	831.38
283.282	881.38
283.513	805.38
283.745	721.38
283.976	699.38
284.207	705.38
284.439	706.38
284.67	730.38
284.901	739.38
285.132	762.38
285.364	760.38
285.595	741.38
285.826	747.38
286.057	727.38
286.288	747.38
286.52	753.38
286.751	814.38
286.982	826.38
287.213	787.38
287.444	708.38
287.675	709.38
287.906	774.38
288.138	787.38
288.369	777.38
288.6	754.38
288.831	698.38
289.062	711.38
289.293	757.38
289.524	758.38
289.755	775.38
289.986	764.38
290.217	706.38
290.448	718.38
290.679	765.38
290.91	747.38
291.141	783.38
291.371	809.38
291.602	801.38
291.833	764.38
292.064	818.38
292.295	814.38
292.526	809.38
292.757	844.38
292.987	790.38
293.218	806.38
293.449	849.38
293.68	935.38
293.91	982.38
294.141	897.38
294.372	890.38
294.603	904.38
294.833	973.38
295.064	887.38
295.295	833.38
295.525	770.38
295.756	731.38
295.987	719.38
296.217	714.38
296.448	755.38
296.679	744.38
296.909	768.38
297.14	756.38
297.37	780.38
297.601	807.38
297.831	868.38
298.062	849.38
298.292	781.38
298.523	780.38
298.753	769.38
298.984	779.38
299.214	768.38
299.445	822.38
299.675	818.38
299.905	810.38
300.136	793.38
300.366	777.38
300.597	732.38
300.827	736.38
301.057	782.38
301.288	806.38
301.518	827.38
301.748	883.38
301.979	894.38
302.209	920.38
302.439	954.38
302.669	991.38
302.9	896.38
303.13	841.38
303.36	828.38
303.59	830.38
303.82	824.38
304.051	851.38
304.281	831.38
304.511	844.38
304.741	903.38
304.971	987.38
305.201	1030.38
305.431	950.38
305.661	784.38
305.891	728.38
306.121	732.38
306.352	786.38
306.582	798.38
306.812	847.38
307.042	916.38
307.272	947.38
307.502	946.38
307.731	1015.38
307.961	1046.38
308.191	942.38
308.421	852.38
308.651	800.38
308.881	793.38
309.111	809.38
309.341	810.38
309.571	824.38
309.8	826.38
310.03	817.38
310.26	774.38
310.49	815.38
310.72	850.38
310.949	887.38
311.179	863.38
311.409	863.38
311.639	824.38
311.868	824.38
312.098	818.38
312.328	825.38
312.557	820.38
312.787	825.38
313.017	827.38
313.246	834.38
313.476	868.38
313.706	872.38
313.935	861.38
314.165	874.38
314.394	893.38
314.624	976.38
314.853	972.38
315.083	1030.38
315.312	1028.38
315.542	943.38
315.771	877.38
316.001	879.38
316.23	944.38
316.46	934.38
316.689	889.38
316.919	871.38
317.148	831.38
317.377	878.38
317.607	934.38
317.836	1041.38
318.065	1024.38
318.295	1006.38
318.524	965.38
318.753	945.38
318.983	914.38
319.212	870.38
319.441	867.38
319.67	893.38
319.9	925.38
320.129	953.38
320.358	1008.38
320.587	1011.38
320.816	1008.38
321.046	978.38
321.275	950.38
321.504	968.38
321.733	1033.38
321.962	992.38
322.191	916.38
322.42	891.38
322.649	883.38
322.878	875.38
323.108	919.38
323.337	942.38
323.566	940.38
323.795	922.38
324.024	930.38
324.253	896.38
324.482	930.38
324.71	880.38
324.939	849.38
325.168	874.38
325.397	915.38
325.626	952.38
325.855	936.38
326.084	888.38
326.313	906.38
326.542	951.38
326.77	954.38
326.999	931.38
327.228	899.38
327.457	892.38
327.686	848.38
327.914	890.38
328.143	900.38
328.372	910.38
328.6	881.38
328.829	912.38
329.058	898.38
329.287	918.38
329.515	930.38
329.744	954.38
329.972	991.38
330.201	1036.38
330.43	956.38
330.658	970.38
330.887	946.38
331.115	939.38
331.344	972.38
331.572	947.38
331.801	929.38
332.03	954.38
332.258	958.38
332.486	965.38
332.715	987.38
332.943	977.38
333.172	936.38
333.4	1008.38
333.629	992.38
333.857	1063.38
334.085	1160.38
334.314	1335.38
334.542	1393.38
334.771	1242.38
334.999	1128.38
335.227	1033.38
335.455	1052.38
335.684	1040.38
335.912	1057.38
336.14	1087.38
336.369	1039.38
336.597	975.38
336.825	959.38
337.053	1026.38
337.281	1072.38
337.51	1123.38
337.738	1118.38
337.966	1097.38
338.194	950.38
338.422	978.38
338.65	934.38
338.878	935.38
339.106	927.38
339.334	945.38
339.562	873.38
339.79	935.38
340.018	983.38
340.246	1023.38
340.474	1000.38
340.702	995.38
340.93	985.38
341.158	1001.38
341.386	995.38
341.614	954.38
341.842	955.38
342.07	945.38
342.298	968.38
342.526	970.38
342.754	937.38
342.981	938.38
343.209	956.38
343.437	952.38
343.665	922.38
343.893	995.38
344.12	1010.38
344.348	1010.38
344.576	995.38
344.804	948.38
345.031	947.38
345.259	960.38
345.487	933.38
345.714	906.38
345.942	882.38
346.17	929.38
346.397	892.38
346.625	916.38
346.853	866.38
347.08	864.38
347.308	857.38
347.535	890.38
347.763	930.38
347.99	905.38
348.218	852.38
348.445	874.38
348.673	917.38
348.9	947.38
349.128	965.38
349.355	966.38
349.583	959.38
349.81	912.38
350.037	850.38
350.265	852.38
350.492	881.38
350.72	914.38
350.947	919.38
351.174	944.38
351.402	885.38
351.629	848.38
351.856	830.38
352.083	844.38
352.311	863.38
352.538	876.38
352.765	912.38
352.992	930.38
353.22	889.38
353.447	856.38
353.674	870.38
353.901	889.38
354.128	896.38
354.355	862.38
354.583	921.38
354.81	961.38
355.037	914.38
355.264	922.38
355.491	892.38
355.718	902.38
355.945	890.38
356.172	881.38
356.399	873.38
356.626	893.38
356.853	906.38
357.08	1015.38
357.307	1060.38
357.534	1013.38
357.761	924.38
357.988	874.38
358.215	875.38
358.441	851.38
358.668	874.38
358.895	896.38
359.122	974.38
359.349	1027.38
359.576	985.38
359.802	896.38
360.029	882.38
360.256	879.38
360.483	885.38
360.709	928.38
360.936	993.38
361.163	994.38
361.39	1065.38
361.616	1113.38
361.843	1099.38
362.07	1041.38
362.296	907.38
362.523	897.38
362.749	897.38
362.976	914.38
363.203	922.38
363.429	908.38
363.656	902.38
363.882	922.38
364.109	1026.38
364.335	1073.38
364.562	991.38
364.788	946.38
365.015	906.38
365.241	880.38
365.468	897.38
365.694	966.38
365.92	1005.38
366.147	906.38
366.373	891.38
366.599	885.38
366.826	890.38
367.052	888.38
367.278	900.38
367.505	893.38
367.731	934.38
367.957	944.38
368.184	974.38
368.41	1037.38
368.636	1050.38
368.862	1051.38
369.089	1015.38
369.315	1002.38
369.541	953.38
369.767	912.38
369.993	931.38
370.219	914.38
370.445	908.38
370.672	1017.38
370.898	1038.38
371.124	996.38
371.35	978.38
371.576	997.38
371.802	1010.38
372.028	984.38
372.254	964.38
372.48	910.38
372.706	926.38
372.932	906.38
373.158	912.38
373.384	930.38
373.61	960.38
373.835	971.38
374.061	983.38
374.287	955.38
374.513	953.38
374.739	983.38
374.965	971.38
375.191	991.38
375.416	979.38
375.642	999.38
375.868	1071.38
376.094	1103.38
376.319	1029.38
376.545	991.38
376.771	1010.38
376.997	1061.38
377.222	1032.38
377.448	986.38
377.674	1004.38
377.899	1030.38
378.125	1094.38
378.35	1058.38
378.576	994.38
378.802	940.38
379.027	939.38
379.253	972.38
379.478	957.38
379.704	972.38
379.929	996.38
380.155	967.38
380.38	1015.38
380.606	987.38
380.831	983.38
381.057	1041.38
381.282	1017.38
381.507	1047.38
381.733	1091.38
381.958	1096.38
382.184	1036.38
382.409	985.38
382.634	1010.38
382.86	1026.38
383.085	1030.38
383.31	1046.38
383.535	1153.38
383.761	1162.38
383.986	1138.38
384.211	1066.38
384.436	1084.38
384.662	1150.38
384.887	1163.38
385.112	1140.38
385.337	1125.38
385.562	1106.38
385.787	1137.38
386.013	1123.38
386.238	1126.38
386.463	1162.38
386.688	1219.38
386.913	1253.38
387.138	1207.38
387.363	1168.38
387.588	1113.38
387.813	1111.38
388.038	1152.38
388.263	1205.38
388.488	1136.38
388.713	1085.38
388.938	1050.38
389.163	1092.38
389.387	1102.38
389.612	1094.38
389.837	1129.38
390.062	1134.38
390.287	1138.38
390.512	1103.38
390.736	1078.38
390.961	1083.38
391.186	1073.38
391.411	1073.38
391.636	1099.38
391.86	1099.38
392.085	1090.38
392.31	1093.38
392.534	1072.38
392.759	1108.38
392.984	1107.38
393.208	1138.38
393.433	1121.38
393.658	1202.38
393.882	1188.38
394.107	1145.38
394.331	1092.38
394.556	1113.38
394.78	1124.38
395.005	1144.38
395.229	1202.38
395.454	1289.38
395.678	1258.38
395.903	1200.38
396.127	1193.38
396.352	1162.38
396.576	1247.38
396.801	1234.38
397.025	1230.38
397.249	1200.38
397.474	1189.38
397.698	1198.38
397.922	1225.38
398.147	1286.38
398.371	1345.38
398.595	1291.38
398.82	1266.38
399.044	1313.38
399.268	1356.38
399.492	1434.38
399.717	1474.38
399.941	1450.38
400.165	1413.38
400.389	1383.38
400.613	1418.38
400.837	1672.38
401.062	1765.38
401.286	1498.38
401.51	1411.38
401.734	1416.38
401.958	1367.38
402.182	1319.38
402.406	1258.38
402.63	1232.38
402.854	1292.38
403.078	1278.38
403.302	1298.38
403.526	1326.38
403.75	1352.38
403.974	1344.38
404.198	1334.38
404.422	1393.38
404.645	1402.38
404.869	1427.38
405.093	1278.38
405.317	1293.38
405.541	1312.38
405.765	1344.38
405.988	1305.38
406.212	1338.38
406.436	1408.38
406.66	1440.38
406.883	1442.38
407.107	1665.38
407.331	1771.38
407.555	1842.38
407.778	1657.38
408.002	1408.38
408.226	1370.38
408.449	1386.38
408.673	1339.38
408.896	1344.38
409.12	1339.38
409.344	1337.38
409.567	1333.38
409.791	1300.38
410.014	1377.38
410.238	1433.38
410.461	1503.38
410.685	1346.38
410.908	1315.38
411.132	1319.38
411.355	1336.38
411.578	1306.38
411.802	1308.38
412.025	1328.38
412.249	1295.38
412.472	1255.38
412.695	1253.38
412.919	1272.38
413.142	1232.38
413.365	1298.38
413.589	1319.38
413.812	1395.38
414.035	1355.38
414.258	1255.38
414.482	1264.38
414.705	1271.38
414.928	1272.38
415.151	1248.38
415.374	1278.38
415.597	1314.38
415.821	1302.38
416.044	1309.38
416.267	1310.38
416.49	1233.38
416.713	1234.38
416.936	1286.38
417.159	1316.38
417.382	1315.38
417.605	1277.38
417.828	1307.38
418.051	1310.38
418.274	1273.38
418.497	1250.38
418.72	1229.38
418.943	1247.38
419.166	1310.38
419.389	1341.38
419.611	1289.38
419.834	1268.38
420.057	1285.38
420.28	1261.38
420.503	1252.38
420.726	1285.38
420.948	1270.38
421.171	1211.38
421.394	1288.38
421.617	1277.38
421.839	1301.38
422.062	1283.38
422.285	1234.38
422.507	1248.38
422.73	1226.38
422.953	1192.38
423.175	1237.38
423.398	1241.38
423.621	1262.38
423.843	1248.38
424.066	1295.38
424.288	1383.38
424.511	1373.38
424.733	1298.38
424.956	1230.38
425.178	1227.38
425.401	1230.38
425.623	1260.38
425.846	1236.38
426.068	1313.38
426.291	1311.38
426.513	1279.38
426.735	1309.38
426.958	1407.38
427.18	1468.38
427.402	1332.38
427.625	1357.38
427.847	1349.38
428.069	1271.38
428.292	1225.38
428.514	1218.38
428.736	1187.38
428.958	1230.38
429.181	1253.38
429.403	1402.38
429.625	1718.38
429.847	1441.38
430.069	1282.38
430.292	1412.38
430.514	1395.38
430.736	1312.38
430.958	1379.38
431.18	1272.38
431.402	1216.38
431.624	1201.38
431.846	1126.38
432.068	1108.38
432.29	1118.38
432.512	1151.38
432.734	1186.38
432.956	1278.38
433.178	1315.38
433.4	1268.38
433.622	1297.38
433.844	1228.38
434.066	1146.38
434.287	1157.38
434.509	1193.38
434.731	1227.38
434.953	1336.38
435.175	1292.38
435.397	1254.38
435.618	1264.38
435.84	1202.38
436.062	1185.38
436.284	1214.38
436.505	1262.38
436.727	1320.38
436.949	1236.38
437.17	1219.38
437.392	1161.38
437.614	1167.38
437.835	1161.38
438.057	1177.38
438.278	1222.38
438.5	1212.38
438.721	1210.38
438.943	1243.38
439.165	1243.38
439.386	1202.38
439.608	1241.38
439.829	1221.38
440.05	1241.38
440.272	1187.38
440.493	1196.38
440.715	1219.38
440.936	1314.38
441.158	1398.38
441.379	1356.38
441.6	1336.38
441.822	1352.38
442.043	1306.38
442.264	1286.38
442.486	1233.38
442.707	1258.38
442.928	1201.38
443.149	1276.38
443.371	1332.38
443.592	1339.38
443.813	1350.38
444.034	1283.38
444.255	1311.38
444.476	1334.38
444.698	1339.38
444.919	1382.38
445.14	1448.38
445.361	1431.38
445.582	1449.38
445.803	1372.38
446.024	1342.38
446.245	1374.38
446.466	1353.38
446.687	1320.38
446.908	1340.38
447.129	1292.38
447.35	1269.38
447.571	1271.38
447.792	1184.38
448.013	1202.38
448.234	1214.38
448.455	1282.38
448.675	1246.38
448.896	1204.38
449.117	1158.38
449.338	1204.38
449.559	1236.38
449.779	1277.38
450	1385.38
450.221	1426.38
450.442	1372.38
450.662	1249.38
450.883	1134.38
451.104	1145.38
451.324	1157.38
451.545	1194.38
451.766	1137.38
451.986	1119.38
452.207	1080.38
452.428	1057.38
452.648	1051.38
452.869	1085.38
453.089	1134.38
453.31	1113.38
453.53	1147.38
453.751	1081.38
453.971	1032.38
454.192	1070.38
454.412	1121.38
454.633	1103.38
454.853	1109.38
455.073	1052.38
455.294	1049.38
455.514	1048.38
455.734	1046.38
455.955	1063.38
456.175	1035.38
456.395	1046.38
456.616	1050.38
456.836	1047.38
457.056	1058.38
457.276	1070.38
457.497	1054.38
457.717	967.38
457.937	1018.38
458.157	1049.38
458.377	1037.38
458.598	1006.38
458.818	1036.38
459.038	1070.38
459.258	1112.38
459.478	1125.38
459.698	1086.38
459.918	1144.38
460.138	1194.38
460.358	1197.38
460.578	1185.38
460.798	1284.38
461.018	1307.38
461.238	1250.38
461.458	1226.38
461.678	1210.38
461.898	1156.38
462.118	1164.38
462.338	1244.38
462.558	1244.38
462.777	1227.38
462.997	1274.38
463.217	1363.38
463.437	1330.38
463.657	1257.38
463.876	1214.38
464.096	1239.38
464.316	1208.38
464.536	1280.38
464.755	1305.38
464.975	1288.38
465.195	1255.38
465.414	1271.38
465.634	1263.38
465.854	1226.38
466.073	1342.38
466.293	1294.38
466.512	1145.38
466.732	1181.38
466.951	1214.38
467.171	1207.38
467.391	1164.38
467.61	1160.38
467.829	1191.38
468.049	1313.38
468.268	1398.38
468.488	1322.38
468.707	1271.38
468.927	1214.38
469.146	1179.38
469.365	1228.38
469.585	1203.38
469.804	1179.38
470.023	1235.38
470.243	1203.38
470.462	1178.38
470.681	1222.38
470.901	1213.38
471.12	1222.38
471.339	1183.38
471.558	1144.38
471.777	1156.38
471.997	1150.38
472.216	1166.38
472.435	1092.38
472.654	1087.38
472.873	1160.38
473.092	1215.38
473.311	1150.38
473.53	1150.38
473.749	1126.38
473.968	1122.38
474.187	1169.38
474.406	1188.38
474.625	1186.38
474.844	1136.38
475.063	1158.38
475.282	1171.38
475.501	1174.38
475.72	1174.38
475.939	1251.38
476.158	1210.38
476.377	1207.38
476.596	1175.38
476.814	1178.38
477.033	1167.38
477.252	1210.38
477.471	1266.38
477.69	1244.38
477.908	1253.38
478.127	1338.38
478.346	1416.38
478.564	1366.38
478.783	1377.38
479.002	1405.38
479.22	1400.38
479.439	1431.38
479.658	1539.38
479.876	1484.38
480.095	1377.38
480.313	1330.38
480.532	1251.38
480.751	1279.38
480.969	1295.38
481.188	1251.38
481.406	1208.38
481.624	1187.38
481.843	1217.38
482.061	1260.38
482.28	1258.38
482.498	1296.38
482.717	1271.38
482.935	1279.38
483.153	1320.38
483.372	1315.38
483.59	1347.38
483.808	1344.38
484.027	1323.38
484.245	1417.38
484.463	1648.38
484.681	1831.38
484.9	1438.38
485.118	1319.38
485.336	1308.38
485.554	1342.38
485.772	1357.38
485.99	1341.38
486.209	1335.38
486.427	1336.38
486.645	1346.38
486.863	1390.38
487.081	1437.38
487.299	1429.38
487.517	1415.38
487.735	1472.38
487.953	1494.38
488.171	1439.38
488.389	1436.38
488.607	1468.38
488.825	1569.38
489.043	1532.38
489.261	1375.38
489.479	1455.38
489.696	1434.38
489.914	1440.38
490.132	1409.38
490.35	1428.38
490.568	1498.38
490.786	1458.38
491.003	1466.38
491.221	1537.38
491.439	1557.38
491.657	1552.38
491.874	1571.38
492.092	1616.38
492.31	1648.38
492.527	1622.38
492.745	1558.38
492.963	1560.38
493.18	1572.38
493.398	1632.38
493.615	1687.38
493.833	1551.38
494.05	1541.38
