Data from WStandard_LampEnergy10_LIBS07252019.E.O._I.C._HRD10591_15-53-11-928.txt Node
Date: Thu Jul 25 15:53:11 EDT 2019
User: cochatt
Spectrometer: HR+D1059
Trigger mode: 1
Integration Time (sec): 1.000000E-1
Scans to average: 1
Electric dark correction enabled: true
Nonlinearity correction enabled: false
Boxcar width: 0
XAxis mode: Wavelengths
Number of Pixels in Spectrum: 2048
>>>>>Begin Spectral Data<<<<<
223.165	-1.5
223.4	-1.5
223.635	-1.5
223.869	-25.5
224.104	-14.5
224.338	-18.5
224.573	-14.5
224.808	-18.5
225.042	0.5
225.277	-15.5
225.511	-5.5
225.746	11.5
225.98	4.5
226.215	6.5
226.449	17.5
226.683	18.5
226.918	26.5
227.152	28.5
227.387	29.5
227.621	20.5
227.856	43.5
228.09	43.5
228.324	50.5
228.559	51.5
228.793	80.5
229.027	125.5
229.262	138.5
229.496	150.5
229.73	150.5
229.964	170.5
230.199	164.5
230.433	179.5
230.667	177.5
230.901	191.5
231.136	163.5
231.37	168.5
231.604	183.5
231.838	165.5
232.072	177.5
232.306	181.5
232.541	165.5
232.775	193.5
233.009	213.5
233.243	214.5
233.477	187.5
233.711	201.5
233.945	202.5
234.179	199.5
234.413	195.5
234.647	184.5
234.881	194.5
235.115	190.5
235.349	200.5
235.583	207.5
235.817	194.5
236.051	198.5
236.285	203.5
236.519	205.5
236.753	223.5
236.987	213.5
237.221	225.5
237.455	224.5
237.689	231.5
237.922	225.5
238.156	221.5
238.39	219.5
238.624	222.5
238.858	216.5
239.091	253.5
239.325	266.5
239.559	285.5
239.793	297.5
240.027	291.5
240.26	298.5
240.494	229.5
240.728	238.5
240.961	232.5
241.195	231.5
241.429	257.5
241.662	261.5
241.896	236.5
242.13	249.5
242.363	278.5
242.597	281.5
242.83	277.5
243.064	286.5
243.298	299.5
243.531	275.5
243.765	283.5
243.998	263.5
244.232	263.5
244.465	245.5
244.699	241.5
244.932	278.5
245.166	296.5
245.399	292.5
245.633	273.5
245.866	273.5
246.099	273.5
246.333	285.5
246.566	286.5
246.8	330.5
247.033	335.5
247.266	304.5
247.5	309.5
247.733	314.5
247.966	341.5
248.2	347.5
248.433	345.5
248.666	338.5
248.899	376.5
249.133	413.5
249.366	466.5
249.599	382.5
249.832	353.5
250.066	378.5
250.299	362.5
250.532	343.5
250.765	321.5
250.998	342.5
251.231	347.5
251.465	350.5
251.698	340.5
251.931	337.5
252.164	356.5
252.397	347.5
252.63	350.5
252.863	323.5
253.096	316.5
253.329	342.5
253.562	340.5
253.795	360.5
254.028	356.5
254.261	330.5
254.494	332.5
254.727	339.5
254.96	341.5
255.193	362.5
255.426	415.5
255.659	474.5
255.892	441.5
256.124	393.5
256.357	369.5
256.59	416.5
256.823	425.5
257.056	424.5
257.289	460.5
257.521	491.5
257.754	466.5
257.987	441.5
258.22	455.5
258.452	448.5
258.685	390.5
258.918	390.5
259.151	393.5
259.383	365.5
259.616	357.5
259.849	352.5
260.081	398.5
260.314	445.5
260.547	456.5
260.779	445.5
261.012	421.5
261.244	389.5
261.477	405.5
261.71	383.5
261.942	407.5
262.175	381.5
262.407	391.5
262.64	373.5
262.872	372.5
263.105	350.5
263.337	361.5
263.57	342.5
263.802	355.5
264.035	343.5
264.267	342.5
264.499	342.5
264.732	356.5
264.964	360.5
265.197	390.5
265.429	395.5
265.661	456.5
265.894	470.5
266.126	472.5
266.358	467.5
266.591	447.5
266.823	493.5
267.055	440.5
267.287	435.5
267.52	440.5
267.752	453.5
267.984	449.5
268.216	458.5
268.448	460.5
268.681	452.5
268.913	434.5
269.145	410.5
269.377	410.5
269.609	447.5
269.841	499.5
270.073	580.5
270.306	603.5
270.538	591.5
270.77	539.5
271.002	479.5
271.234	458.5
271.466	449.5
271.698	520.5
271.93	576.5
272.162	572.5
272.394	550.5
272.626	506.5
272.858	456.5
273.09	417.5
273.322	392.5
273.553	374.5
273.785	403.5
274.017	415.5
274.249	438.5
274.481	421.5
274.713	421.5
274.945	428.5
275.176	404.5
275.408	388.5
275.64	404.5
275.872	432.5
276.104	433.5
276.335	481.5
276.567	535.5
276.799	502.5
277.031	468.5
277.262	480.5
277.494	500.5
277.726	499.5
277.957	509.5
278.189	470.5
278.421	449.5
278.652	412.5
278.884	441.5
279.115	422.5
279.347	427.5
279.579	426.5
279.81	438.5
280.042	454.5
280.273	494.5
280.505	499.5
280.736	520.5
280.968	480.5
281.199	437.5
281.431	384.5
281.662	434.5
281.894	424.5
282.125	437.5
282.356	431.5
282.588	456.5
282.819	450.5
283.051	489.5
283.282	519.5
283.513	497.5
283.745	427.5
283.976	411.5
284.207	447.5
284.439	435.5
284.67	449.5
284.901	441.5
285.132	457.5
285.364	454.5
285.595	442.5
285.826	440.5
286.057	449.5
286.288	443.5
286.52	462.5
286.751	504.5
286.982	491.5
287.213	460.5
287.444	418.5
287.675	437.5
287.906	447.5
288.138	488.5
288.369	468.5
288.6	454.5
288.831	437.5
289.062	437.5
289.293	431.5
289.524	408.5
289.755	436.5
289.986	441.5
290.217	455.5
290.448	444.5
290.679	455.5
290.91	455.5
291.141	489.5
291.371	466.5
291.602	478.5
291.833	480.5
292.064	500.5
292.295	477.5
292.526	520.5
292.757	499.5
292.987	486.5
293.218	487.5
293.449	534.5
293.68	568.5
293.91	575.5
294.141	561.5
294.372	519.5
294.603	549.5
294.833	552.5
295.064	546.5
295.295	461.5
295.525	450.5
295.756	462.5
295.987	431.5
296.217	433.5
296.448	465.5
296.679	463.5
296.909	440.5
297.14	443.5
297.37	476.5
297.601	502.5
297.831	523.5
298.062	527.5
298.292	475.5
298.523	480.5
298.753	471.5
298.984	477.5
299.214	482.5
299.445	482.5
299.675	482.5
299.905	495.5
300.136	467.5
300.366	459.5
300.597	456.5
300.827	470.5
301.057	479.5
301.288	495.5
301.518	479.5
301.748	537.5
301.979	538.5
302.209	537.5
302.439	570.5
302.669	575.5
302.9	543.5
303.13	519.5
303.36	523.5
303.59	512.5
303.82	534.5
304.051	518.5
304.281	540.5
304.511	528.5
304.741	549.5
304.971	583.5
305.201	609.5
305.431	553.5
305.661	469.5
305.891	423.5
306.121	453.5
306.352	493.5
306.582	523.5
306.812	558.5
307.042	586.5
307.272	561.5
307.502	597.5
307.731	627.5
307.961	641.5
308.191	580.5
308.421	534.5
308.651	504.5
308.881	495.5
309.111	485.5
309.341	464.5
309.571	484.5
309.8	511.5
310.03	481.5
310.26	491.5
310.49	474.5
310.72	508.5
310.949	508.5
311.179	520.5
311.409	519.5
311.639	516.5
311.868	493.5
312.098	500.5
312.328	512.5
312.557	476.5
312.787	521.5
313.017	530.5
313.246	520.5
313.476	522.5
313.706	487.5
313.935	550.5
314.165	524.5
314.394	543.5
314.624	579.5
314.853	611.5
315.083	596.5
315.312	630.5
315.542	574.5
315.771	534.5
316.001	559.5
316.23	563.5
316.46	547.5
316.689	544.5
316.919	527.5
317.148	518.5
317.377	536.5
317.607	575.5
317.836	618.5
318.065	618.5
318.295	611.5
318.524	568.5
318.753	567.5
318.983	564.5
319.212	542.5
319.441	535.5
319.67	550.5
319.9	569.5
320.129	600.5
320.358	598.5
320.587	607.5
320.816	605.5
321.046	577.5
321.275	567.5
321.504	561.5
321.733	594.5
321.962	606.5
322.191	558.5
322.42	544.5
322.649	545.5
322.878	539.5
323.108	555.5
323.337	579.5
323.566	592.5
323.795	565.5
324.024	564.5
324.253	549.5
324.482	575.5
324.71	554.5
324.939	505.5
325.168	551.5
325.397	541.5
325.626	565.5
325.855	579.5
326.084	577.5
326.313	546.5
326.542	591.5
326.77	573.5
326.999	582.5
327.228	567.5
327.457	559.5
327.686	530.5
327.914	531.5
328.143	554.5
328.372	554.5
328.6	564.5
328.829	553.5
329.058	517.5
329.287	579.5
329.515	567.5
329.744	579.5
329.972	576.5
330.201	605.5
330.43	603.5
330.658	585.5
330.887	584.5
331.115	599.5
331.344	599.5
331.572	594.5
331.801	592.5
332.03	591.5
332.258	595.5
332.486	584.5
332.715	613.5
332.943	600.5
333.172	596.5
333.4	603.5
333.629	635.5
333.857	687.5
334.085	721.5
334.314	800.5
334.542	830.5
334.771	756.5
334.999	681.5
335.227	627.5
335.455	633.5
335.684	647.5
335.912	669.5
336.14	648.5
336.369	643.5
336.597	591.5
336.825	616.5
337.053	635.5
337.281	663.5
337.51	673.5
337.738	694.5
337.966	648.5
338.194	609.5
338.422	579.5
338.65	610.5
338.878	579.5
339.106	580.5
339.334	560.5
339.562	563.5
339.79	558.5
340.018	629.5
340.246	626.5
340.474	622.5
340.702	616.5
340.93	601.5
341.158	611.5
341.386	605.5
341.614	579.5
341.842	601.5
342.07	610.5
342.298	605.5
342.526	592.5
342.754	582.5
342.981	591.5
343.209	585.5
343.437	579.5
343.665	586.5
343.893	619.5
344.12	625.5
344.348	632.5
344.576	598.5
344.804	607.5
345.031	596.5
345.259	600.5
345.487	579.5
345.714	541.5
345.942	536.5
346.17	534.5
346.397	581.5
346.625	567.5
346.853	536.5
347.08	539.5
347.308	537.5
347.535	563.5
347.763	596.5
347.99	573.5
348.218	565.5
348.445	569.5
348.673	565.5
348.9	591.5
349.128	595.5
349.355	610.5
349.583	594.5
349.81	575.5
350.037	541.5
350.265	515.5
350.492	529.5
350.72	551.5
350.947	559.5
351.174	561.5
351.402	548.5
351.629	531.5
351.856	528.5
352.083	530.5
352.311	529.5
352.538	539.5
352.765	568.5
352.992	554.5
353.22	555.5
353.447	539.5
353.674	539.5
353.901	542.5
354.128	557.5
354.355	522.5
354.583	589.5
354.81	568.5
355.037	578.5
355.264	591.5
355.491	569.5
355.718	540.5
355.945	541.5
356.172	547.5
356.399	552.5
356.626	554.5
356.853	592.5
357.08	633.5
357.307	670.5
357.534	647.5
357.761	591.5
357.988	517.5
358.215	537.5
358.441	542.5
358.668	547.5
358.895	557.5
359.122	597.5
359.349	632.5
359.576	607.5
359.802	552.5
360.029	519.5
360.256	529.5
360.483	563.5
360.709	565.5
360.936	590.5
361.163	640.5
361.39	660.5
361.616	706.5
361.843	696.5
362.07	623.5
362.296	583.5
362.523	559.5
362.749	565.5
362.976	579.5
363.203	560.5
363.429	547.5
363.656	569.5
363.882	590.5
364.109	660.5
364.335	640.5
364.562	603.5
364.788	599.5
365.015	553.5
365.241	561.5
365.468	566.5
365.694	600.5
365.92	605.5
366.147	599.5
366.373	563.5
366.599	550.5
366.826	569.5
367.052	553.5
367.278	585.5
367.505	563.5
367.731	590.5
367.957	607.5
368.184	638.5
368.41	661.5
368.636	654.5
368.862	647.5
369.089	677.5
369.315	638.5
369.541	612.5
369.767	594.5
369.993	593.5
370.219	604.5
370.445	598.5
370.672	647.5
370.898	651.5
371.124	636.5
371.35	639.5
371.576	657.5
371.802	648.5
372.028	635.5
372.254	603.5
372.48	617.5
372.706	606.5
372.932	584.5
373.158	607.5
373.384	633.5
373.61	654.5
373.835	647.5
374.061	617.5
374.287	613.5
374.513	617.5
374.739	638.5
374.965	613.5
375.191	647.5
375.416	635.5
375.642	663.5
375.868	705.5
376.094	710.5
376.319	659.5
376.545	639.5
376.771	645.5
376.997	681.5
377.222	689.5
377.448	670.5
377.674	662.5
377.899	659.5
378.125	699.5
378.35	676.5
378.576	643.5
378.802	613.5
379.027	609.5
379.253	653.5
379.478	623.5
379.704	643.5
379.929	647.5
380.155	622.5
380.38	649.5
380.606	658.5
380.831	663.5
381.057	709.5
381.282	689.5
381.507	679.5
381.733	720.5
381.958	739.5
382.184	680.5
382.409	672.5
382.634	689.5
382.86	685.5
383.085	670.5
383.31	689.5
383.535	771.5
383.761	771.5
383.986	778.5
384.211	715.5
384.436	736.5
384.662	743.5
384.887	782.5
385.112	730.5
385.337	714.5
385.562	727.5
385.787	718.5
386.013	753.5
386.238	751.5
386.463	754.5
386.688	833.5
386.913	856.5
387.138	827.5
387.363	776.5
387.588	761.5
387.813	765.5
388.038	790.5
388.263	803.5
388.488	751.5
388.713	719.5
388.938	708.5
389.163	721.5
389.387	723.5
389.612	734.5
389.837	750.5
390.062	730.5
390.287	749.5
390.512	749.5
390.736	728.5
390.961	715.5
391.186	718.5
391.411	742.5
391.636	728.5
391.86	771.5
392.085	735.5
392.31	744.5
392.534	753.5
392.759	755.5
392.984	763.5
393.208	751.5
393.433	779.5
393.658	834.5
393.882	822.5
394.107	775.5
394.331	749.5
394.556	739.5
394.78	775.5
395.005	789.5
395.229	845.5
395.454	874.5
395.678	863.5
395.903	808.5
396.127	809.5
396.352	831.5
396.576	836.5
396.801	842.5
397.025	852.5
397.249	800.5
397.474	829.5
397.698	812.5
397.922	845.5
398.147	900.5
398.371	904.5
398.595	917.5
398.82	850.5
399.044	895.5
399.268	943.5
399.492	927.5
399.717	992.5
399.941	987.5
400.165	986.5
400.389	967.5
400.613	955.5
400.837	1078.5
401.062	1177.5
401.286	999.5
401.51	979.5
401.734	959.5
401.958	939.5
402.182	915.5
402.406	891.5
402.63	905.5
402.854	866.5
403.078	889.5
403.302	897.5
403.526	900.5
403.75	894.5
403.974	905.5
404.198	925.5
404.422	997.5
404.645	984.5
404.869	979.5
405.093	896.5
405.317	911.5
405.541	906.5
405.765	915.5
405.988	918.5
406.212	938.5
406.436	953.5
406.66	972.5
406.883	1013.5
407.107	1151.5
407.331	1178.5
407.555	1259.5
407.778	1136.5
408.002	970.5
408.226	951.5
408.449	974.5
408.673	945.5
408.896	953.5
409.12	943.5
409.344	948.5
409.567	897.5
409.791	919.5
410.014	970.5
410.238	1038.5
410.461	1039.5
410.685	942.5
410.908	891.5
411.132	961.5
411.355	894.5
411.578	946.5
411.802	911.5
412.025	937.5
412.249	943.5
412.472	914.5
412.695	896.5
412.919	919.5
413.142	935.5
413.365	919.5
413.589	963.5
413.812	991.5
414.035	1024.5
414.258	945.5
414.482	927.5
414.705	932.5
414.928	897.5
415.151	906.5
415.374	928.5
415.597	941.5
415.821	907.5
416.044	935.5
416.267	921.5
416.49	890.5
416.713	914.5
416.936	919.5
417.159	966.5
417.382	969.5
417.605	927.5
417.828	963.5
418.051	935.5
418.274	932.5
418.497	931.5
418.72	949.5
418.943	917.5
419.166	946.5
419.389	982.5
419.611	947.5
419.834	922.5
420.057	963.5
420.28	931.5
420.503	937.5
420.726	974.5
420.948	941.5
421.171	913.5
421.394	932.5
421.617	987.5
421.839	1000.5
422.062	980.5
422.285	963.5
422.507	945.5
422.73	897.5
422.953	878.5
423.175	908.5
423.398	937.5
423.621	921.5
423.843	927.5
424.066	954.5
424.288	1010.5
424.511	1058.5
424.733	1031.5
424.956	957.5
425.178	968.5
425.401	905.5
425.623	953.5
425.846	953.5
426.068	979.5
426.291	962.5
426.513	946.5
426.735	945.5
426.958	1031.5
427.18	1054.5
427.402	1023.5
427.625	1027.5
427.847	974.5
428.069	919.5
428.292	903.5
428.514	917.5
428.736	897.5
428.958	884.5
429.181	935.5
429.403	1070.5
429.625	1208.5
429.847	1046.5
430.069	942.5
430.292	1039.5
430.514	1015.5
430.736	942.5
430.958	975.5
431.18	909.5
431.402	866.5
431.624	837.5
431.846	787.5
432.068	730.5
432.29	750.5
432.512	769.5
432.734	847.5
432.956	918.5
433.178	975.5
433.4	969.5
433.622	952.5
433.844	912.5
434.066	855.5
434.287	821.5
434.509	801.5
434.731	820.5
434.953	906.5
435.175	929.5
435.397	891.5
435.618	881.5
435.84	855.5
436.062	851.5
436.284	898.5
436.505	939.5
436.727	962.5
436.949	927.5
437.17	899.5
437.392	883.5
437.614	845.5
437.835	789.5
438.057	841.5
438.278	858.5
438.5	845.5
438.721	872.5
438.943	926.5
439.165	923.5
439.386	930.5
439.608	943.5
439.829	934.5
440.05	947.5
440.272	959.5
440.493	943.5
440.715	955.5
440.936	1009.5
441.158	1061.5
441.379	1036.5
441.6	1012.5
441.822	1023.5
442.043	1016.5
442.264	998.5
442.486	932.5
442.707	989.5
442.928	974.5
443.149	1012.5
443.371	988.5
443.592	1028.5
443.813	1012.5
444.034	1060.5
444.255	1041.5
444.476	1033.5
444.698	1036.5
444.919	1049.5
445.14	1128.5
445.361	1087.5
445.582	1075.5
445.803	1043.5
446.024	1036.5
446.245	1071.5
446.466	1048.5
446.687	1040.5
446.908	1039.5
447.129	992.5
447.35	1010.5
447.571	1027.5
447.792	949.5
448.013	974.5
448.234	947.5
448.455	990.5
448.675	970.5
448.896	919.5
449.117	885.5
449.338	929.5
449.559	967.5
449.779	985.5
450	1042.5
450.221	1054.5
450.442	1008.5
450.662	934.5
450.883	861.5
451.104	869.5
451.324	883.5
451.545	893.5
451.766	864.5
451.986	859.5
452.207	826.5
452.428	827.5
452.648	822.5
452.869	781.5
453.089	785.5
453.31	790.5
453.53	765.5
453.751	725.5
453.971	690.5
454.192	728.5
454.412	776.5
454.633	777.5
454.853	790.5
455.073	747.5
455.294	743.5
455.514	759.5
455.734	749.5
455.955	763.5
456.175	746.5
456.395	760.5
456.616	743.5
456.836	707.5
457.056	729.5
457.276	725.5
457.497	718.5
457.717	705.5
457.937	673.5
458.157	679.5
458.377	681.5
458.598	659.5
458.818	673.5
459.038	707.5
459.258	695.5
459.478	693.5
459.698	717.5
459.918	726.5
460.138	791.5
460.358	840.5
460.578	817.5
460.798	849.5
461.018	854.5
461.238	887.5
461.458	851.5
461.678	817.5
461.898	813.5
462.118	776.5
462.338	837.5
462.558	829.5
462.777	818.5
462.997	877.5
463.217	871.5
463.437	862.5
463.657	855.5
463.876	850.5
464.096	794.5
464.316	836.5
464.536	872.5
464.755	878.5
464.975	895.5
465.195	870.5
465.414	880.5
465.634	903.5
465.854	897.5
466.073	932.5
466.293	947.5
466.512	871.5
466.732	852.5
466.951	874.5
467.171	889.5
467.391	859.5
467.61	864.5
467.829	898.5
468.049	966.5
468.268	1041.5
468.488	959.5
468.707	921.5
468.927	905.5
469.146	887.5
469.365	933.5
469.585	952.5
469.804	916.5
470.023	942.5
470.243	934.5
470.462	923.5
470.681	951.5
470.901	919.5
471.12	936.5
471.339	937.5
471.558	911.5
471.777	903.5
471.997	887.5
472.216	850.5
472.435	753.5
472.654	779.5
472.873	771.5
473.092	862.5
473.311	808.5
473.53	789.5
473.749	785.5
473.968	823.5
474.187	810.5
474.406	813.5
474.625	855.5
474.844	867.5
475.063	865.5
475.282	852.5
475.501	828.5
475.72	856.5
475.939	893.5
476.158	885.5
476.377	879.5
476.596	852.5
476.814	813.5
477.033	803.5
477.252	842.5
477.471	887.5
477.69	911.5
477.908	943.5
478.127	1026.5
478.346	1022.5
478.564	1027.5
478.783	967.5
479.002	1016.5
479.22	1014.5
479.439	1028.5
479.658	1043.5
479.876	981.5
480.095	899.5
480.313	885.5
480.532	921.5
480.751	863.5
480.969	814.5
481.188	817.5
481.406	788.5
481.624	788.5
481.843	779.5
482.061	805.5
482.28	863.5
482.498	891.5
482.717	841.5
482.935	861.5
483.153	974.5
483.372	1029.5
483.59	1043.5
483.808	990.5
484.027	947.5
484.245	982.5
484.463	1192.5
484.681	1305.5
484.9	1024.5
485.118	966.5
485.336	917.5
485.554	899.5
485.772	881.5
485.99	862.5
486.209	892.5
486.427	913.5
486.645	918.5
486.863	971.5
487.081	1009.5
487.299	1020.5
487.517	1010.5
487.735	1125.5
487.953	1211.5
488.171	1179.5
488.389	1139.5
488.607	1098.5
488.825	1133.5
489.043	1050.5
489.261	970.5
489.479	1029.5
489.696	1071.5
489.914	1057.5
490.132	1031.5
490.35	1065.5
490.568	1173.5
490.786	1180.5
491.003	1193.5
491.221	1225.5
491.439	1271.5
491.657	1301.5
491.874	1353.5
492.092	1424.5
492.31	1501.5
492.527	1479.5
492.745	1351.5
492.963	1307.5
493.18	1310.5
493.398	1358.5
493.615	1331.5
493.833	1257.5
494.05	1243.5
494.268	1241.5
494.485	1245.5
494.703	1255.5
494.92	1249.5
495.138	1233.5
495.355	1245.5
495.573	1266.5
495.79	1281.5
496.008	1270.5
496.225	1251.5
496.442	1224.5
496.66	1199.5
496.877	1226.5
497.094	1237.5
497.312	1222.5
497.529	1163.5
497.746	1191.5
497.963	1267.5
498.181	1278.5
498.398	1286.5
498.615	1198.5
498.832	1146.5
499.049	1146.5
499.267	1167.5
499.484	1219.5
499.701	1335.5
499.918	1387.5
500.135	1445.5
500.352	1587.5
500.569	1570.5
500.786	1704.5
501.003	1569.5
501.22	1442.5
501.437	1374.5
501.654	1372.5
501.871	1330.5
502.088	1194.5
502.305	1227.5
502.522	1130.5
502.739	1098.5
502.956	1047.5
503.172	1071.5
503.389	1009.5
503.606	1007.5
503.823	995.5
504.04	996.5
504.256	986.5
504.473	1000.5
504.69	1005.5
504.907	964.5
505.123	960.5
505.34	1081.5
505.557	1343.5
505.773	1103.5
505.99	951.5
506.207	907.5
506.423	903.5
506.64	892.5
506.856	905.5
507.073	1025.5
507.289	1077.5
507.506	998.5
507.722	879.5
507.939	866.5
508.155	841.5
508.372	851.5
508.588	815.5
508.805	775.5
509.021	790.5
509.238	781.5
509.454	759.5
509.67	774.5
509.887	749.5
510.103	730.5
510.319	727.5
510.536	759.5
510.752	776.5
510.968	740.5
511.184	777.5
511.401	719.5
511.617	707.5
511.833	727.5
512.049	722.5
512.265	689.5
512.481	719.5
512.698	732.5
512.914	751.5
513.13	750.5
513.346	710.5
513.562	671.5
513.778	724.5
513.994	740.5
514.21	736.5
514.426	778.5
514.642	829.5
514.858	769.5
515.074	752.5
515.29	723.5
515.506	717.5
515.721	749.5
515.937	738.5
516.153	801.5
516.369	781.5
516.585	713.5
516.801	706.5
517.016	738.5
517.232	739.5
517.448	743.5
517.664	791.5
517.879	779.5
