Data from WStandard_LampEnergy8_LIBS07252019.E.O._I.C._HRD10591_16-00-22-930.txt Node
Date: Thu Jul 25 16:00:22 EDT 2019
User: cochatt
Spectrometer: HR+D1059
Trigger mode: 1
Integration Time (sec): 1.000000E-1
Scans to average: 1
Electric dark correction enabled: true
Nonlinearity correction enabled: false
Boxcar width: 0
XAxis mode: Wavelengths
Number of Pixels in Spectrum: 2048
>>>>>Begin Spectral Data<<<<<
223.165	-7.19
223.4	-7.19
223.635	-7.19
223.869	1.81
224.104	-17.19
224.338	-13.19
224.573	-17.19
224.808	-0.19
225.042	-18.19
225.277	-16.19
225.511	-9.19
225.746	4.81
225.98	-3.19
226.215	17.81
226.449	0.81
226.683	21.81
226.918	21.81
227.152	32.81
227.387	46.81
227.621	38.81
227.856	39.81
228.09	64.81
228.324	59.81
228.559	56.81
228.793	98.81
229.027	198.81
229.262	211.81
229.496	200.81
229.73	222.81
229.964	241.81
230.199	249.81
230.433	257.81
230.667	266.81
230.901	290.81
231.136	265.81
231.37	246.81
231.604	251.81
231.838	261.81
232.072	251.81
232.306	237.81
232.541	256.81
232.775	308.81
233.009	317.81
233.243	309.81
233.477	281.81
233.711	290.81
233.945	313.81
234.179	306.81
234.413	320.81
234.647	303.81
234.881	305.81
235.115	289.81
235.349	298.81
235.583	304.81
235.817	291.81
236.051	283.81
236.285	305.81
236.519	339.81
236.753	342.81
236.987	355.81
237.221	349.81
237.455	373.81
237.689	363.81
237.922	343.81
238.156	362.81
238.39	339.81
238.624	363.81
238.858	393.81
239.091	402.81
239.325	417.81
239.559	467.81
239.793	503.81
240.027	495.81
240.26	470.81
240.494	377.81
240.728	366.81
240.961	391.81
241.195	370.81
241.429	412.81
241.662	411.81
241.896	366.81
242.13	384.81
242.363	436.81
242.597	438.81
242.83	443.81
243.064	439.81
243.298	477.81
243.531	451.81
243.765	461.81
243.998	448.81
244.232	405.81
244.465	378.81
244.699	417.81
244.932	443.81
245.166	496.81
245.399	481.81
245.633	447.81
245.866	427.81
246.099	480.81
246.333	467.81
246.566	487.81
246.8	536.81
247.033	548.81
247.266	549.81
247.5	517.81
247.733	536.81
247.966	543.81
248.2	600.81
248.433	583.81
248.666	605.81
248.899	653.81
249.133	739.81
249.366	771.81
249.599	654.81
249.832	610.81
250.066	615.81
250.299	610.81
250.532	571.81
250.765	521.81
250.998	549.81
251.231	585.81
251.465	607.81
251.698	558.81
251.931	567.81
252.164	585.81
252.397	602.81
252.63	589.81
252.863	535.81
253.096	554.81
253.329	563.81
253.562	551.81
253.795	593.81
254.028	585.81
254.261	579.81
254.494	550.81
254.727	553.81
254.96	566.81
255.193	637.81
255.426	718.81
255.659	774.81
255.892	766.81
256.124	666.81
256.357	647.81
256.59	677.81
256.823	678.81
257.056	707.81
257.289	825.81
257.521	882.81
257.754	793.81
257.987	755.81
258.22	805.81
258.452	799.81
258.685	651.81
258.918	631.81
259.151	658.81
259.383	616.81
259.616	576.81
259.849	593.81
260.081	681.81
260.314	724.81
260.547	803.81
260.779	791.81
261.012	763.81
261.244	676.81
261.477	653.81
261.71	675.81
261.942	694.81
262.175	671.81
262.407	677.81
262.64	645.81
262.872	633.81
263.105	627.81
263.337	625.81
263.57	626.81
263.802	630.81
264.035	598.81
264.267	573.81
264.499	549.81
264.732	588.81
264.964	644.81
265.197	633.81
265.429	694.81
265.661	754.81
265.894	824.81
266.126	830.81
266.358	781.81
266.591	809.81
266.823	825.81
267.055	751.81
267.287	727.81
267.52	756.81
267.752	714.81
267.984	751.81
268.216	772.81
268.448	793.81
268.681	777.81
268.913	716.81
269.145	685.81
269.377	702.81
269.609	771.81
269.841	850.81
270.073	989.81
270.306	1094.81
270.538	1122.81
270.77	931.81
271.002	805.81
271.234	792.81
271.466	802.81
271.698	915.81
271.93	1039.81
272.162	1027.81
272.394	933.81
272.626	873.81
272.858	788.81
273.09	666.81
273.322	683.81
273.553	675.81
273.785	650.81
274.017	717.81
274.249	749.81
274.481	718.81
274.713	685.81
274.945	683.81
275.176	690.81
275.408	665.81
275.64	665.81
275.872	666.81
276.104	705.81
276.335	812.81
276.567	907.81
276.799	903.81
277.031	823.81
277.262	788.81
277.494	827.81
277.726	853.81
277.957	858.81
278.189	810.81
278.421	737.81
278.652	718.81
278.884	693.81
279.115	721.81
279.347	746.81
279.579	725.81
279.81	709.81
280.042	785.81
280.273	840.81
280.505	869.81
280.736	855.81
280.968	794.81
281.199	714.81
281.431	706.81
281.662	691.81
281.894	700.81
282.125	723.81
282.356	752.81
282.588	765.81
282.819	763.81
283.051	830.81
283.282	865.81
283.513	803.81
283.745	739.81
283.976	713.81
284.207	709.81
284.439	723.81
284.67	739.81
284.901	759.81
285.132	779.81
285.364	779.81
285.595	755.81
285.826	741.81
286.057	745.81
286.288	730.81
286.52	774.81
286.751	847.81
286.982	842.81
287.213	804.81
287.444	725.81
287.675	742.81
287.906	778.81
288.138	820.81
288.369	786.81
288.6	723.81
288.831	725.81
289.062	733.81
289.293	751.81
289.524	786.81
289.755	761.81
289.986	774.81
290.217	722.81
290.448	724.81
290.679	807.81
290.91	773.81
291.141	792.81
291.371	795.81
291.602	809.81
291.833	808.81
292.064	818.81
292.295	804.81
292.526	829.81
292.757	857.81
292.987	798.81
293.218	798.81
293.449	858.81
293.68	947.81
293.91	1014.81
294.141	944.81
294.372	877.81
294.603	913.81
294.833	971.81
295.064	879.81
295.295	828.81
295.525	809.81
295.756	761.81
295.987	744.81
296.217	775.81
296.448	761.81
296.679	758.81
296.909	760.81
297.14	753.81
297.37	773.81
297.601	810.81
297.831	851.81
298.062	860.81
298.292	778.81
298.523	802.81
298.753	779.81
298.984	780.81
299.214	783.81
299.445	795.81
299.675	842.81
299.905	838.81
300.136	804.81
300.366	781.81
300.597	725.81
300.827	755.81
301.057	807.81
301.288	843.81
301.518	843.81
301.748	870.81
301.979	905.81
302.209	926.81
302.439	975.81
302.669	1015.81
302.9	890.81
303.13	836.81
303.36	832.81
303.59	849.81
303.82	840.81
304.051	840.81
304.281	869.81
304.511	887.81
304.741	937.81
304.971	1011.81
305.201	1039.81
305.431	937.81
305.661	816.81
305.891	748.81
306.121	713.81
306.352	792.81
306.582	826.81
306.812	884.81
307.042	934.81
307.272	949.81
307.502	972.81
307.731	1021.81
307.961	1062.81
308.191	947.81
308.421	903.81
308.651	824.81
308.881	826.81
309.111	803.81
309.341	816.81
309.571	810.81
309.8	834.81
310.03	810.81
310.26	807.81
310.49	806.81
310.72	863.81
310.949	857.81
311.179	879.81
311.409	861.81
311.639	840.81
311.868	808.81
312.098	881.81
312.328	825.81
312.557	831.81
312.787	847.81
313.017	880.81
313.246	864.81
313.476	874.81
313.706	890.81
313.935	890.81
314.165	879.81
314.394	893.81
314.624	968.81
314.853	1029.81
315.083	1039.81
315.312	1047.81
315.542	975.81
315.771	885.81
316.001	885.81
316.23	920.81
316.46	957.81
316.689	899.81
316.919	872.81
317.148	843.81
317.377	902.81
317.607	978.81
317.836	1019.81
318.065	1046.81
318.295	1000.81
318.524	976.81
318.753	943.81
318.983	930.81
319.212	882.81
319.441	904.81
319.67	906.81
319.9	936.81
320.129	957.81
320.358	989.81
320.587	1041.81
320.816	1000.81
321.046	1005.81
321.275	939.81
321.504	969.81
321.733	1045.81
321.962	947.81
322.191	919.81
322.42	895.81
322.649	893.81
322.878	879.81
323.108	915.81
323.337	967.81
323.566	942.81
323.795	948.81
324.024	954.81
324.253	905.81
324.482	931.81
324.71	885.81
324.939	864.81
325.168	885.81
325.397	899.81
325.626	939.81
325.855	945.81
326.084	907.81
326.313	960.81
326.542	921.81
326.77	956.81
326.999	961.81
327.228	903.81
327.457	850.81
327.686	883.81
327.914	893.81
328.143	929.81
328.372	906.81
328.6	916.81
328.829	917.81
329.058	895.81
329.287	880.81
329.515	907.81
329.744	964.81
329.972	975.81
330.201	1010.81
330.43	1006.81
330.658	970.81
330.887	966.81
331.115	951.81
331.344	975.81
331.572	962.81
331.801	975.81
332.03	963.81
332.258	986.81
332.486	997.81
332.715	1005.81
332.943	1000.81
333.172	983.81
333.4	972.81
333.629	1024.81
333.857	1091.81
334.085	1192.81
334.314	1338.81
334.542	1413.81
334.771	1269.81
334.999	1149.81
335.227	1059.81
335.455	1043.81
335.684	1061.81
335.912	1078.81
336.14	1107.81
336.369	1038.81
336.597	1006.81
336.825	1015.81
337.053	1074.81
337.281	1072.81
337.51	1137.81
337.738	1161.81
337.966	1068.81
338.194	1007.81
338.422	958.81
338.65	962.81
338.878	968.81
339.106	906.81
339.334	928.81
339.562	914.81
339.79	938.81
340.018	999.81
340.246	1021.81
340.474	1023.81
340.702	1009.81
340.93	1016.81
341.158	984.81
341.386	1008.81
341.614	983.81
341.842	974.81
342.07	976.81
342.298	1012.81
342.526	984.81
342.754	979.81
342.981	958.81
343.209	968.81
343.437	950.81
343.665	991.81
343.893	1015.81
344.12	1045.81
344.348	1022.81
344.576	1018.81
344.804	963.81
345.031	991.81
345.259	945.81
345.487	929.81
345.714	880.81
345.942	877.81
346.17	902.81
346.397	963.81
346.625	933.81
346.853	893.81
347.08	859.81
347.308	884.81
347.535	896.81
347.763	949.81
347.99	917.81
348.218	886.81
348.445	897.81
348.673	895.81
348.9	937.81
349.128	988.81
349.355	1008.81
349.583	977.81
349.81	925.81
350.037	896.81
350.265	867.81
350.492	891.81
350.72	901.81
350.947	915.81
351.174	919.81
351.402	898.81
351.629	873.81
351.856	841.81
352.083	852.81
352.311	866.81
352.538	902.81
352.765	926.81
352.992	937.81
353.22	900.81
353.447	869.81
353.674	886.81
353.901	920.81
354.128	881.81
354.355	877.81
354.583	919.81
354.81	965.81
355.037	946.81
355.264	939.81
355.491	932.81
355.718	917.81
355.945	875.81
356.172	885.81
356.399	881.81
356.626	877.81
356.853	906.81
357.08	1037.81
357.307	1087.81
357.534	1048.81
357.761	940.81
357.988	889.81
358.215	858.81
358.441	861.81
358.668	879.81
358.895	893.81
359.122	971.81
359.349	1042.81
359.576	1011.81
359.802	927.81
360.029	867.81
360.256	866.81
360.483	896.81
360.709	945.81
360.936	960.81
361.163	1014.81
361.39	1087.81
361.616	1154.81
361.843	1148.81
362.07	1037.81
362.296	922.81
362.523	883.81
362.749	925.81
362.976	959.81
363.203	931.81
363.429	885.81
363.656	906.81
363.882	969.81
364.109	1037.81
364.335	1080.81
364.562	995.81
364.788	958.81
365.015	920.81
365.241	899.81
365.468	907.81
365.694	958.81
365.92	977.81
366.147	957.81
366.373	897.81
366.599	890.81
366.826	891.81
367.052	898.81
367.278	915.81
367.505	939.81
367.731	965.81
367.957	946.81
368.184	994.81
368.41	1030.81
368.636	1025.81
368.862	1067.81
369.089	1049.81
369.315	995.81
369.541	968.81
369.767	941.81
369.993	920.81
370.219	929.81
370.445	959.81
370.672	1034.81
370.898	1053.81
371.124	1026.81
371.35	991.81
371.576	1026.81
371.802	1023.81
372.028	1027.81
372.254	965.81
372.48	944.81
372.706	959.81
372.932	940.81
373.158	930.81
373.384	962.81
373.61	1002.81
373.835	1026.81
374.061	1006.81
374.287	988.81
374.513	957.81
374.739	956.81
374.965	1006.81
375.191	968.81
375.416	1021.81
375.642	1021.81
375.868	1093.81
376.094	1111.81
376.319	1031.81
376.545	1010.81
376.771	1024.81
376.997	1094.81
377.222	1043.81
377.448	1016.81
377.674	1015.81
377.899	1021.81
378.125	1102.81
378.35	1053.81
378.576	973.81
378.802	967.81
379.027	954.81
379.253	964.81
379.478	966.81
379.704	970.81
379.929	976.81
380.155	971.81
380.38	1008.81
380.606	990.81
380.831	989.81
381.057	1047.81
381.282	1036.81
381.507	1010.81
381.733	1104.81
381.958	1142.81
382.184	1047.81
382.409	1005.81
382.634	1040.81
382.86	994.81
383.085	992.81
383.31	1072.81
383.535	1138.81
383.761	1225.81
383.986	1156.81
384.211	1082.81
384.436	1125.81
384.662	1179.81
384.887	1183.81
385.112	1119.81
385.337	1124.81
385.562	1101.81
385.787	1110.81
386.013	1149.81
386.238	1159.81
386.463	1161.81
386.688	1244.81
386.913	1291.81
387.138	1239.81
387.363	1182.81
387.588	1146.81
387.813	1130.81
388.038	1169.81
388.263	1215.81
388.488	1146.81
388.713	1063.81
388.938	1075.81
389.163	1065.81
389.387	1104.81
389.612	1104.81
389.837	1175.81
390.062	1138.81
390.287	1127.81
390.512	1130.81
390.736	1105.81
390.961	1050.81
391.186	1086.81
391.411	1082.81
391.636	1112.81
391.86	1109.81
392.085	1124.81
392.31	1110.81
392.534	1141.81
392.759	1151.81
392.984	1135.81
393.208	1152.81
393.433	1171.81
393.658	1189.81
393.882	1203.81
394.107	1142.81
394.331	1096.81
394.556	1116.81
394.78	1122.81
395.005	1167.81
395.229	1204.81
395.454	1288.81
395.678	1282.81
395.903	1206.81
396.127	1185.81
396.352	1177.81
396.576	1219.81
396.801	1278.81
397.025	1221.81
397.249	1227.81
397.474	1219.81
397.698	1214.81
397.922	1253.81
398.147	1269.81
398.371	1323.81
398.595	1313.81
398.82	1289.81
399.044	1309.81
399.268	1396.81
399.492	1463.81
399.717	1517.81
399.941	1493.81
400.165	1427.81
400.389	1430.81
400.613	1434.81
400.837	1638.81
401.062	1811.81
401.286	1510.81
401.51	1435.81
401.734	1453.81
401.958	1378.81
402.182	1295.81
402.406	1279.81
402.63	1265.81
402.854	1283.81
403.078	1305.81
403.302	1321.81
403.526	1338.81
403.75	1345.81
403.974	1359.81
404.198	1327.81
404.422	1407.81
404.645	1499.81
404.869	1415.81
405.093	1337.81
405.317	1335.81
405.541	1344.81
405.765	1345.81
405.988	1326.81
406.212	1365.81
406.436	1385.81
406.66	1449.81
406.883	1487.81
407.107	1648.81
407.331	1763.81
407.555	1886.81
407.778	1669.81
408.002	1407.81
408.226	1407.81
408.449	1398.81
408.673	1360.81
408.896	1373.81
409.12	1386.81
409.344	1374.81
409.567	1334.81
409.791	1347.81
410.014	1377.81
410.238	1437.81
410.461	1510.81
410.685	1375.81
410.908	1311.81
411.132	1360.81
411.355	1338.81
411.578	1350.81
411.802	1318.81
412.025	1321.81
412.249	1328.81
412.472	1285.81
412.695	1288.81
412.919	1306.81
413.142	1297.81
413.365	1297.81
413.589	1354.81
413.812	1371.81
414.035	1407.81
414.258	1318.81
414.482	1360.81
414.705	1291.81
414.928	1303.81
415.151	1288.81
415.374	1305.81
415.597	1335.81
415.821	1291.81
416.044	1314.81
416.267	1303.81
416.49	1223.81
416.713	1246.81
416.936	1304.81
417.159	1352.81
417.382	1352.81
417.605	1248.81
417.828	1318.81
418.051	1274.81
418.274	1282.81
418.497	1261.81
418.72	1258.81
418.943	1264.81
419.166	1311.81
419.389	1389.81
419.611	1316.81
419.834	1231.81
420.057	1318.81
420.28	1275.81
420.503	1279.81
420.726	1314.81
420.948	1293.81
421.171	1256.81
421.394	1288.81
421.617	1327.81
421.839	1315.81
422.062	1304.81
422.285	1268.81
422.507	1243.81
422.73	1205.81
422.953	1223.81
423.175	1232.81
423.398	1261.81
423.621	1264.81
423.843	1318.81
424.066	1308.81
424.288	1376.81
424.511	1394.81
424.733	1362.81
424.956	1222.81
425.178	1242.81
425.401	1235.81
425.623	1250.81
425.846	1248.81
426.068	1306.81
426.291	1351.81
426.513	1292.81
426.735	1302.81
426.958	1438.81
427.18	1479.81
427.402	1344.81
427.625	1373.81
427.847	1356.81
428.069	1257.81
428.292	1243.81
428.514	1216.81
428.736	1216.81
428.958	1249.81
429.181	1245.81
429.403	1457.81
429.625	1731.81
429.847	1409.81
430.069	1307.81
430.292	1453.81
430.514	1443.81
430.736	1305.81
430.958	1335.81
431.18	1280.81
431.402	1201.81
431.624	1161.81
431.846	1190.81
432.068	1136.81
432.29	1143.81
432.512	1179.81
432.734	1240.81
432.956	1231.81
433.178	1317.81
433.4	1284.81
433.622	1332.81
433.844	1236.81
434.066	1207.81
434.287	1169.81
434.509	1211.81
434.731	1234.81
434.953	1374.81
435.175	1312.81
435.397	1274.81
435.618	1265.81
435.84	1253.81
436.062	1242.81
436.284	1278.81
436.505	1291.81
436.727	1321.81
436.949	1261.81
437.17	1203.81
437.392	1209.81
437.614	1195.81
437.835	1157.81
438.057	1207.81
438.278	1237.81
438.5	1208.81
438.721	1183.81
438.943	1215.81
439.165	1230.81
439.386	1217.81
439.608	1213.81
439.829	1225.81
440.05	1219.81
440.272	1211.81
440.493	1249.81
440.715	1245.81
440.936	1351.81
441.158	1427.81
441.379	1388.81
441.6	1386.81
441.822	1325.81
442.043	1351.81
442.264	1322.81
442.486	1259.81
442.707	1242.81
442.928	1241.81
443.149	1276.81
443.371	1343.81
443.592	1352.81
443.813	1343.81
444.034	1358.81
444.255	1337.81
444.476	1386.81
444.698	1403.81
444.919	1378.81
445.14	1453.81
445.361	1447.81
445.582	1452.81
445.803	1372.81
446.024	1351.81
446.245	1423.81
446.466	1328.81
446.687	1323.81
446.908	1335.81
447.129	1305.81
447.35	1302.81
447.571	1284.81
447.792	1230.81
448.013	1256.81
448.234	1238.81
448.455	1332.81
448.675	1291.81
448.896	1189.81
449.117	1195.81
449.338	1217.81
449.559	1252.81
449.779	1309.81
450	1374.81
450.221	1480.81
450.442	1425.81
450.662	1281.81
450.883	1185.81
451.104	1155.81
451.324	1153.81
451.545	1182.81
451.766	1171.81
451.986	1122.81
452.207	1115.81
452.428	1062.81
452.648	1062.81
452.869	1088.81
453.089	1127.81
453.31	1125.81
453.53	1134.81
453.751	1119.81
453.971	1038.81
454.192	1105.81
454.412	1113.81
454.633	1098.81
454.853	1096.81
455.073	1022.81
455.294	1047.81
455.514	1071.81
455.734	1087.81
455.955	1073.81
456.175	1050.81
456.395	1036.81
456.616	1082.81
456.836	1081.81
457.056	1064.81
457.276	1067.81
457.497	1041.81
457.717	1007.81
457.937	1036.81
458.157	1071.81
458.377	1032.81
458.598	1024.81
458.818	1027.81
459.038	1105.81
459.258	1127.81
459.478	1124.81
459.698	1113.81
459.918	1147.81
460.138	1198.81
460.358	1233.81
460.578	1242.81
460.798	1307.81
461.018	1296.81
461.238	1329.81
461.458	1234.81
461.678	1243.81
461.898	1176.81
462.118	1190.81
462.338	1221.81
462.558	1224.81
462.777	1245.81
462.997	1279.81
463.217	1344.81
463.437	1344.81
463.657	1299.81
463.876	1229.81
464.096	1250.81
464.316	1260.81
464.536	1301.81
464.755	1289.81
464.975	1257.81
465.195	1258.81
465.414	1294.81
465.634	1318.81
465.854	1265.81
466.073	1340.81
466.293	1313.81
466.512	1178.81
466.732	1219.81
466.951	1244.81
467.171	1254.81
467.391	1158.81
467.61	1174.81
467.829	1214.81
468.049	1316.81
468.268	1431.81
468.488	1289.81
468.707	1209.81
468.927	1209.81
469.146	1214.81
469.365	1184.81
469.585	1229.81
469.804	1212.81
470.023	1221.81
470.243	1253.81
470.462	1230.81
470.681	1230.81
470.901	1235.81
471.12	1248.81
471.339	1212.81
471.558	1181.81
471.777	1207.81
471.997	1238.81
472.216	1178.81
472.435	1120.81
472.654	1109.81
472.873	1143.81
473.092	1213.81
473.311	1181.81
473.53	1149.81
473.749	1119.81
473.968	1167.81
474.187	1206.81
474.406	1199.81
474.625	1219.81
474.844	1167.81
475.063	1166.81
475.282	1156.81
475.501	1153.81
475.72	1212.81
475.939	1288.81
476.158	1246.81
476.377	1190.81
476.596	1187.81
476.814	1239.81
477.033	1194.81
477.252	1258.81
477.471	1286.81
477.69	1274.81
477.908	1270.81
478.127	1323.81
478.346	1390.81
478.564	1407.81
478.783	1392.81
479.002	1457.81
479.22	1398.81
479.439	1445.81
479.658	1553.81
479.876	1502.81
480.095	1359.81
480.313	1321.81
480.532	1285.81
480.751	1294.81
480.969	1301.81
481.188	1239.81
481.406	1226.81
481.624	1211.81
481.843	1242.81
482.061	1285.81
482.28	1304.81
482.498	1353.81
482.717	1306.81
482.935	1275.81
483.153	1332.81
483.372	1380.81
483.59	1344.81
483.808	1348.81
484.027	1343.81
484.245	1386.81
484.463	1704.81
484.681	1837.81
484.9	1442.81
485.118	1373.81
485.336	1339.81
485.554	1359.81
485.772	1381.81
485.99	1358.81
486.209	1357.81
486.427	1350.81
486.645	1373.81
486.863	1402.81
487.081	1419.81
487.299	1453.81
487.517	1420.81
487.735	1431.81
487.953	1504.81
488.171	1449.81
488.389	1465.81
488.607	1435.81
488.825	1598.81
489.043	1537.81
489.261	1385.81
489.479	1461.81
489.696	1473.81
489.914	1433.81
490.132	1446.81
490.35	1434.81
490.568	1519.81
490.786	1458.81
491.003	1468.81
491.221	1566.81
491.439	1547.81
491.657	1608.81
491.874	1594.81
492.092	1660.81
492.31	1699.81
492.527	1677.81
492.745	1585.81
492.963	1592.81
493.18	1604.81
493.398	1668.81
493.615	1725.81
493.833	1577.81
