Data from WStandard_LampEnergy8_LIBS07252019.E.O._I.C._HRD10591_15-58-56-929.txt Node
Date: Thu Jul 25 15:58:56 EDT 2019
User: cochatt
Spectrometer: HR+D1059
Trigger mode: 1
Integration Time (sec): 1.000000E-1
Scans to average: 1
Electric dark correction enabled: true
Nonlinearity correction enabled: false
Boxcar width: 0
XAxis mode: Wavelengths
Number of Pixels in Spectrum: 2048
>>>>>Begin Spectral Data<<<<<
223.165	-14.81
223.4	-14.81
223.635	-14.81
223.869	-10.81
224.104	-14.81
224.338	-5.81
224.573	-12.81
224.808	-13.81
225.042	-18.81
225.277	-19.81
225.511	-2.81
225.746	1.19
225.98	8.19
226.215	-1.81
226.449	17.19
226.683	29.19
226.918	22.19
227.152	38.19
227.387	29.19
227.621	39.19
227.856	37.19
228.09	49.19
228.324	41.19
228.559	50.19
228.793	106.19
229.027	197.19
229.262	210.19
229.496	217.19
229.73	216.19
229.964	233.19
230.199	243.19
230.433	256.19
230.667	279.19
230.901	292.19
231.136	263.19
231.37	256.19
231.604	267.19
231.838	279.19
232.072	279.19
232.306	265.19
232.541	271.19
232.775	301.19
233.009	338.19
233.243	313.19
233.477	272.19
233.711	298.19
233.945	312.19
234.179	295.19
234.413	321.19
234.647	343.19
234.881	299.19
235.115	281.19
235.349	315.19
235.583	302.19
235.817	309.19
236.051	287.19
236.285	293.19
236.519	318.19
236.753	345.19
236.987	358.19
237.221	356.19
237.455	386.19
237.689	379.19
237.922	354.19
238.156	345.19
238.39	360.19
238.624	364.19
238.858	387.19
239.091	376.19
239.325	427.19
239.559	470.19
239.793	511.19
240.027	518.19
240.26	490.19
240.494	410.19
240.728	375.19
240.961	386.19
241.195	392.19
241.429	408.19
241.662	433.19
241.896	386.19
242.13	413.19
242.363	421.19
242.597	465.19
242.83	454.19
243.064	463.19
243.298	465.19
243.531	480.19
243.765	480.19
243.998	464.19
244.232	413.19
244.465	388.19
244.699	431.19
244.932	462.19
245.166	509.19
245.399	484.19
245.633	472.19
245.866	452.19
246.099	465.19
246.333	479.19
246.566	473.19
246.8	533.19
247.033	589.19
247.266	548.19
247.5	558.19
247.733	537.19
247.966	554.19
248.2	619.19
248.433	608.19
248.666	598.19
248.899	671.19
249.133	755.19
249.366	805.19
249.599	687.19
249.832	615.19
250.066	621.19
250.299	625.19
250.532	583.19
250.765	548.19
250.998	577.19
251.231	581.19
251.465	594.19
251.698	584.19
251.931	591.19
252.164	591.19
252.397	627.19
252.63	636.19
252.863	567.19
253.096	562.19
253.329	565.19
253.562	590.19
253.795	613.19
254.028	617.19
254.261	567.19
254.494	585.19
254.727	549.19
254.96	600.19
255.193	637.19
255.426	710.19
255.659	785.19
255.892	799.19
256.124	685.19
256.357	659.19
256.59	702.19
256.823	701.19
257.056	698.19
257.289	824.19
257.521	886.19
257.754	831.19
257.987	787.19
258.22	864.19
258.452	804.19
258.685	697.19
258.918	663.19
259.151	670.19
259.383	633.19
259.616	577.19
259.849	624.19
260.081	702.19
260.314	797.19
260.547	817.19
260.779	830.19
261.012	772.19
261.244	729.19
261.477	649.19
261.71	666.19
261.942	695.19
262.175	703.19
262.407	703.19
262.64	675.19
262.872	640.19
263.105	593.19
263.337	624.19
263.57	639.19
263.802	641.19
264.035	594.19
264.267	593.19
264.499	572.19
264.732	627.19
264.964	657.19
265.197	694.19
265.429	714.19
265.661	764.19
265.894	854.19
266.126	853.19
266.358	798.19
266.591	822.19
266.823	872.19
267.055	807.19
267.287	784.19
267.52	775.19
267.752	754.19
267.984	751.19
268.216	821.19
268.448	815.19
268.681	772.19
268.913	739.19
269.145	712.19
269.377	717.19
269.609	806.19
269.841	899.19
270.073	981.19
270.306	1108.19
270.538	1113.19
270.77	965.19
271.002	842.19
271.234	825.19
271.466	857.19
271.698	914.19
271.93	1051.19
272.162	1060.19
272.394	967.19
272.626	903.19
272.858	809.19
273.09	735.19
273.322	720.19
273.553	679.19
273.785	723.19
274.017	738.19
274.249	750.19
274.481	765.19
274.713	708.19
274.945	704.19
275.176	701.19
275.408	685.19
275.64	683.19
275.872	672.19
276.104	741.19
276.335	841.19
276.567	951.19
276.799	862.19
277.031	822.19
277.262	837.19
277.494	838.19
277.726	897.19
277.957	896.19
278.189	803.19
278.421	773.19
278.652	771.19
278.884	746.19
279.115	745.19
279.347	744.19
279.579	758.19
279.81	753.19
280.042	810.19
280.273	868.19
280.505	891.19
280.736	894.19
280.968	841.19
281.199	749.19
281.431	695.19
281.662	738.19
281.894	713.19
282.125	759.19
282.356	762.19
282.588	763.19
282.819	772.19
283.051	841.19
283.282	893.19
283.513	871.19
283.745	764.19
283.976	735.19
284.207	732.19
284.439	751.19
284.67	747.19
284.901	784.19
285.132	787.19
285.364	791.19
285.595	778.19
285.826	759.19
286.057	743.19
286.288	757.19
286.52	792.19
286.751	890.19
286.982	854.19
287.213	806.19
287.444	733.19
287.675	723.19
287.906	773.19
288.138	835.19
288.369	825.19
288.6	767.19
288.831	721.19
289.062	760.19
289.293	766.19
289.524	771.19
289.755	799.19
289.986	805.19
290.217	731.19
290.448	750.19
290.679	785.19
290.91	821.19
291.141	797.19
291.371	825.19
291.602	841.19
291.833	821.19
292.064	847.19
292.295	824.19
292.526	850.19
292.757	905.19
292.987	829.19
293.218	801.19
293.449	866.19
293.68	969.19
293.91	996.19
294.141	955.19
294.372	921.19
294.603	952.19
294.833	974.19
295.064	930.19
295.295	841.19
295.525	813.19
295.756	754.19
295.987	735.19
296.217	739.19
296.448	777.19
296.679	765.19
296.909	786.19
297.14	781.19
297.37	808.19
297.601	847.19
297.831	873.19
298.062	865.19
298.292	816.19
298.523	772.19
298.753	777.19
298.984	806.19
299.214	821.19
299.445	849.19
299.675	826.19
299.905	818.19
300.136	834.19
300.366	785.19
300.597	779.19
300.827	785.19
301.057	838.19
301.288	856.19
301.518	868.19
301.748	866.19
301.979	927.19
302.209	952.19
302.439	962.19
302.669	997.19
302.9	929.19
303.13	890.19
303.36	866.19
303.59	876.19
303.82	874.19
304.051	872.19
304.281	871.19
304.511	872.19
304.741	947.19
304.971	1026.19
305.201	1063.19
305.431	971.19
305.661	845.19
305.891	753.19
306.121	768.19
306.352	797.19
306.582	860.19
306.812	919.19
307.042	976.19
307.272	982.19
307.502	1014.19
307.731	1058.19
307.961	1113.19
308.191	994.19
308.421	891.19
308.651	846.19
308.881	828.19
309.111	843.19
309.341	819.19
309.571	824.19
309.8	808.19
310.03	830.19
310.26	855.19
310.49	845.19
310.72	860.19
310.949	881.19
311.179	867.19
311.409	842.19
311.639	841.19
311.868	836.19
312.098	871.19
312.328	832.19
312.557	830.19
312.787	854.19
313.017	863.19
313.246	866.19
313.476	904.19
313.706	892.19
313.935	867.19
314.165	892.19
314.394	919.19
314.624	1022.19
314.853	1026.19
315.083	1058.19
315.312	1059.19
315.542	999.19
315.771	893.19
316.001	928.19
316.23	975.19
316.46	925.19
316.689	917.19
316.919	887.19
317.148	869.19
317.377	897.19
317.607	991.19
317.836	1074.19
318.065	1089.19
318.295	1063.19
318.524	1018.19
318.753	955.19
318.983	977.19
319.212	937.19
319.441	911.19
319.67	910.19
319.9	956.19
320.129	1009.19
320.358	1042.19
320.587	1072.19
320.816	1046.19
321.046	1002.19
321.275	971.19
321.504	1000.19
321.733	1067.19
321.962	1020.19
322.191	959.19
322.42	937.19
322.649	913.19
322.878	922.19
323.108	952.19
323.337	982.19
323.566	976.19
323.795	971.19
324.024	950.19
324.253	936.19
324.482	948.19
324.71	914.19
324.939	891.19
325.168	919.19
325.397	933.19
325.626	960.19
325.855	961.19
326.084	974.19
326.313	954.19
326.542	983.19
326.77	987.19
326.999	974.19
327.228	932.19
327.457	888.19
327.686	882.19
327.914	917.19
328.143	923.19
328.372	960.19
328.6	961.19
328.829	907.19
329.058	930.19
329.287	906.19
329.515	931.19
329.744	1012.19
329.972	996.19
330.201	1043.19
330.43	1027.19
330.658	991.19
330.887	1011.19
331.115	999.19
331.344	1014.19
331.572	990.19
331.801	972.19
332.03	994.19
332.258	1016.19
332.486	1001.19
332.715	1006.19
332.943	967.19
333.172	996.19
333.4	1006.19
333.629	1016.19
333.857	1105.19
334.085	1239.19
334.314	1387.19
334.542	1415.19
334.771	1344.19
334.999	1134.19
335.227	1110.19
335.455	1061.19
335.684	1048.19
335.912	1085.19
336.14	1135.19
336.369	1097.19
336.597	1014.19
336.825	1003.19
337.053	1074.19
337.281	1117.19
337.51	1193.19
337.738	1194.19
337.966	1103.19
338.194	1026.19
338.422	997.19
338.65	984.19
338.878	992.19
339.106	965.19
339.334	969.19
339.562	944.19
339.79	954.19
340.018	1035.19
340.246	1057.19
340.474	1062.19
340.702	1008.19
340.93	1027.19
341.158	1022.19
341.386	1001.19
341.614	997.19
341.842	1027.19
342.07	1000.19
342.298	1007.19
342.526	986.19
342.754	981.19
342.981	985.19
343.209	974.19
343.437	990.19
343.665	993.19
343.893	1001.19
344.12	1078.19
344.348	1079.19
344.576	1043.19
344.804	982.19
345.031	993.19
345.259	986.19
345.487	962.19
345.714	921.19
345.942	915.19
346.17	931.19
346.397	903.19
346.625	933.19
346.853	908.19
347.08	886.19
347.308	928.19
347.535	946.19
347.763	960.19
347.99	937.19
348.218	892.19
348.445	931.19
348.673	961.19
348.9	991.19
349.128	982.19
349.355	1048.19
349.583	986.19
349.81	914.19
350.037	837.19
350.265	859.19
350.492	884.19
350.72	915.19
350.947	949.19
351.174	966.19
351.402	899.19
351.629	898.19
351.856	841.19
352.083	848.19
352.311	869.19
352.538	881.19
352.765	951.19
352.992	957.19
353.22	909.19
353.447	898.19
353.674	944.19
353.901	935.19
354.128	919.19
354.355	922.19
354.583	933.19
354.81	966.19
355.037	995.19
355.264	953.19
355.491	955.19
355.718	938.19
355.945	919.19
356.172	923.19
356.399	892.19
356.626	892.19
356.853	954.19
357.08	1049.19
357.307	1157.19
357.534	1084.19
357.761	971.19
357.988	901.19
358.215	870.19
358.441	880.19
358.668	881.19
358.895	895.19
359.122	986.19
359.349	1059.19
359.576	1004.19
359.802	927.19
360.029	918.19
360.256	895.19
360.483	919.19
360.709	965.19
360.936	1007.19
361.163	1055.19
361.39	1114.19
361.616	1191.19
361.843	1155.19
362.07	1038.19
362.296	958.19
362.523	924.19
362.749	903.19
362.976	963.19
363.203	971.19
363.429	920.19
363.656	913.19
363.882	963.19
364.109	1074.19
364.335	1153.19
364.562	1031.19
364.788	986.19
365.015	943.19
365.241	901.19
365.468	931.19
365.694	994.19
365.92	969.19
366.147	951.19
366.373	931.19
366.599	888.19
366.826	899.19
367.052	890.19
367.278	948.19
367.505	948.19
367.731	983.19
367.957	967.19
368.184	992.19
368.41	1070.19
368.636	1058.19
368.862	1074.19
369.089	1098.19
369.315	1025.19
369.541	986.19
369.767	935.19
369.993	919.19
370.219	941.19
370.445	987.19
370.672	1033.19
370.898	1082.19
371.124	1039.19
371.35	979.19
371.576	1029.19
371.802	1073.19
372.028	992.19
372.254	959.19
372.48	944.19
372.706	916.19
372.932	946.19
373.158	959.19
373.384	1010.19
373.61	1039.19
373.835	1028.19
374.061	1016.19
374.287	991.19
374.513	992.19
374.739	1008.19
374.965	1017.19
375.191	1009.19
375.416	1024.19
375.642	1032.19
375.868	1109.19
376.094	1109.19
376.319	1051.19
376.545	1033.19
376.771	1040.19
376.997	1098.19
377.222	1061.19
377.448	1049.19
377.674	1049.19
377.899	1056.19
378.125	1129.19
378.35	1113.19
378.576	996.19
378.802	975.19
379.027	987.19
379.253	986.19
379.478	1002.19
379.704	971.19
379.929	995.19
380.155	994.19
380.38	1031.19
380.606	1021.19
380.831	1013.19
381.057	1047.19
381.282	1068.19
381.507	1036.19
381.733	1124.19
381.958	1167.19
382.184	1073.19
382.409	996.19
382.634	1042.19
382.86	1053.19
383.085	1043.19
383.31	1111.19
383.535	1164.19
383.761	1250.19
383.986	1193.19
384.211	1137.19
384.436	1113.19
384.662	1135.19
384.887	1189.19
385.112	1171.19
385.337	1177.19
385.562	1103.19
385.787	1120.19
386.013	1159.19
386.238	1159.19
386.463	1164.19
386.688	1277.19
386.913	1318.19
387.138	1255.19
387.363	1172.19
387.588	1194.19
387.813	1158.19
388.038	1193.19
388.263	1201.19
388.488	1175.19
388.713	1099.19
388.938	1090.19
389.163	1108.19
389.387	1120.19
389.612	1114.19
389.837	1140.19
390.062	1133.19
390.287	1153.19
390.512	1134.19
390.736	1118.19
390.961	1113.19
391.186	1073.19
391.411	1115.19
391.636	1125.19
391.86	1117.19
392.085	1113.19
392.31	1167.19
392.534	1147.19
392.759	1153.19
392.984	1160.19
393.208	1178.19
393.433	1194.19
393.658	1261.19
393.882	1247.19
394.107	1159.19
394.331	1157.19
394.556	1152.19
394.78	1184.19
395.005	1219.19
395.229	1292.19
395.454	1314.19
395.678	1331.19
395.903	1244.19
396.127	1229.19
396.352	1237.19
396.576	1240.19
396.801	1225.19
397.025	1252.19
397.249	1281.19
397.474	1244.19
397.698	1226.19
397.922	1287.19
398.147	1334.19
398.371	1373.19
398.595	1365.19
398.82	1315.19
399.044	1314.19
399.268	1353.19
399.492	1446.19
399.717	1513.19
399.941	1506.19
400.165	1493.19
400.389	1444.19
400.613	1471.19
400.837	1676.19
401.062	1800.19
401.286	1551.19
401.51	1459.19
401.734	1489.19
401.958	1415.19
402.182	1355.19
402.406	1290.19
402.63	1291.19
402.854	1302.19
403.078	1320.19
403.302	1343.19
403.526	1358.19
403.75	1352.19
403.974	1404.19
404.198	1369.19
404.422	1439.19
404.645	1505.19
404.869	1447.19
405.093	1326.19
405.317	1304.19
405.541	1367.19
405.765	1325.19
405.988	1354.19
406.212	1396.19
406.436	1379.19
406.66	1501.19
406.883	1495.19
407.107	1684.19
407.331	1848.19
407.555	1945.19
407.778	1693.19
408.002	1455.19
408.226	1434.19
408.449	1393.19
408.673	1365.19
408.896	1397.19
409.12	1388.19
409.344	1370.19
409.567	1333.19
409.791	1335.19
410.014	1440.19
410.238	1487.19
410.461	1560.19
410.685	1392.19
410.908	1338.19
411.132	1352.19
411.355	1350.19
411.578	1340.19
411.802	1370.19
412.025	1342.19
412.249	1337.19
412.472	1304.19
412.695	1292.19
412.919	1302.19
413.142	1314.19
413.365	1309.19
413.589	1354.19
413.812	1419.19
414.035	1477.19
414.258	1347.19
414.482	1318.19
414.705	1371.19
414.928	1297.19
415.151	1273.19
415.374	1311.19
415.597	1358.19
415.821	1341.19
416.044	1341.19
416.267	1377.19
416.49	1302.19
416.713	1259.19
416.936	1370.19
417.159	1374.19
417.382	1376.19
417.605	1315.19
417.828	1311.19
418.051	1382.19
418.274	1351.19
418.497	1282.19
418.72	1293.19
418.943	1286.19
419.166	1341.19
419.389	1371.19
419.611	1329.19
419.834	1301.19
420.057	1343.19
420.28	1303.19
420.503	1279.19
420.726	1333.19
420.948	1315.19
421.171	1285.19
421.394	1286.19
421.617	1339.19
421.839	1359.19
422.062	1338.19
422.285	1295.19
422.507	1305.19
422.73	1227.19
422.953	1211.19
423.175	1245.19
423.398	1286.19
423.621	1294.19
423.843	1276.19
424.066	1339.19
424.288	1407.19
424.511	1429.19
424.733	1349.19
424.956	1256.19
425.178	1270.19
425.401	1282.19
425.623	1256.19
425.846	1303.19
426.068	1347.19
426.291	1364.19
426.513	1346.19
426.735	1333.19
426.958	1428.19
427.18	1506.19
427.402	1378.19
427.625	1444.19
427.847	1401.19
428.069	1271.19
428.292	1282.19
428.514	1270.19
428.736	1241.19
428.958	1249.19
429.181	1266.19
429.403	1481.19
429.625	1760.19
429.847	1469.19
430.069	1308.19
430.292	1431.19
430.514	1493.19
430.736	1365.19
430.958	1401.19
431.18	1291.19
431.402	1213.19
431.624	1207.19
431.846	1182.19
432.068	1143.19
432.29	1120.19
432.512	1204.19
432.734	1275.19
432.956	1256.19
433.178	1310.19
433.4	1358.19
433.622	1314.19
433.844	1234.19
434.066	1208.19
434.287	1199.19
434.509	1222.19
434.731	1288.19
434.953	1417.19
435.175	1361.19
435.397	1290.19
435.618	1274.19
435.84	1250.19
436.062	1230.19
436.284	1255.19
436.505	1303.19
436.727	1319.19
436.949	1238.19
437.17	1211.19
437.392	1243.19
437.614	1205.19
437.835	1186.19
438.057	1248.19
438.278	1263.19
438.5	1218.19
438.721	1256.19
438.943	1248.19
439.165	1251.19
439.386	1243.19
439.608	1277.19
439.829	1280.19
440.05	1291.19
440.272	1259.19
440.493	1257.19
440.715	1294.19
440.936	1337.19
441.158	1450.19
441.379	1419.19
441.6	1399.19
441.822	1349.19
442.043	1374.19
442.264	1322.19
442.486	1269.19
442.707	1293.19
442.928	1286.19
443.149	1328.19
443.371	1343.19
443.592	1380.19
443.813	1370.19
444.034	1374.19
444.255	1376.19
444.476	1394.19
444.698	1412.19
444.919	1396.19
445.14	1542.19
445.361	1472.19
445.582	1481.19
445.803	1400.19
446.024	1376.19
446.245	1431.19
446.466	1386.19
446.687	1349.19
446.908	1365.19
447.129	1327.19
447.35	1329.19
447.571	1336.19
447.792	1229.19
448.013	1235.19
448.234	1242.19
448.455	1307.19
448.675	1325.19
448.896	1193.19
449.117	1211.19
449.338	1217.19
449.559	1314.19
449.779	1315.19
450	1429.19
450.221	1507.19
450.442	1407.19
450.662	1283.19
450.883	1193.19
451.104	1139.19
451.324	1201.19
451.545	1216.19
451.766	1211.19
451.986	1153.19
452.207	1135.19
452.428	1094.19
452.648	1106.19
452.869	1094.19
453.089	1155.19
453.31	1135.19
453.53	1172.19
453.751	1150.19
453.971	1067.19
454.192	1082.19
454.412	1132.19
454.633	1137.19
454.853	1126.19
455.073	1060.19
455.294	1080.19
455.514	1083.19
455.734	1085.19
455.955	1073.19
456.175	1078.19
456.395	1085.19
456.616	1088.19
456.836	1111.19
457.056	1097.19
457.276	1079.19
457.497	1087.19
457.717	1039.19
457.937	1053.19
458.157	1054.19
458.377	1026.19
458.598	1040.19
458.818	1055.19
459.038	1096.19
459.258	1151.19
459.478	1137.19
459.698	1137.19
459.918	1158.19
460.138	1240.19
460.358	1271.19
460.578	1285.19
460.798	1318.19
461.018	1361.19
461.238	1321.19
461.458	1283.19
461.678	1269.19
461.898	1241.19
462.118	1209.19
462.338	1271.19
462.558	1292.19
462.777	1286.19
462.997	1322.19
463.217	1362.19
463.437	1346.19
463.657	1289.19
463.876	1279.19
464.096	1274.19
464.316	1270.19
464.536	1322.19
464.755	1305.19
464.975	1282.19
465.195	1306.19
465.414	1336.19
465.634	1297.19
465.854	1296.19
466.073	1437.19
466.293	1354.19
466.512	1203.19
466.732	1212.19
466.951	1229.19
467.171	1226.19
467.391	1215.19
467.61	1203.19
467.829	1253.19
468.049	1354.19
468.268	1480.19
468.488	1337.19
468.707	1251.19
468.927	1232.19
469.146	1235.19
469.365	1263.19
469.585	1239.19
469.804	1222.19
470.023	1233.19
470.243	1254.19
470.462	1232.19
470.681	1223.19
470.901	1235.19
471.12	1219.19
471.339	1220.19
471.558	1216.19
471.777	1213.19
471.997	1204.19
472.216	1163.19
472.435	1151.19
472.654	1126.19
472.873	1163.19
473.092	1238.19
473.311	1183.19
473.53	1132.19
473.749	1149.19
473.968	1171.19
474.187	1230.19
474.406	1245.19
474.625	1227.19
474.844	1233.19
475.063	1209.19
475.282	1209.19
475.501	1178.19
475.72	1211.19
475.939	1345.19
476.158	1263.19
476.377	1232.19
476.596	1217.19
476.814	1223.19
477.033	1214.19
477.252	1284.19
477.471	1295.19
477.69	1289.19
477.908	1331.19
478.127	1393.19
478.346	1454.19
478.564	1423.19
478.783	1425.19
479.002	1441.19
479.22	1429.19
479.439	1522.19
479.658	1595.19
479.876	1568.19
480.095	1402.19
480.313	1373.19
480.532	1320.19
480.751	1345.19
480.969	1319.19
481.188	1263.19
481.406	1251.19
481.624	1252.19
481.843	1278.19
482.061	1320.19
482.28	1368.19
482.498	1362.19
482.717	1360.19
482.935	1292.19
483.153	1353.19
483.372	1397.19
483.59	1363.19
483.808	1367.19
484.027	1396.19
484.245	1447.19
484.463	1762.19
484.681	1914.19
484.9	1493.19
485.118	1365.19
485.336	1379.19
485.554	1400.19
485.772	1389.19
485.99	1371.19
486.209	1395.19
486.427	1405.19
486.645	1374.19
486.863	1413.19
487.081	1466.19
487.299	1494.19
487.517	1503.19
487.735	1505.19
487.953	1499.19
488.171	1544.19
488.389	1491.19
488.607	1463.19
488.825	1633.19
489.043	1585.19
489.261	1415.19
489.479	1507.19
489.696	1485.19
489.914	1475.19
490.132	1450.19
490.35	1462.19
490.568	1545.19
490.786	1501.19
491.003	1495.19
491.221	1533.19
491.439	1617.19
491.657	1616.19
491.874	1653.19
492.092	1699.19
492.31	1709.19
492.527	1673.19
492.745	1616.19
492.963	1587.19
493.18	1621.19
493.398	1736.19
