Data from WStandard_LampEnergy10_LIBS07252019.E.O._I.C._HRD10591_15-52-55-928.txt Node
Date: Thu Jul 25 15:52:55 EDT 2019
User: cochatt
Spectrometer: HR+D1059
Trigger mode: 1
Integration Time (sec): 1.000000E-1
Scans to average: 1
Electric dark correction enabled: true
Nonlinearity correction enabled: false
Boxcar width: 0
XAxis mode: Wavelengths
Number of Pixels in Spectrum: 2048
>>>>>Begin Spectral Data<<<<<
223.165	-16.19
223.4	-16.19
223.635	-16.19
223.869	-25.19
224.104	-16.19
224.338	-6.19
224.573	-14.19
224.808	-16.19
225.042	-15.19
225.277	-11.19
225.511	10.81
225.746	5.81
225.98	9.81
226.215	10.81
226.449	14.81
226.683	4.81
226.918	25.81
227.152	37.81
227.387	34.81
227.621	34.81
227.856	62.81
228.09	46.81
228.324	51.81
228.559	49.81
228.793	81.81
229.027	104.81
229.262	112.81
229.496	102.81
229.73	105.81
229.964	104.81
230.199	124.81
230.433	122.81
230.667	128.81
230.901	122.81
231.136	111.81
231.37	116.81
231.604	135.81
231.838	135.81
232.072	120.81
232.306	127.81
232.541	130.81
232.775	157.81
233.009	160.81
233.243	132.81
233.477	138.81
233.711	145.81
233.945	150.81
234.179	138.81
234.413	131.81
234.647	148.81
234.881	143.81
235.115	139.81
235.349	140.81
235.583	140.81
235.817	151.81
236.051	137.81
236.285	140.81
236.519	136.81
236.753	162.81
236.987	160.81
237.221	162.81
237.455	157.81
237.689	153.81
237.922	144.81
238.156	152.81
238.39	161.81
238.624	160.81
238.858	164.81
239.091	175.81
239.325	160.81
239.559	170.81
239.793	194.81
240.027	192.81
240.26	175.81
240.494	171.81
240.728	168.81
240.961	145.81
241.195	158.81
241.429	173.81
241.662	151.81
241.896	167.81
242.13	162.81
242.363	179.81
242.597	172.81
242.83	173.81
243.064	168.81
243.298	186.81
243.531	181.81
243.765	178.81
243.998	174.81
244.232	159.81
244.465	157.81
244.699	171.81
244.932	173.81
245.166	204.81
245.399	183.81
245.633	178.81
245.866	199.81
246.099	191.81
246.333	186.81
246.566	182.81
246.8	190.81
247.033	201.81
247.266	198.81
247.5	206.81
247.733	213.81
247.966	217.81
248.2	220.81
248.433	218.81
248.666	220.81
248.899	233.81
249.133	263.81
249.366	263.81
249.599	244.81
249.832	212.81
250.066	225.81
250.299	236.81
250.532	224.81
250.765	212.81
250.998	200.81
251.231	206.81
251.465	211.81
251.698	221.81
251.931	230.81
252.164	218.81
252.397	220.81
252.63	216.81
252.863	188.81
253.096	204.81
253.329	214.81
253.562	219.81
253.795	235.81
254.028	228.81
254.261	223.81
254.494	214.81
254.727	219.81
254.96	219.81
255.193	225.81
255.426	252.81
255.659	253.81
255.892	278.81
256.124	246.81
256.357	236.81
256.59	246.81
256.823	237.81
257.056	259.81
257.289	277.81
257.521	282.81
257.754	267.81
257.987	270.81
258.22	265.81
258.452	284.81
258.685	245.81
258.918	221.81
259.151	238.81
259.383	228.81
259.616	219.81
259.849	233.81
260.081	247.81
260.314	266.81
260.547	273.81
260.779	283.81
261.012	253.81
261.244	248.81
261.477	248.81
261.71	256.81
261.942	236.81
262.175	217.81
262.407	251.81
262.64	244.81
262.872	239.81
263.105	214.81
263.337	230.81
263.57	233.81
263.802	228.81
264.035	213.81
264.267	202.81
264.499	199.81
264.732	239.81
264.964	227.81
265.197	254.81
265.429	252.81
265.661	272.81
265.894	286.81
266.126	283.81
266.358	276.81
266.591	275.81
266.823	291.81
267.055	268.81
267.287	264.81
267.52	263.81
267.752	279.81
267.984	272.81
268.216	279.81
268.448	287.81
268.681	258.81
268.913	248.81
269.145	259.81
269.377	240.81
269.609	263.81
269.841	290.81
270.073	303.81
270.306	364.81
270.538	354.81
270.77	304.81
271.002	288.81
271.234	270.81
271.466	271.81
271.698	318.81
271.93	342.81
272.162	348.81
272.394	311.81
272.626	296.81
272.858	259.81
273.09	243.81
273.322	234.81
273.553	233.81
273.785	238.81
274.017	252.81
274.249	259.81
274.481	255.81
274.713	260.81
274.945	246.81
275.176	247.81
275.408	252.81
275.64	270.81
275.872	261.81
276.104	256.81
276.335	285.81
276.567	296.81
276.799	315.81
277.031	293.81
277.262	287.81
277.494	299.81
277.726	310.81
277.957	308.81
278.189	283.81
278.421	270.81
278.652	245.81
278.884	253.81
279.115	259.81
279.347	271.81
279.579	255.81
279.81	257.81
280.042	283.81
280.273	310.81
280.505	294.81
280.736	296.81
280.968	249.81
281.199	273.81
281.431	254.81
281.662	265.81
281.894	246.81
282.125	264.81
282.356	269.81
282.588	276.81
282.819	271.81
283.051	277.81
283.282	304.81
283.513	292.81
283.745	252.81
283.976	256.81
284.207	265.81
284.439	265.81
284.67	271.81
284.901	296.81
285.132	263.81
285.364	274.81
285.595	275.81
285.826	268.81
286.057	264.81
286.288	257.81
286.52	268.81
286.751	288.81
286.982	302.81
287.213	264.81
287.444	271.81
287.675	265.81
287.906	273.81
288.138	292.81
288.369	267.81
288.6	282.81
288.831	245.81
289.062	267.81
289.293	264.81
289.524	285.81
289.755	286.81
289.986	273.81
290.217	254.81
290.448	241.81
290.679	279.81
290.91	279.81
291.141	281.81
291.371	264.81
291.602	280.81
291.833	282.81
292.064	300.81
292.295	301.81
292.526	294.81
292.757	309.81
292.987	290.81
293.218	280.81
293.449	302.81
293.68	336.81
293.91	335.81
294.141	306.81
294.372	298.81
294.603	324.81
294.833	327.81
295.064	295.81
295.295	288.81
295.525	274.81
295.756	262.81
295.987	252.81
296.217	269.81
296.448	273.81
296.679	280.81
296.909	293.81
297.14	288.81
297.37	288.81
297.601	309.81
297.831	329.81
298.062	304.81
298.292	292.81
298.523	279.81
298.753	269.81
298.984	278.81
299.214	292.81
299.445	295.81
299.675	298.81
299.905	295.81
300.136	273.81
300.366	279.81
300.597	271.81
300.827	273.81
301.057	280.81
301.288	288.81
301.518	293.81
301.748	309.81
301.979	316.81
302.209	339.81
302.439	340.81
302.669	340.81
302.9	327.81
303.13	299.81
303.36	296.81
303.59	305.81
303.82	318.81
304.051	323.81
304.281	329.81
304.511	315.81
304.741	328.81
304.971	347.81
305.201	370.81
305.431	325.81
305.661	289.81
305.891	279.81
306.121	274.81
306.352	307.81
306.582	307.81
306.812	308.81
307.042	335.81
307.272	343.81
307.502	365.81
307.731	378.81
307.961	358.81
308.191	317.81
308.421	303.81
308.651	296.81
308.881	286.81
309.111	279.81
309.341	279.81
309.571	271.81
309.8	288.81
310.03	297.81
310.26	302.81
310.49	296.81
310.72	307.81
310.949	301.81
311.179	319.81
311.409	329.81
311.639	287.81
311.868	300.81
312.098	307.81
312.328	303.81
312.557	304.81
312.787	310.81
313.017	298.81
313.246	308.81
313.476	291.81
313.706	307.81
313.935	308.81
314.165	325.81
314.394	321.81
314.624	349.81
314.853	365.81
315.083	356.81
315.312	358.81
315.542	343.81
315.771	314.81
316.001	316.81
316.23	328.81
316.46	321.81
316.689	316.81
316.919	304.81
317.148	317.81
317.377	320.81
317.607	333.81
317.836	365.81
318.065	375.81
318.295	354.81
318.524	359.81
318.753	324.81
318.983	328.81
319.212	312.81
319.441	319.81
319.67	314.81
319.9	325.81
320.129	361.81
320.358	342.81
320.587	360.81
320.816	355.81
321.046	352.81
321.275	331.81
321.504	343.81
321.733	359.81
321.962	351.81
322.191	331.81
322.42	331.81
322.649	321.81
322.878	325.81
323.108	348.81
323.337	336.81
323.566	339.81
323.795	337.81
324.024	338.81
324.253	329.81
324.482	334.81
324.71	308.81
324.939	311.81
325.168	318.81
325.397	333.81
325.626	349.81
325.855	336.81
326.084	352.81
326.313	330.81
326.542	339.81
326.77	337.81
326.999	328.81
327.228	307.81
327.457	294.81
327.686	300.81
327.914	313.81
328.143	327.81
328.372	335.81
328.6	327.81
328.829	305.81
329.058	319.81
329.287	317.81
329.515	332.81
329.744	340.81
329.972	347.81
330.201	357.81
330.43	364.81
330.658	327.81
330.887	345.81
331.115	342.81
331.344	329.81
331.572	350.81
331.801	351.81
332.03	336.81
332.258	352.81
332.486	344.81
332.715	353.81
332.943	334.81
333.172	335.81
333.4	332.81
333.629	369.81
333.857	410.81
334.085	413.81
334.314	449.81
334.542	448.81
334.771	442.81
334.999	407.81
335.227	380.81
335.455	355.81
335.684	368.81
335.912	362.81
336.14	380.81
336.369	347.81
336.597	355.81
336.825	352.81
337.053	349.81
337.281	379.81
337.51	401.81
337.738	404.81
337.966	391.81
338.194	351.81
338.422	347.81
338.65	349.81
338.878	346.81
339.106	339.81
339.334	327.81
339.562	331.81
339.79	355.81
340.018	366.81
340.246	363.81
340.474	364.81
340.702	366.81
340.93	367.81
341.158	372.81
341.386	345.81
341.614	348.81
341.842	364.81
342.07	332.81
342.298	343.81
342.526	377.81
342.754	377.81
342.981	349.81
343.209	348.81
343.437	324.81
343.665	345.81
343.893	358.81
344.12	394.81
344.348	355.81
344.576	365.81
344.804	341.81
345.031	362.81
345.259	327.81
345.487	333.81
345.714	307.81
345.942	318.81
346.17	340.81
346.397	335.81
346.625	334.81
346.853	325.81
347.08	309.81
347.308	318.81
347.535	358.81
347.763	345.81
347.99	341.81
348.218	332.81
348.445	336.81
348.673	362.81
348.9	319.81
349.128	349.81
349.355	352.81
349.583	357.81
349.81	329.81
350.037	332.81
350.265	310.81
350.492	308.81
350.72	337.81
350.947	353.81
351.174	337.81
351.402	323.81
351.629	303.81
351.856	314.81
352.083	300.81
352.311	312.81
352.538	328.81
352.765	325.81
352.992	356.81
353.22	335.81
353.447	321.81
353.674	324.81
353.901	331.81
354.128	319.81
354.355	329.81
354.583	335.81
354.81	331.81
355.037	343.81
355.264	351.81
355.491	350.81
355.718	333.81
355.945	328.81
356.172	319.81
356.399	336.81
356.626	342.81
356.853	337.81
357.08	389.81
357.307	390.81
357.534	376.81
357.761	337.81
357.988	305.81
358.215	331.81
358.441	329.81
358.668	319.81
358.895	341.81
359.122	358.81
359.349	399.81
359.576	346.81
359.802	317.81
360.029	317.81
360.256	336.81
360.483	330.81
360.709	345.81
360.936	371.81
361.163	373.81
361.39	395.81
361.616	408.81
361.843	399.81
362.07	393.81
362.296	358.81
362.523	334.81
362.749	343.81
362.976	341.81
363.203	354.81
363.429	336.81
363.656	324.81
363.882	346.81
364.109	371.81
364.335	389.81
364.562	377.81
364.788	352.81
365.015	351.81
365.241	349.81
365.468	352.81
365.694	338.81
365.92	355.81
366.147	352.81
366.373	323.81
366.599	326.81
366.826	340.81
367.052	330.81
367.278	337.81
367.505	362.81
367.731	366.81
367.957	366.81
368.184	368.81
368.41	388.81
368.636	391.81
368.862	417.81
369.089	405.81
369.315	396.81
369.541	384.81
369.767	367.81
369.993	371.81
370.219	381.81
370.445	398.81
370.672	407.81
370.898	396.81
371.124	399.81
371.35	396.81
371.576	398.81
371.802	404.81
372.028	381.81
372.254	372.81
372.48	367.81
372.706	391.81
372.932	373.81
373.158	368.81
373.384	390.81
373.61	381.81
373.835	412.81
374.061	387.81
374.287	399.81
374.513	399.81
374.739	404.81
374.965	381.81
375.191	398.81
375.416	429.81
375.642	407.81
375.868	426.81
376.094	429.81
376.319	423.81
376.545	409.81
376.771	436.81
376.997	438.81
377.222	415.81
377.448	411.81
377.674	421.81
377.899	435.81
378.125	451.81
378.35	446.81
378.576	411.81
378.802	389.81
379.027	393.81
379.253	410.81
379.478	399.81
379.704	407.81
379.929	415.81
380.155	394.81
380.38	385.81
380.606	415.81
380.831	415.81
381.057	452.81
381.282	445.81
381.507	432.81
381.733	456.81
381.958	461.81
382.184	432.81
382.409	442.81
382.634	425.81
382.86	443.81
383.085	445.81
383.31	456.81
383.535	486.81
383.761	503.81
383.986	492.81
384.211	458.81
384.436	468.81
384.662	490.81
384.887	479.81
385.112	463.81
385.337	465.81
385.562	469.81
385.787	469.81
386.013	480.81
386.238	485.81
386.463	488.81
386.688	513.81
386.913	541.81
387.138	519.81
387.363	500.81
387.588	469.81
387.813	480.81
388.038	493.81
388.263	503.81
388.488	497.81
388.713	458.81
388.938	473.81
389.163	479.81
389.387	468.81
389.612	470.81
389.837	475.81
390.062	492.81
390.287	483.81
390.512	494.81
390.736	491.81
390.961	476.81
391.186	488.81
391.411	476.81
391.636	507.81
391.86	477.81
392.085	500.81
392.31	493.81
392.534	521.81
392.759	521.81
392.984	508.81
393.208	506.81
393.433	519.81
393.658	557.81
393.882	523.81
394.107	528.81
394.331	511.81
394.556	519.81
394.78	546.81
395.005	527.81
395.229	536.81
395.454	567.81
395.678	555.81
395.903	535.81
396.127	552.81
396.352	551.81
396.576	546.81
396.801	559.81
397.025	560.81
397.249	564.81
397.474	558.81
397.698	543.81
397.922	562.81
398.147	589.81
398.371	593.81
398.595	567.81
398.82	562.81
399.044	573.81
399.268	584.81
399.492	637.81
399.717	624.81
399.941	635.81
400.165	639.81
400.389	613.81
400.613	640.81
400.837	717.81
401.062	749.81
401.286	672.81
401.51	651.81
401.734	647.81
401.958	623.81
402.182	582.81
402.406	571.81
402.63	586.81
402.854	614.81
403.078	572.81
403.302	575.81
403.526	608.81
403.75	614.81
403.974	649.81
404.198	636.81
404.422	637.81
404.645	680.81
404.869	627.81
405.093	614.81
405.317	621.81
405.541	632.81
405.765	624.81
405.988	619.81
406.212	652.81
406.436	661.81
406.66	678.81
406.883	688.81
407.107	730.81
407.331	771.81
407.555	806.81
407.778	737.81
408.002	655.81
408.226	642.81
408.449	644.81
408.673	638.81
408.896	657.81
409.12	626.81
409.344	642.81
409.567	635.81
409.791	638.81
410.014	664.81
410.238	671.81
410.461	732.81
410.685	663.81
410.908	632.81
411.132	661.81
411.355	653.81
411.578	669.81
411.802	623.81
412.025	681.81
412.249	639.81
412.472	649.81
412.695	640.81
412.919	635.81
413.142	621.81
413.365	620.81
413.589	664.81
413.812	696.81
414.035	688.81
414.258	635.81
414.482	633.81
414.705	632.81
414.928	642.81
415.151	661.81
415.374	636.81
415.597	638.81
415.821	629.81
416.044	663.81
416.267	669.81
416.49	651.81
416.713	639.81
416.936	672.81
417.159	658.81
417.382	661.81
417.605	640.81
417.828	658.81
418.051	692.81
418.274	675.81
418.497	676.81
418.72	662.81
418.943	679.81
419.166	650.81
419.389	721.81
419.611	671.81
419.834	667.81
420.057	657.81
420.28	687.81
420.503	661.81
420.726	684.81
420.948	714.81
421.171	644.81
421.394	667.81
421.617	700.81
421.839	737.81
422.062	715.81
422.285	677.81
422.507	669.81
422.73	631.81
422.953	639.81
423.175	638.81
423.398	678.81
423.621	642.81
423.843	665.81
424.066	703.81
424.288	725.81
424.511	740.81
424.733	748.81
424.956	703.81
425.178	669.81
425.401	687.81
425.623	705.81
425.846	677.81
426.068	676.81
426.291	672.81
426.513	688.81
426.735	686.81
426.958	729.81
427.18	742.81
427.402	699.81
427.625	704.81
427.847	678.81
428.069	657.81
428.292	653.81
428.514	654.81
428.736	680.81
428.958	666.81
429.181	687.81
429.403	719.81
429.625	810.81
429.847	725.81
430.069	699.81
430.292	751.81
430.514	702.81
430.736	678.81
430.958	699.81
431.18	650.81
431.402	639.81
431.624	595.81
431.846	517.81
432.068	441.81
432.29	469.81
432.512	517.81
432.734	612.81
432.956	655.81
433.178	679.81
433.4	693.81
433.622	697.81
433.844	640.81
434.066	581.81
434.287	523.81
434.509	473.81
434.731	521.81
434.953	579.81
435.175	624.81
435.397	645.81
435.618	608.81
435.84	573.81
436.062	543.81
436.284	628.81
436.505	651.81
436.727	661.81
436.949	667.81
437.17	641.81
437.392	620.81
437.614	592.81
437.835	558.81
438.057	555.81
438.278	542.81
438.5	615.81
438.721	624.81
438.943	665.81
439.165	693.81
439.386	709.81
439.608	724.81
439.829	705.81
440.05	731.81
440.272	720.81
440.493	731.81
440.715	713.81
440.936	749.81
441.158	755.81
441.379	747.81
441.6	767.81
441.822	786.81
442.043	761.81
442.264	744.81
442.486	707.81
442.707	693.81
442.928	709.81
443.149	717.81
443.371	731.81
443.592	738.81
443.813	737.81
444.034	745.81
444.255	742.81
444.476	743.81
444.698	769.81
444.919	757.81
445.14	897.81
445.361	821.81
445.582	777.81
445.803	791.81
446.024	757.81
446.245	775.81
446.466	790.81
446.687	797.81
446.908	819.81
447.129	776.81
447.35	767.81
447.571	774.81
447.792	721.81
448.013	706.81
448.234	719.81
448.455	727.81
448.675	732.81
448.896	695.81
449.117	669.81
449.338	676.81
449.559	671.81
449.779	703.81
450	744.81
450.221	749.81
450.442	717.81
450.662	688.81
450.883	653.81
451.104	621.81
451.324	645.81
451.545	651.81
451.766	628.81
451.986	603.81
452.207	599.81
452.428	577.81
452.648	540.81
452.869	530.81
453.089	524.81
453.31	519.81
453.53	489.81
453.751	484.81
453.971	463.81
454.192	472.81
454.412	501.81
454.633	536.81
454.853	530.81
455.073	541.81
455.294	555.81
455.514	568.81
455.734	539.81
455.955	521.81
456.175	501.81
456.395	514.81
456.616	502.81
456.836	472.81
457.056	519.81
457.276	474.81
457.497	457.81
457.717	469.81
457.937	495.81
458.157	494.81
458.377	468.81
458.598	426.81
458.818	440.81
459.038	436.81
459.258	424.81
459.478	442.81
459.698	433.81
459.918	449.81
460.138	535.81
460.358	514.81
460.578	557.81
460.798	560.81
461.018	588.81
461.238	574.81
461.458	580.81
461.678	553.81
461.898	535.81
462.118	537.81
462.338	553.81
462.558	570.81
462.777	573.81
462.997	564.81
463.217	592.81
463.437	553.81
463.657	543.81
463.876	510.81
464.096	535.81
464.316	536.81
464.536	539.81
464.755	581.81
464.975	582.81
465.195	569.81
465.414	587.81
465.634	575.81
465.854	596.81
466.073	660.81
466.293	655.81
466.512	605.81
466.732	604.81
466.951	627.81
467.171	637.81
467.391	628.81
467.61	622.81
467.829	659.81
468.049	715.81
468.268	740.81
468.488	703.81
468.707	671.81
468.927	670.81
469.146	657.81
469.365	672.81
469.585	684.81
469.804	660.81
470.023	665.81
470.243	695.81
470.462	695.81
470.681	696.81
470.901	673.81
471.12	679.81
471.339	694.81
471.558	681.81
471.777	685.81
471.997	631.81
472.216	627.81
472.435	550.81
472.654	499.81
472.873	531.81
473.092	544.81
473.311	551.81
473.53	557.81
473.749	582.81
473.968	583.81
474.187	575.81
474.406	563.81
474.625	593.81
474.844	637.81
475.063	638.81
475.282	591.81
475.501	576.81
475.72	570.81
475.939	631.81
476.158	630.81
476.377	614.81
476.596	565.81
476.814	543.81
477.033	550.81
477.252	574.81
477.471	604.81
477.69	641.81
477.908	675.81
478.127	706.81
478.346	724.81
478.564	704.81
478.783	679.81
479.002	710.81
479.22	708.81
479.439	688.81
479.658	687.81
479.876	636.81
480.095	599.81
480.313	573.81
480.532	596.81
480.751	557.81
480.969	510.81
481.188	482.81
481.406	473.81
481.624	472.81
481.843	451.81
482.061	497.81
482.28	547.81
482.498	583.81
482.717	528.81
482.935	576.81
483.153	676.81
483.372	740.81
483.59	732.81
483.808	675.81
484.027	644.81
484.245	661.81
484.463	823.81
484.681	875.81
484.9	708.81
485.118	682.81
485.336	646.81
485.554	580.81
485.772	551.81
485.99	545.81
486.209	559.81
486.427	559.81
486.645	596.81
486.863	683.81
487.081	709.81
487.299	692.81
487.517	714.81
487.735	815.81
487.953	905.81
488.171	947.81
488.389	873.81
488.607	791.81
488.825	777.81
489.043	730.81
489.261	664.81
489.479	739.81
489.696	727.81
489.914	748.81
490.132	744.81
490.35	781.81
490.568	858.81
490.786	918.81
491.003	934.81
491.221	975.81
491.439	989.81
491.657	1032.81
491.874	1120.81
492.092	1196.81
492.31	1256.81
492.527	1210.81
492.745	1109.81
492.963	1055.81
493.18	1037.81
493.398	1017.81
493.615	1049.81
493.833	967.81
494.05	934.81
494.268	927.81
494.485	907.81
494.703	925.81
494.92	973.81
495.138	949.81
495.355	983.81
495.573	949.81
495.79	965.81
496.008	958.81
496.225	920.81
496.442	939.81
496.66	910.81
496.877	903.81
497.094	918.81
497.312	904.81
497.529	899.81
497.746	828.81
497.963	860.81
498.181	836.81
498.398	795.81
498.615	733.81
498.832	747.81
499.049	733.81
499.267	752.81
499.484	794.81
499.701	826.81
499.918	871.81
500.135	949.81
500.352	1011.81
500.569	1031.81
500.786	1081.81
501.003	1018.81
501.22	943.81
501.437	903.81
501.654	924.81
501.871	893.81
