Data from WStandard_LampEnergy5.5LIBS07252019.E.O._I.C._HRD10591_16-07-09-921.txt Node
Date: Thu Jul 25 16:07:09 EDT 2019
User: cochatt
Spectrometer: HR+D1059
Trigger mode: 1
Integration Time (sec): 1.000000E-1
Scans to average: 1
Electric dark correction enabled: true
Nonlinearity correction enabled: false
Boxcar width: 0
XAxis mode: Wavelengths
Number of Pixels in Spectrum: 2048
>>>>>Begin Spectral Data<<<<<
223.165	-8.62
223.4	-8.62
223.635	-8.62
223.869	-11.62
224.104	-17.62
224.338	-4.62
224.573	-24.62
224.808	-17.62
225.042	-9.62
225.277	-11.62
225.511	-3.62
225.746	-2.62
225.98	6.38
226.215	16.38
226.449	22.38
226.683	15.38
226.918	16.38
227.152	35.38
227.387	29.38
227.621	42.38
227.856	46.38
228.09	45.38
228.324	47.38
228.559	55.38
228.793	128.38
229.027	385.38
229.262	381.38
229.496	397.38
229.73	407.38
229.964	482.38
230.199	505.38
230.433	488.38
230.667	528.38
230.901	571.38
231.136	518.38
231.37	520.38
231.604	477.38
231.838	492.38
232.072	501.38
232.306	481.38
232.541	518.38
232.775	581.38
233.009	630.38
233.243	618.38
233.477	557.38
233.711	580.38
233.945	606.38
234.179	579.38
234.413	618.38
234.647	682.38
234.881	632.38
235.115	596.38
235.349	581.38
235.583	586.38
235.817	593.38
236.051	563.38
236.285	582.38
236.519	606.38
236.753	699.38
236.987	734.38
237.221	723.38
237.455	802.38
237.689	769.38
237.922	750.38
238.156	711.38
238.39	715.38
238.624	739.38
238.858	792.38
239.091	804.38
239.325	859.38
239.559	1009.38
239.793	1018.38
240.027	1122.38
240.26	1078.38
240.494	786.38
240.728	740.38
240.961	754.38
241.195	778.38
241.429	868.38
241.662	886.38
241.896	816.38
242.13	817.38
242.363	917.38
242.597	997.38
242.83	951.38
243.064	959.38
243.298	1039.38
243.531	1012.38
243.765	1003.38
243.998	1006.38
244.232	872.38
244.465	830.38
244.699	838.38
244.932	951.38
245.166	1090.38
245.399	1057.38
245.633	962.38
245.866	965.38
246.099	987.38
246.333	999.38
246.566	1052.38
246.8	1115.38
247.033	1258.38
247.266	1159.38
247.5	1125.38
247.733	1116.38
247.966	1172.38
248.2	1351.38
248.433	1264.38
248.666	1289.38
248.899	1420.38
249.133	1652.38
249.366	1896.38
249.599	1543.38
249.832	1349.38
250.066	1369.38
250.299	1406.38
250.532	1298.38
250.765	1148.38
250.998	1250.38
251.231	1281.38
251.465	1333.38
251.698	1259.38
251.931	1244.38
252.164	1292.38
252.397	1335.38
252.63	1346.38
252.863	1164.38
253.096	1175.38
253.329	1192.38
253.562	1289.38
253.795	1338.38
254.028	1335.38
254.261	1264.38
254.494	1263.38
254.727	1174.38
254.96	1212.38
255.193	1339.38
255.426	1515.38
255.659	1758.38
255.892	1831.38
256.124	1475.38
256.357	1423.38
256.59	1557.38
256.823	1526.38
257.056	1524.38
257.289	1833.38
257.521	2078.38
257.754	1826.38
257.987	1720.38
258.22	1959.38
258.452	1860.38
258.685	1510.38
258.918	1466.38
259.151	1503.38
259.383	1423.38
259.616	1221.38
259.849	1292.38
260.081	1470.38
260.314	1676.38
260.547	1799.38
260.779	1862.38
261.012	1714.38
261.244	1596.38
261.477	1443.38
261.71	1500.38
261.942	1468.38
262.175	1476.38
262.407	1588.38
262.64	1496.38
262.872	1365.38
263.105	1353.38
263.337	1370.38
263.57	1384.38
263.802	1367.38
264.035	1270.38
264.267	1228.38
264.499	1184.38
264.732	1303.38
264.964	1381.38
265.197	1458.38
265.429	1508.38
265.661	1683.38
265.894	1877.38
266.126	1946.38
266.358	1671.38
266.591	1775.38
266.823	1958.38
267.055	1767.38
267.287	1732.38
267.52	1687.38
267.752	1651.38
267.984	1642.38
268.216	1738.38
268.448	1797.38
268.681	1765.38
268.913	1597.38
269.145	1505.38
269.377	1452.38
269.609	1613.38
269.841	1842.38
270.073	2159.38
270.306	2416.38
270.538	2614.38
270.77	2162.38
271.002	1866.38
271.234	1822.38
271.466	1706.38
271.698	1942.38
271.93	2361.38
272.162	2409.38
272.394	2113.38
272.626	2091.38
272.858	1800.38
273.09	1524.38
273.322	1537.38
273.553	1460.38
273.785	1492.38
274.017	1503.38
274.249	1689.38
274.481	1671.38
274.713	1544.38
274.945	1476.38
275.176	1538.38
275.408	1474.38
275.64	1434.38
275.872	1415.38
276.104	1557.38
276.335	1765.38
276.567	2054.38
276.799	2098.38
277.031	1801.38
277.262	1694.38
277.494	1746.38
277.726	1978.38
277.957	1948.38
278.189	1796.38
278.421	1631.38
278.652	1568.38
278.884	1574.38
279.115	1552.38
279.347	1648.38
279.579	1540.38
279.81	1564.38
280.042	1724.38
280.273	1925.38
280.505	1904.38
280.736	1943.38
280.968	1836.38
281.199	1601.38
281.431	1499.38
281.662	1495.38
281.894	1507.38
282.125	1541.38
282.356	1611.38
282.588	1646.38
282.819	1639.38
283.051	1764.38
283.282	1898.38
283.513	1874.38
283.745	1591.38
283.976	1482.38
284.207	1516.38
284.439	1543.38
284.67	1573.38
284.901	1578.38
285.132	1634.38
285.364	1618.38
285.595	1640.38
285.826	1610.38
286.057	1595.38
286.288	1582.38
286.52	1640.38
286.751	1781.38
286.982	1844.38
287.213	1711.38
287.444	1563.38
287.675	1552.38
287.906	1608.38
288.138	1756.38
288.369	1658.38
288.6	1618.38
288.831	1565.38
289.062	1570.38
289.293	1603.38
289.524	1597.38
289.755	1632.38
289.986	1627.38
290.217	1515.38
290.448	1540.38
290.679	1623.38
290.91	1607.38
291.141	1667.38
291.371	1736.38
291.602	1719.38
291.833	1685.38
292.064	1750.38
292.295	1686.38
292.526	1784.38
292.757	1854.38
292.987	1744.38
293.218	1645.38
293.449	1732.38
293.68	2003.38
293.91	2208.38
294.141	1982.38
294.372	1876.38
294.603	1902.38
294.833	1990.38
295.064	1920.38
295.295	1702.38
295.525	1675.38
295.756	1567.38
295.987	1516.38
296.217	1517.38
296.448	1549.38
296.679	1573.38
296.909	1594.38
297.14	1573.38
297.37	1552.38
297.601	1671.38
297.831	1824.38
298.062	1831.38
298.292	1668.38
298.523	1578.38
298.753	1586.38
298.984	1634.38
299.214	1606.38
299.445	1691.38
299.675	1728.38
299.905	1673.38
300.136	1632.38
300.366	1619.38
300.597	1560.38
300.827	1600.38
301.057	1644.38
301.288	1721.38
301.518	1702.38
301.748	1716.38
301.979	1856.38
302.209	1856.38
302.439	1966.38
302.669	2094.38
302.9	1935.38
303.13	1738.38
303.36	1750.38
303.59	1781.38
303.82	1724.38
304.051	1717.38
304.281	1700.38
304.511	1744.38
304.741	1849.38
304.971	2050.38
305.201	2252.38
305.431	2044.38
305.661	1670.38
305.891	1554.38
306.121	1494.38
306.352	1558.38
306.582	1615.38
306.812	1767.38
307.042	1934.38
307.272	1910.38
307.502	1951.38
307.731	2062.38
307.961	2358.38
308.191	2137.38
308.421	1836.38
308.651	1723.38
308.881	1671.38
309.111	1670.38
309.341	1643.38
309.571	1683.38
309.8	1700.38
310.03	1677.38
310.26	1638.38
310.49	1616.38
310.72	1679.38
310.949	1735.38
311.179	1798.38
311.409	1740.38
311.639	1690.38
311.868	1654.38
312.098	1675.38
312.328	1712.38
312.557	1650.38
312.787	1702.38
313.017	1737.38
313.246	1741.38
313.476	1739.38
313.706	1751.38
313.935	1736.38
314.165	1749.38
314.394	1826.38
314.624	1948.38
314.853	2027.38
315.083	2116.38
315.312	2203.38
315.542	2056.38
315.771	1790.38
316.001	1818.38
316.23	1907.38
316.46	1881.38
316.689	1860.38
316.919	1757.38
317.148	1680.38
317.377	1678.38
317.607	1831.38
317.836	2102.38
318.065	2191.38
318.295	2099.38
318.524	2014.38
318.753	1846.38
318.983	1858.38
319.212	1836.38
319.441	1833.38
319.67	1761.38
319.9	1836.38
320.129	1893.38
320.358	1975.38
320.587	2036.38
320.816	2007.38
321.046	1980.38
321.275	1840.38
321.504	1857.38
321.733	2033.38
321.962	2013.38
322.191	1828.38
322.42	1832.38
322.649	1786.38
322.878	1813.38
323.108	1790.38
323.337	1932.38
323.566	1898.38
323.795	1866.38
324.024	1872.38
324.253	1816.38
324.482	1876.38
324.71	1810.38
324.939	1707.38
325.168	1770.38
325.397	1836.38
325.626	1866.38
325.855	1874.38
326.084	1837.38
326.313	1793.38
326.542	1836.38
326.77	1916.38
326.999	1927.38
327.228	1855.38
327.457	1721.38
327.686	1701.38
327.914	1727.38
328.143	1805.38
328.372	1812.38
328.6	1847.38
328.829	1762.38
329.058	1775.38
329.287	1761.38
329.515	1820.38
329.744	1835.38
329.972	1945.38
330.201	2044.38
330.43	1980.38
330.658	1912.38
330.887	1895.38
331.115	1916.38
331.344	1926.38
331.572	1893.38
331.801	1890.38
332.03	1881.38
332.258	1876.38
332.486	1903.38
332.715	1936.38
332.943	1936.38
333.172	1910.38
333.4	1924.38
333.629	2002.38
333.857	2123.38
334.085	2295.38
334.314	2594.38
334.542	2938.38
334.771	2660.38
334.999	2318.38
335.227	2157.38
335.455	2086.38
335.684	2042.38
335.912	2064.38
336.14	2196.38
336.369	2100.38
336.597	1951.38
336.825	1938.38
337.053	1990.38
337.281	2122.38
337.51	2175.38
337.738	2311.38
337.966	2213.38
338.194	2005.38
338.422	1915.38
338.65	1916.38
338.878	1910.38
339.106	1837.38
339.334	1775.38
339.562	1767.38
339.79	1800.38
340.018	1919.38
340.246	2012.38
340.474	2012.38
340.702	1952.38
340.93	1959.38
341.158	1978.38
341.386	1928.38
341.614	1906.38
341.842	1875.38
342.07	1919.38
342.298	1922.38
342.526	1925.38
342.754	1879.38
342.981	1846.38
343.209	1855.38
343.437	1898.38
343.665	1847.38
343.893	1940.38
344.12	2010.38
344.348	2045.38
344.576	1952.38
344.804	1918.38
345.031	1879.38
345.259	1911.38
345.487	1850.38
345.714	1730.38
345.942	1715.38
346.17	1735.38
346.397	1782.38
346.625	1808.38
346.853	1707.38
347.08	1719.38
347.308	1696.38
347.535	1736.38
347.763	1815.38
347.99	1814.38
348.218	1704.38
348.445	1708.38
348.673	1754.38
348.9	1813.38
349.128	1842.38
349.355	1908.38
349.583	1876.38
349.81	1774.38
350.037	1611.38
350.265	1638.38
350.492	1644.38
350.72	1695.38
350.947	1785.38
351.174	1836.38
351.402	1711.38
351.629	1657.38
351.856	1603.38
352.083	1610.38
352.311	1622.38
352.538	1674.38
352.765	1785.38
352.992	1815.38
353.22	1726.38
353.447	1659.38
353.674	1706.38
353.901	1798.38
354.128	1710.38
354.355	1694.38
354.583	1741.38
354.81	1787.38
355.037	1826.38
355.264	1815.38
355.491	1791.38
355.718	1762.38
355.945	1770.38
356.172	1698.38
356.399	1639.38
356.626	1672.38
356.853	1722.38
357.08	1832.38
357.307	2078.38
357.534	2104.38
357.761	1818.38
357.988	1698.38
358.215	1621.38
358.441	1655.38
358.668	1642.38
358.895	1652.38
359.122	1767.38
359.349	1951.38
359.576	1958.38
359.802	1730.38
360.029	1676.38
360.256	1656.38
360.483	1664.38
360.709	1736.38
360.936	1801.38
361.163	1864.38
361.39	2013.38
361.616	2221.38
361.843	2124.38
362.07	2002.38
362.296	1703.38
362.523	1674.38
362.749	1658.38
362.976	1751.38
363.203	1780.38
363.429	1722.38
363.656	1626.38
363.882	1704.38
364.109	1912.38
364.335	2101.38
364.562	1923.38
364.788	1875.38
365.015	1782.38
365.241	1658.38
365.468	1739.38
365.694	1803.38
365.92	1877.38
366.147	1814.38
366.373	1666.38
366.599	1606.38
366.826	1666.38
367.052	1685.38
367.278	1696.38
367.505	1711.38
367.731	1735.38
367.957	1779.38
368.184	1814.38
368.41	1886.38
368.636	1925.38
368.862	1918.38
369.089	1992.38
369.315	1903.38
369.541	1846.38
369.767	1775.38
369.993	1691.38
370.219	1687.38
370.445	1735.38
370.672	1818.38
370.898	1914.38
371.124	1959.38
371.35	1819.38
371.576	1847.38
371.802	1970.38
372.028	1895.38
372.254	1812.38
372.48	1703.38
372.706	1697.38
372.932	1691.38
373.158	1739.38
373.384	1812.38
373.61	1798.38
373.835	1934.38
374.061	1838.38
374.287	1778.38
374.513	1832.38
374.739	1782.38
374.965	1804.38
375.191	1831.38
375.416	1848.38
375.642	1881.38
375.868	1991.38
376.094	2007.38
376.319	1923.38
376.545	1788.38
376.771	1844.38
376.997	1904.38
377.222	1926.38
377.448	1895.38
377.674	1899.38
377.899	1894.38
378.125	2007.38
378.35	1976.38
378.576	1829.38
378.802	1756.38
379.027	1729.38
379.253	1752.38
379.478	1788.38
379.704	1822.38
379.929	1775.38
380.155	1800.38
380.38	1783.38
380.606	1813.38
380.831	1787.38
381.057	1917.38
381.282	1956.38
381.507	1902.38
381.733	2003.38
381.958	2018.38
382.184	1914.38
382.409	1857.38
382.634	1880.38
382.86	1883.38
383.085	1909.38
383.31	1946.38
383.535	2074.38
383.761	2183.38
383.986	2137.38
384.211	2015.38
384.436	2031.38
384.662	2124.38
384.887	2192.38
385.112	2044.38
385.337	2109.38
385.562	2084.38
385.787	2080.38
386.013	2099.38
386.238	2142.38
386.463	2123.38
386.688	2238.38
386.913	2380.38
387.138	2337.38
387.363	2102.38
387.588	2151.38
387.813	2097.38
388.038	2100.38
388.263	2191.38
388.488	2160.38
388.713	1973.38
388.938	1950.38
389.163	2008.38
389.387	2048.38
389.612	2016.38
389.837	2056.38
390.062	2072.38
390.287	2102.38
390.512	2028.38
390.736	1991.38
390.961	1969.38
391.186	1996.38
391.411	1979.38
391.636	1998.38
391.86	2059.38
392.085	2008.38
392.31	2012.38
392.534	2066.38
392.759	2134.38
392.984	2037.38
393.208	2102.38
393.433	2143.38
393.658	2210.38
393.882	2288.38
394.107	2136.38
394.331	2079.38
394.556	2040.38
394.78	2072.38
395.005	2122.38
395.229	2236.38
395.454	2422.38
395.678	2405.38
395.903	2272.38
396.127	2139.38
396.352	2163.38
396.576	2298.38
396.801	2307.38
397.025	2278.38
397.249	2261.38
397.474	2207.38
397.698	2162.38
397.922	2260.38
398.147	2364.38
398.371	2469.38
398.595	2458.38
398.82	2392.38
399.044	2405.38
399.268	2494.38
399.492	2670.38
399.717	2754.38
399.941	2765.38
400.165	2726.38
400.389	2616.38
400.613	2596.38
400.837	2866.38
401.062	3316.38
401.286	2836.38
401.51	2600.38
401.734	2727.38
401.958	2654.38
402.182	2446.38
402.406	2368.38
402.63	2359.38
402.854	2326.38
403.078	2376.38
403.302	2452.38
403.526	2458.38
403.75	2447.38
403.974	2482.38
404.198	2420.38
404.422	2518.38
404.645	2639.38
404.869	2629.38
405.093	2419.38
405.317	2319.38
405.541	2471.38
405.765	2476.38
405.988	2467.38
406.212	2530.38
406.436	2576.38
406.66	2656.38
406.883	2655.38
407.107	2960.38
407.331	3150.38
407.555	3469.38
407.778	3264.38
408.002	2636.38
408.226	2564.38
408.449	2564.38
408.673	2551.38
408.896	2503.38
409.12	2549.38
409.344	2478.38
409.567	2396.38
409.791	2446.38
410.014	2531.38
410.238	2605.38
410.461	2790.38
410.685	2501.38
410.908	2404.38
411.132	2446.38
411.355	2419.38
411.578	2377.38
411.802	2410.38
412.025	2416.38
412.249	2380.38
412.472	2334.38
412.695	2286.38
412.919	2321.38
413.142	2360.38
413.365	2418.38
413.589	2430.38
413.812	2478.38
414.035	2614.38
414.258	2440.38
414.482	2382.38
414.705	2343.38
414.928	2323.38
415.151	2296.38
415.374	2358.38
415.597	2356.38
415.821	2390.38
416.044	2468.38
416.267	2519.38
416.49	2239.38
416.713	2240.38
416.936	2278.38
417.159	2438.38
417.382	2472.38
417.605	2277.38
417.828	2386.38
418.051	2428.38
418.274	2330.38
418.497	2217.38
418.72	2252.38
418.943	2210.38
419.166	2378.38
419.389	2512.38
419.611	2276.38
419.834	2336.38
420.057	2314.38
420.28	2254.38
420.503	2254.38
420.726	2316.38
420.948	2310.38
421.171	2258.38
421.394	2261.38
421.617	2382.38
421.839	2341.38
422.062	2279.38
422.285	2267.38
422.507	2236.38
422.73	2158.38
422.953	2147.38
423.175	2148.38
423.398	2234.38
423.621	2235.38
423.843	2286.38
424.066	2306.38
424.288	2367.38
424.511	2407.38
424.733	2368.38
424.956	2156.38
425.178	2151.38
425.401	2184.38
425.623	2228.38
425.846	2147.38
426.068	2283.38
426.291	2395.38
426.513	2363.38
426.735	2312.38
426.958	2445.38
427.18	2646.38
427.402	2375.38
427.625	2446.38
427.847	2477.38
428.069	2300.38
428.292	2254.38
428.514	2166.38
428.736	2126.38
428.958	2162.38
429.181	2222.38
429.403	2463.38
429.625	3046.38
429.847	2695.38
430.069	2234.38
430.292	2497.38
430.514	2552.38
430.736	2412.38
430.958	2453.38
431.18	2356.38
431.402	2157.38
431.624	2157.38
431.846	2226.38
432.068	2096.38
432.29	2176.38
432.512	2210.38
432.734	2225.38
432.956	2279.38
433.178	2374.38
433.4	2348.38
433.622	2381.38
433.844	2250.38
434.066	2166.38
434.287	2187.38
434.509	2252.38
434.731	2343.38
434.953	2530.38
435.175	2484.38
435.397	2334.38
435.618	2336.38
435.84	2319.38
436.062	2331.38
436.284	2282.38
436.505	2333.38
436.727	2364.38
436.949	2270.38
437.17	2197.38
437.392	2222.38
437.614	2188.38
437.835	2148.38
438.057	2310.38
438.278	2444.38
438.5	2214.38
438.721	2143.38
438.943	2215.38
439.165	2171.38
439.386	2118.38
439.608	2162.38
439.829	2157.38
440.05	2158.38
440.272	2108.38
440.493	2098.38
440.715	2226.38
440.936	2353.38
441.158	2566.38
441.379	2510.38
441.6	2439.38
441.822	2397.38
442.043	2312.38
442.264	2304.38
442.486	2190.38
442.707	2200.38
442.928	2203.38
443.149	2244.38
443.371	2419.38
443.592	2467.38
443.813	2418.38
444.034	2351.38
444.255	2418.38
444.476	2450.38
444.698	2518.38
444.919	2464.38
445.14	2524.38
445.361	2510.38
445.582	2675.38
445.803	2505.38
446.024	2380.38
446.245	2483.38
446.466	2411.38
446.687	2222.38
446.908	2298.38
447.129	2192.38
447.35	2258.38
447.571	2249.38
447.792	2172.38
448.013	2130.38
448.234	2196.38
448.455	2280.38
448.675	2334.38
448.896	2115.38
449.117	2084.38
449.338	2124.38
449.559	2234.38
449.779	2368.38
450	2588.38
450.221	2803.38
450.442	2683.38
450.662	2359.38
450.883	2139.38
451.104	2020.38
451.324	2120.38
451.545	2185.38
451.766	2101.38
451.986	2045.38
452.207	2002.38
452.428	1968.38
452.648	1916.38
452.869	1995.38
453.089	2193.38
453.31	2147.38
453.53	2226.38
453.751	2138.38
453.971	2004.38
454.192	2066.38
454.412	2203.38
454.633	2128.38
454.853	2032.38
455.073	1882.38
455.294	1890.38
455.514	1877.38
455.734	1886.38
455.955	1947.38
456.175	1949.38
456.395	1960.38
456.616	2014.38
456.836	2035.38
457.056	2022.38
457.276	2012.38
457.497	1964.38
457.717	1892.38
457.937	1914.38
458.157	1990.38
458.377	2016.38
458.598	1931.38
458.818	1967.38
459.038	2119.38
459.258	2225.38
459.478	2236.38
459.698	2103.38
459.918	2193.38
460.138	2318.38
460.358	2341.38
460.578	2351.38
460.798	2410.38
461.018	2600.38
461.238	2461.38
461.458	2364.38
461.678	2332.38
461.898	2312.38
462.118	2231.38
462.338	2357.38
462.558	2334.38
462.777	2326.38
462.997	2422.38
463.217	2590.38
463.437	2609.38
463.657	2346.38
463.876	2367.38
464.096	2346.38
464.316	2328.38
464.536	2419.38
464.755	2453.38
464.975	2456.38
465.195	2392.38
465.414	2480.38
465.634	2485.38
465.854	2362.38
466.073	2523.38
466.293	2444.38
466.512	2175.38
466.732	2165.38
466.951	2290.38
467.171	2255.38
467.391	2103.38
467.61	2098.38
467.829	2125.38
468.049	2267.38
468.268	2572.38
468.488	2387.38
468.707	2277.38
468.927	2180.38
469.146	2160.38
469.365	2127.38
469.585	2147.38
469.804	2135.38
470.023	2132.38
470.243	2162.38
470.462	2130.38
470.681	2116.38
470.901	2141.38
471.12	2162.38
471.339	2174.38
471.558	2073.38
471.777	2034.38
471.997	2101.38
472.216	2088.38
472.435	2042.38
472.654	2032.38
472.873	2158.38
473.092	2276.38
473.311	2215.38
473.53	2026.38
473.749	2031.38
473.968	2127.38
474.187	2218.38
474.406	2375.38
474.625	2188.38
474.844	2102.38
475.063	2124.38
475.282	2222.38
475.501	2210.38
475.72	2181.38
475.939	2274.38
476.158	2232.38
476.377	2158.38
476.596	2167.38
476.814	2251.38
477.033	2238.38
477.252	2324.38
477.471	2378.38
477.69	2265.38
477.908	2309.38
478.127	2378.38
478.346	2612.38
478.564	2646.38
478.783	2570.38
479.002	2624.38
479.22	2564.38
479.439	2701.38
479.658	3013.38
479.876	3022.38
480.095	2644.38
480.313	2489.38
480.532	2356.38
480.751	2433.38
480.969	2489.38
481.188	2440.38
481.406	2403.38
481.624	2362.38
481.843	2402.38
482.061	2440.38
482.28	2471.38
482.498	2530.38
482.717	2493.38
482.935	2422.38
483.153	2360.38
483.372	2373.38
483.59	2331.38
483.808	2401.38
484.027	2427.38
484.245	2636.38
484.463	2983.38
484.681	3537.38
484.9	2656.38
485.118	2488.38
485.336	2416.38
485.554	2499.38
485.772	2629.38
485.99	2581.38
486.209	2613.38
486.427	2550.38
486.645	2639.38
486.863	2523.38
487.081	2606.38
487.299	2682.38
