Data from WStandard_LampEnergy8_LIBS07252019.E.O._I.C._HRD10591_16-00-40-929.txt Node
Date: Thu Jul 25 16:00:40 EDT 2019
User: cochatt
Spectrometer: HR+D1059
Trigger mode: 1
Integration Time (sec): 1.000000E-1
Scans to average: 1
Electric dark correction enabled: true
Nonlinearity correction enabled: false
Boxcar width: 0
XAxis mode: Wavelengths
Number of Pixels in Spectrum: 2048
>>>>>Begin Spectral Data<<<<<
223.165	-11.81
223.4	-11.81
223.635	-11.81
223.869	-17.81
224.104	-20.81
224.338	-7.81
224.573	-13.81
224.808	-17.81
225.042	0.19
225.277	-19.81
225.511	4.19
225.746	-3.81
225.98	9.19
226.215	21.19
226.449	15.19
226.683	11.19
226.918	24.19
227.152	28.19
227.387	32.19
227.621	45.19
227.856	50.19
228.09	46.19
228.324	47.19
228.559	61.19
228.793	97.19
229.027	187.19
229.262	208.19
229.496	208.19
229.73	230.19
229.964	244.19
230.199	270.19
230.433	262.19
230.667	269.19
230.901	264.19
231.136	266.19
231.37	249.19
231.604	265.19
231.838	238.19
232.072	268.19
232.306	259.19
232.541	264.19
232.775	295.19
233.009	314.19
233.243	311.19
233.477	274.19
233.711	293.19
233.945	322.19
234.179	271.19
234.413	325.19
234.647	340.19
234.881	317.19
235.115	291.19
235.349	279.19
235.583	294.19
235.817	312.19
236.051	303.19
236.285	293.19
236.519	318.19
236.753	358.19
236.987	336.19
237.221	347.19
237.455	367.19
237.689	375.19
237.922	363.19
238.156	326.19
238.39	335.19
238.624	340.19
238.858	373.19
239.091	389.19
239.325	419.19
239.559	472.19
239.793	475.19
240.027	479.19
240.26	469.19
240.494	387.19
240.728	386.19
240.961	372.19
241.195	367.19
241.429	410.19
241.662	408.19
241.896	398.19
242.13	406.19
242.363	405.19
242.597	465.19
242.83	438.19
243.064	453.19
243.298	469.19
243.531	452.19
243.765	468.19
243.998	455.19
244.232	400.19
244.465	390.19
244.699	406.19
244.932	459.19
245.166	478.19
245.399	487.19
245.633	466.19
245.866	439.19
246.099	461.19
246.333	472.19
246.566	469.19
246.8	523.19
247.033	568.19
247.266	536.19
247.5	524.19
247.733	518.19
247.966	536.19
248.2	564.19
248.433	575.19
248.666	615.19
248.899	650.19
249.133	698.19
249.366	777.19
249.599	658.19
249.832	598.19
250.066	615.19
250.299	626.19
250.532	589.19
250.765	538.19
250.998	543.19
251.231	582.19
251.465	602.19
251.698	566.19
251.931	542.19
252.164	587.19
252.397	582.19
252.63	576.19
252.863	516.19
253.096	539.19
253.329	556.19
253.562	576.19
253.795	630.19
254.028	591.19
254.261	568.19
254.494	553.19
254.727	525.19
254.96	581.19
255.193	631.19
255.426	710.19
255.659	770.19
255.892	778.19
256.124	662.19
256.357	658.19
256.59	699.19
256.823	679.19
257.056	712.19
257.289	809.19
257.521	872.19
257.754	794.19
257.987	738.19
258.22	799.19
258.452	780.19
258.685	662.19
258.918	662.19
259.151	644.19
259.383	626.19
259.616	589.19
259.849	607.19
260.081	673.19
260.314	744.19
260.547	796.19
260.779	806.19
261.012	747.19
261.244	666.19
261.477	656.19
261.71	680.19
261.942	684.19
262.175	678.19
262.407	666.19
262.64	640.19
262.872	608.19
263.105	607.19
263.337	632.19
263.57	616.19
263.802	593.19
264.035	587.19
264.267	566.19
264.499	543.19
264.732	615.19
264.964	631.19
265.197	677.19
265.429	711.19
265.661	766.19
265.894	834.19
266.126	851.19
266.358	769.19
266.591	796.19
266.823	832.19
267.055	768.19
267.287	723.19
267.52	731.19
267.752	763.19
267.984	731.19
268.216	772.19
268.448	772.19
268.681	756.19
268.913	715.19
269.145	670.19
269.377	680.19
269.609	757.19
269.841	859.19
270.073	955.19
270.306	1062.19
270.538	1074.19
270.77	918.19
271.002	834.19
271.234	778.19
271.466	776.19
271.698	916.19
271.93	1062.19
272.162	1016.19
272.394	935.19
272.626	860.19
272.858	778.19
273.09	708.19
273.322	692.19
273.553	656.19
273.785	664.19
274.017	704.19
274.249	735.19
274.481	724.19
274.713	685.19
274.945	681.19
275.176	692.19
275.408	676.19
275.64	650.19
275.872	682.19
276.104	724.19
276.335	824.19
276.567	907.19
276.799	920.19
277.031	826.19
277.262	780.19
277.494	822.19
277.726	915.19
277.957	846.19
278.189	810.19
278.421	725.19
278.652	717.19
278.884	743.19
279.115	730.19
279.347	725.19
279.579	709.19
279.81	702.19
280.042	802.19
280.273	853.19
280.505	851.19
280.736	882.19
280.968	805.19
281.199	720.19
281.431	709.19
281.662	702.19
281.894	700.19
282.125	738.19
282.356	732.19
282.588	724.19
282.819	756.19
283.051	824.19
283.282	871.19
283.513	844.19
283.745	754.19
283.976	716.19
284.207	678.19
284.439	732.19
284.67	725.19
284.901	776.19
285.132	774.19
285.364	762.19
285.595	734.19
285.826	760.19
286.057	739.19
286.288	760.19
286.52	772.19
286.751	831.19
286.982	824.19
287.213	781.19
287.444	700.19
287.675	728.19
287.906	775.19
288.138	807.19
288.369	792.19
288.6	742.19
288.831	732.19
289.062	737.19
289.293	766.19
289.524	767.19
289.755	800.19
289.986	789.19
290.217	720.19
290.448	733.19
290.679	753.19
290.91	782.19
291.141	776.19
291.371	813.19
291.602	801.19
291.833	810.19
292.064	818.19
292.295	806.19
292.526	842.19
292.757	878.19
292.987	801.19
293.218	780.19
293.449	856.19
293.68	967.19
293.91	978.19
294.141	916.19
294.372	914.19
294.603	930.19
294.833	957.19
295.064	862.19
295.295	825.19
295.525	797.19
295.756	757.19
295.987	700.19
296.217	746.19
296.448	758.19
296.679	778.19
296.909	778.19
297.14	758.19
297.37	781.19
297.601	847.19
297.831	879.19
298.062	874.19
298.292	800.19
298.523	788.19
298.753	807.19
298.984	800.19
299.214	798.19
299.445	795.19
299.675	815.19
299.905	813.19
300.136	831.19
300.366	766.19
300.597	729.19
300.827	757.19
301.057	811.19
301.288	828.19
301.518	842.19
301.748	878.19
301.979	888.19
302.209	903.19
302.439	973.19
302.669	961.19
302.9	928.19
303.13	859.19
303.36	819.19
303.59	848.19
303.82	842.19
304.051	843.19
304.281	841.19
304.511	890.19
304.741	918.19
304.971	994.19
305.201	1036.19
305.431	926.19
305.661	813.19
305.891	744.19
306.121	761.19
306.352	802.19
306.582	848.19
306.812	890.19
307.042	927.19
307.272	939.19
307.502	979.19
307.731	1028.19
307.961	1051.19
308.191	979.19
308.421	872.19
308.651	834.19
308.881	821.19
309.111	827.19
309.341	799.19
309.571	795.19
309.8	796.19
310.03	807.19
310.26	794.19
310.49	826.19
310.72	832.19
310.949	880.19
311.179	870.19
311.409	842.19
311.639	823.19
311.868	832.19
312.098	821.19
312.328	824.19
312.557	828.19
312.787	853.19
313.017	862.19
313.246	859.19
313.476	851.19
313.706	892.19
313.935	874.19
314.165	910.19
314.394	911.19
314.624	959.19
314.853	1015.19
315.083	1044.19
315.312	1028.19
315.542	964.19
315.771	892.19
316.001	900.19
316.23	936.19
316.46	923.19
316.689	918.19
316.919	882.19
317.148	840.19
317.377	870.19
317.607	937.19
317.836	1033.19
318.065	1046.19
318.295	1010.19
318.524	1000.19
318.753	959.19
318.983	935.19
319.212	890.19
319.441	877.19
319.67	926.19
319.9	944.19
320.129	985.19
320.358	1000.19
320.587	1028.19
320.816	1024.19
321.046	995.19
321.275	948.19
321.504	974.19
321.733	1039.19
321.962	973.19
322.191	928.19
322.42	891.19
322.649	902.19
322.878	935.19
323.108	913.19
323.337	963.19
323.566	948.19
323.795	965.19
324.024	947.19
324.253	941.19
324.482	916.19
324.71	895.19
324.939	867.19
325.168	892.19
325.397	925.19
325.626	956.19
325.855	946.19
326.084	924.19
326.313	911.19
326.542	947.19
326.77	948.19
326.999	956.19
327.228	901.19
327.457	848.19
327.686	885.19
327.914	889.19
328.143	928.19
328.372	928.19
328.6	916.19
328.829	892.19
329.058	896.19
329.287	901.19
329.515	924.19
329.744	933.19
329.972	997.19
330.201	1014.19
330.43	1008.19
330.658	975.19
330.887	963.19
331.115	971.19
331.344	963.19
331.572	961.19
331.801	955.19
332.03	969.19
332.258	970.19
332.486	949.19
332.715	968.19
332.943	1005.19
333.172	1003.19
333.4	1001.19
333.629	1020.19
333.857	1093.19
334.085	1207.19
334.314	1314.19
334.542	1362.19
334.771	1271.19
334.999	1158.19
335.227	1078.19
335.455	1036.19
335.684	1039.19
335.912	1064.19
336.14	1072.19
336.369	1038.19
336.597	966.19
336.825	975.19
337.053	1015.19
337.281	1104.19
337.51	1101.19
337.738	1144.19
337.966	1090.19
338.194	996.19
338.422	965.19
338.65	971.19
338.878	932.19
339.106	918.19
339.334	922.19
339.562	884.19
339.79	911.19
340.018	980.19
340.246	1060.19
340.474	1003.19
340.702	995.19
340.93	1013.19
341.158	986.19
341.386	996.19
341.614	989.19
341.842	982.19
342.07	970.19
342.298	977.19
342.526	979.19
342.754	974.19
342.981	972.19
343.209	944.19
343.437	941.19
343.665	941.19
343.893	995.19
344.12	1060.19
344.348	1033.19
344.576	966.19
344.804	953.19
345.031	952.19
345.259	962.19
345.487	952.19
345.714	899.19
345.942	879.19
346.17	912.19
346.397	924.19
346.625	922.19
346.853	854.19
347.08	858.19
347.308	893.19
347.535	924.19
347.763	936.19
347.99	899.19
348.218	891.19
348.445	899.19
348.673	928.19
348.9	937.19
349.128	971.19
349.355	991.19
349.583	946.19
349.81	896.19
350.037	836.19
350.265	859.19
350.492	862.19
350.72	887.19
350.947	934.19
351.174	912.19
351.402	865.19
351.629	856.19
351.856	844.19
352.083	830.19
352.311	871.19
352.538	904.19
352.765	919.19
352.992	935.19
353.22	906.19
353.447	886.19
353.674	918.19
353.901	891.19
354.128	900.19
354.355	901.19
354.583	934.19
354.81	928.19
355.037	958.19
355.264	935.19
355.491	935.19
355.718	895.19
355.945	912.19
356.172	908.19
356.399	878.19
356.626	896.19
356.853	910.19
357.08	1014.19
357.307	1098.19
357.534	1078.19
357.761	940.19
357.988	886.19
358.215	863.19
358.441	833.19
358.668	878.19
358.895	884.19
359.122	966.19
359.349	1049.19
359.576	987.19
359.802	936.19
360.029	872.19
360.256	865.19
360.483	891.19
360.709	936.19
360.936	955.19
361.163	969.19
361.39	1059.19
361.616	1156.19
361.843	1120.19
362.07	1010.19
362.296	933.19
362.523	927.19
362.749	911.19
362.976	936.19
363.203	947.19
363.429	906.19
363.656	898.19
363.882	910.19
364.109	1040.19
364.335	1079.19
364.562	1012.19
364.788	935.19
365.015	906.19
365.241	888.19
365.468	909.19
365.694	976.19
365.92	991.19
366.147	936.19
366.373	901.19
366.599	880.19
366.826	911.19
367.052	885.19
367.278	900.19
367.505	923.19
367.731	954.19
367.957	962.19
368.184	982.19
368.41	1059.19
368.636	1028.19
368.862	1063.19
369.089	1011.19
369.315	997.19
369.541	962.19
369.767	918.19
369.993	913.19
370.219	937.19
370.445	947.19
370.672	1007.19
370.898	1038.19
371.124	976.19
371.35	971.19
371.576	1012.19
371.802	1036.19
372.028	975.19
372.254	949.19
372.48	943.19
372.706	933.19
372.932	920.19
373.158	948.19
373.384	957.19
373.61	1015.19
373.835	996.19
374.061	962.19
374.287	976.19
374.513	955.19
374.739	978.19
374.965	963.19
375.191	1009.19
375.416	1026.19
375.642	1019.19
375.868	1093.19
376.094	1093.19
376.319	1046.19
376.545	992.19
376.771	1060.19
376.997	1076.19
377.222	1045.19
377.448	1020.19
377.674	1009.19
377.899	1016.19
378.125	1121.19
378.35	1082.19
378.576	995.19
378.802	939.19
379.027	958.19
379.253	975.19
379.478	967.19
379.704	939.19
379.929	976.19
380.155	999.19
380.38	1013.19
380.606	985.19
380.831	1013.19
381.057	1069.19
381.282	1053.19
381.507	1015.19
381.733	1090.19
381.958	1092.19
382.184	1046.19
382.409	1021.19
382.634	1048.19
382.86	1019.19
383.085	1041.19
383.31	1062.19
383.535	1161.19
383.761	1199.19
383.986	1143.19
384.211	1126.19
384.436	1110.19
384.662	1145.19
384.887	1185.19
385.112	1104.19
385.337	1132.19
385.562	1114.19
385.787	1095.19
386.013	1126.19
386.238	1174.19
386.463	1144.19
386.688	1212.19
386.913	1308.19
387.138	1208.19
387.363	1140.19
387.588	1114.19
387.813	1136.19
388.038	1156.19
388.263	1228.19
388.488	1145.19
388.713	1066.19
388.938	1052.19
389.163	1118.19
389.387	1128.19
389.612	1112.19
389.837	1152.19
390.062	1143.19
390.287	1128.19
390.512	1117.19
390.736	1110.19
390.961	1070.19
391.186	1067.19
391.411	1095.19
391.636	1110.19
391.86	1120.19
392.085	1126.19
392.31	1103.19
392.534	1097.19
392.759	1125.19
392.984	1125.19
393.208	1117.19
393.433	1151.19
393.658	1186.19
393.882	1211.19
394.107	1141.19
394.331	1109.19
394.556	1094.19
394.78	1135.19
395.005	1156.19
395.229	1238.19
395.454	1288.19
395.678	1286.19
395.903	1243.19
396.127	1210.19
396.352	1195.19
396.576	1231.19
396.801	1231.19
397.025	1206.19
397.249	1218.19
397.474	1194.19
397.698	1196.19
397.922	1271.19
398.147	1314.19
398.371	1360.19
398.595	1332.19
398.82	1295.19
399.044	1323.19
399.268	1367.19
399.492	1450.19
399.717	1462.19
399.941	1478.19
400.165	1444.19
400.389	1435.19
400.613	1447.19
400.837	1658.19
401.062	1790.19
401.286	1512.19
401.51	1421.19
401.734	1452.19
401.958	1370.19
402.182	1325.19
402.406	1263.19
402.63	1268.19
402.854	1270.19
403.078	1308.19
403.302	1334.19
403.526	1330.19
403.75	1341.19
403.974	1342.19
404.198	1343.19
404.422	1414.19
404.645	1468.19
404.869	1394.19
405.093	1293.19
405.317	1277.19
405.541	1342.19
405.765	1345.19
405.988	1342.19
406.212	1366.19
406.436	1401.19
406.66	1424.19
406.883	1458.19
407.107	1674.19
407.331	1762.19
407.555	1883.19
407.778	1648.19
408.002	1442.19
408.226	1373.19
408.449	1384.19
408.673	1354.19
408.896	1350.19
409.12	1398.19
409.344	1380.19
409.567	1292.19
409.791	1343.19
410.014	1374.19
410.238	1496.19
410.461	1546.19
410.685	1384.19
410.908	1328.19
411.132	1322.19
411.355	1325.19
411.578	1334.19
411.802	1339.19
412.025	1332.19
412.249	1323.19
412.472	1249.19
412.695	1271.19
412.919	1282.19
413.142	1315.19
413.365	1316.19
413.589	1339.19
413.812	1371.19
414.035	1386.19
414.258	1322.19
414.482	1297.19
414.705	1284.19
414.928	1274.19
415.151	1280.19
415.374	1296.19
415.597	1335.19
415.821	1308.19
416.044	1334.19
416.267	1334.19
416.49	1257.19
416.713	1244.19
416.936	1286.19
417.159	1387.19
417.382	1318.19
417.605	1272.19
417.828	1293.19
418.051	1306.19
418.274	1297.19
418.497	1264.19
418.72	1286.19
418.943	1266.19
419.166	1307.19
419.389	1324.19
419.611	1280.19
419.834	1290.19
420.057	1286.19
420.28	1274.19
420.503	1261.19
420.726	1302.19
420.948	1287.19
421.171	1273.19
421.394	1262.19
421.617	1319.19
421.839	1285.19
422.062	1279.19
422.285	1235.19
422.507	1290.19
422.73	1227.19
422.953	1207.19
423.175	1222.19
423.398	1243.19
423.621	1276.19
423.843	1283.19
424.066	1322.19
424.288	1372.19
424.511	1387.19
424.733	1330.19
424.956	1232.19
425.178	1230.19
425.401	1232.19
425.623	1272.19
425.846	1225.19
426.068	1308.19
426.291	1336.19
426.513	1293.19
426.735	1300.19
426.958	1428.19
427.18	1447.19
427.402	1331.19
427.625	1412.19
427.847	1360.19
428.069	1242.19
428.292	1212.19
428.514	1228.19
428.736	1194.19
428.958	1242.19
429.181	1251.19
429.403	1447.19
429.625	1744.19
429.847	1462.19
430.069	1288.19
430.292	1430.19
430.514	1458.19
430.736	1339.19
430.958	1394.19
431.18	1288.19
431.402	1190.19
431.624	1168.19
431.846	1174.19
432.068	1140.19
432.29	1154.19
432.512	1114.19
432.734	1198.19
432.956	1245.19
433.178	1343.19
433.4	1313.19
433.622	1274.19
433.844	1231.19
434.066	1190.19
434.287	1174.19
434.509	1215.19
434.731	1252.19
434.953	1366.19
435.175	1315.19
435.397	1259.19
435.618	1263.19
435.84	1210.19
436.062	1191.19
436.284	1258.19
436.505	1273.19
436.727	1295.19
436.949	1255.19
437.17	1224.19
437.392	1208.19
437.614	1199.19
437.835	1159.19
438.057	1186.19
438.278	1239.19
438.5	1211.19
438.721	1207.19
438.943	1226.19
439.165	1221.19
439.386	1197.19
439.608	1238.19
439.829	1220.19
440.05	1225.19
440.272	1227.19
440.493	1223.19
440.715	1278.19
440.936	1380.19
441.158	1431.19
441.379	1408.19
441.6	1375.19
441.822	1354.19
442.043	1338.19
442.264	1308.19
442.486	1258.19
442.707	1242.19
442.928	1239.19
443.149	1279.19
443.371	1363.19
443.592	1383.19
443.813	1357.19
444.034	1334.19
444.255	1360.19
444.476	1390.19
444.698	1373.19
444.919	1373.19
445.14	1466.19
445.361	1414.19
445.582	1429.19
445.803	1336.19
446.024	1334.19
446.245	1404.19
446.466	1373.19
446.687	1328.19
446.908	1341.19
447.129	1245.19
447.35	1287.19
447.571	1267.19
447.792	1232.19
448.013	1198.19
448.234	1252.19
448.455	1311.19
448.675	1274.19
448.896	1196.19
449.117	1195.19
449.338	1214.19
449.559	1257.19
449.779	1283.19
450	1405.19
450.221	1423.19
450.442	1377.19
450.662	1248.19
450.883	1163.19
451.104	1150.19
451.324	1172.19
451.545	1168.19
451.766	1158.19
451.986	1138.19
452.207	1124.19
452.428	1074.19
452.648	1080.19
452.869	1077.19
453.089	1108.19
453.31	1138.19
453.53	1145.19
453.751	1101.19
453.971	1042.19
454.192	1071.19
454.412	1158.19
454.633	1125.19
454.853	1098.19
455.073	1003.19
455.294	1073.19
455.514	1052.19
455.734	1062.19
455.955	1077.19
456.175	1067.19
456.395	1066.19
456.616	1064.19
456.836	1063.19
457.056	1070.19
457.276	1092.19
457.497	1006.19
457.717	1006.19
457.937	1019.19
458.157	1031.19
458.377	1032.19
458.598	1013.19
458.818	1021.19
459.038	1101.19
459.258	1121.19
459.478	1129.19
459.698	1110.19
459.918	1125.19
460.138	1171.19
460.358	1233.19
460.578	1214.19
460.798	1245.19
461.018	1308.19
461.238	1308.19
461.458	1273.19
461.678	1275.19
461.898	1225.19
462.118	1196.19
462.338	1257.19
462.558	1234.19
462.777	1238.19
462.997	1309.19
463.217	1330.19
463.437	1319.19
463.657	1238.19
463.876	1247.19
464.096	1223.19
464.316	1205.19
464.536	1272.19
464.755	1295.19
464.975	1295.19
465.195	1268.19
465.414	1274.19
465.634	1271.19
465.854	1271.19
466.073	1348.19
466.293	1275.19
466.512	1171.19
466.732	1193.19
466.951	1223.19
467.171	1222.19
467.391	1189.19
467.61	1181.19
467.829	1193.19
468.049	1294.19
468.268	1450.19
468.488	1302.19
468.707	1270.19
468.927	1217.19
469.146	1180.19
469.365	1195.19
469.585	1211.19
469.804	1222.19
470.023	1206.19
470.243	1248.19
470.462	1220.19
470.681	1171.19
470.901	1211.19
471.12	1247.19
471.339	1211.19
471.558	1171.19
471.777	1180.19
471.997	1168.19
472.216	1162.19
472.435	1108.19
472.654	1104.19
472.873	1141.19
473.092	1204.19
473.311	1180.19
473.53	1110.19
473.749	1110.19
473.968	1184.19
474.187	1194.19
474.406	1216.19
474.625	1170.19
474.844	1187.19
475.063	1202.19
475.282	1209.19
475.501	1178.19
475.72	1193.19
475.939	1263.19
476.158	1210.19
476.377	1207.19
476.596	1212.19
476.814	1214.19
477.033	1192.19
477.252	1219.19
477.471	1271.19
477.69	1244.19
477.908	1249.19
478.127	1349.19
478.346	1406.19
478.564	1435.19
478.783	1422.19
479.002	1418.19
479.22	1364.19
479.439	1438.19
479.658	1558.19
479.876	1482.19
480.095	1326.19
480.313	1288.19
480.532	1300.19
480.751	1305.19
480.969	1305.19
481.188	1262.19
481.406	1229.19
481.624	1198.19
481.843	1241.19
482.061	1248.19
482.28	1288.19
482.498	1320.19
482.717	1274.19
482.935	1320.19
483.153	1338.19
483.372	1368.19
483.59	1327.19
483.808	1327.19
484.027	1325.19
484.245	1415.19
484.463	1664.19
484.681	1843.19
484.9	1448.19
485.118	1320.19
485.336	1315.19
485.554	1366.19
485.772	1366.19
485.99	1354.19
486.209	1364.19
486.427	1345.19
486.645	1391.19
486.863	1396.19
487.081	1450.19
487.299	1451.19
487.517	1427.19
487.735	1441.19
487.953	1506.19
488.171	1462.19
488.389	1437.19
488.607	1455.19
488.825	1600.19
489.043	1512.19
489.261	1409.19
489.479	1468.19
489.696	1434.19
489.914	1445.19
490.132	1420.19
490.35	1443.19
490.568	1517.19
490.786	1505.19
491.003	1444.19
491.221	1507.19
491.439	1579.19
491.657	1581.19
491.874	1589.19
492.092	1662.19
492.31	1688.19
492.527	1644.19
492.745	1597.19
492.963	1563.19
493.18	1598.19
493.398	1657.19
493.615	1658.19
493.833	1565.19
494.05	1538.19
