Data from WStandard_LampEnergy10_LIBS07252019.E.O._I.C._HRD10591_15-55-55-928.txt Node
Date: Thu Jul 25 15:55:55 EDT 2019
User: cochatt
Spectrometer: HR+D1059
Trigger mode: 1
Integration Time (sec): 1.000000E-1
Scans to average: 1
Electric dark correction enabled: true
Nonlinearity correction enabled: false
Boxcar width: 0
XAxis mode: Wavelengths
Number of Pixels in Spectrum: 2048
>>>>>Begin Spectral Data<<<<<
223.165	-14.44
223.4	-14.44
223.635	-14.44
223.869	-1.44
224.104	-27.44
224.338	-6.44
224.573	1.56
224.808	-21.44
225.042	-19.44
225.277	-14.44
225.511	-1.44
225.746	5.56
225.98	6.56
226.215	8.56
226.449	10.56
226.683	28.56
226.918	20.56
227.152	24.56
227.387	36.56
227.621	34.56
227.856	50.56
228.09	45.56
228.324	44.56
228.559	60.56
228.793	77.56
229.027	130.56
229.262	147.56
229.496	150.56
229.73	153.56
229.964	168.56
230.199	170.56
230.433	190.56
230.667	194.56
230.901	186.56
231.136	174.56
231.37	177.56
231.604	194.56
231.838	176.56
232.072	179.56
232.306	169.56
232.541	184.56
232.775	201.56
233.009	229.56
233.243	211.56
233.477	195.56
233.711	186.56
233.945	223.56
234.179	207.56
234.413	212.56
234.647	214.56
234.881	190.56
235.115	187.56
235.349	183.56
235.583	201.56
235.817	210.56
236.051	204.56
236.285	183.56
236.519	204.56
236.753	226.56
236.987	224.56
237.221	233.56
237.455	235.56
237.689	233.56
237.922	233.56
238.156	216.56
238.39	222.56
238.624	243.56
238.858	232.56
239.091	265.56
239.325	267.56
239.559	306.56
239.793	307.56
240.027	319.56
240.26	298.56
240.494	238.56
240.728	221.56
240.961	258.56
241.195	233.56
241.429	246.56
241.662	257.56
241.896	233.56
242.13	248.56
242.363	257.56
242.597	272.56
242.83	282.56
243.064	293.56
243.298	284.56
243.531	295.56
243.765	275.56
243.998	274.56
244.232	258.56
244.465	242.56
244.699	252.56
244.932	290.56
245.166	308.56
245.399	289.56
245.633	271.56
245.866	270.56
246.099	282.56
246.333	293.56
246.566	291.56
246.8	314.56
247.033	335.56
247.266	321.56
247.5	317.56
247.733	307.56
247.966	340.56
248.2	351.56
248.433	359.56
248.666	375.56
248.899	412.56
249.133	446.56
249.366	465.56
249.599	397.56
249.832	359.56
250.066	366.56
250.299	366.56
250.532	357.56
250.765	333.56
250.998	347.56
251.231	358.56
251.465	361.56
251.698	328.56
251.931	350.56
252.164	369.56
252.397	353.56
252.63	364.56
252.863	335.56
253.096	336.56
253.329	344.56
253.562	358.56
253.795	350.56
254.028	380.56
254.261	352.56
254.494	347.56
254.727	332.56
254.96	349.56
255.193	380.56
255.426	417.56
255.659	433.56
255.892	453.56
256.124	388.56
256.357	387.56
256.59	413.56
256.823	421.56
257.056	425.56
257.289	489.56
257.521	505.56
257.754	475.56
257.987	447.56
258.22	469.56
258.452	462.56
258.685	397.56
258.918	363.56
259.151	376.56
259.383	361.56
259.616	327.56
259.849	368.56
260.081	418.56
260.314	424.56
260.547	462.56
260.779	471.56
261.012	429.56
261.244	412.56
261.477	388.56
261.71	414.56
261.942	390.56
262.175	383.56
262.407	423.56
262.64	397.56
262.872	369.56
263.105	370.56
263.337	371.56
263.57	378.56
263.802	360.56
264.035	349.56
264.267	348.56
264.499	359.56
264.732	370.56
264.964	385.56
265.197	411.56
265.429	403.56
265.661	451.56
265.894	496.56
266.126	482.56
266.358	464.56
266.591	462.56
266.823	487.56
267.055	453.56
267.287	453.56
267.52	461.56
267.752	462.56
267.984	438.56
268.216	451.56
268.448	482.56
268.681	453.56
268.913	419.56
269.145	407.56
269.377	409.56
269.609	462.56
269.841	524.56
270.073	587.56
270.306	623.56
270.538	639.56
270.77	560.56
271.002	511.56
271.234	491.56
271.466	472.56
271.698	539.56
271.93	593.56
272.162	591.56
272.394	543.56
272.626	499.56
272.858	469.56
273.09	410.56
273.322	403.56
273.553	388.56
273.785	415.56
274.017	409.56
274.249	447.56
274.481	427.56
274.713	412.56
274.945	413.56
275.176	417.56
275.408	420.56
275.64	377.56
275.872	414.56
276.104	434.56
276.335	491.56
276.567	547.56
276.799	519.56
277.031	476.56
277.262	470.56
277.494	487.56
277.726	534.56
277.957	502.56
278.189	465.56
278.421	445.56
278.652	422.56
278.884	430.56
279.115	420.56
279.347	430.56
279.579	431.56
279.81	449.56
280.042	493.56
280.273	515.56
280.505	503.56
280.736	502.56
280.968	486.56
281.199	452.56
281.431	425.56
281.662	421.56
281.894	415.56
282.125	431.56
282.356	438.56
282.588	466.56
282.819	473.56
283.051	487.56
283.282	509.56
283.513	506.56
283.745	448.56
283.976	433.56
284.207	430.56
284.439	445.56
284.67	440.56
284.901	471.56
285.132	459.56
285.364	451.56
285.595	467.56
285.826	450.56
286.057	448.56
286.288	453.56
286.52	469.56
286.751	487.56
286.982	481.56
287.213	439.56
287.444	428.56
287.675	437.56
287.906	475.56
288.138	489.56
288.369	474.56
288.6	446.56
288.831	455.56
289.062	460.56
289.293	454.56
289.524	455.56
289.755	476.56
289.986	465.56
290.217	434.56
290.448	455.56
290.679	468.56
290.91	458.56
291.141	473.56
291.371	494.56
291.602	502.56
291.833	479.56
292.064	523.56
292.295	492.56
292.526	498.56
292.757	512.56
292.987	495.56
293.218	497.56
293.449	529.56
293.68	574.56
293.91	578.56
294.141	558.56
294.372	547.56
294.603	583.56
294.833	589.56
295.064	535.56
295.295	520.56
295.525	467.56
295.756	438.56
295.987	470.56
296.217	459.56
296.448	445.56
296.679	472.56
296.909	484.56
297.14	460.56
297.37	484.56
297.601	520.56
297.831	516.56
298.062	529.56
298.292	487.56
298.523	467.56
298.753	493.56
298.984	475.56
299.214	503.56
299.445	493.56
299.675	486.56
299.905	497.56
300.136	482.56
300.366	449.56
300.597	434.56
300.827	485.56
301.057	492.56
301.288	505.56
301.518	494.56
301.748	524.56
301.979	538.56
302.209	549.56
302.439	589.56
302.669	583.56
302.9	549.56
303.13	511.56
303.36	508.56
303.59	520.56
303.82	522.56
304.051	509.56
304.281	518.56
304.511	547.56
304.741	572.56
304.971	609.56
305.201	603.56
305.431	546.56
305.661	479.56
305.891	448.56
306.121	433.56
306.352	489.56
306.582	511.56
306.812	544.56
307.042	559.56
307.272	587.56
307.502	585.56
307.731	632.56
307.961	640.56
308.191	581.56
308.421	522.56
308.651	515.56
308.881	509.56
309.111	487.56
309.341	480.56
309.571	502.56
309.8	501.56
310.03	494.56
310.26	483.56
310.49	485.56
310.72	512.56
310.949	544.56
311.179	535.56
311.409	513.56
311.639	522.56
311.868	485.56
312.098	517.56
312.328	526.56
312.557	518.56
312.787	507.56
313.017	539.56
313.246	533.56
313.476	525.56
313.706	523.56
313.935	544.56
314.165	548.56
314.394	575.56
314.624	597.56
314.853	606.56
315.083	639.56
315.312	622.56
315.542	591.56
315.771	558.56
316.001	550.56
316.23	570.56
316.46	582.56
316.689	550.56
316.919	522.56
317.148	530.56
317.377	549.56
317.607	575.56
317.836	634.56
318.065	623.56
318.295	613.56
318.524	602.56
318.753	578.56
318.983	572.56
319.212	563.56
319.441	543.56
319.67	559.56
319.9	570.56
320.129	586.56
320.358	611.56
320.587	615.56
320.816	625.56
321.046	599.56
321.275	597.56
321.504	603.56
321.733	637.56
321.962	584.56
322.191	561.56
322.42	569.56
322.649	558.56
322.878	577.56
323.108	547.56
323.337	575.56
323.566	596.56
323.795	582.56
324.024	592.56
324.253	567.56
324.482	543.56
324.71	555.56
324.939	534.56
325.168	568.56
325.397	550.56
325.626	570.56
325.855	577.56
326.084	577.56
326.313	572.56
326.542	587.56
326.77	567.56
326.999	582.56
327.228	556.56
327.457	517.56
327.686	530.56
327.914	534.56
328.143	550.56
328.372	555.56
328.6	563.56
328.829	566.56
329.058	561.56
329.287	546.56
329.515	564.56
329.744	589.56
329.972	633.56
330.201	645.56
330.43	609.56
330.658	574.56
330.887	591.56
331.115	611.56
331.344	600.56
331.572	583.56
331.801	587.56
332.03	593.56
332.258	585.56
332.486	616.56
332.715	611.56
332.943	612.56
333.172	604.56
333.4	615.56
333.629	638.56
333.857	691.56
334.085	750.56
334.314	821.56
334.542	841.56
334.771	762.56
334.999	664.56
335.227	673.56
335.455	657.56
335.684	647.56
335.912	673.56
336.14	662.56
336.369	649.56
336.597	617.56
336.825	605.56
337.053	637.56
337.281	693.56
337.51	694.56
337.738	683.56
337.966	653.56
338.194	608.56
338.422	589.56
338.65	573.56
338.878	611.56
339.106	586.56
339.334	567.56
339.562	562.56
339.79	589.56
340.018	638.56
340.246	624.56
340.474	621.56
340.702	597.56
340.93	637.56
341.158	601.56
341.386	614.56
341.614	597.56
341.842	593.56
342.07	590.56
342.298	608.56
342.526	610.56
342.754	607.56
342.981	598.56
343.209	588.56
343.437	607.56
343.665	615.56
343.893	612.56
344.12	647.56
344.348	623.56
344.576	620.56
344.804	594.56
345.031	587.56
345.259	599.56
345.487	571.56
345.714	576.56
345.942	546.56
346.17	578.56
346.397	604.56
346.625	563.56
346.853	554.56
347.08	552.56
347.308	550.56
347.535	564.56
347.763	601.56
347.99	559.56
348.218	542.56
348.445	545.56
348.673	561.56
348.9	590.56
349.128	595.56
349.355	633.56
349.583	607.56
349.81	564.56
350.037	534.56
350.265	530.56
350.492	551.56
350.72	563.56
350.947	580.56
351.174	567.56
351.402	533.56
351.629	523.56
351.856	510.56
352.083	545.56
352.311	535.56
352.538	552.56
352.765	569.56
352.992	583.56
353.22	580.56
353.447	574.56
353.674	563.56
353.901	579.56
354.128	565.56
354.355	559.56
354.583	591.56
354.81	617.56
355.037	599.56
355.264	591.56
355.491	585.56
355.718	597.56
355.945	576.56
356.172	569.56
356.399	549.56
356.626	540.56
356.853	584.56
357.08	641.56
357.307	679.56
357.534	669.56
357.761	581.56
357.988	535.56
358.215	537.56
358.441	554.56
358.668	546.56
358.895	571.56
359.122	604.56
359.349	627.56
359.576	608.56
359.802	565.56
360.029	574.56
360.256	529.56
360.483	563.56
360.709	587.56
360.936	607.56
361.163	643.56
361.39	679.56
361.616	693.56
361.843	726.56
362.07	624.56
362.296	583.56
362.523	564.56
362.749	588.56
362.976	573.56
363.203	595.56
363.429	566.56
363.656	556.56
363.882	605.56
364.109	655.56
364.335	672.56
364.562	641.56
364.788	606.56
365.015	567.56
365.241	556.56
365.468	587.56
365.694	610.56
365.92	629.56
366.147	602.56
366.373	559.56
366.599	570.56
366.826	567.56
367.052	583.56
367.278	574.56
367.505	606.56
367.731	607.56
367.957	605.56
368.184	619.56
368.41	679.56
368.636	661.56
368.862	664.56
369.089	671.56
369.315	637.56
369.541	619.56
369.767	617.56
369.993	602.56
370.219	586.56
370.445	619.56
370.672	663.56
370.898	682.56
371.124	641.56
371.35	629.56
371.576	655.56
371.802	652.56
372.028	618.56
372.254	618.56
372.48	594.56
372.706	615.56
372.932	605.56
373.158	588.56
373.384	628.56
373.61	633.56
373.835	670.56
374.061	633.56
374.287	637.56
374.513	643.56
374.739	645.56
374.965	640.56
375.191	664.56
375.416	646.56
375.642	659.56
375.868	698.56
376.094	700.56
376.319	657.56
376.545	643.56
376.771	683.56
376.997	707.56
377.222	677.56
377.448	667.56
377.674	674.56
377.899	663.56
378.125	709.56
378.35	694.56
378.576	614.56
378.802	614.56
379.027	626.56
379.253	622.56
379.478	654.56
379.704	654.56
379.929	638.56
380.155	676.56
380.38	649.56
380.606	669.56
380.831	674.56
381.057	691.56
381.282	721.56
381.507	675.56
381.733	724.56
381.958	722.56
382.184	677.56
382.409	673.56
382.634	685.56
382.86	655.56
383.085	684.56
383.31	704.56
383.535	785.56
383.761	787.56
383.986	740.56
384.211	733.56
384.436	750.56
384.662	756.56
384.887	782.56
385.112	727.56
385.337	721.56
385.562	746.56
385.787	719.56
386.013	772.56
386.238	771.56
386.463	796.56
386.688	844.56
386.913	828.56
387.138	818.56
387.363	782.56
387.588	778.56
387.813	772.56
388.038	800.56
388.263	804.56
388.488	776.56
388.713	716.56
388.938	737.56
389.163	721.56
389.387	733.56
389.612	734.56
389.837	748.56
390.062	765.56
390.287	739.56
390.512	761.56
390.736	740.56
390.961	751.56
391.186	708.56
391.411	722.56
391.636	761.56
391.86	746.56
392.085	765.56
392.31	757.56
392.534	761.56
392.759	756.56
392.984	761.56
393.208	780.56
393.433	782.56
393.658	824.56
393.882	820.56
394.107	787.56
394.331	755.56
394.556	758.56
394.78	792.56
395.005	822.56
395.229	832.56
395.454	851.56
395.678	845.56
395.903	826.56
396.127	821.56
396.352	817.56
396.576	863.56
396.801	852.56
397.025	839.56
397.249	844.56
397.474	836.56
397.698	833.56
397.922	835.56
398.147	875.56
398.371	901.56
398.595	905.56
398.82	847.56
399.044	888.56
399.268	898.56
399.492	983.56
399.717	980.56
399.941	1000.56
400.165	947.56
400.389	989.56
400.613	964.56
400.837	1104.56
401.062	1173.56
401.286	1031.56
401.51	990.56
401.734	989.56
401.958	923.56
402.182	884.56
402.406	869.56
402.63	889.56
402.854	870.56
403.078	893.56
403.302	895.56
403.526	910.56
403.75	942.56
403.974	934.56
404.198	944.56
404.422	981.56
404.645	1019.56
404.869	958.56
405.093	905.56
405.317	880.56
405.541	925.56
405.765	913.56
405.988	928.56
406.212	950.56
406.436	994.56
406.66	987.56
406.883	1025.56
407.107	1128.56
407.331	1203.56
407.555	1257.56
407.778	1115.56
408.002	988.56
408.226	961.56
408.449	959.56
408.673	940.56
408.896	947.56
409.12	962.56
409.344	952.56
409.567	923.56
409.791	964.56
410.014	957.56
410.238	1045.56
410.461	1067.56
410.685	948.56
410.908	961.56
411.132	981.56
411.355	934.56
411.578	936.56
411.802	966.56
412.025	987.56
412.249	926.56
412.472	920.56
412.695	937.56
412.919	914.56
413.142	917.56
413.365	907.56
413.589	965.56
413.812	1001.56
414.035	993.56
414.258	938.56
414.482	907.56
414.705	914.56
414.928	911.56
415.151	929.56
415.374	933.56
415.597	922.56
415.821	931.56
416.044	918.56
416.267	927.56
416.49	902.56
416.713	920.56
416.936	959.56
417.159	973.56
417.382	983.56
417.605	922.56
417.828	970.56
418.051	934.56
418.274	967.56
418.497	898.56
418.72	905.56
418.943	913.56
419.166	943.56
419.389	967.56
419.611	938.56
419.834	907.56
420.057	938.56
420.28	963.56
420.503	944.56
420.726	951.56
420.948	975.56
421.171	931.56
421.394	950.56
421.617	992.56
421.839	958.56
422.062	965.56
422.285	926.56
422.507	917.56
422.73	874.56
422.953	883.56
423.175	874.56
423.398	945.56
423.621	901.56
423.843	926.56
424.066	969.56
424.288	1010.56
424.511	1049.56
424.733	995.56
424.956	909.56
425.178	947.56
425.401	918.56
425.623	941.56
425.846	898.56
426.068	981.56
426.291	983.56
426.513	934.56
426.735	983.56
426.958	1029.56
427.18	1094.56
427.402	988.56
427.625	999.56
427.847	967.56
428.069	917.56
428.292	898.56
428.514	897.56
428.736	907.56
428.958	887.56
429.181	933.56
429.403	1034.56
429.625	1238.56
429.847	1051.56
430.069	966.56
430.292	1030.56
430.514	1025.56
430.736	961.56
430.958	981.56
431.18	924.56
431.402	870.56
431.624	852.56
431.846	781.56
432.068	737.56
432.29	733.56
432.512	804.56
432.734	889.56
432.956	911.56
433.178	945.56
433.4	943.56
433.622	947.56
433.844	922.56
434.066	836.56
434.287	793.56
434.509	803.56
434.731	844.56
434.953	924.56
435.175	918.56
435.397	899.56
435.618	864.56
435.84	845.56
436.062	842.56
436.284	909.56
436.505	957.56
436.727	938.56
436.949	908.56
437.17	896.56
437.392	892.56
437.614	857.56
437.835	799.56
438.057	827.56
438.278	854.56
438.5	861.56
438.721	884.56
438.943	918.56
439.165	940.56
439.386	947.56
439.608	934.56
439.829	970.56
440.05	949.56
440.272	965.56
440.493	952.56
440.715	954.56
440.936	1027.56
441.158	1057.56
441.379	1047.56
441.6	1045.56
441.822	1046.56
442.043	997.56
442.264	966.56
442.486	959.56
442.707	941.56
442.928	929.56
443.149	969.56
443.371	991.56
443.592	1011.56
443.813	1035.56
444.034	1020.56
444.255	996.56
444.476	1037.56
444.698	1034.56
444.919	1031.56
445.14	1117.56
445.361	1094.56
445.582	1080.56
445.803	1044.56
446.024	1030.56
446.245	1051.56
446.466	1073.56
446.687	1040.56
446.908	1046.56
447.129	1011.56
447.35	985.56
447.571	970.56
447.792	962.56
448.013	930.56
448.234	978.56
448.455	987.56
448.675	989.56
448.896	918.56
449.117	894.56
449.338	942.56
449.559	947.56
449.779	977.56
450	1030.56
450.221	1039.56
450.442	1003.56
450.662	941.56
450.883	867.56
451.104	873.56
451.324	889.56
451.545	886.56
451.766	882.56
451.986	833.56
452.207	833.56
452.428	812.56
452.648	796.56
452.869	805.56
453.089	790.56
453.31	777.56
453.53	755.56
453.751	716.56
453.971	702.56
454.192	737.56
454.412	757.56
454.633	776.56
454.853	770.56
455.073	753.56
455.294	761.56
455.514	753.56
455.734	755.56
455.955	777.56
456.175	741.56
456.395	729.56
456.616	730.56
456.836	717.56
457.056	745.56
457.276	718.56
457.497	706.56
457.717	679.56
457.937	710.56
458.157	716.56
458.377	678.56
458.598	681.56
458.818	667.56
459.038	681.56
459.258	718.56
459.478	714.56
459.698	708.56
459.918	766.56
460.138	814.56
460.358	834.56
460.578	826.56
460.798	846.56
461.018	899.56
461.238	875.56
461.458	862.56
461.678	861.56
461.898	814.56
462.118	803.56
462.338	842.56
462.558	836.56
462.777	846.56
462.997	842.56
463.217	889.56
463.437	882.56
463.657	832.56
463.876	829.56
464.096	826.56
464.316	839.56
464.536	860.56
464.755	874.56
464.975	875.56
465.195	843.56
465.414	897.56
465.634	887.56
465.854	899.56
466.073	987.56
466.293	898.56
466.512	853.56
466.732	873.56
466.951	889.56
467.171	897.56
467.391	899.56
467.61	896.56
467.829	887.56
468.049	994.56
468.268	1053.56
468.488	983.56
468.707	931.56
468.927	911.56
469.146	901.56
469.365	923.56
469.585	941.56
469.804	906.56
470.023	943.56
470.243	968.56
470.462	949.56
470.681	926.56
470.901	935.56
471.12	903.56
471.339	929.56
471.558	912.56
471.777	874.56
471.997	886.56
472.216	881.56
472.435	802.56
472.654	769.56
472.873	804.56
473.092	819.56
473.311	834.56
473.53	831.56
473.749	827.56
473.968	826.56
474.187	848.56
474.406	847.56
474.625	851.56
474.844	890.56
475.063	872.56
475.282	868.56
475.501	847.56
475.72	849.56
475.939	898.56
476.158	885.56
476.377	850.56
476.596	828.56
476.814	826.56
477.033	829.56
477.252	823.56
477.471	912.56
477.69	921.56
477.908	945.56
478.127	981.56
478.346	1017.56
478.564	1019.56
478.783	1027.56
479.002	1038.56
479.22	1003.56
479.439	1010.56
479.658	1063.56
479.876	999.56
480.095	898.56
480.313	885.56
480.532	893.56
480.751	859.56
480.969	843.56
481.188	781.56
481.406	791.56
481.624	775.56
481.843	798.56
482.061	817.56
482.28	851.56
482.498	887.56
482.717	878.56
482.935	942.56
483.153	995.56
483.372	1018.56
483.59	1017.56
483.808	965.56
484.027	967.56
484.245	1009.56
484.463	1217.56
484.681	1287.56
484.9	1032.56
485.118	941.56
485.336	942.56
485.554	913.56
485.772	891.56
485.99	878.56
486.209	917.56
486.427	957.56
486.645	925.56
486.863	1027.56
487.081	1027.56
487.299	1017.56
487.517	1009.56
487.735	1099.56
487.953	1185.56
488.171	1144.56
488.389	1114.56
488.607	1091.56
488.825	1150.56
489.043	1041.56
489.261	983.56
489.479	1041.56
489.696	1077.56
489.914	1009.56
490.132	1029.56
490.35	1077.56
490.568	1188.56
490.786	1221.56
491.003	1228.56
491.221	1237.56
491.439	1290.56
491.657	1308.56
491.874	1354.56
492.092	1437.56
492.31	1465.56
492.527	1449.56
492.745	1332.56
492.963	1297.56
493.18	1295.56
493.398	1320.56
493.615	1304.56
493.833	1266.56
494.05	1213.56
494.268	1207.56
494.485	1239.56
494.703	1246.56
494.92	1210.56
495.138	1232.56
495.355	1215.56
495.573	1247.56
495.79	1293.56
496.008	1257.56
496.225	1241.56
496.442	1198.56
496.66	1246.56
496.877	1203.56
497.094	1261.56
497.312	1228.56
497.529	1187.56
497.746	1188.56
497.963	1279.56
498.181	1325.56
498.398	1244.56
498.615	1193.56
498.832	1177.56
499.049	1141.56
499.267	1155.56
499.484	1270.56
499.701	1305.56
499.918	1379.56
500.135	1437.56
500.352	1554.56
