Data from WStandard_LampEnergy8_LIBS07252019.E.O._I.C._HRD10591_15-58-54-929.txt Node
Date: Thu Jul 25 15:58:54 EDT 2019
User: cochatt
Spectrometer: HR+D1059
Trigger mode: 1
Integration Time (sec): 1.000000E-1
Scans to average: 1
Electric dark correction enabled: true
Nonlinearity correction enabled: false
Boxcar width: 0
XAxis mode: Wavelengths
Number of Pixels in Spectrum: 2048
>>>>>Begin Spectral Data<<<<<
223.165	-17.19
223.4	-17.19
223.635	-17.19
223.869	-17.19
224.104	-15.19
224.338	-10.19
224.573	-7.19
224.808	-22.19
225.042	-10.19
225.277	-5.19
225.511	0.81
225.746	-6.19
225.98	-5.19
226.215	12.81
226.449	25.81
226.683	17.81
226.918	22.81
227.152	35.81
227.387	42.81
227.621	36.81
227.856	38.81
228.09	60.81
228.324	52.81
228.559	50.81
228.793	92.81
229.027	194.81
229.262	199.81
229.496	221.81
229.73	227.81
229.964	251.81
230.199	264.81
230.433	261.81
230.667	268.81
230.901	294.81
231.136	260.81
231.37	267.81
231.604	255.81
231.838	269.81
232.072	261.81
232.306	292.81
232.541	274.81
232.775	294.81
233.009	332.81
233.243	318.81
233.477	300.81
233.711	304.81
233.945	320.81
234.179	313.81
234.413	302.81
234.647	329.81
234.881	325.81
235.115	316.81
235.349	309.81
235.583	308.81
235.817	310.81
236.051	301.81
236.285	306.81
236.519	324.81
236.753	346.81
236.987	362.81
237.221	345.81
237.455	370.81
237.689	375.81
237.922	355.81
238.156	344.81
238.39	358.81
238.624	361.81
238.858	390.81
239.091	394.81
239.325	432.81
239.559	476.81
239.793	493.81
240.027	532.81
240.26	496.81
240.494	381.81
240.728	382.81
240.961	374.81
241.195	381.81
241.429	423.81
241.662	412.81
241.896	390.81
242.13	403.81
242.363	428.81
242.597	466.81
242.83	448.81
243.064	474.81
243.298	502.81
243.531	467.81
243.765	486.81
243.998	462.81
244.232	416.81
244.465	415.81
244.699	422.81
244.932	443.81
245.166	496.81
245.399	487.81
245.633	461.81
245.866	465.81
246.099	474.81
246.333	460.81
246.566	487.81
246.8	527.81
247.033	583.81
247.266	540.81
247.5	525.81
247.733	532.81
247.966	578.81
248.2	606.81
248.433	596.81
248.666	640.81
248.899	670.81
249.133	761.81
249.366	809.81
249.599	702.81
249.832	613.81
250.066	638.81
250.299	632.81
250.532	596.81
250.765	556.81
250.998	579.81
251.231	578.81
251.465	609.81
251.698	596.81
251.931	590.81
252.164	579.81
252.397	612.81
252.63	593.81
252.863	568.81
253.096	569.81
253.329	574.81
253.562	607.81
253.795	658.81
254.028	633.81
254.261	572.81
254.494	574.81
254.727	568.81
254.96	573.81
255.193	647.81
255.426	715.81
255.659	791.81
255.892	784.81
256.124	672.81
256.357	643.81
256.59	677.81
256.823	689.81
257.056	718.81
257.289	816.81
257.521	892.81
257.754	815.81
257.987	784.81
258.22	844.81
258.452	788.81
258.685	684.81
258.918	668.81
259.151	693.81
259.383	618.81
259.616	590.81
259.849	648.81
260.081	699.81
260.314	778.81
260.547	799.81
260.779	798.81
261.012	756.81
261.244	706.81
261.477	658.81
261.71	675.81
261.942	676.81
262.175	676.81
262.407	698.81
262.64	664.81
262.872	638.81
263.105	631.81
263.337	632.81
263.57	642.81
263.802	635.81
264.035	616.81
264.267	577.81
264.499	580.81
264.732	629.81
264.964	660.81
265.197	698.81
265.429	731.81
265.661	785.81
265.894	842.81
266.126	851.81
266.358	780.81
266.591	802.81
266.823	850.81
267.055	780.81
267.287	786.81
267.52	733.81
267.752	768.81
267.984	776.81
268.216	800.81
268.448	821.81
268.681	774.81
268.913	719.81
269.145	702.81
269.377	716.81
269.609	808.81
269.841	885.81
270.073	1014.81
270.306	1110.81
270.538	1122.81
270.77	960.81
271.002	818.81
271.234	819.81
271.466	817.81
271.698	951.81
271.93	1062.81
272.162	1043.81
272.394	959.81
272.626	898.81
272.858	800.81
273.09	739.81
273.322	708.81
273.553	670.81
273.785	690.81
274.017	743.81
274.249	768.81
274.481	754.81
274.713	732.81
274.945	684.81
275.176	692.81
275.408	704.81
275.64	682.81
275.872	691.81
276.104	745.81
276.335	840.81
276.567	946.81
276.799	934.81
277.031	824.81
277.262	796.81
277.494	842.81
277.726	902.81
277.957	891.81
278.189	826.81
278.421	756.81
278.652	747.81
278.884	722.81
279.115	732.81
279.347	749.81
279.579	726.81
279.81	760.81
280.042	811.81
280.273	880.81
280.505	868.81
280.736	887.81
280.968	818.81
281.199	749.81
281.431	722.81
281.662	731.81
281.894	731.81
282.125	730.81
282.356	778.81
282.588	775.81
282.819	766.81
283.051	842.81
283.282	860.81
283.513	858.81
283.745	758.81
283.976	710.81
284.207	711.81
284.439	756.81
284.67	734.81
284.901	781.81
285.132	795.81
285.364	768.81
285.595	800.81
285.826	772.81
286.057	758.81
286.288	754.81
286.52	792.81
286.751	848.81
286.982	865.81
287.213	783.81
287.444	733.81
287.675	746.81
287.906	818.81
288.138	845.81
288.369	780.81
288.6	760.81
288.831	732.81
289.062	763.81
289.293	790.81
289.524	775.81
289.755	799.81
289.986	796.81
290.217	762.81
290.448	782.81
290.679	770.81
290.91	797.81
291.141	820.81
291.371	818.81
291.602	816.81
291.833	842.81
292.064	842.81
292.295	847.81
292.526	857.81
292.757	861.81
292.987	861.81
293.218	822.81
293.449	902.81
293.68	1013.81
293.91	1016.81
294.141	967.81
294.372	908.81
294.603	959.81
294.833	965.81
295.064	924.81
295.295	821.81
295.525	814.81
295.756	759.81
295.987	733.81
296.217	768.81
296.448	774.81
296.679	756.81
296.909	783.81
297.14	788.81
297.37	797.81
297.601	857.81
297.831	882.81
298.062	883.81
298.292	837.81
298.523	795.81
298.753	807.81
298.984	804.81
299.214	832.81
299.445	857.81
299.675	873.81
299.905	833.81
300.136	820.81
300.366	788.81
300.597	762.81
300.827	780.81
301.057	828.81
301.288	854.81
301.518	880.81
301.748	870.81
301.979	916.81
302.209	939.81
302.439	978.81
302.669	1022.81
302.9	932.81
303.13	870.81
303.36	882.81
303.59	873.81
303.82	878.81
304.051	875.81
304.281	877.81
304.511	893.81
304.741	967.81
304.971	1028.81
305.201	1090.81
305.431	958.81
305.661	824.81
305.891	757.81
306.121	762.81
306.352	821.81
306.582	873.81
306.812	889.81
307.042	956.81
307.272	966.81
307.502	1006.81
307.731	1052.81
307.961	1100.81
308.191	1016.81
308.421	882.81
308.651	861.81
308.881	857.81
309.111	852.81
309.341	816.81
309.571	841.81
309.8	834.81
310.03	817.81
310.26	831.81
310.49	822.81
310.72	838.81
310.949	901.81
311.179	905.81
311.409	872.81
311.639	862.81
311.868	840.81
312.098	860.81
312.328	864.81
312.557	846.81
312.787	878.81
313.017	886.81
313.246	869.81
313.476	867.81
313.706	865.81
313.935	896.81
314.165	887.81
314.394	910.81
314.624	970.81
314.853	1056.81
315.083	1094.81
315.312	1072.81
315.542	975.81
315.771	918.81
316.001	910.81
316.23	979.81
316.46	954.81
316.689	922.81
316.919	889.81
317.148	892.81
317.377	885.81
317.607	976.81
317.836	1054.81
318.065	1104.81
318.295	1054.81
318.524	1009.81
318.753	938.81
318.983	957.81
319.212	926.81
319.441	939.81
319.67	952.81
319.9	932.81
320.129	1005.81
320.358	1018.81
320.587	1050.81
320.816	1033.81
321.046	1014.81
321.275	965.81
321.504	1000.81
321.733	1056.81
321.962	992.81
322.191	920.81
322.42	948.81
322.649	917.81
322.878	922.81
323.108	940.81
323.337	931.81
323.566	988.81
323.795	941.81
324.024	945.81
324.253	899.81
324.482	941.81
324.71	907.81
324.939	892.81
325.168	918.81
325.397	944.81
325.626	994.81
325.855	948.81
326.084	925.81
326.313	932.81
326.542	951.81
326.77	980.81
326.999	996.81
327.228	926.81
327.457	891.81
327.686	870.81
327.914	894.81
328.143	941.81
328.372	957.81
328.6	958.81
328.829	935.81
329.058	925.81
329.287	923.81
329.515	937.81
329.744	971.81
329.972	1002.81
330.201	1065.81
330.43	1015.81
330.658	971.81
330.887	999.81
331.115	1009.81
331.344	1003.81
331.572	968.81
331.801	980.81
332.03	987.81
332.258	964.81
332.486	1013.81
332.715	1032.81
332.943	990.81
333.172	963.81
333.4	996.81
333.629	1032.81
333.857	1120.81
334.085	1229.81
334.314	1404.81
334.542	1422.81
334.771	1289.81
334.999	1166.81
335.227	1121.81
335.455	1070.81
335.684	1093.81
335.912	1077.81
336.14	1074.81
336.369	1076.81
336.597	1022.81
336.825	1008.81
337.053	1044.81
337.281	1125.81
337.51	1139.81
337.738	1166.81
337.966	1105.81
338.194	1018.81
338.422	975.81
338.65	986.81
338.878	972.81
339.106	940.81
339.334	959.81
339.562	934.81
339.79	968.81
340.018	1033.81
340.246	1057.81
340.474	1038.81
340.702	1052.81
340.93	1028.81
341.158	1001.81
341.386	999.81
341.614	985.81
341.842	995.81
342.07	995.81
342.298	986.81
342.526	999.81
342.754	989.81
342.981	976.81
343.209	971.81
343.437	992.81
343.665	952.81
343.893	1011.81
344.12	1057.81
344.348	1065.81
344.576	1016.81
344.804	999.81
345.031	988.81
345.259	993.81
345.487	957.81
345.714	935.81
345.942	918.81
346.17	922.81
346.397	957.81
346.625	936.81
346.853	904.81
347.08	914.81
347.308	888.81
347.535	947.81
347.763	944.81
347.99	938.81
348.218	893.81
348.445	902.81
348.673	945.81
348.9	970.81
349.128	971.81
349.355	1051.81
349.583	957.81
349.81	925.81
350.037	892.81
350.265	859.81
350.492	849.81
350.72	938.81
350.947	952.81
351.174	940.81
351.402	907.81
351.629	888.81
351.856	878.81
352.083	865.81
352.311	900.81
352.538	909.81
352.765	935.81
352.992	944.81
353.22	914.81
353.447	892.81
353.674	922.81
353.901	906.81
354.128	900.81
354.355	900.81
354.583	939.81
354.81	989.81
355.037	992.81
355.264	922.81
355.491	922.81
355.718	950.81
355.945	918.81
356.172	904.81
356.399	900.81
356.626	917.81
356.853	958.81
357.08	1062.81
357.307	1145.81
357.534	1078.81
357.761	919.81
357.988	877.81
358.215	879.81
358.441	894.81
358.668	890.81
358.895	907.81
359.122	1001.81
359.349	1056.81
359.576	1012.81
359.802	923.81
360.029	917.81
360.256	898.81
360.483	939.81
360.709	950.81
360.936	985.81
361.163	1045.81
361.39	1122.81
361.616	1152.81
361.843	1158.81
362.07	1032.81
362.296	950.81
362.523	889.81
362.749	945.81
362.976	972.81
363.203	966.81
363.429	924.81
363.656	903.81
363.882	954.81
364.109	1063.81
364.335	1076.81
364.562	1007.81
364.788	977.81
365.015	924.81
365.241	924.81
365.468	946.81
365.694	980.81
365.92	1025.81
366.147	994.81
366.373	912.81
366.599	899.81
366.826	874.81
367.052	928.81
367.278	925.81
367.505	935.81
367.731	969.81
367.957	948.81
368.184	981.81
368.41	1035.81
368.636	1066.81
368.862	1079.81
369.089	1080.81
369.315	1046.81
369.541	980.81
369.767	960.81
369.993	938.81
370.219	935.81
370.445	1002.81
370.672	1031.81
370.898	1058.81
371.124	1046.81
371.35	1023.81
371.576	1028.81
371.802	1044.81
372.028	1018.81
372.254	971.81
372.48	935.81
372.706	959.81
372.932	940.81
373.158	969.81
373.384	985.81
373.61	989.81
373.835	1028.81
374.061	1012.81
374.287	996.81
374.513	995.81
374.739	992.81
374.965	987.81
375.191	1037.81
375.416	1023.81
375.642	1042.81
375.868	1097.81
376.094	1104.81
376.319	1091.81
376.545	1005.81
376.771	1050.81
376.997	1070.81
377.222	1048.81
377.448	1015.81
377.674	1031.81
377.899	1009.81
378.125	1113.81
378.35	1095.81
378.576	989.81
378.802	976.81
379.027	974.81
379.253	984.81
379.478	990.81
379.704	990.81
379.929	1002.81
380.155	990.81
380.38	1020.81
380.606	1025.81
380.831	1034.81
381.057	1080.81
381.282	1086.81
381.507	1074.81
381.733	1116.81
381.958	1164.81
382.184	1035.81
382.409	1054.81
382.634	1032.81
382.86	1030.81
383.085	1034.81
383.31	1075.81
383.535	1156.81
383.761	1231.81
383.986	1190.81
384.211	1130.81
384.436	1137.81
384.662	1150.81
384.887	1200.81
385.112	1150.81
385.337	1182.81
385.562	1129.81
385.787	1134.81
386.013	1173.81
386.238	1149.81
386.463	1180.81
386.688	1264.81
386.913	1320.81
387.138	1279.81
387.363	1222.81
387.588	1200.81
387.813	1133.81
388.038	1184.81
388.263	1222.81
388.488	1150.81
388.713	1118.81
388.938	1086.81
389.163	1100.81
389.387	1149.81
389.612	1126.81
389.837	1156.81
390.062	1133.81
390.287	1136.81
390.512	1131.81
390.736	1144.81
390.961	1139.81
391.186	1105.81
391.411	1086.81
391.636	1119.81
391.86	1115.81
392.085	1144.81
392.31	1127.81
392.534	1158.81
392.759	1140.81
392.984	1128.81
393.208	1135.81
393.433	1171.81
393.658	1232.81
393.882	1259.81
394.107	1168.81
394.331	1140.81
394.556	1124.81
394.78	1181.81
395.005	1212.81
395.229	1220.81
395.454	1297.81
395.678	1312.81
395.903	1272.81
396.127	1229.81
396.352	1225.81
396.576	1281.81
396.801	1259.81
397.025	1246.81
397.249	1256.81
397.474	1226.81
397.698	1208.81
397.922	1272.81
398.147	1333.81
398.371	1348.81
398.595	1347.81
398.82	1298.81
399.044	1322.81
399.268	1386.81
399.492	1457.81
399.717	1479.81
399.941	1487.81
400.165	1470.81
400.389	1449.81
400.613	1474.81
400.837	1656.81
401.062	1846.81
401.286	1556.81
401.51	1438.81
401.734	1510.81
401.958	1410.81
402.182	1317.81
402.406	1320.81
402.63	1275.81
402.854	1274.81
403.078	1300.81
403.302	1330.81
403.526	1344.81
403.75	1354.81
403.974	1395.81
404.198	1377.81
404.422	1421.81
404.645	1480.81
404.869	1458.81
405.093	1334.81
405.317	1288.81
405.541	1346.81
405.765	1354.81
405.988	1347.81
406.212	1378.81
406.436	1429.81
406.66	1484.81
406.883	1510.81
407.107	1699.81
407.331	1789.81
407.555	1915.81
407.778	1685.81
408.002	1474.81
408.226	1420.81
408.449	1410.81
408.673	1389.81
408.896	1380.81
409.12	1392.81
409.344	1344.81
409.567	1338.81
409.791	1380.81
410.014	1402.81
410.238	1456.81
410.461	1566.81
410.685	1362.81
410.908	1337.81
411.132	1334.81
411.355	1330.81
411.578	1337.81
411.802	1341.81
412.025	1349.81
412.249	1323.81
412.472	1311.81
412.695	1313.81
412.919	1282.81
413.142	1321.81
413.365	1306.81
413.589	1349.81
413.812	1405.81
414.035	1436.81
414.258	1330.81
414.482	1276.81
414.705	1339.81
414.928	1302.81
415.151	1298.81
415.374	1309.81
415.597	1342.81
415.821	1365.81
416.044	1334.81
416.267	1322.81
416.49	1287.81
416.713	1264.81
416.936	1345.81
417.159	1383.81
417.382	1388.81
417.605	1301.81
417.828	1346.81
418.051	1362.81
418.274	1287.81
418.497	1303.81
418.72	1289.81
418.943	1278.81
419.166	1333.81
419.389	1363.81
419.611	1319.81
419.834	1316.81
420.057	1345.81
420.28	1304.81
420.503	1310.81
420.726	1323.81
420.948	1314.81
421.171	1264.81
421.394	1268.81
421.617	1339.81
421.839	1360.81
422.062	1356.81
422.285	1277.81
422.507	1323.81
422.73	1233.81
422.953	1220.81
423.175	1203.81
423.398	1270.81
423.621	1273.81
423.843	1281.81
424.066	1320.81
424.288	1415.81
424.511	1445.81
424.733	1377.81
424.956	1239.81
425.178	1246.81
425.401	1251.81
425.623	1295.81
425.846	1279.81
426.068	1357.81
426.291	1334.81
426.513	1314.81
426.735	1308.81
426.958	1437.81
427.18	1506.81
427.402	1351.81
427.625	1407.81
427.847	1370.81
428.069	1314.81
428.292	1272.81
428.514	1223.81
428.736	1233.81
428.958	1260.81
429.181	1293.81
429.403	1513.81
429.625	1792.81
429.847	1508.81
430.069	1304.81
430.292	1470.81
430.514	1448.81
430.736	1362.81
430.958	1375.81
431.18	1320.81
431.402	1211.81
431.624	1166.81
431.846	1193.81
432.068	1148.81
432.29	1154.81
432.512	1186.81
432.734	1246.81
432.956	1250.81
433.178	1367.81
433.4	1307.81
433.622	1330.81
433.844	1231.81
434.066	1186.81
434.287	1169.81
434.509	1204.81
434.731	1292.81
434.953	1376.81
435.175	1334.81
435.397	1321.81
435.618	1267.81
435.84	1256.81
436.062	1204.81
436.284	1244.81
436.505	1323.81
436.727	1322.81
436.949	1279.81
437.17	1218.81
437.392	1247.81
437.614	1210.81
437.835	1181.81
438.057	1249.81
438.278	1252.81
438.5	1237.81
438.721	1250.81
438.943	1248.81
439.165	1219.81
439.386	1226.81
439.608	1264.81
439.829	1244.81
440.05	1243.81
440.272	1272.81
440.493	1236.81
440.715	1266.81
440.936	1380.81
441.158	1433.81
441.379	1376.81
441.6	1382.81
441.822	1382.81
442.043	1350.81
442.264	1315.81
442.486	1276.81
442.707	1270.81
442.928	1286.81
443.149	1341.81
443.371	1360.81
443.592	1381.81
443.813	1404.81
444.034	1385.81
444.255	1348.81
444.476	1402.81
444.698	1413.81
444.919	1414.81
445.14	1485.81
445.361	1459.81
445.582	1430.81
445.803	1430.81
446.024	1393.81
446.245	1419.81
446.466	1371.81
446.687	1328.81
446.908	1348.81
447.129	1306.81
447.35	1319.81
447.571	1304.81
447.792	1256.81
448.013	1250.81
448.234	1284.81
448.455	1339.81
448.675	1318.81
448.896	1234.81
449.117	1212.81
449.338	1248.81
449.559	1274.81
449.779	1309.81
450	1434.81
450.221	1484.81
450.442	1401.81
450.662	1304.81
450.883	1193.81
451.104	1186.81
451.324	1203.81
451.545	1232.81
451.766	1228.81
451.986	1150.81
452.207	1128.81
452.428	1076.81
452.648	1121.81
452.869	1117.81
453.089	1152.81
453.31	1173.81
453.53	1184.81
453.751	1139.81
453.971	1056.81
454.192	1100.81
454.412	1173.81
454.633	1148.81
454.853	1101.81
455.073	1094.81
455.294	1063.81
455.514	1057.81
455.734	1072.81
455.955	1091.81
456.175	1100.81
456.395	1072.81
456.616	1125.81
456.836	1097.81
457.056	1059.81
457.276	1050.81
457.497	1054.81
457.717	1042.81
457.937	1046.81
458.157	1078.81
458.377	1020.81
458.598	1028.81
458.818	1050.81
459.038	1118.81
459.258	1146.81
459.478	1144.81
459.698	1141.81
459.918	1166.81
460.138	1245.81
460.358	1234.81
460.578	1252.81
460.798	1305.81
461.018	1346.81
461.238	1328.81
461.458	1272.81
461.678	1289.81
461.898	1208.81
462.118	1216.81
462.338	1269.81
462.558	1264.81
462.777	1280.81
462.997	1309.81
463.217	1358.81
463.437	1350.81
463.657	1274.81
463.876	1259.81
464.096	1268.81
464.316	1293.81
464.536	1309.81
464.755	1324.81
464.975	1313.81
465.195	1288.81
465.414	1324.81
465.634	1325.81
465.854	1304.81
466.073	1421.81
466.293	1350.81
466.512	1219.81
466.732	1172.81
466.951	1268.81
467.171	1216.81
467.391	1184.81
467.61	1187.81
467.829	1204.81
468.049	1352.81
468.268	1476.81
468.488	1344.81
468.707	1258.81
468.927	1243.81
469.146	1217.81
469.365	1212.81
469.585	1240.81
469.804	1226.81
470.023	1240.81
470.243	1273.81
470.462	1230.81
470.681	1234.81
470.901	1197.81
471.12	1256.81
471.339	1227.81
471.558	1201.81
471.777	1203.81
471.997	1224.81
472.216	1214.81
472.435	1111.81
472.654	1144.81
472.873	1163.81
473.092	1251.81
473.311	1190.81
473.53	1173.81
473.749	1158.81
473.968	1196.81
474.187	1241.81
474.406	1218.81
474.625	1203.81
474.844	1233.81
475.063	1219.81
475.282	1243.81
475.501	1211.81
475.72	1226.81
475.939	1302.81
476.158	1238.81
476.377	1254.81
476.596	1209.81
476.814	1257.81
477.033	1255.81
477.252	1252.81
477.471	1294.81
477.69	1267.81
477.908	1268.81
478.127	1378.81
478.346	1438.81
478.564	1414.81
478.783	1413.81
479.002	1433.81
479.22	1407.81
479.439	1481.81
479.658	1611.81
479.876	1511.81
480.095	1406.81
480.313	1331.81
480.532	1325.81
480.751	1308.81
480.969	1330.81
481.188	1259.81
481.406	1264.81
481.624	1230.81
481.843	1288.81
482.061	1302.81
482.28	1346.81
482.498	1335.81
482.717	1312.81
482.935	1314.81
483.153	1367.81
483.372	1355.81
483.59	1376.81
483.808	1351.81
484.027	1364.81
484.245	1488.81
484.463	1722.81
484.681	1884.81
484.9	1467.81
485.118	1380.81
485.336	1328.81
485.554	1372.81
485.772	1395.81
485.99	1338.81
486.209	1376.81
486.427	1395.81
486.645	1404.81
486.863	1440.81
487.081	1476.81
487.299	1476.81
487.517	1437.81
487.735	1453.81
487.953	1523.81
488.171	1466.81
488.389	1464.81
488.607	1483.81
488.825	1631.81
489.043	1526.81
489.261	1406.81
489.479	1493.81
489.696	1495.81
489.914	1477.81
490.132	1418.81
490.35	1525.81
490.568	1532.81
490.786	1504.81
491.003	1493.81
491.221	1568.81
491.439	1603.81
491.657	1604.81
491.874	1625.81
492.092	1686.81
492.31	1724.81
492.527	1653.81
492.745	1600.81
492.963	1595.81
493.18	1601.81
493.398	1732.81
