Data from WStandard_LampEnergy8_LIBS07252019.E.O._I.C._HRD10591_15-59-56-929.txt Node
Date: Thu Jul 25 15:59:56 EDT 2019
User: cochatt
Spectrometer: HR+D1059
Trigger mode: 1
Integration Time (sec): 1.000000E-1
Scans to average: 1
Electric dark correction enabled: true
Nonlinearity correction enabled: false
Boxcar width: 0
XAxis mode: Wavelengths
Number of Pixels in Spectrum: 2048
>>>>>Begin Spectral Data<<<<<
223.165	-18
223.4	-18
223.635	-18
223.869	-26
224.104	-23
224.338	-9
224.573	-18
224.808	5
225.042	-14
225.277	0
225.511	-2
225.746	16
225.98	19
226.215	12
226.449	9
226.683	19
226.918	13
227.152	17
227.387	34
227.621	41
227.856	36
228.09	55
228.324	44
228.559	57
228.793	102
229.027	213
229.262	215
229.496	234
229.73	227
229.964	255
230.199	250
230.433	260
230.667	277
230.901	290
231.136	267
231.37	252
231.604	264
231.838	276
232.072	273
232.306	257
232.541	271
232.775	291
233.009	311
233.243	306
233.477	283
233.711	311
233.945	314
234.179	299
234.413	311
234.647	334
234.881	311
235.115	297
235.349	320
235.583	307
235.817	313
236.051	313
236.285	314
236.519	318
236.753	344
236.987	349
237.221	349
237.455	373
237.689	377
237.922	346
238.156	342
238.39	367
238.624	379
238.858	398
239.091	411
239.325	402
239.559	487
239.793	469
240.027	523
240.26	486
240.494	396
240.728	382
240.961	370
241.195	380
241.429	413
241.662	426
241.896	398
242.13	392
242.363	444
242.597	451
242.83	457
243.064	462
243.298	492
243.531	495
243.765	488
243.998	454
244.232	408
244.465	381
244.699	439
244.932	453
245.166	510
245.399	484
245.633	454
245.866	460
246.099	461
246.333	490
246.566	499
246.8	534
247.033	557
247.266	541
247.5	506
247.733	533
247.966	554
248.2	614
248.433	599
248.666	606
248.899	673
249.133	751
249.366	812
249.599	694
249.832	613
250.066	605
250.299	649
250.532	571
250.765	552
250.998	575
251.231	580
251.465	597
251.698	567
251.931	567
252.164	589
252.397	614
252.63	597
252.863	568
253.096	540
253.329	573
253.562	583
253.795	609
254.028	605
254.261	558
254.494	585
254.727	534
254.96	547
255.193	621
255.426	708
255.659	763
255.892	784
256.124	671
256.357	637
256.59	700
256.823	705
257.056	695
257.289	823
257.521	877
257.754	803
257.987	761
258.22	853
258.452	811
258.685	671
258.918	678
259.151	659
259.383	637
259.616	600
259.849	615
260.081	691
260.314	759
260.547	807
260.779	813
261.012	741
261.244	674
261.477	676
261.71	682
261.942	687
262.175	670
262.407	692
262.64	658
262.872	628
263.105	623
263.337	633
263.57	645
263.802	636
264.035	591
264.267	554
264.499	561
264.732	613
264.964	658
265.197	668
265.429	697
265.661	750
265.894	834
266.126	850
266.358	793
266.591	799
266.823	870
267.055	775
267.287	732
267.52	729
267.752	775
267.984	737
268.216	815
268.448	810
268.681	794
268.913	728
269.145	681
269.377	698
269.609	774
269.841	870
270.073	1010
270.306	1053
270.538	1097
270.77	955
271.002	835
271.234	815
271.466	818
271.698	919
271.93	1047
272.162	1011
272.394	950
272.626	886
272.858	788
273.09	700
273.322	671
273.553	684
273.785	662
274.017	722
274.249	774
274.481	761
274.713	723
274.945	689
275.176	699
275.408	692
275.64	680
275.872	680
276.104	733
276.335	832
276.567	913
276.799	922
277.031	826
277.262	809
277.494	839
277.726	925
277.957	877
278.189	803
278.421	736
278.652	757
278.884	729
279.115	737
279.347	754
279.579	746
279.81	747
280.042	819
280.273	875
280.505	849
280.736	891
280.968	823
281.199	722
281.431	740
281.662	702
281.894	703
282.125	737
282.356	759
282.588	763
282.819	758
283.051	823
283.282	874
283.513	865
283.745	741
283.976	727
284.207	727
284.439	735
284.67	744
284.901	767
285.132	792
285.364	763
285.595	784
285.826	758
286.057	750
286.288	723
286.52	799
286.751	846
286.982	837
287.213	786
287.444	706
287.675	727
287.906	761
288.138	819
288.369	796
288.6	737
288.831	715
289.062	725
289.293	758
289.524	764
289.755	787
289.986	782
290.217	734
290.448	737
290.679	779
290.91	776
291.141	786
291.371	831
291.602	800
291.833	827
292.064	818
292.295	838
292.526	833
292.757	876
292.987	804
293.218	797
293.449	884
293.68	990
293.91	1025
294.141	950
294.372	911
294.603	941
294.833	980
295.064	901
295.295	830
295.525	787
295.756	765
295.987	731
296.217	768
296.448	774
296.679	759
296.909	765
297.14	772
297.37	762
297.601	864
297.831	894
298.062	868
298.292	836
298.523	774
298.753	795
298.984	794
299.214	801
299.445	823
299.675	848
299.905	841
300.136	809
300.366	804
300.597	780
300.827	791
301.057	794
301.288	832
301.518	853
301.748	884
301.979	901
302.209	940
302.439	992
302.669	973
302.9	945
303.13	857
303.36	857
303.59	861
303.82	840
304.051	858
304.281	874
304.511	882
304.741	944
304.971	1039
305.201	1075
305.431	1003
305.661	803
305.891	767
306.121	794
306.352	809
306.582	866
306.812	909
307.042	925
307.272	939
307.502	981
307.731	1031
307.961	1065
308.191	980
308.421	872
308.651	833
308.881	829
309.111	839
309.341	803
309.571	836
309.8	825
310.03	799
310.26	821
310.49	825
310.72	818
310.949	901
311.179	901
311.409	863
311.639	864
311.868	823
312.098	857
312.328	839
312.557	830
312.787	855
313.017	861
313.246	891
313.476	857
313.706	918
313.935	861
314.165	899
314.394	923
314.624	984
314.853	1051
315.083	1037
315.312	1029
315.542	982
315.771	884
316.001	883
316.23	950
316.46	922
316.689	943
316.919	907
317.148	861
317.377	881
317.607	970
317.836	1066
318.065	1096
318.295	1039
318.524	979
318.753	918
318.983	937
319.212	922
319.441	918
319.67	891
319.9	937
320.129	981
320.358	1008
320.587	1047
320.816	1011
321.046	1012
321.275	946
321.504	1011
321.733	1057
321.962	1021
322.191	936
322.42	909
322.649	901
322.878	906
323.108	929
323.337	957
323.566	966
323.795	943
324.024	947
324.253	935
324.482	943
324.71	882
324.939	881
325.168	924
325.397	925
325.626	933
325.855	947
326.084	928
326.313	911
326.542	948
326.77	975
326.999	950
327.228	882
327.457	885
327.686	868
327.914	920
328.143	932
328.372	942
328.6	910
328.829	940
329.058	902
329.287	905
329.515	961
329.744	946
329.972	984
330.201	1033
330.43	1022
330.658	951
330.887	981
331.115	974
331.344	988
331.572	976
331.801	986
332.03	991
332.258	1006
332.486	1009
332.715	1009
332.943	978
333.172	957
333.4	1010
333.629	1003
333.857	1103
334.085	1227
334.314	1363
334.542	1429
334.771	1289
334.999	1139
335.227	1049
335.455	1044
335.684	1054
335.912	1082
336.14	1113
336.369	1047
336.597	1021
336.825	992
337.053	1063
337.281	1117
337.51	1151
337.738	1172
337.966	1096
338.194	1021
338.422	997
338.65	934
338.878	965
339.106	935
339.334	930
339.562	928
339.79	935
340.018	1009
340.246	1051
340.474	1046
340.702	983
340.93	1025
341.158	987
341.386	975
341.614	985
341.842	974
342.07	980
342.298	997
342.526	993
342.754	973
342.981	939
343.209	977
343.437	954
343.665	985
343.893	1011
344.12	1061
344.348	1056
344.576	1010
344.804	968
345.031	973
345.259	976
345.487	915
345.714	921
345.942	901
346.17	892
346.397	946
346.625	959
346.853	877
347.08	892
347.308	877
347.535	953
347.763	930
347.99	923
348.218	881
348.445	916
348.673	919
348.9	939
349.128	963
349.355	971
349.583	948
349.81	928
350.037	871
350.265	848
350.492	874
350.72	907
350.947	945
351.174	935
351.402	904
351.629	868
351.856	873
352.083	828
352.311	862
352.538	902
352.765	929
352.992	938
353.22	910
353.447	877
353.674	941
353.901	925
354.128	902
354.355	878
354.583	963
354.81	957
355.037	949
355.264	936
355.491	898
355.718	912
355.945	906
356.172	885
356.399	883
356.626	896
356.853	937
357.08	1010
357.307	1113
357.534	1074
357.761	965
357.988	898
358.215	883
358.441	853
358.668	864
358.895	883
359.122	934
359.349	1045
359.576	1003
359.802	938
360.029	885
360.256	897
360.483	900
360.709	938
360.936	965
361.163	1025
361.39	1139
361.616	1185
361.843	1155
362.07	1070
362.296	933
362.523	912
362.749	885
362.976	957
363.203	935
363.429	924
363.656	899
363.882	947
364.109	1064
364.335	1063
364.562	1051
364.788	977
365.015	917
365.241	894
365.468	917
365.694	997
365.92	991
366.147	941
366.373	906
366.599	873
366.826	881
367.052	887
367.278	908
367.505	950
367.731	968
367.957	955
368.184	981
368.41	1019
368.636	1052
368.862	1062
369.089	1043
369.315	1021
369.541	954
369.767	954
369.993	918
370.219	939
370.445	967
370.672	1011
370.898	1073
371.124	1042
371.35	997
371.576	1029
371.802	1047
372.028	1009
372.254	965
372.48	925
372.706	926
372.932	938
373.158	951
373.384	954
373.61	1021
373.835	1035
374.061	989
374.287	1017
374.513	997
374.739	991
374.965	999
375.191	1013
375.416	1009
375.642	997
375.868	1086
376.094	1088
376.319	1043
376.545	986
376.771	1035
376.997	1063
377.222	1052
377.448	1027
377.674	1049
377.899	1045
378.125	1094
378.35	1063
378.576	969
378.802	972
379.027	939
379.253	978
379.478	967
379.704	968
379.929	1005
380.155	1002
380.38	1025
380.606	1012
380.831	996
381.057	1077
381.282	1062
381.507	1038
381.733	1108
381.958	1155
382.184	1051
382.409	1051
382.634	1023
382.86	1016
383.085	1022
383.31	1086
383.535	1174
383.761	1230
383.986	1124
384.211	1073
384.436	1118
384.662	1183
384.887	1190
385.112	1141
385.337	1137
385.562	1111
385.787	1126
386.013	1138
386.238	1133
386.463	1169
386.688	1249
386.913	1317
387.138	1222
387.363	1181
387.588	1177
387.813	1150
388.038	1157
388.263	1203
388.488	1139
388.713	1095
388.938	1070
389.163	1089
389.387	1127
389.612	1128
389.837	1131
390.062	1134
390.287	1141
390.512	1123
390.736	1109
390.961	1092
391.186	1057
391.411	1083
391.636	1131
391.86	1119
392.085	1110
392.31	1126
392.534	1119
392.759	1110
392.984	1126
393.208	1140
393.433	1171
393.658	1261
393.882	1198
394.107	1154
394.331	1084
394.556	1145
394.78	1167
395.005	1158
395.229	1230
395.454	1323
395.678	1298
395.903	1248
396.127	1175
396.352	1241
396.576	1230
396.801	1228
397.025	1235
397.249	1214
397.474	1231
397.698	1193
397.922	1253
398.147	1265
398.371	1366
398.595	1322
398.82	1305
399.044	1309
399.268	1378
399.492	1442
399.717	1504
399.941	1469
400.165	1448
400.389	1432
400.613	1415
400.837	1646
401.062	1807
401.286	1539
401.51	1411
401.734	1474
401.958	1405
402.182	1295
402.406	1293
402.63	1255
402.854	1287
403.078	1291
403.302	1334
403.526	1339
403.75	1377
403.974	1386
404.198	1342
404.422	1436
404.645	1449
404.869	1405
405.093	1334
405.317	1296
405.541	1346
405.765	1347
405.988	1353
406.212	1367
406.436	1403
406.66	1465
406.883	1495
407.107	1630
407.331	1797
407.555	1905
407.778	1683
408.002	1444
408.226	1401
408.449	1385
408.673	1360
408.896	1352
409.12	1403
409.344	1358
409.567	1311
409.791	1322
410.014	1397
410.238	1467
410.461	1522
410.685	1377
410.908	1327
411.132	1337
411.355	1320
411.578	1323
411.802	1327
412.025	1345
412.249	1319
412.472	1283
412.695	1311
412.919	1287
413.142	1289
413.365	1290
413.589	1311
413.812	1396
414.035	1462
414.258	1356
414.482	1298
414.705	1317
414.928	1300
415.151	1287
415.374	1290
415.597	1320
415.821	1303
416.044	1331
416.267	1352
416.49	1251
416.713	1274
416.936	1315
417.159	1367
417.382	1362
417.605	1289
417.828	1325
418.051	1335
418.274	1305
418.497	1265
418.72	1274
418.943	1289
419.166	1357
419.389	1362
419.611	1310
419.834	1286
420.057	1301
420.28	1278
420.503	1289
420.726	1329
420.948	1310
421.171	1242
421.394	1272
421.617	1353
421.839	1320
422.062	1334
422.285	1290
422.507	1266
422.73	1209
422.953	1219
423.175	1199
423.398	1273
423.621	1251
423.843	1298
424.066	1309
424.288	1366
424.511	1373
424.733	1329
424.956	1245
425.178	1247
425.401	1250
425.623	1269
425.846	1283
426.068	1325
426.291	1315
426.513	1270
426.735	1319
426.958	1400
427.18	1491
427.402	1361
427.625	1429
427.847	1369
428.069	1282
428.292	1240
428.514	1225
428.736	1204
428.958	1262
429.181	1268
429.403	1492
429.625	1751
429.847	1464
430.069	1311
430.292	1457
430.514	1454
430.736	1345
430.958	1374
431.18	1283
431.402	1223
431.624	1217
431.846	1177
432.068	1128
432.29	1164
432.512	1221
432.734	1225
432.956	1250
433.178	1306
433.4	1305
433.622	1318
433.844	1274
434.066	1216
434.287	1175
434.509	1177
434.731	1294
434.953	1353
435.175	1330
435.397	1285
435.618	1275
435.84	1242
436.062	1237
436.284	1240
436.505	1286
436.727	1314
436.949	1242
437.17	1226
437.392	1206
437.614	1198
437.835	1201
438.057	1217
438.278	1235
438.5	1238
438.721	1254
438.943	1230
439.165	1230
439.386	1209
439.608	1240
439.829	1226
440.05	1248
440.272	1257
440.493	1226
440.715	1248
440.936	1350
441.158	1464
441.379	1356
441.6	1358
441.822	1323
442.043	1347
442.264	1315
442.486	1240
442.707	1237
442.928	1225
443.149	1309
443.371	1322
443.592	1362
443.813	1341
444.034	1368
444.255	1357
444.476	1367
444.698	1421
444.919	1379
445.14	1483
445.361	1439
445.582	1398
445.803	1409
446.024	1384
446.245	1387
446.466	1353
446.687	1314
446.908	1322
447.129	1301
447.35	1268
447.571	1283
447.792	1253
448.013	1224
448.234	1255
448.455	1329
448.675	1332
448.896	1217
449.117	1209
449.338	1245
449.559	1308
449.779	1348
450	1429
450.221	1451
450.442	1397
450.662	1307
450.883	1155
451.104	1152
451.324	1166
451.545	1205
451.766	1198
451.986	1121
452.207	1136
452.428	1103
452.648	1105
452.869	1085
453.089	1161
453.31	1156
453.53	1144
453.751	1103
453.971	1052
454.192	1078
454.412	1163
454.633	1123
454.853	1122
455.073	1040
455.294	1103
455.514	1051
455.734	1071
455.955	1077
456.175	1073
456.395	1066
456.616	1051
456.836	1085
457.056	1073
457.276	1062
457.497	1025
457.717	1019
457.937	1046
458.157	1060
458.377	1034
458.598	1031
458.818	1060
459.038	1103
459.258	1169
459.478	1157
459.698	1110
459.918	1127
460.138	1194
460.358	1219
460.578	1250
460.798	1291
461.018	1353
461.238	1285
461.458	1245
461.678	1242
461.898	1203
462.118	1216
462.338	1265
462.558	1284
462.777	1282
462.997	1310
463.217	1360
463.437	1331
463.657	1266
463.876	1234
464.096	1216
464.316	1268
464.536	1286
464.755	1293
464.975	1285
465.195	1244
465.414	1312
465.634	1290
465.854	1270
466.073	1349
466.293	1326
466.512	1151
466.732	1206
466.951	1235
467.171	1215
467.391	1198
467.61	1189
467.829	1202
468.049	1356
468.268	1439
468.488	1333
468.707	1253
468.927	1234
469.146	1182
469.365	1209
469.585	1215
469.804	1223
470.023	1215
470.243	1241
470.462	1207
470.681	1206
470.901	1232
471.12	1206
471.339	1225
471.558	1193
471.777	1159
471.997	1203
472.216	1150
472.435	1128
472.654	1105
472.873	1166
473.092	1197
473.311	1165
473.53	1132
473.749	1114
473.968	1162
474.187	1213
474.406	1222
474.625	1213
474.844	1191
475.063	1211
475.282	1203
475.501	1186
475.72	1197
475.939	1287
476.158	1235
476.377	1217
476.596	1199
476.814	1224
477.033	1265
477.252	1245
477.471	1331
477.69	1292
477.908	1261
478.127	1360
478.346	1443
478.564	1413
478.783	1408
479.002	1425
479.22	1413
479.439	1488
479.658	1563
479.876	1486
480.095	1347
480.313	1347
480.532	1277
480.751	1298
480.969	1302
481.188	1278
481.406	1234
481.624	1243
481.843	1209
482.061	1269
482.28	1335
482.498	1347
482.717	1330
482.935	1319
483.153	1345
483.372	1353
483.59	1351
483.808	1360
484.027	1373
484.245	1462
484.463	1707
484.681	1875
484.9	1497
485.118	1388
485.336	1313
485.554	1351
485.772	1399
485.99	1358
486.209	1377
486.427	1377
486.645	1401
486.863	1419
487.081	1444
487.299	1468
487.517	1427
487.735	1445
487.953	1483
488.171	1494
488.389	1460
488.607	1459
488.825	1558
489.043	1531
489.261	1394
489.479	1460
489.696	1480
489.914	1463
490.132	1396
490.35	1441
490.568	1507
490.786	1487
491.003	1475
491.221	1542
491.439	1582
491.657	1592
491.874	1585
492.092	1670
492.31	1679
492.527	1647
492.745	1578
492.963	1578
493.18	1617
493.398	1677
493.615	1687
493.833	1559
494.05	1542
494.268	1555
494.485	1597
494.703	1506
494.92	1529
495.138	1533
495.355	1557
495.573	1615
495.79	1702
496.008	1666
496.225	1554
496.442	1579
496.66	1636
496.877	1583
497.094	1643
497.312	1595
497.529	1641
497.746	1701
497.963	1873
498.181	1980
498.398	1843
498.615	1837
498.832	1794
499.049	1720
499.267	1747
499.484	1869
499.701	2015
499.918	2053
500.135	2189
500.352	2331
500.569	2342
500.786	2481
501.003	2251
501.22	2054
501.437	2066
501.654	2099
501.871	1972
502.088	1745
502.305	1721
502.522	1683
502.739	1575
502.956	1554
503.172	1569
503.389	1494
503.606	1481
503.823	1497
504.04	1469
504.256	1482
504.473	1461
504.69	1518
504.907	1446
505.123	1418
505.34	1499
505.557	1949
505.773	1678
505.99	1369
506.207	1326
506.423	1283
506.64	1301
506.856	1303
507.073	1471
507.289	1557
507.506	1513
507.722	1274
507.939	1236
508.155	1238
508.372	1218
508.588	1193
508.805	1156
509.021	1159
509.238	1171
509.454	1161
509.67	1138
509.887	1124
510.103	1131
510.319	1133
510.536	1231
510.752	1223
510.968	1190
511.184	1267
511.401	1215
511.617	1144
511.833	1100
512.049	1102
512.265	1110
512.481	1097
512.698	1155
512.914	1191
513.13	1150
513.346	1129
513.562	1083
513.778	1098
513.994	1164
514.21	1201
514.426	1186
514.642	1305
514.858	1209
515.074	1148
515.29	1132
515.506	1188
515.721	1193
515.937	1188
516.153	1306
516.369	1232
516.585	1175
516.801	1152
517.016	1123
517.232	1179
517.448	1190
517.664	1184
517.879	1236
518.095	1274
518.311	1197
518.527	1153
518.742	1115
518.958	1103
519.173	1146
519.389	1190
519.605	1187
519.82	1162
520.036	1158
520.251	1151
520.467	1160
520.682	1241
520.898	1202
521.113	1122
521.329	1123
521.544	1156
521.76	1126
521.975	1082
522.19	1054
522.406	1119
522.621	1360
522.836	1270
523.052	1097
523.267	1086
523.482	1107
523.698	1064
523.913	1036
524.128	1080
524.343	1137
524.559	1157
524.774	1130
524.989	1079
525.204	1059
525.419	1037
525.634	1052
525.849	1043
526.064	1071
526.28	1073
526.495	998
526.71	977
526.925	984
527.14	980
527.355	995
527.57	988
527.785	1000
527.999	990
528.214	1010
528.429	1015
528.644	1011
528.859	1050
529.074	1051
529.289	1111
529.503	1117
529.718	1098
529.933	1029
530.148	949
530.363	968
530.577	966
530.792	965
531.007	968
531.221	979
531.436	991
531.651	1014
531.865	1058
532.08	1004
532.295	942
532.509	925
532.724	949
532.938	1007
533.153	1054
533.367	1076
533.582	1022
533.796	1013
534.011	1006
534.225	992
534.44	986
534.654	959
534.868	969
535.083	1009
535.297	1011
535.511	978
535.726	972
535.94	981
536.154	970
536.369	925
536.583	964
536.797	960
537.011	979
537.225	935
537.44	922
537.654	960
537.868	916
538.082	891
538.296	895
538.51	906
538.724	948
538.938	955
539.153	974
539.367	975
539.581	940
539.795	966
540.009	955
540.222	963
540.436	971
540.65	1075
540.864	1082
541.078	1021
541.292	1009
541.506	1029
541.72	1082
541.934	1113
542.147	1159
542.361	1121
542.575	1058
542.789	998
543.002	957
543.216	956
543.43	1039
543.644	1053
543.857	1102
544.071	1095
544.285	1080
544.498	1068
544.712	1071
544.925	1094
545.139	1107
545.352	1068
545.566	1040
545.779	1052
545.993	1082
546.206	1064
546.42	1087
546.633	1031
546.847	1049
547.06	1084
547.274	1080
547.487	1105
547.7	1075
547.914	1086
548.127	1089
548.34	1096
548.554	1064
548.767	1068
548.98	1060
549.193	1053
549.407	1107
549.62	1078
549.833	1066
550.046	1061
550.259	1021
