Data from WStandard_LampEnergy10_LIBS07252019.E.O._I.C._HRD10591_15-52-43-929.txt Node
Date: Thu Jul 25 15:52:43 EDT 2019
User: cochatt
Spectrometer: HR+D1059
Trigger mode: 1
Integration Time (sec): 1.000000E-1
Scans to average: 1
Electric dark correction enabled: true
Nonlinearity correction enabled: false
Boxcar width: 0
XAxis mode: Wavelengths
Number of Pixels in Spectrum: 2048
>>>>>Begin Spectral Data<<<<<
223.165	-19.5
223.4	-19.5
223.635	-19.5
223.869	-22.5
224.104	-9.5
224.338	-18.5
224.573	-15.5
224.808	-11.5
225.042	0.5
225.277	4.5
225.511	0.5
225.746	-1.5
225.98	-2.5
226.215	-2.5
226.449	18.5
226.683	18.5
226.918	23.5
227.152	37.5
227.387	41.5
227.621	34.5
227.856	42.5
228.09	40.5
228.324	55.5
228.559	50.5
228.793	240.5
229.027	708.5
229.262	712.5
229.496	749.5
229.73	772.5
229.964	847.5
230.199	878.5
230.433	909.5
230.667	960.5
230.901	1031.5
231.136	916.5
231.37	914.5
231.604	883.5
231.838	928.5
232.072	927.5
232.306	854.5
232.541	909.5
232.775	1113.5
233.009	1158.5
233.243	1140.5
233.477	1016.5
233.711	1075.5
233.945	1146.5
234.179	1048.5
234.413	1172.5
234.647	1269.5
234.881	1184.5
235.115	1077.5
235.349	1125.5
235.583	1126.5
235.817	1106.5
236.051	1084.5
236.285	1084.5
236.519	1200.5
236.753	1313.5
236.987	1340.5
237.221	1311.5
237.455	1492.5
237.689	1460.5
237.922	1388.5
238.156	1352.5
238.39	1354.5
238.624	1424.5
238.858	1516.5
239.091	1566.5
239.325	1662.5
239.559	1935.5
239.793	1976.5
240.027	2122.5
240.26	2075.5
240.494	1542.5
240.728	1422.5
240.961	1472.5
241.195	1492.5
241.429	1655.5
241.662	1702.5
241.896	1550.5
242.13	1565.5
242.363	1741.5
242.597	1876.5
242.83	1768.5
243.064	1871.5
243.298	2004.5
243.531	1907.5
243.765	1911.5
243.998	1909.5
244.232	1708.5
244.465	1637.5
244.699	1618.5
244.932	1908.5
245.166	2184.5
245.399	2052.5
245.633	1853.5
245.866	1845.5
246.099	1930.5
246.333	1982.5
246.566	1997.5
246.8	2175.5
247.033	2420.5
247.266	2249.5
247.5	2185.5
247.733	2169.5
247.966	2371.5
248.2	2534.5
248.433	2455.5
248.666	2550.5
248.899	2816.5
249.133	3199.5
249.366	3608.5
249.599	2946.5
249.832	2614.5
250.066	2655.5
250.299	2703.5
250.532	2541.5
250.765	2301.5
250.998	2431.5
251.231	2521.5
251.465	2571.5
251.698	2482.5
251.931	2485.5
252.164	2543.5
252.397	2639.5
252.63	2668.5
252.863	2326.5
253.096	2331.5
253.329	2458.5
253.562	2496.5
253.795	2720.5
254.028	2680.5
254.261	2473.5
254.494	2444.5
254.727	2322.5
254.96	2473.5
255.193	2653.5
255.426	2985.5
255.659	3422.5
255.892	3547.5
256.124	2886.5
256.357	2785.5
256.59	3073.5
256.823	3053.5
257.056	3029.5
257.289	3656.5
257.521	4044.5
257.754	3637.5
257.987	3411.5
258.22	3791.5
258.452	3694.5
258.685	3007.5
258.918	2911.5
259.151	2926.5
259.383	2770.5
259.616	2543.5
259.849	2654.5
260.081	2979.5
260.314	3345.5
260.547	3634.5
260.779	3690.5
261.012	3425.5
261.244	3047.5
261.477	2894.5
261.71	3081.5
261.942	3030.5
262.175	2926.5
262.407	3157.5
262.64	2932.5
262.872	2785.5
263.105	2662.5
263.337	2736.5
263.57	2828.5
263.802	2771.5
264.035	2591.5
264.267	2478.5
264.499	2428.5
264.732	2643.5
264.964	2759.5
265.197	2894.5
265.429	3025.5
265.661	3386.5
265.894	3728.5
266.126	3842.5
266.358	3462.5
266.591	3556.5
266.823	3911.5
267.055	3511.5
267.287	3455.5
267.52	3382.5
267.752	3359.5
267.984	3415.5
268.216	3551.5
268.448	3611.5
268.681	3536.5
268.913	3262.5
269.145	3118.5
269.377	3053.5
269.609	3278.5
269.841	3836.5
270.073	4446.5
270.306	4962.5
270.538	5171.5
270.77	4416.5
271.002	3758.5
271.234	3585.5
271.466	3576.5
271.698	3994.5
271.93	4780.5
272.162	4785.5
272.394	4303.5
272.626	4069.5
272.858	3580.5
273.09	3119.5
273.322	3131.5
273.553	2936.5
273.785	3040.5
274.017	3156.5
274.249	3500.5
274.481	3485.5
274.713	3118.5
274.945	3060.5
275.176	3098.5
275.408	3031.5
275.64	2988.5
275.872	2903.5
276.104	3174.5
276.335	3649.5
276.567	4140.5
276.799	4214.5
277.031	3699.5
277.262	3517.5
277.494	3706.5
277.726	4040.5
277.957	4028.5
278.189	3662.5
278.421	3430.5
278.652	3309.5
278.884	3182.5
279.115	3241.5
279.347	3353.5
279.579	3237.5
279.81	3176.5
280.042	3547.5
280.273	3915.5
280.505	3952.5
280.736	4032.5
280.968	3785.5
281.199	3282.5
281.431	3152.5
281.662	3132.5
281.894	3193.5
282.125	3233.5
282.356	3378.5
282.588	3427.5
282.819	3386.5
283.051	3656.5
283.282	3958.5
283.513	3869.5
283.745	3346.5
283.976	3128.5
284.207	3112.5
284.439	3258.5
284.67	3237.5
284.901	3411.5
285.132	3436.5
285.364	3364.5
285.595	3408.5
285.826	3375.5
286.057	3305.5
286.288	3284.5
286.52	3472.5
286.751	3653.5
286.982	3834.5
287.213	3463.5
287.444	3183.5
287.675	3191.5
287.906	3412.5
288.138	3629.5
288.369	3538.5
288.6	3364.5
288.831	3268.5
289.062	3237.5
289.293	3343.5
289.524	3348.5
289.755	3522.5
289.986	3494.5
290.217	3185.5
290.448	3239.5
290.679	3383.5
290.91	3414.5
291.141	3498.5
291.371	3618.5
291.602	3591.5
291.833	3511.5
292.064	3660.5
292.295	3576.5
292.526	3679.5
292.757	3785.5
292.987	3580.5
293.218	3439.5
293.449	3776.5
293.68	4141.5
293.91	4468.5
294.141	4191.5
294.372	3922.5
294.603	4120.5
294.833	4186.5
295.064	3952.5
295.295	3668.5
295.525	3561.5
295.756	3285.5
295.987	3142.5
296.217	3237.5
296.448	3338.5
296.679	3348.5
296.909	3363.5
297.14	3321.5
297.37	3372.5
297.601	3618.5
297.831	3814.5
298.062	3822.5
298.292	3546.5
298.523	3368.5
298.753	3372.5
298.984	3446.5
299.214	3408.5
299.445	3480.5
299.675	3652.5
299.905	3614.5
300.136	3535.5
300.366	3399.5
300.597	3342.5
300.827	3328.5
301.057	3452.5
301.288	3623.5
301.518	3645.5
301.748	3726.5
301.979	3909.5
302.209	3927.5
302.439	4212.5
302.669	4398.5
302.9	4142.5
303.13	3686.5
303.36	3639.5
303.59	3772.5
303.82	3678.5
304.051	3689.5
304.281	3689.5
304.511	3737.5
304.741	3921.5
304.971	4338.5
305.201	4612.5
305.431	4307.5
305.661	3562.5
305.891	3211.5
306.121	3228.5
306.352	3395.5
306.582	3516.5
306.812	3800.5
307.042	4099.5
307.272	4088.5
307.502	4183.5
307.731	4494.5
307.961	4797.5
308.191	4430.5
308.421	3799.5
308.651	3641.5
308.881	3560.5
309.111	3527.5
309.341	3471.5
309.571	3558.5
309.8	3555.5
310.03	3501.5
310.26	3482.5
310.49	3483.5
310.72	3537.5
310.949	3737.5
311.179	3844.5
311.409	3727.5
311.639	3589.5
311.868	3540.5
312.098	3647.5
312.328	3619.5
312.557	3562.5
312.787	3710.5
313.017	3742.5
313.246	3691.5
313.476	3735.5
313.706	3814.5
313.935	3772.5
314.165	3728.5
314.394	3902.5
314.624	4082.5
314.853	4325.5
315.083	4498.5
315.312	4594.5
315.542	4276.5
315.771	3860.5
316.001	3779.5
316.23	4063.5
316.46	4044.5
316.689	3961.5
316.919	3733.5
317.148	3684.5
317.377	3681.5
317.607	3930.5
317.836	4446.5
318.065	4561.5
318.295	4428.5
318.524	4210.5
318.753	3965.5
318.983	3983.5
319.212	3923.5
319.441	3900.5
319.67	3877.5
319.9	3932.5
320.129	4145.5
320.358	4316.5
320.587	4380.5
320.816	4317.5
321.046	4216.5
321.275	4012.5
321.504	4021.5
321.733	4426.5
321.962	4270.5
322.191	3920.5
322.42	3927.5
322.649	3880.5
322.878	3898.5
323.108	3917.5
323.337	4036.5
323.566	4014.5
323.795	4026.5
324.024	4013.5
324.253	3941.5
324.482	4021.5
324.71	3884.5
324.939	3671.5
325.168	3713.5
325.397	3909.5
325.626	4031.5
325.855	3999.5
326.084	3914.5
326.313	3928.5
326.542	3941.5
326.77	4070.5
326.999	4131.5
327.228	3916.5
327.457	3689.5
327.686	3717.5
327.914	3840.5
328.143	3900.5
328.372	3928.5
328.6	3889.5
328.829	3820.5
329.058	3822.5
329.287	3892.5
329.515	3948.5
329.744	3912.5
329.972	4197.5
330.201	4326.5
330.43	4160.5
330.658	4106.5
330.887	4205.5
331.115	4112.5
331.344	4185.5
331.572	4009.5
331.801	4082.5
332.03	4136.5
332.258	4150.5
332.486	4191.5
332.715	4201.5
332.943	4262.5
333.172	4115.5
333.4	4199.5
333.629	4309.5
333.857	4534.5
334.085	5016.5
334.314	5644.5
334.542	6131.5
334.771	5596.5
334.999	4897.5
335.227	4710.5
335.455	4538.5
335.684	4362.5
335.912	4483.5
336.14	4690.5
336.369	4482.5
336.597	4252.5
336.825	4185.5
337.053	4331.5
337.281	4556.5
337.51	4673.5
337.738	4984.5
337.966	4656.5
338.194	4282.5
338.422	4137.5
338.65	4110.5
338.878	4050.5
339.106	3973.5
339.334	3904.5
339.562	3830.5
339.79	3991.5
340.018	4231.5
340.246	4317.5
340.474	4330.5
340.702	4225.5
340.93	4252.5
341.158	4183.5
341.386	4108.5
341.614	4087.5
341.842	4096.5
342.07	4035.5
342.298	4112.5
342.526	4127.5
342.754	4015.5
342.981	4034.5
343.209	3988.5
343.437	4061.5
343.665	4048.5
343.893	4160.5
344.12	4358.5
344.348	4438.5
344.576	4207.5
344.804	4015.5
345.031	4066.5
345.259	4114.5
345.487	3996.5
345.714	3840.5
345.942	3696.5
346.17	3773.5
346.397	3804.5
346.625	3847.5
346.853	3693.5
347.08	3588.5
347.308	3667.5
347.535	3749.5
347.763	3894.5
347.99	3725.5
348.218	3709.5
348.445	3720.5
348.673	3787.5
348.9	3851.5
349.128	3993.5
349.355	4102.5
349.583	3970.5
349.81	3814.5
350.037	3534.5
350.265	3487.5
350.492	3530.5
350.72	3594.5
350.947	3800.5
351.174	3814.5
351.402	3617.5
351.629	3488.5
351.856	3496.5
352.083	3451.5
352.311	3526.5
352.538	3591.5
352.765	3745.5
352.992	3864.5
353.22	3725.5
353.447	3565.5
353.674	3656.5
353.901	3743.5
354.128	3646.5
354.355	3585.5
354.583	3722.5
354.81	3847.5
355.037	3815.5
355.264	3813.5
355.491	3671.5
355.718	3795.5
355.945	3701.5
356.172	3671.5
356.399	3643.5
356.626	3598.5
356.853	3739.5
357.08	4082.5
357.307	4351.5
357.534	4379.5
357.761	3847.5
357.988	3630.5
358.215	3554.5
358.441	3581.5
358.668	3504.5
358.895	3553.5
359.122	3825.5
359.349	4178.5
359.576	4143.5
359.802	3742.5
360.029	3621.5
360.256	3518.5
360.483	3616.5
360.709	3757.5
360.936	3820.5
361.163	3977.5
361.39	4309.5
361.616	4625.5
361.843	4470.5
362.07	4202.5
362.296	3722.5
362.523	3655.5
362.749	3722.5
362.976	3748.5
363.203	3777.5
363.429	3662.5
363.656	3564.5
363.882	3746.5
364.109	4098.5
364.335	4421.5
364.562	4103.5
364.788	3895.5
365.015	3733.5
365.241	3645.5
365.468	3636.5
365.694	3865.5
365.92	4053.5
366.147	3848.5
366.373	3642.5
366.599	3582.5
366.826	3593.5
367.052	3609.5
367.278	3692.5
367.505	3708.5
367.731	3823.5
367.957	3786.5
368.184	3906.5
368.41	4140.5
368.636	4130.5
368.862	4244.5
369.089	4169.5
369.315	4050.5
369.541	3903.5
369.767	3758.5
369.993	3656.5
370.219	3717.5
370.445	3822.5
370.672	3999.5
370.898	4162.5
371.124	4137.5
371.35	3856.5
371.576	4042.5
371.802	4174.5
372.028	3998.5
372.254	3845.5
372.48	3719.5
372.706	3689.5
372.932	3701.5
373.158	3708.5
373.384	3837.5
373.61	3934.5
373.835	4174.5
374.061	3973.5
374.287	3886.5
374.513	3913.5
374.739	3876.5
374.965	3952.5
375.191	3997.5
375.416	4089.5
375.642	4039.5
375.868	4216.5
376.094	4351.5
376.319	4182.5
376.545	3906.5
376.771	3957.5
376.997	4132.5
377.222	4108.5
377.448	4041.5
377.674	4060.5
377.899	3979.5
378.125	4277.5
378.35	4205.5
378.576	3904.5
378.802	3681.5
379.027	3710.5
379.253	3776.5
379.478	3839.5
379.704	3862.5
379.929	3853.5
380.155	3832.5
380.38	3884.5
380.606	3929.5
380.831	3840.5
381.057	4069.5
381.282	4096.5
381.507	3994.5
381.733	4261.5
381.958	4406.5
382.184	4096.5
382.409	3996.5
382.634	4003.5
382.86	4054.5
383.085	4021.5
383.31	4115.5
383.535	4548.5
383.761	4683.5
383.986	4518.5
384.211	4392.5
384.436	4363.5
384.662	4526.5
384.887	4753.5
385.112	4452.5
385.337	4486.5
385.562	4484.5
385.787	4429.5
386.013	4551.5
386.238	4535.5
386.463	4537.5
386.688	4804.5
386.913	5039.5
387.138	4953.5
387.363	4643.5
387.588	4579.5
387.813	4577.5
388.038	4604.5
388.263	4734.5
388.488	4591.5
388.713	4241.5
388.938	4238.5
389.163	4281.5
389.387	4379.5
389.612	4334.5
389.837	4455.5
390.062	4485.5
390.287	4416.5
390.512	4386.5
390.736	4380.5
390.961	4276.5
391.186	4216.5
391.411	4229.5
391.636	4371.5
391.86	4434.5
392.085	4449.5
392.31	4449.5
392.534	4436.5
392.759	4504.5
392.984	4419.5
393.208	4539.5
393.433	4566.5
393.658	4742.5
393.882	4747.5
394.107	4569.5
394.331	4410.5
394.556	4389.5
394.78	4442.5
395.005	4673.5
395.229	4778.5
395.454	5006.5
395.678	5078.5
395.903	4835.5
396.127	4638.5
396.352	4791.5
396.576	4852.5
396.801	4957.5
397.025	4867.5
397.249	4888.5
397.474	4791.5
397.698	4796.5
397.922	4953.5
398.147	5122.5
398.371	5252.5
398.595	5281.5
398.82	5168.5
399.044	5267.5
399.268	5361.5
399.492	5788.5
399.717	5967.5
399.941	6041.5
400.165	5916.5
400.389	5695.5
400.613	5647.5
400.837	6162.5
401.062	7033.5
401.286	5990.5
401.51	5578.5
401.734	5765.5
401.958	5569.5
402.182	5299.5
402.406	5066.5
402.63	4993.5
402.854	5053.5
403.078	5071.5
403.302	5248.5
403.526	5240.5
403.75	5311.5
403.974	5330.5
404.198	5234.5
404.422	5421.5
404.645	5625.5
404.869	5576.5
405.093	5225.5
405.317	5102.5
405.541	5292.5
405.765	5354.5
405.988	5319.5
406.212	5409.5
406.436	5474.5
406.66	5647.5
406.883	5723.5
407.107	6299.5
407.331	6917.5
407.555	7332.5
407.778	6755.5
408.002	5744.5
408.226	5510.5
408.449	5596.5
408.673	5386.5
408.896	5388.5
409.12	5534.5
409.344	5386.5
409.567	5151.5
409.791	5358.5
410.014	5366.5
410.238	5649.5
410.461	5970.5
410.685	5355.5
410.908	5136.5
411.132	5254.5
411.355	5174.5
411.578	5156.5
411.802	5148.5
412.025	5261.5
412.249	5181.5
412.472	5025.5
412.695	4978.5
412.919	4989.5
413.142	4976.5
413.365	5050.5
413.589	5223.5
413.812	5397.5
414.035	5493.5
414.258	5119.5
414.482	5008.5
414.705	5066.5
414.928	4940.5
415.151	5009.5
415.374	5073.5
415.597	5096.5
415.821	5157.5
416.044	5228.5
416.267	5206.5
416.49	4814.5
416.713	4833.5
416.936	5016.5
417.159	5158.5
417.382	5218.5
417.605	4946.5
417.828	5076.5
418.051	5102.5
418.274	4945.5
418.497	4878.5
418.72	4928.5
418.943	4856.5
419.166	5121.5
419.389	5409.5
419.611	5131.5
419.834	5009.5
420.057	5016.5
420.28	4895.5
420.503	4938.5
420.726	4989.5
420.948	4993.5
421.171	4794.5
421.394	4898.5
421.617	5068.5
421.839	5054.5
422.062	4936.5
422.285	4827.5
422.507	4846.5
422.73	4701.5
422.953	4663.5
423.175	4637.5
423.398	4826.5
423.621	4865.5
423.843	4849.5
424.066	4998.5
424.288	5120.5
424.511	5242.5
424.733	5096.5
424.956	4654.5
425.178	4670.5
425.401	4765.5
425.623	4671.5
425.846	4705.5
426.068	4918.5
426.291	5066.5
426.513	4977.5
426.735	5015.5
426.958	5290.5
427.18	5508.5
427.402	5134.5
427.625	5241.5
427.847	5204.5
428.069	4954.5
428.292	4788.5
428.514	4626.5
428.736	4579.5
428.958	4690.5
429.181	4730.5
429.403	5276.5
429.625	6488.5
429.847	5654.5
430.069	4801.5
430.292	5256.5
430.514	5497.5
430.736	5044.5
430.958	5240.5
431.18	5011.5
431.402	4664.5
431.624	4571.5
431.846	4583.5
432.068	4517.5
432.29	4629.5
432.512	4665.5
432.734	4781.5
432.956	4864.5
433.178	5055.5
433.4	5029.5
433.622	5032.5
433.844	4773.5
434.066	4628.5
434.287	4574.5
434.509	4787.5
434.731	4986.5
434.953	5319.5
435.175	5263.5
435.397	4939.5
435.618	4897.5
435.84	4916.5
436.062	4792.5
436.284	4836.5
436.505	4927.5
436.727	5038.5
436.949	4812.5
437.17	4688.5
437.392	4655.5
437.614	4693.5
437.835	4563.5
438.057	4824.5
438.278	5001.5
438.5	4672.5
438.721	4630.5
438.943	4652.5
439.165	4642.5
439.386	4518.5
439.608	4585.5
439.829	4711.5
440.05	4623.5
440.272	4628.5
440.493	4497.5
440.715	4646.5
440.936	4979.5
441.158	5444.5
441.379	5310.5
441.6	5150.5
441.822	5132.5
442.043	5072.5
442.264	4929.5
442.486	4738.5
442.707	4679.5
442.928	4678.5
443.149	4856.5
443.371	5093.5
443.592	5297.5
443.813	5084.5
444.034	5093.5
444.255	5121.5
444.476	5193.5
444.698	5353.5
444.919	5316.5
445.14	5380.5
445.361	5364.5
445.582	5597.5
445.803	5266.5
446.024	5156.5
446.245	5312.5
446.466	5060.5
446.687	4894.5
446.908	4928.5
447.129	4741.5
447.35	4811.5
447.571	4764.5
447.792	4608.5
448.013	4590.5
448.234	4717.5
448.455	4837.5
448.675	4872.5
448.896	4436.5
449.117	4429.5
449.338	4566.5
449.559	4736.5
449.779	4979.5
450	5424.5
450.221	5721.5
450.442	5528.5
450.662	4944.5
450.883	4464.5
451.104	4363.5
451.324	4480.5
451.545	4583.5
451.766	4537.5
451.986	4313.5
452.207	4306.5
452.428	4177.5
452.648	4155.5
452.869	4256.5
453.089	4437.5
453.31	4500.5
453.53	4613.5
453.751	4360.5
453.971	4142.5
454.192	4235.5
454.412	4582.5
454.633	4449.5
454.853	4298.5
455.073	4009.5
455.294	3990.5
455.514	3979.5
455.734	4044.5
455.955	4123.5
456.175	4157.5
456.395	4144.5
456.616	4284.5
456.836	4333.5
457.056	4220.5
457.276	4198.5
457.497	4080.5
457.717	4012.5
457.937	4000.5
458.157	4148.5
458.377	4135.5
458.598	4068.5
458.818	4160.5
459.038	4348.5
459.258	4680.5
459.478	4590.5
459.698	4431.5
459.918	4624.5
460.138	4828.5
460.358	4901.5
460.578	4920.5
460.798	5171.5
461.018	5349.5
461.238	5137.5
461.458	4935.5
461.678	4929.5
461.898	4879.5
462.118	4736.5
462.338	4887.5
462.558	4975.5
462.777	4912.5
462.997	5234.5
463.217	5478.5
463.437	5516.5
463.657	5091.5
463.876	5054.5
464.096	4934.5
464.316	4982.5
464.536	5070.5
464.755	5146.5
464.975	5268.5
465.195	5045.5
465.414	5130.5
465.634	5188.5
465.854	4941.5
466.073	5258.5
466.293	5152.5
466.512	4599.5
466.732	4588.5
466.951	4696.5
467.171	4730.5
467.391	4541.5
467.61	4408.5
467.829	4438.5
468.049	4857.5
468.268	5341.5
468.488	5049.5
468.707	4788.5
468.927	4654.5
469.146	4594.5
469.365	4436.5
469.585	4559.5
469.804	4508.5
470.023	4592.5
470.243	4666.5
470.462	4623.5
470.681	4485.5
470.901	4586.5
471.12	4551.5
471.339	4468.5
471.558	4400.5
471.777	4412.5
471.997	4401.5
472.216	4475.5
472.435	4277.5
472.654	4370.5
472.873	4513.5
473.092	4766.5
473.311	4583.5
473.53	4272.5
473.749	4295.5
473.968	4526.5
474.187	4723.5
474.406	4887.5
474.625	4686.5
474.844	4544.5
475.063	4590.5
475.282	4689.5
475.501	4584.5
475.72	4544.5
475.939	4855.5
476.158	4662.5
476.377	4649.5
476.596	4647.5
476.814	4776.5
477.033	4806.5
477.252	4984.5
477.471	5066.5
477.69	4838.5
477.908	4798.5
478.127	5094.5
478.346	5464.5
478.564	5520.5
478.783	5420.5
479.002	5530.5
479.22	5407.5
479.439	5657.5
479.658	6320.5
479.876	6208.5
480.095	5495.5
480.313	5263.5
480.532	5044.5
480.751	5113.5
480.969	5226.5
481.188	5109.5
481.406	5036.5
481.624	4903.5
481.843	5011.5
482.061	5093.5
482.28	5179.5
482.498	5355.5
482.717	5190.5
482.935	5129.5
483.153	5062.5
483.372	5180.5
483.59	5030.5
483.808	5040.5
484.027	5205.5
484.245	5526.5
484.463	6333.5
484.681	7146.5
484.9	5586.5
485.118	5224.5
485.336	5126.5
485.554	5304.5
485.772	5525.5
485.99	5423.5
486.209	5384.5
486.427	5436.5
486.645	5371.5
486.863	5329.5
487.081	5550.5
487.299	5742.5
487.517	5576.5
487.735	5352.5
487.953	5256.5
488.171	5289.5
488.389	5322.5
488.607	5335.5
488.825	5803.5
489.043	5819.5
489.261	5300.5
489.479	5584.5
489.696	5653.5
489.914	5670.5
490.132	5440.5
490.35	5356.5
490.568	5586.5
490.786	5463.5
491.003	5305.5
491.221	5506.5
491.439	5692.5
491.657	5629.5
491.874	5628.5
492.092	5751.5
492.31	5721.5
492.527	5645.5
492.745	5549.5
492.963	5495.5
493.18	5729.5
493.398	6144.5
493.615	6243.5
493.833	5781.5
494.05	5608.5
494.268	5618.5
494.485	5863.5
494.703	5707.5
494.92	5591.5
495.138	5642.5
495.355	5669.5
495.573	5846.5
495.79	6206.5
496.008	6274.5
496.225	5870.5
496.442	5906.5
496.66	6002.5
496.877	5844.5
497.094	6130.5
497.312	6164.5
497.529	6083.5
497.746	6252.5
497.963	7148.5
498.181	7918.5
498.398	7353.5
498.615	7237.5
498.832	7111.5
499.049	7010.5
499.267	6974.5
499.484	7555.5
499.701	8220.5
499.918	8277.5
500.135	8825.5
500.352	9414.5
500.569	9345.5
500.786	9866.5
501.003	9246.5
501.22	8450.5
501.437	8264.5
501.654	8197.5
501.871	7844.5
502.088	7061.5
502.305	6964.5
502.522	6780.5
