Data from WStandard_LampEnergy8_LIBS07252019.E.O._I.C._HRD10591_15-59-02-930.txt Node
Date: Thu Jul 25 15:59:02 EDT 2019
User: cochatt
Spectrometer: HR+D1059
Trigger mode: 1
Integration Time (sec): 1.000000E-1
Scans to average: 1
Electric dark correction enabled: true
Nonlinearity correction enabled: false
Boxcar width: 0
XAxis mode: Wavelengths
Number of Pixels in Spectrum: 2048
>>>>>Begin Spectral Data<<<<<
223.165	3.12
223.4	3.12
223.635	3.12
223.869	-20.88
224.104	-23.88
224.338	-11.88
224.573	-10.88
224.808	-2.88
225.042	-7.88
225.277	4.12
225.511	-13.88
225.746	-4.88
225.98	1.12
226.215	4.12
226.449	12.12
226.683	18.12
226.918	30.12
227.152	24.12
227.387	31.12
227.621	28.12
227.856	46.12
228.09	30.12
228.324	42.12
228.559	54.12
228.793	98.12
229.027	207.12
229.262	227.12
229.496	227.12
229.73	239.12
229.964	243.12
230.199	271.12
230.433	258.12
230.667	278.12
230.901	288.12
231.136	266.12
231.37	255.12
231.604	250.12
231.838	278.12
232.072	236.12
232.306	256.12
232.541	274.12
232.775	319.12
233.009	317.12
233.243	319.12
233.477	293.12
233.711	293.12
233.945	311.12
234.179	292.12
234.413	326.12
234.647	337.12
234.881	316.12
235.115	304.12
235.349	306.12
235.583	304.12
235.817	305.12
236.051	313.12
236.285	300.12
236.519	326.12
236.753	350.12
236.987	349.12
237.221	378.12
237.455	386.12
237.689	362.12
237.922	341.12
238.156	348.12
238.39	353.12
238.624	358.12
238.858	414.12
239.091	415.12
239.325	409.12
239.559	455.12
239.793	518.12
240.027	516.12
240.26	507.12
240.494	396.12
240.728	370.12
240.961	383.12
241.195	413.12
241.429	431.12
241.662	413.12
241.896	386.12
242.13	411.12
242.363	458.12
242.597	462.12
242.83	454.12
243.064	448.12
243.298	496.12
243.531	481.12
243.765	476.12
243.998	456.12
244.232	430.12
244.465	402.12
244.699	406.12
244.932	458.12
245.166	489.12
245.399	520.12
245.633	461.12
245.866	453.12
246.099	487.12
246.333	508.12
246.566	480.12
246.8	531.12
247.033	560.12
247.266	552.12
247.5	546.12
247.733	528.12
247.966	576.12
248.2	625.12
248.433	596.12
248.666	628.12
248.899	683.12
249.133	750.12
249.366	800.12
249.599	686.12
249.832	629.12
250.066	628.12
250.299	616.12
250.532	591.12
250.765	532.12
250.998	579.12
251.231	605.12
251.465	598.12
251.698	568.12
251.931	584.12
252.164	569.12
252.397	618.12
252.63	595.12
252.863	560.12
253.096	563.12
253.329	587.12
253.562	604.12
253.795	632.12
254.028	605.12
254.261	582.12
254.494	569.12
254.727	546.12
254.96	583.12
255.193	658.12
255.426	700.12
255.659	797.12
255.892	784.12
256.124	680.12
256.357	662.12
256.59	694.12
256.823	694.12
257.056	727.12
257.289	810.12
257.521	909.12
257.754	820.12
257.987	772.12
258.22	816.12
258.452	822.12
258.685	688.12
258.918	699.12
259.151	661.12
259.383	662.12
259.616	600.12
259.849	631.12
260.081	716.12
260.314	759.12
260.547	822.12
260.779	847.12
261.012	768.12
261.244	690.12
261.477	667.12
261.71	685.12
261.942	692.12
262.175	697.12
262.407	724.12
262.64	661.12
262.872	624.12
263.105	628.12
263.337	635.12
263.57	672.12
263.802	664.12
264.035	615.12
264.267	576.12
264.499	575.12
264.732	626.12
264.964	645.12
265.197	683.12
265.429	716.12
265.661	808.12
265.894	852.12
266.126	914.12
266.358	786.12
266.591	808.12
266.823	848.12
267.055	788.12
267.287	775.12
267.52	788.12
267.752	783.12
267.984	794.12
268.216	820.12
268.448	847.12
268.681	793.12
268.913	741.12
269.145	709.12
269.377	717.12
269.609	762.12
269.841	896.12
270.073	999.12
270.306	1113.12
270.538	1128.12
270.77	980.12
271.002	847.12
271.234	831.12
271.466	843.12
271.698	939.12
271.93	1054.12
272.162	1072.12
272.394	976.12
272.626	912.12
272.858	826.12
273.09	720.12
273.322	706.12
273.553	688.12
273.785	703.12
274.017	728.12
274.249	741.12
274.481	777.12
274.713	706.12
274.945	705.12
275.176	713.12
275.408	715.12
275.64	682.12
275.872	684.12
276.104	764.12
276.335	854.12
276.567	922.12
276.799	910.12
277.031	857.12
277.262	816.12
277.494	871.12
277.726	925.12
277.957	892.12
278.189	843.12
278.421	784.12
278.652	740.12
278.884	741.12
279.115	752.12
279.347	742.12
279.579	740.12
279.81	742.12
280.042	843.12
280.273	884.12
280.505	906.12
280.736	913.12
280.968	852.12
281.199	779.12
281.431	709.12
281.662	722.12
281.894	729.12
282.125	755.12
282.356	787.12
282.588	798.12
282.819	804.12
283.051	840.12
283.282	892.12
283.513	873.12
283.745	782.12
283.976	716.12
284.207	727.12
284.439	778.12
284.67	769.12
284.901	784.12
285.132	777.12
285.364	820.12
285.595	802.12
285.826	770.12
286.057	760.12
286.288	753.12
286.52	775.12
286.751	865.12
286.982	885.12
287.213	811.12
287.444	754.12
287.675	740.12
287.906	825.12
288.138	818.12
288.369	822.12
288.6	791.12
288.831	782.12
289.062	754.12
289.293	764.12
289.524	772.12
289.755	806.12
289.986	809.12
290.217	774.12
290.448	753.12
290.679	808.12
290.91	802.12
291.141	812.12
291.371	833.12
291.602	845.12
291.833	816.12
292.064	831.12
292.295	863.12
292.526	873.12
292.757	891.12
292.987	818.12
293.218	808.12
293.449	873.12
293.68	1014.12
293.91	1034.12
294.141	923.12
294.372	938.12
294.603	938.12
294.833	987.12
295.064	918.12
295.295	833.12
295.525	807.12
295.756	781.12
295.987	723.12
296.217	781.12
296.448	770.12
296.679	768.12
296.909	776.12
297.14	818.12
297.37	828.12
297.601	856.12
297.831	894.12
298.062	897.12
298.292	798.12
298.523	780.12
298.753	774.12
298.984	822.12
299.214	830.12
299.445	836.12
299.675	858.12
299.905	851.12
300.136	836.12
300.366	803.12
300.597	790.12
300.827	784.12
301.057	809.12
301.288	862.12
301.518	871.12
301.748	896.12
301.979	906.12
302.209	959.12
302.439	982.12
302.669	1024.12
302.9	926.12
303.13	851.12
303.36	860.12
303.59	874.12
303.82	871.12
304.051	860.12
304.281	884.12
304.511	914.12
304.741	950.12
304.971	1062.12
305.201	1100.12
305.431	948.12
305.661	811.12
305.891	768.12
306.121	777.12
306.352	802.12
306.582	855.12
306.812	929.12
307.042	947.12
307.272	985.12
307.502	1018.12
307.731	1067.12
307.961	1083.12
308.191	999.12
308.421	880.12
308.651	843.12
308.881	842.12
309.111	849.12
309.341	838.12
309.571	846.12
309.8	831.12
310.03	803.12
310.26	815.12
310.49	838.12
310.72	889.12
310.949	896.12
311.179	916.12
311.409	863.12
311.639	859.12
311.868	865.12
312.098	867.12
312.328	866.12
312.557	859.12
312.787	876.12
313.017	886.12
313.246	902.12
313.476	878.12
313.706	920.12
313.935	890.12
314.165	909.12
314.394	919.12
314.624	988.12
314.853	1041.12
315.083	1050.12
315.312	1079.12
315.542	979.12
315.771	935.12
316.001	929.12
316.23	955.12
316.46	948.12
316.689	937.12
316.919	881.12
317.148	864.12
317.377	913.12
317.607	1017.12
317.836	1105.12
318.065	1101.12
318.295	1051.12
318.524	977.12
318.753	950.12
318.983	950.12
319.212	956.12
319.441	912.12
319.67	934.12
319.9	950.12
320.129	1010.12
320.358	1010.12
320.587	1034.12
320.816	1019.12
321.046	1034.12
321.275	985.12
321.504	999.12
321.733	1079.12
321.962	1033.12
322.191	956.12
322.42	939.12
322.649	932.12
322.878	956.12
323.108	937.12
323.337	974.12
323.566	987.12
323.795	970.12
324.024	946.12
324.253	908.12
324.482	940.12
324.71	914.12
324.939	902.12
325.168	903.12
325.397	925.12
325.626	959.12
325.855	969.12
326.084	945.12
326.313	952.12
326.542	979.12
326.77	994.12
326.999	992.12
327.228	955.12
327.457	908.12
327.686	885.12
327.914	927.12
328.143	924.12
328.372	958.12
328.6	950.12
328.829	938.12
329.058	930.12
329.287	920.12
329.515	934.12
329.744	976.12
329.972	1040.12
330.201	1022.12
330.43	1010.12
330.658	1012.12
330.887	966.12
331.115	992.12
331.344	1024.12
331.572	969.12
331.801	994.12
332.03	981.12
332.258	1008.12
332.486	1034.12
332.715	1001.12
332.943	1025.12
333.172	986.12
333.4	1026.12
333.629	1042.12
333.857	1126.12
334.085	1253.12
334.314	1402.12
334.542	1424.12
334.771	1304.12
334.999	1194.12
335.227	1105.12
335.455	1048.12
335.684	1063.12
335.912	1112.12
336.14	1115.12
336.369	1066.12
336.597	1006.12
336.825	1019.12
337.053	1052.12
337.281	1109.12
337.51	1162.12
337.738	1176.12
337.966	1112.12
338.194	1040.12
338.422	1012.12
338.65	1003.12
338.878	1007.12
339.106	968.12
339.334	935.12
339.562	950.12
339.79	972.12
340.018	1025.12
340.246	1067.12
340.474	1062.12
340.702	1040.12
340.93	1048.12
341.158	1037.12
341.386	1026.12
341.614	1003.12
341.842	996.12
342.07	994.12
342.298	1002.12
342.526	981.12
342.754	998.12
342.981	995.12
343.209	996.12
343.437	987.12
343.665	1012.12
343.893	1016.12
344.12	1082.12
344.348	1052.12
344.576	1028.12
344.804	975.12
345.031	1003.12
345.259	996.12
345.487	973.12
345.714	920.12
345.942	921.12
346.17	964.12
346.397	987.12
346.625	953.12
346.853	903.12
347.08	882.12
347.308	921.12
347.535	916.12
347.763	976.12
347.99	942.12
348.218	915.12
348.445	904.12
348.673	945.12
348.9	957.12
349.128	987.12
349.355	1031.12
349.583	992.12
349.81	950.12
350.037	880.12
350.265	887.12
350.492	896.12
350.72	938.12
350.947	963.12
351.174	943.12
351.402	923.12
351.629	871.12
351.856	867.12
352.083	882.12
352.311	912.12
352.538	916.12
352.765	926.12
352.992	948.12
353.22	919.12
353.447	915.12
353.674	913.12
353.901	921.12
354.128	928.12
354.355	932.12
354.583	939.12
354.81	976.12
355.037	973.12
355.264	970.12
355.491	932.12
355.718	961.12
355.945	913.12
356.172	903.12
356.399	896.12
356.626	927.12
356.853	972.12
357.08	1042.12
357.307	1118.12
357.534	1074.12
357.761	956.12
357.988	884.12
358.215	894.12
358.441	913.12
358.668	879.12
358.895	925.12
359.122	987.12
359.349	1040.12
359.576	1041.12
359.802	944.12
360.029	928.12
360.256	886.12
360.483	920.12
360.709	968.12
360.936	1000.12
361.163	1020.12
361.39	1097.12
361.616	1209.12
361.843	1167.12
362.07	1082.12
362.296	979.12
362.523	938.12
362.749	906.12
362.976	968.12
363.203	955.12
363.429	918.12
363.656	944.12
363.882	990.12
364.109	1103.12
364.335	1103.12
364.562	1038.12
364.788	993.12
365.015	920.12
365.241	924.12
365.468	931.12
365.694	1000.12
365.92	1007.12
366.147	946.12
366.373	913.12
366.599	923.12
366.826	910.12
367.052	916.12
367.278	927.12
367.505	963.12
367.731	987.12
367.957	966.12
368.184	1023.12
368.41	1080.12
368.636	1076.12
368.862	1074.12
369.089	1104.12
369.315	1018.12
369.541	993.12
369.767	965.12
369.993	936.12
370.219	948.12
370.445	970.12
370.672	1046.12
370.898	1099.12
371.124	1029.12
371.35	1025.12
371.576	1044.12
371.802	1054.12
372.028	1046.12
372.254	990.12
372.48	965.12
372.706	969.12
372.932	944.12
373.158	972.12
373.384	1012.12
373.61	1036.12
373.835	1030.12
374.061	1024.12
374.287	1003.12
374.513	1022.12
374.739	987.12
374.965	1001.12
375.191	1019.12
375.416	1009.12
375.642	1041.12
375.868	1128.12
376.094	1136.12
376.319	1064.12
376.545	1010.12
376.771	1068.12
376.997	1097.12
377.222	1098.12
377.448	1030.12
377.674	1050.12
377.899	1076.12
378.125	1119.12
378.35	1098.12
378.576	1011.12
378.802	971.12
379.027	954.12
379.253	950.12
379.478	995.12
379.704	1014.12
379.929	996.12
380.155	1021.12
380.38	1022.12
380.606	1030.12
380.831	1028.12
381.057	1080.12
381.282	1040.12
381.507	1063.12
381.733	1134.12
381.958	1160.12
382.184	1067.12
382.409	1062.12
382.634	1043.12
382.86	1059.12
383.085	1083.12
383.31	1119.12
383.535	1198.12
383.761	1224.12
383.986	1204.12
384.211	1144.12
384.436	1120.12
384.662	1208.12
384.887	1191.12
385.112	1163.12
385.337	1128.12
385.562	1141.12
385.787	1150.12
386.013	1189.12
386.238	1189.12
386.463	1216.12
386.688	1296.12
386.913	1334.12
387.138	1251.12
387.363	1200.12
387.588	1202.12
387.813	1156.12
388.038	1182.12
388.263	1223.12
388.488	1160.12
388.713	1124.12
388.938	1093.12
389.163	1073.12
389.387	1125.12
389.612	1121.12
389.837	1163.12
390.062	1170.12
390.287	1149.12
390.512	1131.12
390.736	1113.12
390.961	1158.12
391.186	1092.12
391.411	1129.12
391.636	1134.12
391.86	1119.12
392.085	1141.12
392.31	1130.12
392.534	1119.12
392.759	1151.12
392.984	1131.12
393.208	1158.12
393.433	1204.12
393.658	1207.12
393.882	1255.12
394.107	1179.12
394.331	1208.12
394.556	1131.12
394.78	1161.12
395.005	1237.12
395.229	1255.12
395.454	1316.12
395.678	1294.12
395.903	1249.12
396.127	1238.12
396.352	1264.12
396.576	1283.12
396.801	1295.12
397.025	1278.12
397.249	1276.12
397.474	1239.12
397.698	1225.12
397.922	1281.12
398.147	1346.12
398.371	1397.12
398.595	1400.12
398.82	1340.12
399.044	1335.12
399.268	1381.12
399.492	1469.12
399.717	1496.12
399.941	1492.12
400.165	1499.12
400.389	1440.12
400.613	1484.12
400.837	1715.12
401.062	1806.12
401.286	1536.12
401.51	1525.12
401.734	1514.12
401.958	1427.12
402.182	1326.12
402.406	1309.12
402.63	1297.12
402.854	1311.12
403.078	1311.12
403.302	1381.12
403.526	1360.12
403.75	1388.12
403.974	1420.12
404.198	1359.12
404.422	1451.12
404.645	1518.12
404.869	1439.12
405.093	1333.12
405.317	1326.12
405.541	1371.12
405.765	1384.12
405.988	1347.12
406.212	1416.12
406.436	1408.12
406.66	1482.12
406.883	1545.12
407.107	1698.12
407.331	1832.12
407.555	1951.12
407.778	1713.12
408.002	1466.12
408.226	1474.12
408.449	1430.12
408.673	1376.12
408.896	1405.12
409.12	1392.12
409.344	1394.12
409.567	1375.12
409.791	1387.12
410.014	1398.12
410.238	1467.12
410.461	1543.12
410.685	1414.12
410.908	1306.12
411.132	1398.12
411.355	1354.12
411.578	1358.12
411.802	1342.12
412.025	1370.12
412.249	1355.12
412.472	1316.12
412.695	1308.12
412.919	1300.12
413.142	1296.12
413.365	1347.12
413.589	1391.12
413.812	1451.12
414.035	1459.12
414.258	1336.12
414.482	1312.12
414.705	1339.12
414.928	1288.12
415.151	1281.12
415.374	1334.12
415.597	1367.12
415.821	1357.12
416.044	1375.12
416.267	1330.12
416.49	1292.12
416.713	1288.12
416.936	1335.12
417.159	1391.12
417.382	1367.12
417.605	1318.12
417.828	1342.12
418.051	1351.12
418.274	1333.12
418.497	1302.12
418.72	1316.12
418.943	1289.12
419.166	1340.12
419.389	1395.12
419.611	1322.12
419.834	1324.12
420.057	1355.12
420.28	1280.12
420.503	1292.12
420.726	1350.12
420.948	1338.12
421.171	1269.12
421.394	1307.12
421.617	1395.12
421.839	1364.12
422.062	1342.12
422.285	1319.12
422.507	1272.12
422.73	1254.12
422.953	1238.12
423.175	1229.12
423.398	1300.12
423.621	1297.12
423.843	1313.12
424.066	1368.12
424.288	1432.12
424.511	1440.12
424.733	1378.12
424.956	1264.12
425.178	1264.12
425.401	1263.12
425.623	1280.12
425.846	1262.12
426.068	1396.12
426.291	1399.12
426.513	1343.12
426.735	1366.12
426.958	1477.12
427.18	1506.12
427.402	1390.12
427.625	1427.12
427.847	1386.12
428.069	1310.12
428.292	1302.12
428.514	1247.12
428.736	1248.12
428.958	1281.12
429.181	1294.12
429.403	1499.12
429.625	1778.12
429.847	1508.12
430.069	1336.12
430.292	1453.12
430.514	1474.12
430.736	1342.12
430.958	1367.12
431.18	1332.12
431.402	1237.12
431.624	1244.12
431.846	1196.12
432.068	1160.12
432.29	1152.12
432.512	1188.12
432.734	1251.12
432.956	1292.12
433.178	1368.12
433.4	1355.12
433.622	1312.12
433.844	1286.12
434.066	1224.12
434.287	1195.12
434.509	1224.12
434.731	1270.12
434.953	1392.12
435.175	1358.12
435.397	1290.12
435.618	1305.12
435.84	1280.12
436.062	1221.12
436.284	1288.12
436.505	1341.12
436.727	1367.12
436.949	1297.12
437.17	1247.12
437.392	1257.12
437.614	1236.12
437.835	1200.12
438.057	1233.12
438.278	1279.12
438.5	1210.12
438.721	1253.12
438.943	1266.12
439.165	1250.12
439.386	1260.12
439.608	1271.12
439.829	1288.12
440.05	1293.12
440.272	1257.12
440.493	1264.12
440.715	1296.12
440.936	1372.12
441.158	1468.12
441.379	1424.12
441.6	1406.12
441.822	1359.12
442.043	1354.12
442.264	1336.12
442.486	1294.12
442.707	1283.12
442.928	1289.12
443.149	1304.12
443.371	1399.12
443.592	1390.12
443.813	1340.12
444.034	1415.12
444.255	1365.12
444.476	1410.12
444.698	1394.12
444.919	1401.12
445.14	1498.12
445.361	1498.12
445.582	1427.12
445.803	1425.12
446.024	1395.12
446.245	1437.12
446.466	1415.12
446.687	1368.12
446.908	1337.12
447.129	1342.12
447.35	1344.12
447.571	1309.12
447.792	1288.12
448.013	1251.12
448.234	1300.12
448.455	1308.12
448.675	1326.12
448.896	1216.12
449.117	1198.12
449.338	1247.12
449.559	1294.12
449.779	1355.12
450	1446.12
450.221	1464.12
450.442	1462.12
450.662	1299.12
450.883	1178.12
451.104	1152.12
451.324	1202.12
451.545	1226.12
451.766	1205.12
451.986	1175.12
452.207	1165.12
452.428	1124.12
452.648	1106.12
452.869	1129.12
453.089	1184.12
453.31	1152.12
453.53	1157.12
453.751	1122.12
453.971	1054.12
454.192	1112.12
454.412	1161.12
454.633	1172.12
454.853	1106.12
455.073	1040.12
455.294	1061.12
455.514	1070.12
455.734	1079.12
455.955	1102.12
456.175	1090.12
456.395	1075.12
456.616	1097.12
456.836	1090.12
457.056	1083.12
457.276	1050.12
457.497	1031.12
457.717	1063.12
457.937	1083.12
458.157	1072.12
458.377	1074.12
458.598	1035.12
458.818	1086.12
459.038	1125.12
459.258	1156.12
459.478	1146.12
459.698	1140.12
459.918	1139.12
460.138	1256.12
460.358	1259.12
460.578	1256.12
460.798	1297.12
461.018	1392.12
461.238	1312.12
461.458	1301.12
461.678	1280.12
461.898	1232.12
462.118	1220.12
462.338	1276.12
462.558	1298.12
462.777	1295.12
462.997	1371.12
463.217	1394.12
463.437	1344.12
463.657	1298.12
463.876	1270.12
464.096	1248.12
464.316	1265.12
464.536	1316.12
464.755	1345.12
464.975	1342.12
465.195	1286.12
465.414	1350.12
465.634	1313.12
465.854	1323.12
466.073	1414.12
466.293	1360.12
466.512	1221.12
466.732	1232.12
466.951	1254.12
467.171	1273.12
467.391	1204.12
467.61	1190.12
467.829	1238.12
468.049	1362.12
468.268	1444.12
468.488	1376.12
468.707	1270.12
468.927	1221.12
469.146	1209.12
469.365	1190.12
469.585	1249.12
469.804	1226.12
470.023	1250.12
470.243	1292.12
470.462	1250.12
470.681	1237.12
470.901	1234.12
471.12	1227.12
471.339	1267.12
471.558	1208.12
471.777	1215.12
471.997	1204.12
472.216	1199.12
472.435	1137.12
472.654	1145.12
472.873	1175.12
473.092	1243.12
473.311	1185.12
473.53	1148.12
473.749	1158.12
473.968	1186.12
474.187	1242.12
474.406	1255.12
474.625	1188.12
474.844	1221.12
475.063	1204.12
475.282	1262.12
475.501	1196.12
475.72	1247.12
475.939	1292.12
476.158	1259.12
476.377	1188.12
476.596	1224.12
476.814	1247.12
477.033	1258.12
477.252	1289.12
477.471	1326.12
477.69	1284.12
477.908	1303.12
478.127	1383.12
478.346	1458.12
478.564	1450.12
478.783	1452.12
479.002	1445.12
479.22	1427.12
479.439	1464.12
479.658	1586.12
479.876	1479.12
480.095	1431.12
480.313	1356.12
480.532	1294.12
480.751	1313.12
480.969	1341.12
481.188	1300.12
481.406	1257.12
481.624	1208.12
481.843	1292.12
482.061	1327.12
482.28	1313.12
482.498	1341.12
482.717	1335.12
482.935	1331.12
483.153	1391.12
483.372	1379.12
483.59	1369.12
483.808	1366.12
484.027	1385.12
484.245	1470.12
484.463	1766.12
484.681	1922.12
484.9	1521.12
485.118	1410.12
485.336	1359.12
485.554	1376.12
485.772	1409.12
485.99	1397.12
486.209	1418.12
486.427	1402.12
486.645	1405.12
486.863	1411.12
487.081	1514.12
487.299	1490.12
487.517	1467.12
487.735	1459.12
487.953	1488.12
488.171	1530.12
488.389	1493.12
488.607	1482.12
488.825	1643.12
489.043	1570.12
489.261	1400.12
489.479	1487.12
489.696	1526.12
489.914	1498.12
490.132	1451.12
490.35	1492.12
490.568	1536.12
490.786	1524.12
491.003	1475.12
491.221	1553.12
491.439	1598.12
491.657	1611.12
491.874	1640.12
492.092	1693.12
492.31	1692.12
492.527	1684.12
492.745	1630.12
492.963	1594.12
493.18	1638.12
493.398	1717.12
