Data from WStandard_LampEnergy8_LIBS07252019.E.O._I.C._HRD10591_15-58-28-929.txt Node
Date: Thu Jul 25 15:58:28 EDT 2019
User: cochatt
Spectrometer: HR+D1059
Trigger mode: 1
Integration Time (sec): 1.000000E-1
Scans to average: 1
Electric dark correction enabled: true
Nonlinearity correction enabled: false
Boxcar width: 0
XAxis mode: Wavelengths
Number of Pixels in Spectrum: 2048
>>>>>Begin Spectral Data<<<<<
223.165	-27.62
223.4	-27.62
223.635	-27.62
223.869	-18.62
224.104	-15.62
224.338	-29.62
224.573	-12.62
224.808	-3.62
225.042	-9.62
225.277	-0.62
225.511	5.38
225.746	3.38
225.98	15.38
226.215	5.38
226.449	15.38
226.683	16.38
226.918	24.38
227.152	32.38
227.387	39.38
227.621	38.38
227.856	43.38
228.09	44.38
228.324	48.38
228.559	60.38
228.793	89.38
229.027	218.38
229.262	230.38
229.496	220.38
229.73	232.38
229.964	256.38
230.199	276.38
230.433	280.38
230.667	293.38
230.901	296.38
231.136	272.38
231.37	272.38
231.604	264.38
231.838	247.38
232.072	257.38
232.306	245.38
232.541	274.38
232.775	325.38
233.009	327.38
233.243	289.38
233.477	308.38
233.711	308.38
233.945	304.38
234.179	314.38
234.413	332.38
234.647	369.38
234.881	328.38
235.115	289.38
235.349	318.38
235.583	313.38
235.817	323.38
236.051	294.38
236.285	314.38
236.519	324.38
236.753	360.38
236.987	376.38
237.221	358.38
237.455	378.38
237.689	365.38
237.922	350.38
238.156	341.38
238.39	352.38
238.624	403.38
238.858	420.38
239.091	390.38
239.325	441.38
239.559	489.38
239.793	502.38
240.027	531.38
240.26	517.38
240.494	397.38
240.728	386.38
240.961	395.38
241.195	388.38
241.429	421.38
241.662	433.38
241.896	379.38
242.13	386.38
242.363	451.38
242.597	442.38
242.83	474.38
243.064	468.38
243.298	484.38
243.531	465.38
243.765	488.38
243.998	475.38
244.232	421.38
244.465	390.38
244.699	422.38
244.932	455.38
245.166	516.38
245.399	493.38
245.633	476.38
245.866	456.38
246.099	478.38
246.333	500.38
246.566	484.38
246.8	547.38
247.033	588.38
247.266	539.38
247.5	542.38
247.733	531.38
247.966	569.38
248.2	615.38
248.433	611.38
248.666	624.38
248.899	680.38
249.133	779.38
249.366	800.38
249.599	696.38
249.832	633.38
250.066	665.38
250.299	647.38
250.532	611.38
250.765	548.38
250.998	585.38
251.231	610.38
251.465	632.38
251.698	605.38
251.931	599.38
252.164	590.38
252.397	630.38
252.63	616.38
252.863	550.38
253.096	579.38
253.329	574.38
253.562	599.38
253.795	653.38
254.028	592.38
254.261	600.38
254.494	566.38
254.727	560.38
254.96	614.38
255.193	657.38
255.426	741.38
255.659	817.38
255.892	821.38
256.124	697.38
256.357	651.38
256.59	718.38
256.823	717.38
257.056	737.38
257.289	861.38
257.521	919.38
257.754	854.38
257.987	820.38
258.22	871.38
258.452	825.38
258.685	713.38
258.918	679.38
259.151	692.38
259.383	648.38
259.616	586.38
259.849	655.38
260.081	722.38
260.314	794.38
260.547	804.38
260.779	847.38
261.012	797.38
261.244	728.38
261.477	676.38
261.71	711.38
261.942	704.38
262.175	671.38
262.407	698.38
262.64	677.38
262.872	638.38
263.105	626.38
263.337	659.38
263.57	648.38
263.802	650.38
264.035	577.38
264.267	584.38
264.499	578.38
264.732	646.38
264.964	666.38
265.197	690.38
265.429	705.38
265.661	795.38
265.894	847.38
266.126	891.38
266.358	817.38
266.591	854.38
266.823	891.38
267.055	813.38
267.287	792.38
267.52	791.38
267.752	762.38
267.984	796.38
268.216	829.38
268.448	844.38
268.681	795.38
268.913	746.38
269.145	706.38
269.377	717.38
269.609	802.38
269.841	914.38
270.073	1019.38
270.306	1109.38
270.538	1130.38
270.77	971.38
271.002	849.38
271.234	839.38
271.466	825.38
271.698	925.38
271.93	1055.38
272.162	1092.38
272.394	987.38
272.626	919.38
272.858	817.38
273.09	728.38
273.322	733.38
273.553	693.38
273.785	711.38
274.017	741.38
274.249	776.38
274.481	806.38
274.713	738.38
274.945	701.38
275.176	729.38
275.408	714.38
275.64	700.38
275.872	690.38
276.104	755.38
276.335	821.38
276.567	933.38
276.799	912.38
277.031	889.38
277.262	836.38
277.494	854.38
277.726	912.38
277.957	928.38
278.189	836.38
278.421	768.38
278.652	736.38
278.884	726.38
279.115	759.38
279.347	786.38
279.579	736.38
279.81	771.38
280.042	860.38
280.273	877.38
280.505	900.38
280.736	936.38
280.968	838.38
281.199	785.38
281.431	741.38
281.662	708.38
281.894	761.38
282.125	776.38
282.356	788.38
282.588	778.38
282.819	801.38
283.051	866.38
283.282	910.38
283.513	846.38
283.745	761.38
283.976	735.38
284.207	722.38
284.439	732.38
284.67	756.38
284.901	786.38
285.132	816.38
285.364	781.38
285.595	782.38
285.826	780.38
286.057	780.38
286.288	750.38
286.52	824.38
286.751	877.38
286.982	890.38
287.213	802.38
287.444	750.38
287.675	744.38
287.906	798.38
288.138	849.38
288.369	800.38
288.6	794.38
288.831	742.38
289.062	770.38
289.293	784.38
289.524	774.38
289.755	798.38
289.986	787.38
290.217	766.38
290.448	776.38
290.679	800.38
290.91	819.38
291.141	813.38
291.371	870.38
291.602	858.38
291.833	844.38
292.064	847.38
292.295	851.38
292.526	883.38
292.757	895.38
292.987	858.38
293.218	828.38
293.449	902.38
293.68	1002.38
293.91	1050.38
294.141	971.38
294.372	929.38
294.603	971.38
294.833	989.38
295.064	962.38
295.295	869.38
295.525	810.38
295.756	782.38
295.987	733.38
296.217	796.38
296.448	799.38
296.679	788.38
296.909	788.38
297.14	771.38
297.37	836.38
297.601	852.38
297.831	896.38
298.062	927.38
298.292	808.38
298.523	796.38
298.753	793.38
298.984	809.38
299.214	828.38
299.445	850.38
299.675	860.38
299.905	852.38
300.136	829.38
300.366	816.38
300.597	774.38
300.827	803.38
301.057	824.38
301.288	877.38
301.518	867.38
301.748	878.38
301.979	926.38
302.209	940.38
302.439	1008.38
302.669	1051.38
302.9	923.38
303.13	891.38
303.36	867.38
303.59	918.38
303.82	874.38
304.051	875.38
304.281	891.38
304.511	877.38
304.741	930.38
304.971	1048.38
305.201	1068.38
305.431	998.38
305.661	850.38
305.891	744.38
306.121	789.38
306.352	838.38
306.582	853.38
306.812	897.38
307.042	977.38
307.272	1007.38
307.502	1067.38
307.731	1091.38
307.961	1128.38
308.191	1025.38
308.421	887.38
308.651	845.38
308.881	832.38
309.111	870.38
309.341	840.38
309.571	848.38
309.8	850.38
310.03	808.38
310.26	838.38
310.49	844.38
310.72	872.38
310.949	906.38
311.179	911.38
311.409	886.38
311.639	869.38
311.868	859.38
312.098	890.38
312.328	867.38
312.557	845.38
312.787	912.38
313.017	906.38
313.246	885.38
313.476	896.38
313.706	917.38
313.935	906.38
314.165	912.38
314.394	952.38
314.624	999.38
314.853	1031.38
315.083	1057.38
315.312	1074.38
315.542	1009.38
315.771	917.38
316.001	934.38
316.23	980.38
316.46	968.38
316.689	974.38
316.919	897.38
317.148	888.38
317.377	932.38
317.607	981.38
317.836	1085.38
318.065	1111.38
318.295	1044.38
318.524	974.38
318.753	970.38
318.983	939.38
319.212	952.38
319.441	959.38
319.67	911.38
319.9	962.38
320.129	994.38
320.358	1034.38
320.587	1062.38
320.816	1056.38
321.046	1029.38
321.275	985.38
321.504	1039.38
321.733	1042.38
321.962	1027.38
322.191	971.38
322.42	961.38
322.649	941.38
322.878	936.38
323.108	960.38
323.337	1012.38
323.566	983.38
323.795	983.38
324.024	954.38
324.253	970.38
324.482	957.38
324.71	928.38
324.939	889.38
325.168	956.38
325.397	967.38
325.626	971.38
325.855	979.38
326.084	922.38
326.313	961.38
326.542	953.38
326.77	996.38
326.999	980.38
327.228	948.38
327.457	882.38
327.686	884.38
327.914	949.38
328.143	938.38
328.372	929.38
328.6	952.38
328.829	943.38
329.058	914.38
329.287	922.38
329.515	962.38
329.744	953.38
329.972	1035.38
330.201	1076.38
330.43	1027.38
330.658	1002.38
330.887	1002.38
331.115	1010.38
331.344	1008.38
331.572	977.38
331.801	1002.38
332.03	1006.38
332.258	1028.38
332.486	1044.38
332.715	1021.38
332.943	1064.38
333.172	988.38
333.4	1016.38
333.629	1052.38
333.857	1127.38
334.085	1270.38
334.314	1416.38
334.542	1460.38
334.771	1357.38
334.999	1175.38
335.227	1112.38
335.455	1066.38
335.684	1086.38
335.912	1100.38
336.14	1156.38
336.369	1080.38
336.597	1045.38
336.825	1013.38
337.053	1057.38
337.281	1125.38
337.51	1156.38
337.738	1178.38
337.966	1087.38
338.194	1026.38
338.422	1014.38
338.65	1022.38
338.878	990.38
339.106	978.38
339.334	950.38
339.562	947.38
339.79	979.38
340.018	1062.38
340.246	1080.38
340.474	1044.38
340.702	1050.38
340.93	1030.38
341.158	1042.38
341.386	1033.38
341.614	998.38
341.842	1014.38
342.07	1006.38
342.298	1045.38
342.526	1001.38
342.754	1015.38
342.981	1000.38
343.209	989.38
343.437	978.38
343.665	1008.38
343.893	1036.38
344.12	1090.38
344.348	1081.38
344.576	1022.38
344.804	974.38
345.031	1011.38
345.259	977.38
345.487	976.38
345.714	928.38
345.942	930.38
346.17	942.38
346.397	965.38
346.625	983.38
346.853	896.38
347.08	911.38
347.308	938.38
347.535	932.38
347.763	963.38
347.99	956.38
348.218	903.38
348.445	922.38
348.673	935.38
348.9	956.38
349.128	992.38
349.355	1037.38
349.583	1012.38
349.81	919.38
350.037	897.38
350.265	871.38
350.492	948.38
350.72	960.38
350.947	949.38
351.174	959.38
351.402	923.38
351.629	874.38
351.856	867.38
352.083	871.38
352.311	898.38
352.538	928.38
352.765	969.38
352.992	973.38
353.22	942.38
353.447	927.38
353.674	946.38
353.901	939.38
354.128	933.38
354.355	949.38
354.583	957.38
354.81	980.38
355.037	971.38
355.264	967.38
355.491	967.38
355.718	968.38
355.945	937.38
356.172	905.38
356.399	944.38
356.626	939.38
356.853	977.38
357.08	1064.38
357.307	1136.38
357.534	1096.38
357.761	993.38
357.988	906.38
358.215	874.38
358.441	917.38
358.668	890.38
358.895	946.38
359.122	992.38
359.349	1051.38
359.576	1030.38
359.802	950.38
360.029	914.38
360.256	903.38
360.483	930.38
360.709	970.38
360.936	1021.38
361.163	1048.38
361.39	1144.38
361.616	1150.38
361.843	1173.38
362.07	1102.38
362.296	952.38
362.523	942.38
362.749	940.38
362.976	976.38
363.203	964.38
363.429	890.38
363.656	917.38
363.882	964.38
364.109	1076.38
364.335	1124.38
364.562	1064.38
364.788	1014.38
365.015	973.38
365.241	929.38
365.468	955.38
365.694	990.38
365.92	1026.38
366.147	959.38
366.373	922.38
366.599	892.38
366.826	909.38
367.052	910.38
367.278	942.38
367.505	982.38
367.731	994.38
367.957	972.38
368.184	1012.38
368.41	1083.38
368.636	1077.38
368.862	1113.38
369.089	1091.38
369.315	1052.38
369.541	1037.38
369.767	976.38
369.993	950.38
370.219	921.38
370.445	982.38
370.672	1070.38
370.898	1090.38
371.124	1092.38
371.35	1019.38
371.576	1065.38
371.802	1076.38
372.028	1017.38
372.254	1014.38
372.48	943.38
372.706	974.38
372.932	962.38
373.158	978.38
373.384	1012.38
373.61	1016.38
373.835	1044.38
374.061	996.38
374.287	1013.38
374.513	996.38
374.739	1016.38
374.965	1016.38
375.191	1021.38
375.416	1047.38
375.642	1108.38
375.868	1097.38
376.094	1125.38
376.319	1063.38
376.545	1033.38
376.771	1044.38
376.997	1124.38
377.222	1088.38
377.448	1055.38
377.674	1071.38
377.899	1065.38
378.125	1109.38
378.35	1090.38
378.576	1009.38
378.802	980.38
379.027	965.38
379.253	999.38
379.478	1012.38
379.704	993.38
379.929	986.38
380.155	983.38
380.38	1018.38
380.606	1016.38
380.831	1038.38
381.057	1073.38
381.282	1076.38
381.507	1074.38
381.733	1137.38
381.958	1162.38
382.184	1083.38
382.409	1015.38
382.634	1055.38
382.86	1051.38
383.085	1050.38
383.31	1128.38
383.535	1221.38
383.761	1214.38
383.986	1177.38
384.211	1136.38
384.436	1132.38
384.662	1196.38
384.887	1226.38
385.112	1176.38
385.337	1130.38
385.562	1166.38
385.787	1178.38
386.013	1151.38
386.238	1184.38
386.463	1215.38
386.688	1250.38
386.913	1339.38
387.138	1281.38
387.363	1189.38
387.588	1200.38
387.813	1185.38
388.038	1202.38
388.263	1253.38
388.488	1172.38
388.713	1094.38
388.938	1100.38
389.163	1106.38
389.387	1145.38
389.612	1163.38
389.837	1173.38
390.062	1144.38
390.287	1178.38
390.512	1140.38
390.736	1133.38
390.961	1091.38
391.186	1112.38
391.411	1097.38
391.636	1149.38
391.86	1128.38
392.085	1121.38
392.31	1125.38
392.534	1153.38
392.759	1228.38
392.984	1139.38
393.208	1182.38
393.433	1201.38
393.658	1272.38
393.882	1263.38
394.107	1174.38
394.331	1148.38
394.556	1155.38
394.78	1170.38
395.005	1222.38
395.229	1262.38
395.454	1352.38
395.678	1340.38
395.903	1230.38
396.127	1222.38
396.352	1239.38
396.576	1299.38
396.801	1312.38
397.025	1278.38
397.249	1266.38
397.474	1270.38
397.698	1254.38
397.922	1280.38
398.147	1344.38
398.371	1394.38
398.595	1349.38
398.82	1340.38
399.044	1335.38
399.268	1417.38
399.492	1488.38
399.717	1509.38
399.941	1513.38
400.165	1509.38
400.389	1476.38
400.613	1520.38
400.837	1685.38
401.062	1836.38
401.286	1595.38
401.51	1449.38
401.734	1532.38
401.958	1406.38
402.182	1388.38
402.406	1292.38
402.63	1315.38
402.854	1313.38
403.078	1306.38
403.302	1350.38
403.526	1338.38
403.75	1381.38
403.974	1402.38
404.198	1366.38
404.422	1464.38
404.645	1530.38
404.869	1468.38
405.093	1322.38
405.317	1309.38
405.541	1376.38
405.765	1370.38
405.988	1374.38
406.212	1419.38
406.436	1414.38
406.66	1458.38
406.883	1529.38
407.107	1661.38
407.331	1851.38
407.555	1962.38
407.778	1748.38
408.002	1485.38
408.226	1426.38
408.449	1480.38
408.673	1415.38
408.896	1431.38
409.12	1456.38
409.344	1400.38
409.567	1372.38
409.791	1400.38
410.014	1403.38
410.238	1481.38
410.461	1567.38
410.685	1423.38
410.908	1364.38
411.132	1406.38
411.355	1374.38
411.578	1382.38
411.802	1371.38
412.025	1358.38
412.249	1373.38
412.472	1350.38
412.695	1368.38
412.919	1306.38
413.142	1320.38
413.365	1351.38
413.589	1403.38
413.812	1458.38
414.035	1441.38
414.258	1364.38
414.482	1342.38
414.705	1340.38
414.928	1313.38
415.151	1320.38
415.374	1356.38
415.597	1382.38
415.821	1361.38
416.044	1381.38
416.267	1369.38
416.49	1292.38
416.713	1283.38
416.936	1326.38
417.159	1379.38
417.382	1408.38
417.605	1282.38
417.828	1342.38
418.051	1344.38
418.274	1308.38
418.497	1305.38
418.72	1266.38
418.943	1273.38
419.166	1361.38
419.389	1414.38
419.611	1345.38
419.834	1324.38
420.057	1349.38
420.28	1300.38
420.503	1308.38
420.726	1320.38
420.948	1318.38
421.171	1303.38
421.394	1314.38
421.617	1379.38
421.839	1372.38
422.062	1364.38
422.285	1305.38
422.507	1320.38
422.73	1273.38
422.953	1254.38
423.175	1247.38
423.398	1284.38
423.621	1319.38
423.843	1314.38
424.066	1358.38
424.288	1405.38
424.511	1458.38
424.733	1394.38
424.956	1247.38
425.178	1286.38
425.401	1298.38
425.623	1320.38
425.846	1311.38
426.068	1373.38
426.291	1342.38
426.513	1347.38
426.735	1356.38
426.958	1468.38
427.18	1507.38
427.402	1402.38
427.625	1486.38
427.847	1426.38
428.069	1318.38
428.292	1277.38
428.514	1308.38
428.736	1245.38
428.958	1236.38
429.181	1355.38
429.403	1521.38
429.625	1796.38
429.847	1476.38
430.069	1343.38
430.292	1445.38
430.514	1507.38
430.736	1397.38
430.958	1441.38
431.18	1348.38
431.402	1224.38
431.624	1215.38
431.846	1207.38
432.068	1156.38
432.29	1169.38
432.512	1216.38
432.734	1264.38
432.956	1293.38
433.178	1382.38
433.4	1370.38
433.622	1328.38
433.844	1253.38
434.066	1229.38
434.287	1220.38
434.509	1216.38
434.731	1299.38
434.953	1414.38
435.175	1372.38
435.397	1306.38
435.618	1300.38
435.84	1279.38
436.062	1228.38
436.284	1294.38
436.505	1292.38
436.727	1368.38
436.949	1293.38
437.17	1241.38
437.392	1257.38
437.614	1220.38
437.835	1176.38
438.057	1242.38
438.278	1251.38
438.5	1253.38
438.721	1252.38
438.943	1278.38
439.165	1234.38
439.386	1225.38
439.608	1255.38
439.829	1285.38
440.05	1286.38
440.272	1274.38
440.493	1290.38
440.715	1329.38
440.936	1391.38
441.158	1458.38
441.379	1428.38
441.6	1404.38
441.822	1371.38
442.043	1336.38
442.264	1316.38
442.486	1255.38
442.707	1248.38
442.928	1296.38
443.149	1324.38
443.371	1370.38
443.592	1394.38
443.813	1382.38
444.034	1383.38
444.255	1375.38
444.476	1402.38
444.698	1448.38
444.919	1416.38
445.14	1534.38
445.361	1480.38
445.582	1437.38
445.803	1405.38
446.024	1395.38
446.245	1460.38
446.466	1373.38
446.687	1355.38
446.908	1364.38
447.129	1328.38
447.35	1325.38
447.571	1328.38
447.792	1257.38
448.013	1274.38
448.234	1321.38
448.455	1336.38
448.675	1340.38
448.896	1196.38
449.117	1213.38
449.338	1213.38
449.559	1310.38
449.779	1373.38
450	1446.38
450.221	1528.38
450.442	1497.38
450.662	1347.38
450.883	1213.38
451.104	1183.38
451.324	1228.38
451.545	1219.38
451.766	1195.38
451.986	1178.38
452.207	1136.38
452.428	1133.38
452.648	1136.38
452.869	1143.38
453.089	1134.38
453.31	1158.38
453.53	1178.38
453.751	1165.38
453.971	1082.38
454.192	1134.38
454.412	1196.38
454.633	1167.38
454.853	1138.38
455.073	1094.38
455.294	1091.38
455.514	1108.38
455.734	1120.38
455.955	1101.38
456.175	1084.38
456.395	1081.38
456.616	1117.38
456.836	1128.38
457.056	1117.38
457.276	1096.38
457.497	1057.38
457.717	1042.38
457.937	1095.38
458.157	1108.38
458.377	1056.38
458.598	1076.38
458.818	1066.38
459.038	1166.38
459.258	1184.38
459.478	1168.38
459.698	1145.38
459.918	1196.38
460.138	1210.38
460.358	1256.38
460.578	1252.38
460.798	1326.38
461.018	1390.38
461.238	1325.38
461.458	1290.38
461.678	1277.38
461.898	1213.38
462.118	1210.38
462.338	1298.38
462.558	1267.38
462.777	1254.38
462.997	1316.38
463.217	1403.38
463.437	1371.38
463.657	1260.38
463.876	1250.38
464.096	1289.38
464.316	1268.38
464.536	1325.38
464.755	1329.38
464.975	1320.38
465.195	1320.38
465.414	1331.38
465.634	1328.38
465.854	1325.38
466.073	1432.38
466.293	1381.38
466.512	1222.38
466.732	1226.38
466.951	1290.38
467.171	1283.38
467.391	1220.38
467.61	1222.38
467.829	1249.38
468.049	1355.38
468.268	1491.38
468.488	1340.38
468.707	1304.38
468.927	1234.38
469.146	1245.38
469.365	1245.38
469.585	1248.38
469.804	1271.38
470.023	1250.38
470.243	1300.38
470.462	1253.38
470.681	1249.38
470.901	1269.38
471.12	1240.38
471.339	1242.38
471.558	1202.38
471.777	1242.38
471.997	1218.38
472.216	1172.38
472.435	1154.38
472.654	1148.38
472.873	1173.38
473.092	1235.38
473.311	1173.38
473.53	1178.38
473.749	1161.38
473.968	1213.38
474.187	1251.38
474.406	1281.38
474.625	1250.38
474.844	1242.38
475.063	1238.38
475.282	1260.38
475.501	1188.38
475.72	1210.38
475.939	1304.38
476.158	1262.38
476.377	1235.38
476.596	1205.38
476.814	1208.38
477.033	1231.38
477.252	1307.38
477.471	1298.38
477.69	1294.38
477.908	1304.38
478.127	1368.38
478.346	1445.38
478.564	1450.38
478.783	1427.38
479.002	1441.38
479.22	1427.38
479.439	1493.38
479.658	1586.38
479.876	1570.38
480.095	1420.38
480.313	1341.38
480.532	1297.38
480.751	1356.38
480.969	1335.38
481.188	1272.38
481.406	1256.38
481.624	1266.38
481.843	1266.38
482.061	1292.38
482.28	1354.38
482.498	1368.38
482.717	1338.38
482.935	1288.38
483.153	1392.38
483.372	1380.38
483.59	1370.38
483.808	1366.38
484.027	1370.38
484.245	1434.38
484.463	1786.38
484.681	1906.38
484.9	1497.38
485.118	1407.38
485.336	1394.38
485.554	1423.38
485.772	1406.38
485.99	1353.38
486.209	1432.38
486.427	1387.38
486.645	1399.38
486.863	1433.38
487.081	1492.38
487.299	1480.38
487.517	1482.38
487.735	1482.38
487.953	1529.38
488.171	1530.38
488.389	1463.38
488.607	1466.38
488.825	1637.38
489.043	1574.38
489.261	1440.38
489.479	1505.38
489.696	1513.38
489.914	1477.38
490.132	1476.38
490.35	1469.38
490.568	1575.38
490.786	1534.38
491.003	1508.38
491.221	1591.38
491.439	1622.38
491.657	1581.38
491.874	1652.38
492.092	1701.38
492.31	1689.38
492.527	1690.38
492.745	1634.38
492.963	1622.38
493.18	1637.38
