Data from WStandard_LampEnergy8_LIBS07252019.E.O._I.C._HRD10591_15-57-44-928.txt Node
Date: Thu Jul 25 15:57:44 EDT 2019
User: cochatt
Spectrometer: HR+D1059
Trigger mode: 1
Integration Time (sec): 1.000000E-1
Scans to average: 1
Electric dark correction enabled: true
Nonlinearity correction enabled: false
Boxcar width: 0
XAxis mode: Wavelengths
Number of Pixels in Spectrum: 2048
>>>>>Begin Spectral Data<<<<<
223.165	-12.44
223.4	-12.44
223.635	-12.44
223.869	-14.44
224.104	-9.44
224.338	-15.44
224.573	-2.44
224.808	-19.44
225.042	-34.44
225.277	-12.44
225.511	7.56
225.746	11.56
225.98	11.56
226.215	11.56
226.449	11.56
226.683	24.56
226.918	12.56
227.152	29.56
227.387	28.56
227.621	42.56
227.856	49.56
228.09	43.56
228.324	43.56
228.559	45.56
228.793	101.56
229.027	219.56
229.262	218.56
229.496	215.56
229.73	244.56
229.964	247.56
230.199	267.56
230.433	287.56
230.667	289.56
230.901	301.56
231.136	268.56
231.37	289.56
231.604	261.56
231.838	286.56
232.072	279.56
232.306	279.56
232.541	282.56
232.775	327.56
233.009	340.56
233.243	337.56
233.477	330.56
233.711	329.56
233.945	326.56
234.179	331.56
234.413	356.56
234.647	358.56
234.881	353.56
235.115	320.56
235.349	308.56
235.583	327.56
235.817	327.56
236.051	326.56
236.285	317.56
236.519	337.56
236.753	392.56
236.987	381.56
237.221	373.56
237.455	411.56
237.689	380.56
237.922	371.56
238.156	388.56
238.39	372.56
238.624	398.56
238.858	423.56
239.091	432.56
239.325	465.56
239.559	518.56
239.793	538.56
240.027	554.56
240.26	548.56
240.494	406.56
240.728	400.56
240.961	405.56
241.195	420.56
241.429	448.56
241.662	457.56
241.896	434.56
242.13	416.56
242.363	482.56
242.597	497.56
242.83	487.56
243.064	507.56
243.298	507.56
243.531	489.56
243.765	501.56
243.998	496.56
244.232	453.56
244.465	434.56
244.699	425.56
244.932	513.56
245.166	547.56
245.399	536.56
245.633	487.56
245.866	479.56
246.099	512.56
246.333	527.56
246.566	523.56
246.8	583.56
247.033	641.56
247.266	597.56
247.5	572.56
247.733	618.56
247.966	603.56
248.2	657.56
248.433	639.56
248.666	664.56
248.899	729.56
249.133	807.56
249.366	863.56
249.599	765.56
249.832	643.56
250.066	676.56
250.299	698.56
250.532	622.56
250.765	570.56
250.998	612.56
251.231	630.56
251.465	663.56
251.698	605.56
251.931	633.56
252.164	649.56
252.397	673.56
252.63	660.56
252.863	573.56
253.096	588.56
253.329	613.56
253.562	618.56
253.795	660.56
254.028	639.56
254.261	631.56
254.494	643.56
254.727	570.56
254.96	591.56
255.193	673.56
255.426	755.56
255.659	853.56
255.892	867.56
256.124	758.56
256.357	703.56
256.59	739.56
256.823	761.56
257.056	779.56
257.289	907.56
257.521	957.56
257.754	861.56
257.987	840.56
258.22	902.56
258.452	860.56
258.685	743.56
258.918	714.56
259.151	711.56
259.383	699.56
259.616	631.56
259.849	689.56
260.081	722.56
260.314	857.56
260.547	895.56
260.779	860.56
261.012	817.56
261.244	741.56
261.477	732.56
261.71	714.56
261.942	729.56
262.175	723.56
262.407	764.56
262.64	715.56
262.872	695.56
263.105	652.56
263.337	675.56
263.57	683.56
263.802	679.56
264.035	635.56
264.267	615.56
264.499	593.56
264.732	640.56
264.964	706.56
265.197	705.56
265.429	751.56
265.661	848.56
265.894	964.56
266.126	930.56
266.358	876.56
266.591	897.56
266.823	925.56
267.055	871.56
267.287	855.56
267.52	819.56
267.752	819.56
267.984	823.56
268.216	869.56
268.448	841.56
268.681	857.56
268.913	784.56
269.145	733.56
269.377	752.56
269.609	810.56
269.841	940.56
270.073	1115.56
270.306	1200.56
270.538	1199.56
270.77	1003.56
271.002	898.56
271.234	883.56
271.466	876.56
271.698	976.56
271.93	1147.56
272.162	1162.56
272.394	1040.56
272.626	961.56
272.858	841.56
273.09	746.56
273.322	750.56
273.553	710.56
273.785	726.56
274.017	753.56
274.249	806.56
274.481	811.56
274.713	735.56
274.945	748.56
275.176	734.56
275.408	739.56
275.64	745.56
275.872	733.56
276.104	789.56
276.335	887.56
276.567	1001.56
276.799	970.56
277.031	877.56
277.262	861.56
277.494	928.56
277.726	987.56
277.957	946.56
278.189	873.56
278.421	803.56
278.652	778.56
278.884	800.56
279.115	789.56
279.347	811.56
279.579	799.56
279.81	822.56
280.042	892.56
280.273	959.56
280.505	951.56
280.736	936.56
280.968	909.56
281.199	799.56
281.431	767.56
281.662	771.56
281.894	777.56
282.125	805.56
282.356	804.56
282.588	837.56
282.819	832.56
283.051	904.56
283.282	933.56
283.513	889.56
283.745	797.56
283.976	771.56
284.207	749.56
284.439	769.56
284.67	811.56
284.901	812.56
285.132	853.56
285.364	824.56
285.595	850.56
285.826	803.56
286.057	789.56
286.288	823.56
286.52	831.56
286.751	900.56
286.982	945.56
287.213	842.56
287.444	781.56
287.675	800.56
287.906	830.56
288.138	892.56
288.369	841.56
288.6	792.56
288.831	778.56
289.062	802.56
289.293	795.56
289.524	819.56
289.755	834.56
289.986	851.56
290.217	792.56
290.448	783.56
290.679	812.56
290.91	835.56
291.141	856.56
291.371	871.56
291.602	879.56
291.833	859.56
292.064	888.56
292.295	887.56
292.526	915.56
292.757	916.56
292.987	866.56
293.218	852.56
293.449	923.56
293.68	1043.56
293.91	1107.56
294.141	1008.56
294.372	959.56
294.603	1023.56
294.833	1005.56
295.064	973.56
295.295	872.56
295.525	868.56
295.756	812.56
295.987	766.56
296.217	791.56
296.448	805.56
296.679	819.56
296.909	825.56
297.14	805.56
297.37	854.56
297.601	903.56
297.831	961.56
298.062	931.56
298.292	875.56
298.523	821.56
298.753	843.56
298.984	865.56
299.214	859.56
299.445	853.56
299.675	888.56
299.905	870.56
300.136	851.56
300.366	821.56
300.597	805.56
300.827	853.56
301.057	845.56
301.288	893.56
301.518	854.56
301.748	906.56
301.979	965.56
302.209	993.56
302.439	1059.56
302.669	1075.56
302.9	985.56
303.13	912.56
303.36	901.56
303.59	907.56
303.82	911.56
304.051	885.56
304.281	919.56
304.511	938.56
304.741	1031.56
304.971	1105.56
305.201	1161.56
305.431	1022.56
305.661	880.56
305.891	809.56
306.121	818.56
306.352	833.56
306.582	885.56
306.812	949.56
307.042	1029.56
307.272	1015.56
307.502	1066.56
307.731	1146.56
307.961	1165.56
308.191	1072.56
308.421	909.56
308.651	908.56
308.881	851.56
309.111	884.56
309.341	869.56
309.571	887.56
309.8	881.56
310.03	871.56
310.26	871.56
310.49	861.56
310.72	892.56
310.949	946.56
311.179	959.56
311.409	925.56
311.639	904.56
311.868	879.56
312.098	903.56
312.328	872.56
312.557	878.56
312.787	891.56
313.017	898.56
313.246	913.56
313.476	891.56
313.706	921.56
313.935	926.56
314.165	954.56
314.394	984.56
314.624	1030.56
314.853	1130.56
315.083	1140.56
315.312	1104.56
315.542	1068.56
315.771	956.56
316.001	972.56
316.23	1009.56
316.46	1037.56
316.689	973.56
316.919	903.56
317.148	910.56
317.377	933.56
317.607	998.56
317.836	1117.56
318.065	1149.56
318.295	1105.56
318.524	1051.56
318.753	1014.56
318.983	994.56
319.212	983.56
319.441	947.56
319.67	987.56
319.9	967.56
320.129	1051.56
320.358	1089.56
320.587	1073.56
320.816	1125.56
321.046	1059.56
321.275	1032.56
321.504	1042.56
321.733	1117.56
321.962	1045.56
322.191	979.56
322.42	959.56
322.649	947.56
322.878	964.56
323.108	961.56
323.337	985.56
323.566	1004.56
323.795	987.56
324.024	1000.56
324.253	986.56
324.482	992.56
324.71	937.56
324.939	908.56
325.168	938.56
325.397	984.56
325.626	993.56
325.855	1025.56
326.084	966.56
326.313	940.56
326.542	970.56
326.77	1009.56
326.999	991.56
327.228	934.56
327.457	913.56
327.686	925.56
327.914	930.56
328.143	973.56
328.372	992.56
328.6	950.56
328.829	962.56
329.058	927.56
329.287	954.56
329.515	968.56
329.744	1036.56
329.972	1035.56
330.201	1109.56
330.43	1073.56
330.658	1003.56
330.887	1027.56
331.115	1016.56
331.344	1057.56
331.572	1025.56
331.801	1038.56
332.03	1018.56
332.258	1055.56
332.486	1032.56
332.715	1045.56
332.943	1041.56
333.172	1027.56
333.4	1047.56
333.629	1082.56
333.857	1152.56
334.085	1282.56
334.314	1452.56
334.542	1528.56
334.771	1364.56
334.999	1205.56
335.227	1155.56
335.455	1101.56
335.684	1113.56
335.912	1131.56
336.14	1139.56
336.369	1078.56
336.597	1068.56
336.825	1031.56
337.053	1079.56
337.281	1173.56
337.51	1256.56
337.738	1234.56
337.966	1168.56
338.194	1086.56
338.422	1035.56
338.65	1000.56
338.878	1029.56
339.106	975.56
339.334	973.56
339.562	944.56
339.79	1008.56
340.018	1056.56
340.246	1108.56
340.474	1107.56
340.702	1103.56
340.93	1097.56
341.158	1055.56
341.386	1051.56
341.614	1028.56
341.842	1037.56
342.07	1013.56
342.298	1051.56
342.526	1028.56
342.754	992.56
342.981	1040.56
343.209	1033.56
343.437	995.56
343.665	1012.56
343.893	1033.56
344.12	1122.56
344.348	1096.56
344.576	1051.56
344.804	1030.56
345.031	1035.56
345.259	1019.56
345.487	1002.56
345.714	960.56
345.942	928.56
346.17	957.56
346.397	966.56
346.625	961.56
346.853	940.56
347.08	929.56
347.308	917.56
347.535	983.56
347.763	999.56
347.99	947.56
348.218	924.56
348.445	934.56
348.673	980.56
348.9	1009.56
349.128	1033.56
349.355	1041.56
349.583	1019.56
349.81	985.56
350.037	910.56
350.265	906.56
350.492	894.56
350.72	971.56
350.947	971.56
351.174	998.56
351.402	945.56
351.629	904.56
351.856	895.56
352.083	880.56
352.311	887.56
352.538	923.56
352.765	977.56
352.992	993.56
353.22	925.56
353.447	935.56
353.674	927.56
353.901	946.56
354.128	915.56
354.355	940.56
354.583	1017.56
354.81	1027.56
355.037	1018.56
355.264	999.56
355.491	993.56
355.718	977.56
355.945	945.56
356.172	951.56
356.399	927.56
356.626	912.56
356.853	983.56
357.08	1113.56
357.307	1156.56
357.534	1113.56
357.761	1010.56
357.988	952.56
358.215	925.56
358.441	905.56
358.668	912.56
358.895	944.56
359.122	1021.56
359.349	1079.56
359.576	1046.56
359.802	962.56
360.029	921.56
360.256	917.56
360.483	933.56
360.709	976.56
360.936	1023.56
361.163	1086.56
361.39	1184.56
361.616	1225.56
361.843	1173.56
362.07	1085.56
362.296	966.56
362.523	971.56
362.749	985.56
362.976	991.56
363.203	1012.56
363.429	928.56
363.656	946.56
363.882	986.56
364.109	1110.56
364.335	1152.56
364.562	1099.56
364.788	1015.56
365.015	985.56
365.241	923.56
365.468	975.56
365.694	1013.56
365.92	1040.56
366.147	984.56
366.373	933.56
366.599	942.56
366.826	955.56
367.052	927.56
367.278	959.56
367.505	984.56
367.731	1029.56
367.957	982.56
368.184	1030.56
368.41	1107.56
368.636	1100.56
368.862	1127.56
369.089	1095.56
369.315	1049.56
369.541	1037.56
369.767	996.56
369.993	965.56
370.219	947.56
370.445	1034.56
370.672	1084.56
370.898	1116.56
371.124	1058.56
371.35	1049.56
371.576	1068.56
371.802	1060.56
372.028	1053.56
372.254	988.56
372.48	966.56
372.706	954.56
372.932	986.56
373.158	984.56
373.384	990.56
373.61	1037.56
373.835	1097.56
374.061	1053.56
374.287	988.56
374.513	1007.56
374.739	1037.56
374.965	1057.56
375.191	1038.56
375.416	1071.56
375.642	1079.56
375.868	1156.56
376.094	1155.56
376.319	1088.56
376.545	1034.56
376.771	1075.56
376.997	1121.56
377.222	1082.56
377.448	1071.56
377.674	1076.56
377.899	1100.56
378.125	1155.56
378.35	1109.56
378.576	1010.56
378.802	986.56
379.027	991.56
379.253	1012.56
379.478	995.56
379.704	983.56
379.929	1007.56
380.155	1023.56
380.38	1057.56
380.606	1039.56
380.831	1088.56
381.057	1134.56
381.282	1105.56
381.507	1107.56
381.733	1147.56
381.958	1203.56
382.184	1072.56
382.409	1048.56
382.634	1052.56
382.86	1035.56
383.085	1066.56
383.31	1104.56
383.535	1211.56
383.761	1303.56
383.986	1183.56
384.211	1173.56
384.436	1164.56
384.662	1221.56
384.887	1254.56
385.112	1192.56
385.337	1178.56
385.562	1177.56
385.787	1179.56
386.013	1201.56
386.238	1182.56
386.463	1228.56
386.688	1252.56
386.913	1351.56
387.138	1300.56
387.363	1240.56
387.588	1199.56
387.813	1197.56
388.038	1250.56
388.263	1283.56
388.488	1199.56
388.713	1134.56
388.938	1122.56
389.163	1115.56
389.387	1143.56
389.612	1119.56
389.837	1166.56
390.062	1173.56
390.287	1159.56
390.512	1160.56
390.736	1141.56
390.961	1111.56
391.186	1099.56
391.411	1106.56
391.636	1155.56
391.86	1157.56
392.085	1160.56
392.31	1124.56
392.534	1149.56
392.759	1202.56
392.984	1158.56
393.208	1161.56
393.433	1174.56
393.658	1283.56
393.882	1240.56
394.107	1191.56
394.331	1157.56
394.556	1180.56
394.78	1166.56
395.005	1236.56
395.229	1289.56
395.454	1335.56
395.678	1346.56
395.903	1293.56
396.127	1225.56
396.352	1229.56
396.576	1297.56
396.801	1327.56
397.025	1308.56
397.249	1269.56
397.474	1274.56
397.698	1265.56
397.922	1323.56
398.147	1380.56
398.371	1439.56
398.595	1409.56
398.82	1324.56
399.044	1351.56
399.268	1451.56
399.492	1471.56
399.717	1537.56
399.941	1549.56
400.165	1534.56
400.389	1470.56
400.613	1493.56
400.837	1724.56
401.062	1863.56
401.286	1571.56
401.51	1482.56
401.734	1511.56
401.958	1465.56
402.182	1375.56
402.406	1329.56
402.63	1335.56
402.854	1333.56
403.078	1350.56
403.302	1351.56
403.526	1353.56
403.75	1384.56
403.974	1387.56
404.198	1417.56
404.422	1460.56
404.645	1524.56
404.869	1480.56
405.093	1344.56
405.317	1327.56
405.541	1380.56
405.765	1385.56
405.988	1377.56
406.212	1385.56
406.436	1419.56
406.66	1507.56
406.883	1546.56
407.107	1708.56
407.331	1857.56
407.555	2005.56
407.778	1754.56
408.002	1471.56
408.226	1427.56
408.449	1431.56
408.673	1404.56
408.896	1413.56
409.12	1425.56
409.344	1413.56
409.567	1363.56
409.791	1411.56
410.014	1447.56
410.238	1522.56
410.461	1624.56
410.685	1401.56
410.908	1355.56
411.132	1369.56
411.355	1387.56
411.578	1366.56
411.802	1394.56
412.025	1411.56
412.249	1345.56
412.472	1361.56
412.695	1322.56
412.919	1307.56
413.142	1279.56
413.365	1354.56
413.589	1406.56
413.812	1481.56
414.035	1526.56
414.258	1371.56
414.482	1331.56
414.705	1362.56
414.928	1356.56
415.151	1345.56
415.374	1338.56
415.597	1367.56
415.821	1382.56
416.044	1384.56
416.267	1395.56
416.49	1299.56
416.713	1313.56
416.936	1370.56
417.159	1435.56
417.382	1424.56
417.605	1359.56
417.828	1347.56
418.051	1380.56
418.274	1357.56
418.497	1295.56
418.72	1307.56
418.943	1304.56
419.166	1365.56
419.389	1388.56
419.611	1324.56
419.834	1323.56
420.057	1351.56
420.28	1331.56
420.503	1328.56
420.726	1344.56
420.948	1332.56
421.171	1291.56
421.394	1304.56
421.617	1353.56
421.839	1371.56
422.062	1333.56
422.285	1308.56
422.507	1317.56
422.73	1239.56
422.953	1270.56
423.175	1228.56
423.398	1303.56
423.621	1275.56
423.843	1319.56
424.066	1345.56
424.288	1447.56
424.511	1455.56
424.733	1402.56
424.956	1292.56
425.178	1253.56
425.401	1294.56
425.623	1323.56
425.846	1299.56
426.068	1366.56
426.291	1375.56
426.513	1348.56
426.735	1362.56
426.958	1478.56
427.18	1587.56
427.402	1421.56
427.625	1498.56
427.847	1440.56
428.069	1346.56
428.292	1285.56
428.514	1270.56
428.736	1307.56
428.958	1282.56
429.181	1310.56
429.403	1522.56
429.625	1847.56
429.847	1513.56
430.069	1335.56
430.292	1452.56
430.514	1507.56
430.736	1407.56
430.958	1406.56
431.18	1350.56
431.402	1255.56
431.624	1235.56
431.846	1238.56
432.068	1183.56
432.29	1160.56
432.512	1235.56
432.734	1243.56
432.956	1282.56
433.178	1359.56
433.4	1371.56
433.622	1351.56
433.844	1273.56
434.066	1211.56
434.287	1209.56
434.509	1240.56
434.731	1340.56
434.953	1401.56
435.175	1369.56
435.397	1323.56
435.618	1310.56
435.84	1272.56
436.062	1267.56
436.284	1295.56
436.505	1312.56
436.727	1358.56
436.949	1287.56
437.17	1247.56
437.392	1246.56
437.614	1228.56
437.835	1195.56
438.057	1270.56
438.278	1289.56
438.5	1252.56
438.721	1264.56
438.943	1269.56
439.165	1283.56
439.386	1269.56
439.608	1273.56
439.829	1301.56
440.05	1288.56
440.272	1288.56
440.493	1262.56
440.715	1324.56
440.936	1428.56
441.158	1470.56
441.379	1442.56
441.6	1418.56
441.822	1352.56
442.043	1382.56
442.264	1364.56
442.486	1261.56
442.707	1292.56
442.928	1263.56
443.149	1317.56
443.371	1395.56
443.592	1422.56
443.813	1399.56
444.034	1378.56
444.255	1379.56
444.476	1387.56
444.698	1418.56
444.919	1438.56
445.14	1522.56
445.361	1491.56
445.582	1467.56
445.803	1450.56
446.024	1406.56
446.245	1465.56
446.466	1394.56
446.687	1368.56
446.908	1407.56
447.129	1325.56
447.35	1377.56
447.571	1337.56
447.792	1291.56
448.013	1297.56
448.234	1332.56
448.455	1375.56
448.675	1381.56
448.896	1242.56
449.117	1260.56
449.338	1264.56
449.559	1354.56
449.779	1362.56
450	1455.56
450.221	1529.56
450.442	1499.56
450.662	1339.56
450.883	1204.56
451.104	1206.56
451.324	1244.56
451.545	1260.56
451.766	1248.56
451.986	1140.56
452.207	1170.56
452.428	1124.56
452.648	1127.56
452.869	1140.56
453.089	1175.56
453.31	1199.56
453.53	1188.56
453.751	1163.56
453.971	1092.56
454.192	1128.56
454.412	1189.56
454.633	1159.56
454.853	1144.56
455.073	1063.56
455.294	1080.56
455.514	1117.56
455.734	1102.56
455.955	1125.56
456.175	1106.56
456.395	1121.56
456.616	1123.56
456.836	1096.56
457.056	1107.56
457.276	1119.56
457.497	1073.56
457.717	1039.56
457.937	1071.56
458.157	1080.56
458.377	1090.56
458.598	1082.56
458.818	1088.56
459.038	1133.56
459.258	1185.56
459.478	1187.56
459.698	1144.56
459.918	1185.56
460.138	1256.56
460.358	1246.56
460.578	1305.56
460.798	1336.56
461.018	1387.56
461.238	1346.56
461.458	1292.56
461.678	1312.56
461.898	1259.56
462.118	1222.56
462.338	1300.56
462.558	1285.56
462.777	1265.56
462.997	1365.56
463.217	1378.56
463.437	1379.56
463.657	1310.56
463.876	1259.56
464.096	1329.56
464.316	1294.56
464.536	1343.56
464.755	1363.56
464.975	1322.56
465.195	1311.56
465.414	1359.56
465.634	1332.56
465.854	1365.56
466.073	1485.56
466.293	1402.56
466.512	1227.56
466.732	1238.56
466.951	1300.56
467.171	1281.56
467.391	1256.56
467.61	1206.56
467.829	1260.56
468.049	1401.56
468.268	1507.56
468.488	1415.56
468.707	1314.56
468.927	1292.56
469.146	1252.56
469.365	1266.56
469.585	1266.56
469.804	1252.56
470.023	1285.56
470.243	1282.56
470.462	1265.56
470.681	1258.56
470.901	1294.56
471.12	1273.56
471.339	1271.56
471.558	1248.56
471.777	1249.56
471.997	1256.56
472.216	1243.56
472.435	1137.56
472.654	1128.56
472.873	1187.56
473.092	1288.56
473.311	1215.56
473.53	1181.56
473.749	1161.56
473.968	1199.56
474.187	1231.56
474.406	1248.56
474.625	1253.56
474.844	1252.56
475.063	1243.56
475.282	1223.56
475.501	1244.56
475.72	1257.56
475.939	1336.56
476.158	1259.56
476.377	1238.56
476.596	1263.56
476.814	1256.56
477.033	1255.56
477.252	1300.56
477.471	1356.56
477.69	1326.56
477.908	1312.56
478.127	1384.56
478.346	1462.56
478.564	1473.56
478.783	1472.56
479.002	1501.56
479.22	1446.56
479.439	1480.56
479.658	1656.56
479.876	1599.56
480.095	1407.56
480.313	1367.56
480.532	1290.56
480.751	1360.56
480.969	1341.56
481.188	1293.56
481.406	1297.56
481.624	1252.56
481.843	1261.56
482.061	1316.56
482.28	1358.56
482.498	1407.56
482.717	1347.56
482.935	1334.56
483.153	1391.56
483.372	1404.56
483.59	1415.56
483.808	1374.56
484.027	1388.56
484.245	1485.56
484.463	1801.56
484.681	1993.56
484.9	1492.56
485.118	1418.56
485.336	1388.56
485.554	1412.56
485.772	1443.56
485.99	1436.56
486.209	1432.56
486.427	1459.56
486.645	1393.56
486.863	1456.56
487.081	1476.56
487.299	1484.56
487.517	1470.56
487.735	1479.56
487.953	1556.56
488.171	1521.56
488.389	1488.56
488.607	1468.56
488.825	1685.56
489.043	1585.56
489.261	1433.56
489.479	1532.56
489.696	1512.56
489.914	1530.56
490.132	1488.56
490.35	1503.56
490.568	1565.56
490.786	1524.56
491.003	1523.56
491.221	1595.56
491.439	1655.56
491.657	1635.56
491.874	1673.56
492.092	1732.56
492.31	1729.56
492.527	1680.56
