Data from WStandard_LampEnergy8_LIBS07252019.E.O._I.C._HRD10591_16-00-46-929.txt Node
Date: Thu Jul 25 16:00:46 EDT 2019
User: cochatt
Spectrometer: HR+D1059
Trigger mode: 1
Integration Time (sec): 1.000000E-1
Scans to average: 1
Electric dark correction enabled: true
Nonlinearity correction enabled: false
Boxcar width: 0
XAxis mode: Wavelengths
Number of Pixels in Spectrum: 2048
>>>>>Begin Spectral Data<<<<<
223.165	-14.69
223.4	-14.69
223.635	-14.69
223.869	-16.69
224.104	-30.69
224.338	-19.69
224.573	-5.69
224.808	-10.69
225.042	5.31
225.277	7.31
225.511	-13.69
225.746	7.31
225.98	-1.69
226.215	8.31
226.449	4.31
226.683	22.31
226.918	27.31
227.152	31.31
227.387	31.31
227.621	44.31
227.856	35.31
228.09	34.31
228.324	34.31
228.559	52.31
228.793	87.31
229.027	174.31
229.262	196.31
229.496	221.31
229.73	210.31
229.964	217.31
230.199	221.31
230.433	237.31
230.667	266.31
230.901	261.31
231.136	265.31
231.37	236.31
231.604	230.31
231.838	244.31
232.072	253.31
232.306	240.31
232.541	267.31
232.775	278.31
233.009	303.31
233.243	294.31
233.477	268.31
233.711	279.31
233.945	313.31
234.179	266.31
234.413	298.31
234.647	309.31
234.881	290.31
235.115	272.31
235.349	279.31
235.583	309.31
235.817	288.31
236.051	284.31
236.285	275.31
236.519	297.31
236.753	344.31
236.987	352.31
237.221	326.31
237.455	351.31
237.689	341.31
237.922	328.31
238.156	332.31
238.39	344.31
238.624	350.31
238.858	372.31
239.091	380.31
239.325	412.31
239.559	438.31
239.793	437.31
240.027	466.31
240.26	469.31
240.494	373.31
240.728	355.31
240.961	352.31
241.195	361.31
241.429	390.31
241.662	390.31
241.896	359.31
242.13	371.31
242.363	402.31
242.597	436.31
242.83	421.31
243.064	407.31
243.298	449.31
243.531	432.31
243.765	437.31
243.998	425.31
244.232	396.31
244.465	381.31
244.699	383.31
244.932	424.31
245.166	481.31
245.399	468.31
245.633	424.31
245.866	419.31
246.099	446.31
246.333	446.31
246.566	471.31
246.8	502.31
247.033	534.31
247.266	492.31
247.5	504.31
247.733	503.31
247.966	518.31
248.2	562.31
248.433	536.31
248.666	585.31
248.899	623.31
249.133	688.31
249.366	758.31
249.599	630.31
249.832	578.31
250.066	601.31
250.299	580.31
250.532	549.31
250.765	528.31
250.998	574.31
251.231	561.31
251.465	552.31
251.698	544.31
251.931	552.31
252.164	572.31
252.397	571.31
252.63	560.31
252.863	518.31
253.096	512.31
253.329	530.31
253.562	543.31
253.795	600.31
254.028	592.31
254.261	519.31
254.494	519.31
254.727	554.31
254.96	555.31
255.193	598.31
255.426	670.31
255.659	731.31
255.892	752.31
256.124	636.31
256.357	607.31
256.59	666.31
256.823	637.31
257.056	670.31
257.289	780.31
257.521	832.31
257.754	773.31
257.987	726.31
258.22	782.31
258.452	747.31
258.685	624.31
258.918	636.31
259.151	641.31
259.383	609.31
259.616	551.31
259.849	595.31
260.081	614.31
260.314	683.31
260.547	758.31
260.779	729.31
261.012	713.31
261.244	670.31
261.477	603.31
261.71	660.31
261.942	666.31
262.175	616.31
262.407	662.31
262.64	627.31
262.872	598.31
263.105	589.31
263.337	618.31
263.57	621.31
263.802	584.31
264.035	562.31
264.267	534.31
264.499	549.31
264.732	592.31
264.964	636.31
265.197	627.31
265.429	675.31
265.661	720.31
265.894	753.31
266.126	784.31
266.358	728.31
266.591	768.31
266.823	772.31
267.055	757.31
267.287	723.31
267.52	737.31
267.752	709.31
267.984	709.31
268.216	767.31
268.448	758.31
268.681	752.31
268.913	695.31
269.145	636.31
269.377	654.31
269.609	723.31
269.841	814.31
270.073	928.31
270.306	1014.31
270.538	1028.31
270.77	898.31
271.002	771.31
271.234	760.31
271.466	761.31
271.698	873.31
271.93	965.31
272.162	952.31
272.394	892.31
272.626	840.31
272.858	748.31
273.09	668.31
273.322	654.31
273.553	640.31
273.785	646.31
274.017	693.31
274.249	725.31
274.481	721.31
274.713	681.31
274.945	674.31
275.176	672.31
275.408	655.31
275.64	636.31
275.872	648.31
276.104	731.31
276.335	814.31
276.567	838.31
276.799	852.31
277.031	789.31
277.262	754.31
277.494	810.31
277.726	849.31
277.957	822.31
278.189	763.31
278.421	721.31
278.652	690.31
278.884	678.31
279.115	692.31
279.347	715.31
279.579	718.31
279.81	716.31
280.042	774.31
280.273	811.31
280.505	849.31
280.736	843.31
280.968	794.31
281.199	688.31
281.431	656.31
281.662	693.31
281.894	674.31
282.125	681.31
282.356	714.31
282.588	721.31
282.819	726.31
283.051	790.31
283.282	820.31
283.513	809.31
283.745	713.31
283.976	647.31
284.207	691.31
284.439	692.31
284.67	708.31
284.901	718.31
285.132	747.31
285.364	721.31
285.595	728.31
285.826	722.31
286.057	714.31
286.288	712.31
286.52	752.31
286.751	806.31
286.982	828.31
287.213	752.31
287.444	722.31
287.675	698.31
287.906	733.31
288.138	774.31
288.369	758.31
288.6	716.31
288.831	720.31
289.062	706.31
289.293	738.31
289.524	735.31
289.755	774.31
289.986	746.31
290.217	711.31
290.448	710.31
290.679	700.31
290.91	724.31
291.141	754.31
291.371	795.31
291.602	792.31
291.833	767.31
292.064	793.31
292.295	795.31
292.526	801.31
292.757	814.31
292.987	775.31
293.218	739.31
293.449	818.31
293.68	898.31
293.91	953.31
294.141	879.31
294.372	868.31
294.603	908.31
294.833	912.31
295.064	840.31
295.295	762.31
295.525	790.31
295.756	739.31
295.987	696.31
296.217	695.31
296.448	723.31
296.679	753.31
296.909	721.31
297.14	719.31
297.37	755.31
297.601	824.31
297.831	845.31
298.062	808.31
298.292	768.31
298.523	735.31
298.753	735.31
298.984	763.31
299.214	766.31
299.445	777.31
299.675	801.31
299.905	805.31
300.136	777.31
300.366	738.31
300.597	728.31
300.827	768.31
301.057	800.31
301.288	808.31
301.518	820.31
301.748	847.31
301.979	843.31
302.209	896.31
302.439	937.31
302.669	934.31
302.9	871.31
303.13	814.31
303.36	813.31
303.59	831.31
303.82	822.31
304.051	802.31
304.281	836.31
304.511	841.31
304.741	903.31
304.971	948.31
305.201	978.31
305.431	911.31
305.661	751.31
305.891	713.31
306.121	738.31
306.352	795.31
306.582	816.31
306.812	852.31
307.042	910.31
307.272	895.31
307.502	954.31
307.731	981.31
307.961	1022.31
308.191	924.31
308.421	834.31
308.651	820.31
308.881	818.31
309.111	785.31
309.341	787.31
309.571	791.31
309.8	811.31
310.03	788.31
310.26	794.31
310.49	773.31
310.72	830.31
310.949	848.31
311.179	879.31
311.409	818.31
311.639	799.31
311.868	810.31
312.098	815.31
312.328	807.31
312.557	798.31
312.787	842.31
313.017	805.31
313.246	834.31
313.476	828.31
313.706	840.31
313.935	864.31
314.165	853.31
314.394	888.31
314.624	928.31
314.853	990.31
315.083	1018.31
315.312	994.31
315.542	915.31
315.771	839.31
316.001	868.31
316.23	928.31
316.46	911.31
316.689	883.31
316.919	842.31
317.148	841.31
317.377	853.31
317.607	911.31
317.836	1010.31
318.065	1006.31
318.295	979.31
318.524	926.31
318.753	932.31
318.983	926.31
319.212	905.31
319.441	891.31
319.67	886.31
319.9	906.31
320.129	926.31
320.358	947.31
320.587	974.31
320.816	972.31
321.046	937.31
321.275	943.31
321.504	931.31
321.733	1006.31
321.962	964.31
322.191	888.31
322.42	905.31
322.649	882.31
322.878	888.31
323.108	889.31
323.337	921.31
323.566	919.31
323.795	915.31
324.024	918.31
324.253	908.31
324.482	892.31
324.71	871.31
324.939	850.31
325.168	858.31
325.397	888.31
325.626	894.31
325.855	928.31
326.084	902.31
326.313	876.31
326.542	896.31
326.77	910.31
326.999	924.31
327.228	870.31
327.457	851.31
327.686	844.31
327.914	889.31
328.143	908.31
328.372	902.31
328.6	901.31
328.829	883.31
329.058	900.31
329.287	900.31
329.515	911.31
329.744	926.31
329.972	949.31
330.201	951.31
330.43	966.31
330.658	932.31
330.887	934.31
331.115	978.31
331.344	931.31
331.572	932.31
331.801	928.31
332.03	927.31
332.258	938.31
332.486	948.31
332.715	982.31
332.943	967.31
333.172	930.31
333.4	972.31
333.629	998.31
333.857	1082.31
334.085	1136.31
334.314	1290.31
334.542	1345.31
334.771	1214.31
334.999	1080.31
335.227	1030.31
335.455	1011.31
335.684	986.31
335.912	1059.31
336.14	1020.31
336.369	986.31
336.597	953.31
336.825	940.31
337.053	999.31
337.281	1060.31
337.51	1050.31
337.738	1094.31
337.966	1069.31
338.194	947.31
338.422	954.31
338.65	926.31
338.878	918.31
339.106	929.31
339.334	890.31
339.562	879.31
339.79	929.31
340.018	954.31
340.246	966.31
340.474	989.31
340.702	963.31
340.93	968.31
341.158	953.31
341.386	948.31
341.614	947.31
341.842	932.31
342.07	945.31
342.298	959.31
342.526	965.31
342.754	946.31
342.981	940.31
343.209	931.31
343.437	949.31
343.665	905.31
343.893	999.31
344.12	1014.31
344.348	1002.31
344.576	975.31
344.804	931.31
345.031	942.31
345.259	963.31
345.487	885.31
345.714	870.31
345.942	856.31
346.17	888.31
346.397	884.31
346.625	910.31
346.853	857.31
347.08	847.31
347.308	872.31
347.535	876.31
347.763	901.31
347.99	904.31
348.218	844.31
348.445	864.31
348.673	891.31
348.9	891.31
349.128	939.31
349.355	946.31
349.583	910.31
349.81	866.31
350.037	837.31
350.265	810.31
350.492	857.31
350.72	881.31
350.947	911.31
351.174	912.31
351.402	862.31
351.629	814.31
351.856	819.31
352.083	842.31
352.311	841.31
352.538	867.31
352.765	901.31
352.992	895.31
353.22	856.31
353.447	861.31
353.674	852.31
353.901	895.31
354.128	860.31
354.355	876.31
354.583	915.31
354.81	912.31
355.037	916.31
355.264	894.31
355.491	890.31
355.718	907.31
355.945	883.31
356.172	883.31
356.399	833.31
356.626	863.31
356.853	915.31
357.08	971.31
357.307	1082.31
357.534	1013.31
357.761	887.31
357.988	863.31
358.215	866.31
358.441	837.31
358.668	858.31
358.895	861.31
359.122	937.31
359.349	1004.31
359.576	943.31
359.802	916.31
360.029	869.31
360.256	842.31
360.483	874.31
360.709	887.31
360.936	929.31
361.163	966.31
361.39	1057.31
361.616	1096.31
361.843	1071.31
362.07	991.31
362.296	898.31
362.523	862.31
362.749	885.31
362.976	908.31
363.203	912.31
363.429	894.31
363.656	871.31
363.882	916.31
364.109	988.31
364.335	1076.31
364.562	969.31
364.788	931.31
365.015	893.31
365.241	868.31
365.468	899.31
365.694	918.31
365.92	960.31
366.147	928.31
366.373	882.31
366.599	854.31
366.826	852.31
367.052	874.31
367.278	872.31
367.505	888.31
367.731	900.31
367.957	936.31
368.184	966.31
368.41	987.31
368.636	1026.31
368.862	1016.31
369.089	1018.31
369.315	954.31
369.541	944.31
369.767	919.31
369.993	866.31
370.219	922.31
370.445	932.31
370.672	990.31
370.898	1028.31
371.124	971.31
371.35	947.31
371.576	958.31
371.802	972.31
372.028	986.31
372.254	935.31
372.48	895.31
372.706	917.31
372.932	942.31
373.158	912.31
373.384	931.31
373.61	979.31
373.835	993.31
374.061	943.31
374.287	959.31
374.513	939.31
374.739	967.31
374.965	956.31
375.191	983.31
375.416	976.31
375.642	987.31
375.868	1024.31
376.094	1078.31
376.319	984.31
376.545	984.31
376.771	995.31
376.997	1038.31
377.222	1021.31
377.448	1006.31
377.674	987.31
377.899	1007.31
378.125	1046.31
378.35	1032.31
378.576	949.31
378.802	934.31
379.027	930.31
379.253	946.31
379.478	954.31
379.704	963.31
379.929	932.31
380.155	967.31
380.38	970.31
380.606	954.31
380.831	961.31
381.057	1016.31
381.282	1051.31
381.507	1034.31
381.733	1078.31
381.958	1099.31
382.184	1003.31
382.409	999.31
382.634	1002.31
382.86	986.31
383.085	987.31
383.31	1066.31
383.535	1118.31
383.761	1164.31
383.986	1105.31
384.211	1074.31
384.436	1055.31
384.662	1125.31
384.887	1131.31
385.112	1055.31
385.337	1110.31
385.562	1090.31
385.787	1062.31
386.013	1104.31
386.238	1092.31
386.463	1130.31
386.688	1214.31
386.913	1243.31
387.138	1204.31
387.363	1123.31
387.588	1146.31
387.813	1092.31
388.038	1142.31
388.263	1184.31
388.488	1111.31
388.713	1064.31
388.938	1041.31
389.163	1058.31
389.387	1089.31
389.612	1077.31
389.837	1101.31
390.062	1111.31
390.287	1093.31
390.512	1080.31
390.736	1058.31
390.961	1034.31
391.186	1025.31
391.411	1042.31
391.636	1088.31
391.86	1097.31
392.085	1090.31
392.31	1098.31
392.534	1097.31
392.759	1074.31
392.984	1119.31
393.208	1110.31
393.433	1144.31
393.658	1173.31
393.882	1198.31
394.107	1116.31
394.331	1078.31
394.556	1076.31
394.78	1074.31
395.005	1125.31
395.229	1179.31
395.454	1247.31
395.678	1246.31
395.903	1219.31
396.127	1120.31
396.352	1158.31
396.576	1200.31
396.801	1209.31
397.025	1177.31
397.249	1211.31
397.474	1182.31
397.698	1182.31
397.922	1235.31
398.147	1266.31
398.371	1303.31
398.595	1315.31
398.82	1245.31
399.044	1271.31
399.268	1299.31
399.492	1395.31
399.717	1412.31
399.941	1444.31
400.165	1417.31
400.389	1378.31
400.613	1402.31
400.837	1572.31
401.062	1750.31
401.286	1468.31
401.51	1374.31
401.734	1398.31
401.958	1342.31
402.182	1272.31
402.406	1248.31
402.63	1234.31
402.854	1237.31
403.078	1241.31
403.302	1279.31
403.526	1316.31
403.75	1281.31
403.974	1300.31
404.198	1306.31
404.422	1375.31
404.645	1425.31
404.869	1365.31
405.093	1270.31
405.317	1280.31
405.541	1296.31
405.765	1295.31
405.988	1363.31
406.212	1360.31
406.436	1350.31
406.66	1429.31
406.883	1405.31
407.107	1600.31
407.331	1714.31
407.555	1818.31
407.778	1623.31
408.002	1376.31
408.226	1370.31
408.449	1369.31
408.673	1333.31
408.896	1318.31
409.12	1345.31
409.344	1341.31
409.567	1305.31
409.791	1323.31
410.014	1375.31
410.238	1381.31
410.461	1462.31
410.685	1288.31
410.908	1270.31
411.132	1314.31
411.355	1287.31
411.578	1286.31
411.802	1296.31
412.025	1310.31
412.249	1269.31
412.472	1225.31
412.695	1226.31
412.919	1229.31
413.142	1216.31
413.365	1258.31
413.589	1290.31
413.812	1346.31
414.035	1383.31
414.258	1299.31
414.482	1228.31
414.705	1288.31
414.928	1277.31
415.151	1280.31
415.374	1255.31
415.597	1254.31
415.821	1283.31
416.044	1307.31
416.267	1290.31
416.49	1235.31
416.713	1220.31
416.936	1264.31
417.159	1332.31
417.382	1298.31
417.605	1261.31
417.828	1293.31
418.051	1265.31
418.274	1253.31
418.497	1232.31
418.72	1231.31
418.943	1232.31
419.166	1314.31
419.389	1310.31
419.611	1269.31
419.834	1236.31
420.057	1269.31
420.28	1247.31
420.503	1246.31
420.726	1284.31
420.948	1222.31
421.171	1220.31
421.394	1240.31
421.617	1315.31
421.839	1288.31
422.062	1260.31
422.285	1230.31
422.507	1214.31
422.73	1222.31
422.953	1168.31
423.175	1146.31
423.398	1207.31
423.621	1230.31
423.843	1242.31
424.066	1265.31
424.288	1343.31
424.511	1346.31
424.733	1301.31
424.956	1200.31
425.178	1183.31
425.401	1220.31
425.623	1254.31
425.846	1262.31
426.068	1298.31
426.291	1293.31
426.513	1283.31
426.735	1257.31
426.958	1363.31
427.18	1410.31
427.402	1309.31
427.625	1340.31
427.847	1316.31
428.069	1263.31
428.292	1212.31
428.514	1184.31
428.736	1164.31
428.958	1168.31
429.181	1212.31
429.403	1410.31
429.625	1676.31
429.847	1430.31
430.069	1251.31
430.292	1406.31
430.514	1379.31
430.736	1290.31
430.958	1331.31
431.18	1227.31
431.402	1182.31
431.624	1130.31
431.846	1133.31
432.068	1098.31
432.29	1094.31
432.512	1149.31
432.734	1181.31
432.956	1193.31
433.178	1269.31
433.4	1270.31
433.622	1250.31
433.844	1230.31
434.066	1169.31
434.287	1113.31
434.509	1154.31
434.731	1201.31
434.953	1312.31
435.175	1289.31
435.397	1270.31
435.618	1204.31
435.84	1188.31
436.062	1147.31
436.284	1212.31
436.505	1248.31
436.727	1235.31
436.949	1208.31
437.17	1189.31
437.392	1194.31
437.614	1173.31
437.835	1136.31
438.057	1151.31
438.278	1226.31
438.5	1169.31
438.721	1164.31
438.943	1206.31
439.165	1178.31
439.386	1157.31
439.608	1182.31
439.829	1215.31
440.05	1199.31
440.272	1199.31
440.493	1252.31
440.715	1222.31
440.936	1304.31
441.158	1367.31
441.379	1338.31
441.6	1334.31
441.822	1286.31
442.043	1293.31
442.264	1287.31
442.486	1170.31
442.707	1177.31
442.928	1185.31
443.149	1257.31
443.371	1297.31
443.592	1318.31
443.813	1306.31
444.034	1302.31
444.255	1352.31
444.476	1292.31
444.698	1343.31
444.919	1352.31
445.14	1450.31
445.361	1409.31
445.582	1387.31
445.803	1349.31
446.024	1323.31
446.245	1372.31
446.466	1310.31
446.687	1289.31
446.908	1264.31
447.129	1281.31
447.35	1252.31
447.571	1249.31
447.792	1229.31
448.013	1178.31
448.234	1200.31
448.455	1266.31
448.675	1271.31
448.896	1159.31
449.117	1142.31
449.338	1164.31
449.559	1218.31
449.779	1255.31
450	1337.31
450.221	1407.31
450.442	1358.31
450.662	1234.31
450.883	1144.31
451.104	1152.31
451.324	1136.31
451.545	1126.31
451.766	1137.31
451.986	1094.31
452.207	1091.31
452.428	1073.31
452.648	1046.31
452.869	1047.31
453.089	1090.31
453.31	1100.31
453.53	1115.31
453.751	1042.31
453.971	1010.31
454.192	1056.31
454.412	1115.31
454.633	1083.31
454.853	1070.31
455.073	1008.31
455.294	995.31
455.514	995.31
455.734	1058.31
455.955	1031.31
456.175	1045.31
456.395	1017.31
456.616	1050.31
456.836	1062.31
457.056	1036.31
457.276	1026.31
457.497	1021.31
457.717	1015.31
457.937	1014.31
458.157	1008.31
458.377	1026.31
458.598	992.31
458.818	991.31
459.038	1052.31
459.258	1129.31
459.478	1104.31
459.698	1054.31
459.918	1087.31
460.138	1175.31
460.358	1212.31
460.578	1202.31
460.798	1232.31
461.018	1279.31
461.238	1265.31
461.458	1192.31
461.678	1192.31
461.898	1168.31
462.118	1160.31
462.338	1190.31
462.558	1224.31
462.777	1214.31
462.997	1272.31
463.217	1333.31
463.437	1262.31
463.657	1236.31
463.876	1203.31
464.096	1194.31
464.316	1223.31
464.536	1252.31
464.755	1288.31
464.975	1274.31
465.195	1200.31
465.414	1247.31
465.634	1247.31
465.854	1247.31
466.073	1341.31
466.293	1266.31
466.512	1158.31
466.732	1173.31
466.951	1191.31
467.171	1186.31
467.391	1156.31
467.61	1147.31
467.829	1186.31
468.049	1273.31
468.268	1387.31
468.488	1294.31
468.707	1222.31
468.927	1146.31
469.146	1191.31
469.365	1183.31
469.585	1179.31
469.804	1199.31
470.023	1175.31
470.243	1202.31
470.462	1221.31
470.681	1194.31
470.901	1192.31
471.12	1207.31
471.339	1173.31
471.558	1154.31
471.777	1148.31
471.997	1160.31
472.216	1132.31
472.435	1069.31
472.654	1087.31
472.873	1104.31
473.092	1182.31
473.311	1117.31
473.53	1092.31
473.749	1066.31
473.968	1145.31
474.187	1171.31
474.406	1161.31
474.625	1146.31
474.844	1171.31
475.063	1177.31
475.282	1205.31
475.501	1135.31
475.72	1155.31
475.939	1227.31
476.158	1162.31
476.377	1124.31
476.596	1173.31
476.814	1166.31
477.033	1167.31
477.252	1213.31
477.471	1254.31
477.69	1251.31
477.908	1215.31
478.127	1306.31
478.346	1364.31
478.564	1402.31
478.783	1355.31
479.002	1406.31
479.22	1362.31
479.439	1392.31
479.658	1467.31
479.876	1454.31
480.095	1308.31
480.313	1278.31
480.532	1248.31
480.751	1259.31
480.969	1289.31
481.188	1205.31
481.406	1225.31
481.624	1146.31
481.843	1225.31
482.061	1251.31
482.28	1280.31
482.498	1299.31
482.717	1250.31
482.935	1269.31
483.153	1293.31
483.372	1342.31
483.59	1312.31
483.808	1324.31
484.027	1326.31
484.245	1380.31
484.463	1647.31
484.681	1807.31
484.9	1437.31
485.118	1326.31
485.336	1280.31
485.554	1329.31
485.772	1355.31
485.99	1315.31
486.209	1356.31
486.427	1322.31
486.645	1387.31
486.863	1363.31
487.081	1409.31
487.299	1427.31
487.517	1401.31
487.735	1387.31
487.953	1447.31
488.171	1424.31
488.389	1426.31
488.607	1411.31
488.825	1575.31
489.043	1491.31
489.261	1328.31
489.479	1406.31
489.696	1442.31
489.914	1431.31
490.132	1426.31
490.35	1394.31
490.568	1440.31
490.786	1423.31
491.003	1402.31
491.221	1483.31
491.439	1495.31
491.657	1534.31
491.874	1539.31
492.092	1632.31
492.31	1644.31
492.527	1595.31
492.745	1564.31
492.963	1559.31
493.18	1534.31
493.398	1648.31
493.615	1643.31
493.833	1535.31
494.05	1497.31
494.268	1484.31
494.485	1530.31
