Data from WStandard_LampEnergy8_LIBS07252019.E.O._I.C._HRD10591_16-00-49-930.txt Node
Date: Thu Jul 25 16:00:49 EDT 2019
User: cochatt
Spectrometer: HR+D1059
Trigger mode: 1
Integration Time (sec): 1.000000E-1
Scans to average: 1
Electric dark correction enabled: true
Nonlinearity correction enabled: false
Boxcar width: 0
XAxis mode: Wavelengths
Number of Pixels in Spectrum: 2048
>>>>>Begin Spectral Data<<<<<
223.165	-11.56
223.4	-11.56
223.635	-11.56
223.869	-13.56
224.104	-15.56
224.338	-11.56
224.573	-4.56
224.808	-10.56
225.042	-18.56
225.277	-10.56
225.511	-0.56
225.746	-3.56
225.98	-5.56
226.215	17.44
226.449	8.44
226.683	15.44
226.918	28.44
227.152	36.44
227.387	48.44
227.621	51.44
227.856	54.44
228.09	40.44
228.324	54.44
228.559	53.44
228.793	94.44
229.027	185.44
229.262	186.44
229.496	204.44
229.73	210.44
229.964	223.44
230.199	226.44
230.433	264.44
230.667	266.44
230.901	275.44
231.136	233.44
231.37	238.44
231.604	253.44
231.838	261.44
232.072	271.44
232.306	234.44
232.541	258.44
232.775	289.44
233.009	297.44
233.243	294.44
233.477	260.44
233.711	287.44
233.945	293.44
234.179	312.44
234.413	314.44
234.647	295.44
234.881	290.44
235.115	284.44
235.349	284.44
235.583	284.44
235.817	291.44
236.051	284.44
236.285	290.44
236.519	294.44
236.753	337.44
236.987	335.44
237.221	336.44
237.455	357.44
237.689	355.44
237.922	323.44
238.156	331.44
238.39	335.44
238.624	336.44
238.858	363.44
239.091	372.44
239.325	410.44
239.559	432.44
239.793	470.44
240.027	477.44
240.26	467.44
240.494	373.44
240.728	364.44
240.961	338.44
241.195	376.44
241.429	408.44
241.662	392.44
241.896	391.44
242.13	391.44
242.363	424.44
242.597	420.44
242.83	413.44
243.064	463.44
243.298	453.44
243.531	452.44
243.765	446.44
243.998	442.44
244.232	404.44
244.465	395.44
244.699	394.44
244.932	442.44
245.166	500.44
245.399	465.44
245.633	443.44
245.866	431.44
246.099	434.44
246.333	453.44
246.566	456.44
246.8	510.44
247.033	542.44
247.266	496.44
247.5	493.44
247.733	515.44
247.966	544.44
248.2	577.44
248.433	559.44
248.666	569.44
248.899	627.44
249.133	707.44
249.366	759.44
249.599	670.44
249.832	569.44
250.066	582.44
250.299	575.44
250.532	543.44
250.765	505.44
250.998	520.44
251.231	570.44
251.465	591.44
251.698	547.44
251.931	554.44
252.164	568.44
252.397	568.44
252.63	584.44
252.863	501.44
253.096	475.44
253.329	533.44
253.562	552.44
253.795	574.44
254.028	588.44
254.261	542.44
254.494	548.44
254.727	532.44
254.96	575.44
255.193	597.44
255.426	667.44
255.659	764.44
255.892	734.44
256.124	664.44
256.357	623.44
256.59	642.44
256.823	682.44
257.056	677.44
257.289	775.44
257.521	827.44
257.754	776.44
257.987	738.44
258.22	796.44
258.452	758.44
258.685	640.44
258.918	636.44
259.151	641.44
259.383	620.44
259.616	555.44
259.849	602.44
260.081	630.44
260.314	723.44
260.547	758.44
260.779	755.44
261.012	715.44
261.244	644.44
261.477	620.44
261.71	677.44
261.942	653.44
262.175	608.44
262.407	669.44
262.64	642.44
262.872	597.44
263.105	596.44
263.337	614.44
263.57	588.44
263.802	610.44
264.035	569.44
264.267	546.44
264.499	540.44
264.732	584.44
264.964	614.44
265.197	624.44
265.429	648.44
265.661	732.44
265.894	787.44
266.126	802.44
266.358	756.44
266.591	778.44
266.823	812.44
267.055	720.44
267.287	725.44
267.52	702.44
267.752	720.44
267.984	712.44
268.216	736.44
268.448	756.44
268.681	762.44
268.913	676.44
269.145	676.44
269.377	670.44
269.609	722.44
269.841	843.44
270.073	951.44
270.306	1028.44
270.538	1018.44
270.77	879.44
271.002	778.44
271.234	773.44
271.466	773.44
271.698	844.44
271.93	985.44
272.162	958.44
272.394	875.44
272.626	854.44
272.858	720.44
273.09	657.44
273.322	648.44
273.553	621.44
273.785	658.44
274.017	692.44
274.249	713.44
274.481	711.44
274.713	662.44
274.945	642.44
275.176	642.44
275.408	652.44
275.64	631.44
275.872	650.44
276.104	710.44
276.335	788.44
276.567	871.44
276.799	868.44
277.031	789.44
277.262	754.44
277.494	783.44
277.726	857.44
277.957	837.44
278.189	760.44
278.421	704.44
278.652	680.44
278.884	714.44
279.115	709.44
279.347	717.44
279.579	702.44
279.81	726.44
280.042	744.44
280.273	839.44
280.505	840.44
280.736	847.44
280.968	800.44
281.199	700.44
281.431	671.44
281.662	691.44
281.894	666.44
282.125	717.44
282.356	707.44
282.588	732.44
282.819	739.44
283.051	818.44
283.282	795.44
283.513	814.44
283.745	733.44
283.976	680.44
284.207	691.44
284.439	730.44
284.67	696.44
284.901	733.44
285.132	719.44
285.364	743.44
285.595	733.44
285.826	724.44
286.057	735.44
286.288	713.44
286.52	762.44
286.751	829.44
286.982	812.44
287.213	751.44
287.444	690.44
287.675	696.44
287.906	787.44
288.138	796.44
288.369	746.44
288.6	727.44
288.831	726.44
289.062	690.44
289.293	716.44
289.524	725.44
289.755	752.44
289.986	745.44
290.217	697.44
290.448	706.44
290.679	728.44
290.91	743.44
291.141	780.44
291.371	780.44
291.602	782.44
291.833	763.44
292.064	832.44
292.295	771.44
292.526	809.44
292.757	826.44
292.987	776.44
293.218	776.44
293.449	835.44
293.68	924.44
293.91	950.44
294.141	893.44
294.372	855.44
294.603	885.44
294.833	920.44
295.064	880.44
295.295	815.44
295.525	771.44
295.756	717.44
295.987	700.44
296.217	715.44
296.448	730.44
296.679	730.44
296.909	749.44
297.14	729.44
297.37	740.44
297.601	789.44
297.831	848.44
298.062	843.44
298.292	770.44
298.523	740.44
298.753	741.44
298.984	767.44
299.214	780.44
299.445	787.44
299.675	818.44
299.905	794.44
300.136	778.44
300.366	738.44
300.597	723.44
300.827	758.44
301.057	784.44
301.288	808.44
301.518	787.44
301.748	813.44
301.979	869.44
302.209	897.44
302.439	946.44
302.669	950.44
302.9	895.44
303.13	816.44
303.36	812.44
303.59	821.44
303.82	818.44
304.051	815.44
304.281	822.44
304.511	858.44
304.741	920.44
304.971	962.44
305.201	1003.44
305.431	910.44
305.661	774.44
305.891	747.44
306.121	735.44
306.352	773.44
306.582	809.44
306.812	849.44
307.042	908.44
307.272	902.44
307.502	933.44
307.731	1000.44
307.961	1013.44
308.191	948.44
308.421	856.44
308.651	813.44
308.881	810.44
309.111	831.44
309.341	806.44
309.571	811.44
309.8	761.44
310.03	815.44
310.26	790.44
310.49	778.44
310.72	815.44
310.949	850.44
311.179	842.44
311.409	836.44
311.639	836.44
311.868	805.44
312.098	820.44
312.328	814.44
312.557	811.44
312.787	845.44
313.017	850.44
313.246	861.44
313.476	852.44
313.706	867.44
313.935	814.44
314.165	826.44
314.394	897.44
314.624	958.44
314.853	988.44
315.083	1014.44
315.312	1012.44
315.542	947.44
315.771	887.44
316.001	891.44
316.23	898.44
316.46	892.44
316.689	894.44
316.919	839.44
317.148	818.44
317.377	840.44
317.607	930.44
317.836	992.44
318.065	1008.44
318.295	982.44
318.524	957.44
318.753	916.44
318.983	889.44
319.212	882.44
319.441	856.44
319.67	876.44
319.9	898.44
320.129	918.44
320.358	997.44
320.587	972.44
320.816	960.44
321.046	955.44
321.275	918.44
321.504	950.44
321.733	1010.44
321.962	963.44
322.191	911.44
322.42	893.44
322.649	862.44
322.878	875.44
323.108	898.44
323.337	946.44
323.566	902.44
323.795	892.44
324.024	896.44
324.253	872.44
324.482	898.44
324.71	878.44
324.939	856.44
325.168	875.44
325.397	898.44
325.626	904.44
325.855	904.44
326.084	920.44
326.313	902.44
326.542	924.44
326.77	898.44
326.999	928.44
327.228	891.44
327.457	839.44
327.686	851.44
327.914	874.44
328.143	878.44
328.372	891.44
328.6	892.44
328.829	882.44
329.058	888.44
329.287	888.44
329.515	909.44
329.744	907.44
329.972	980.44
330.201	990.44
330.43	948.44
330.658	949.44
330.887	938.44
331.115	974.44
331.344	967.44
331.572	925.44
331.801	953.44
332.03	936.44
332.258	961.44
332.486	952.44
332.715	953.44
332.943	957.44
333.172	962.44
333.4	975.44
333.629	997.44
333.857	1066.44
334.085	1154.44
334.314	1299.44
334.542	1348.44
334.771	1221.44
334.999	1082.44
335.227	1035.44
335.455	1016.44
335.684	1043.44
335.912	1045.44
336.14	1038.44
336.369	975.44
336.597	996.44
336.825	929.44
337.053	988.44
337.281	1051.44
337.51	1089.44
337.738	1119.44
337.966	1041.44
338.194	945.44
338.422	943.44
338.65	943.44
338.878	902.44
339.106	902.44
339.334	908.44
339.562	897.44
339.79	916.44
340.018	959.44
340.246	998.44
340.474	991.44
340.702	1006.44
340.93	964.44
341.158	993.44
341.386	938.44
341.614	940.44
341.842	930.44
342.07	935.44
342.298	947.44
342.526	944.44
342.754	941.44
342.981	946.44
343.209	936.44
343.437	924.44
343.665	930.44
343.893	984.44
344.12	1029.44
344.348	986.44
344.576	948.44
344.804	921.44
345.031	916.44
345.259	918.44
345.487	908.44
345.714	880.44
345.942	883.44
346.17	883.44
346.397	911.44
346.625	931.44
346.853	837.44
347.08	844.44
347.308	875.44
347.535	868.44
347.763	905.44
347.99	884.44
348.218	888.44
348.445	893.44
348.673	908.44
348.9	912.44
349.128	931.44
349.355	927.44
349.583	954.44
349.81	879.44
350.037	836.44
350.265	824.44
350.492	853.44
350.72	867.44
350.947	891.44
351.174	888.44
351.402	839.44
351.629	820.44
351.856	820.44
352.083	810.44
352.311	824.44
352.538	858.44
352.765	899.44
352.992	923.44
353.22	875.44
353.447	863.44
353.674	887.44
353.901	859.44
354.128	847.44
354.355	859.44
354.583	907.44
354.81	922.44
355.037	922.44
355.264	910.44
355.491	865.44
355.718	868.44
355.945	879.44
356.172	875.44
356.399	878.44
356.626	882.44
356.853	904.44
357.08	968.44
357.307	1071.44
357.534	989.44
357.761	918.44
357.988	870.44
358.215	841.44
358.441	854.44
358.668	843.44
358.895	840.44
359.122	918.44
359.349	985.44
359.576	982.44
359.802	877.44
360.029	843.44
360.256	859.44
360.483	853.44
360.709	876.44
360.936	918.44
361.163	992.44
361.39	1030.44
361.616	1109.44
361.843	1075.44
362.07	1003.44
362.296	881.44
362.523	854.44
362.749	866.44
362.976	895.44
363.203	939.44
363.429	911.44
363.656	855.44
363.882	943.44
364.109	1039.44
364.335	1038.44
364.562	1001.44
364.788	957.44
365.015	885.44
365.241	877.44
365.468	907.44
365.694	935.44
365.92	942.44
366.147	922.44
366.373	873.44
366.599	888.44
366.826	870.44
367.052	871.44
367.278	889.44
367.505	890.44
367.731	940.44
367.957	954.44
368.184	945.44
368.41	984.44
368.636	1032.44
368.862	987.44
369.089	1023.44
369.315	975.44
369.541	948.44
369.767	910.44
369.993	890.44
370.219	895.44
370.445	933.44
370.672	981.44
370.898	1040.44
371.124	986.44
371.35	950.44
371.576	983.44
371.802	1000.44
372.028	961.44
372.254	934.44
372.48	910.44
372.706	895.44
372.932	905.44
373.158	926.44
373.384	947.44
373.61	982.44
373.835	967.44
374.061	949.44
374.287	952.44
374.513	951.44
374.739	967.44
374.965	986.44
375.191	965.44
375.416	979.44
375.642	973.44
375.868	1099.44
376.094	1083.44
376.319	981.44
376.545	960.44
376.771	973.44
376.997	1032.44
377.222	1028.44
377.448	978.44
377.674	997.44
377.899	993.44
378.125	1070.44
378.35	1019.44
378.576	935.44
378.802	898.44
379.027	920.44
379.253	954.44
379.478	952.44
379.704	932.44
379.929	962.44
380.155	974.44
380.38	986.44
380.606	997.44
380.831	981.44
381.057	1003.44
381.282	1056.44
381.507	1012.44
381.733	1102.44
381.958	1092.44
382.184	1016.44
382.409	986.44
382.634	1014.44
382.86	967.44
383.085	981.44
383.31	1043.44
383.535	1132.44
383.761	1150.44
383.986	1115.44
384.211	1059.44
384.436	1076.44
384.662	1097.44
384.887	1144.44
385.112	1101.44
385.337	1106.44
385.562	1066.44
385.787	1067.44
386.013	1134.44
386.238	1123.44
386.463	1141.44
386.688	1184.44
386.913	1246.44
387.138	1209.44
387.363	1104.44
387.588	1115.44
387.813	1122.44
388.038	1132.44
388.263	1180.44
388.488	1114.44
388.713	1046.44
388.938	1050.44
389.163	1047.44
389.387	1096.44
389.612	1088.44
389.837	1089.44
390.062	1126.44
390.287	1098.44
390.512	1091.44
390.736	1070.44
390.961	1050.44
391.186	1055.44
391.411	1074.44
391.636	1068.44
391.86	1083.44
392.085	1098.44
392.31	1074.44
392.534	1100.44
392.759	1111.44
392.984	1105.44
393.208	1097.44
393.433	1149.44
393.658	1170.44
393.882	1192.44
394.107	1122.44
394.331	1088.44
394.556	1114.44
394.78	1092.44
395.005	1170.44
395.229	1166.44
395.454	1273.44
395.678	1246.44
395.903	1178.44
396.127	1147.44
396.352	1176.44
396.576	1198.44
396.801	1228.44
397.025	1210.44
397.249	1226.44
397.474	1182.44
397.698	1136.44
397.922	1236.44
398.147	1276.44
398.371	1310.44
398.595	1266.44
398.82	1235.44
399.044	1284.44
399.268	1351.44
399.492	1379.44
399.717	1419.44
399.941	1431.44
400.165	1405.44
400.389	1391.44
400.613	1394.44
400.837	1556.44
401.062	1749.44
401.286	1471.44
401.51	1372.44
401.734	1396.44
401.958	1343.44
402.182	1271.44
402.406	1247.44
402.63	1228.44
402.854	1237.44
403.078	1274.44
403.302	1276.44
403.526	1292.44
403.75	1273.44
403.974	1309.44
404.198	1322.44
404.422	1351.44
404.645	1390.44
404.869	1365.44
405.093	1267.44
405.317	1252.44
405.541	1267.44
405.765	1326.44
405.988	1282.44
406.212	1319.44
406.436	1362.44
406.66	1412.44
406.883	1418.44
407.107	1613.44
407.331	1705.44
407.555	1838.44
407.778	1626.44
408.002	1396.44
408.226	1379.44
408.449	1371.44
408.673	1345.44
408.896	1359.44
409.12	1357.44
409.344	1335.44
409.567	1300.44
409.791	1290.44
410.014	1325.44
410.238	1428.44
410.461	1460.44
410.685	1323.44
410.908	1262.44
411.132	1317.44
411.355	1293.44
411.578	1257.44
411.802	1306.44
412.025	1309.44
412.249	1278.44
412.472	1270.44
412.695	1262.44
412.919	1260.44
413.142	1224.44
413.365	1277.44
413.589	1306.44
413.812	1349.44
414.035	1368.44
414.258	1284.44
414.482	1262.44
414.705	1212.44
414.928	1256.44
415.151	1296.44
415.374	1273.44
415.597	1275.44
415.821	1292.44
416.044	1330.44
416.267	1267.44
416.49	1246.44
416.713	1209.44
416.936	1274.44
417.159	1322.44
417.382	1293.44
417.605	1249.44
417.828	1260.44
418.051	1293.44
418.274	1278.44
418.497	1228.44
418.72	1216.44
418.943	1202.44
419.166	1273.44
419.389	1325.44
419.611	1274.44
419.834	1224.44
420.057	1252.44
420.28	1238.44
420.503	1242.44
420.726	1289.44
420.948	1239.44
421.171	1222.44
421.394	1233.44
421.617	1252.44
421.839	1284.44
422.062	1290.44
422.285	1239.44
422.507	1242.44
422.73	1200.44
422.953	1184.44
423.175	1180.44
423.398	1180.44
423.621	1199.44
423.843	1240.44
424.066	1260.44
424.288	1327.44
424.511	1383.44
424.733	1289.44
424.956	1195.44
425.178	1233.44
425.401	1223.44
425.623	1242.44
425.846	1203.44
426.068	1317.44
426.291	1288.44
426.513	1255.44
426.735	1250.44
426.958	1356.44
427.18	1446.44
427.402	1316.44
427.625	1360.44
427.847	1313.44
428.069	1213.44
428.292	1190.44
428.514	1204.44
428.736	1197.44
428.958	1212.44
429.181	1227.44
429.403	1410.44
429.625	1669.44
429.847	1405.44
430.069	1262.44
430.292	1397.44
430.514	1385.44
430.736	1313.44
430.958	1310.44
431.18	1244.44
431.402	1155.44
431.624	1174.44
431.846	1135.44
432.068	1088.44
432.29	1120.44
432.512	1146.44
432.734	1208.44
432.956	1226.44
433.178	1299.44
433.4	1270.44
433.622	1225.44
433.844	1216.44
434.066	1161.44
434.287	1143.44
434.509	1148.44
434.731	1183.44
434.953	1302.44
435.175	1272.44
435.397	1247.44
435.618	1232.44
435.84	1186.44
436.062	1143.44
436.284	1208.44
436.505	1228.44
436.727	1295.44
436.949	1214.44
437.17	1166.44
437.392	1174.44
437.614	1171.44
437.835	1136.44
438.057	1178.44
438.278	1195.44
438.5	1176.44
438.721	1194.44
438.943	1180.44
439.165	1212.44
439.386	1203.44
439.608	1180.44
439.829	1156.44
440.05	1217.44
440.272	1215.44
440.493	1186.44
440.715	1252.44
440.936	1288.44
441.158	1386.44
441.379	1340.44
441.6	1332.44
441.822	1290.44
442.043	1302.44
442.264	1283.44
442.486	1206.44
442.707	1218.44
442.928	1212.44
443.149	1229.44
443.371	1304.44
443.592	1327.44
443.813	1307.44
444.034	1296.44
444.255	1318.44
444.476	1318.44
444.698	1356.44
444.919	1296.44
445.14	1418.44
445.361	1394.44
445.582	1396.44
445.803	1362.44
446.024	1294.44
446.245	1368.44
446.466	1313.44
446.687	1272.44
446.908	1316.44
447.129	1260.44
447.35	1246.44
447.571	1246.44
447.792	1218.44
448.013	1162.44
448.234	1192.44
448.455	1241.44
448.675	1270.44
448.896	1168.44
449.117	1146.44
449.338	1188.44
449.559	1230.44
449.779	1250.44
450	1363.44
450.221	1412.44
450.442	1372.44
450.662	1237.44
450.883	1120.44
451.104	1115.44
451.324	1156.44
451.545	1158.44
451.766	1146.44
451.986	1107.44
452.207	1098.44
452.428	1043.44
452.648	1040.44
452.869	1086.44
453.089	1099.44
453.31	1094.44
453.53	1129.44
453.751	1064.44
453.971	1020.44
454.192	1031.44
454.412	1096.44
454.633	1102.44
454.853	1094.44
455.073	1026.44
455.294	1016.44
455.514	1033.44
455.734	1011.44
455.955	1032.44
456.175	1056.44
456.395	1018.44
456.616	1006.44
456.836	1042.44
457.056	1034.44
457.276	1021.44
457.497	995.44
457.717	994.44
457.937	1015.44
458.157	1034.44
458.377	1010.44
458.598	990.44
458.818	1016.44
459.038	1076.44
459.258	1107.44
459.478	1114.44
459.698	1093.44
459.918	1090.44
460.138	1167.44
460.358	1184.44
460.578	1203.44
460.798	1262.44
461.018	1255.44
461.238	1257.44
461.458	1219.44
461.678	1187.44
461.898	1159.44
462.118	1128.44
462.338	1202.44
462.558	1236.44
462.777	1207.44
462.997	1239.44
463.217	1319.44
463.437	1295.44
463.657	1215.44
463.876	1174.44
464.096	1196.44
464.316	1191.44
464.536	1234.44
464.755	1238.44
464.975	1240.44
465.195	1208.44
465.414	1282.44
465.634	1237.44
465.854	1221.44
466.073	1332.44
466.293	1309.44
466.512	1140.44
466.732	1142.44
466.951	1195.44
467.171	1181.44
467.391	1147.44
467.61	1142.44
467.829	1199.44
468.049	1273.44
468.268	1374.44
468.488	1278.44
468.707	1242.44
468.927	1204.44
469.146	1180.44
469.365	1176.44
469.585	1180.44
469.804	1193.44
470.023	1196.44
470.243	1214.44
470.462	1214.44
470.681	1184.44
470.901	1188.44
471.12	1206.44
471.339	1167.44
471.558	1164.44
471.777	1142.44
471.997	1138.44
472.216	1112.44
472.435	1082.44
472.654	1091.44
472.873	1127.44
473.092	1189.44
473.311	1154.44
473.53	1101.44
473.749	1077.44
473.968	1167.44
474.187	1188.44
474.406	1202.44
474.625	1151.44
474.844	1172.44
475.063	1175.44
475.282	1149.44
475.501	1151.44
475.72	1147.44
475.939	1198.44
476.158	1188.44
476.377	1148.44
476.596	1165.44
476.814	1179.44
477.033	1194.44
477.252	1198.44
477.471	1274.44
477.69	1220.44
477.908	1239.44
478.127	1307.44
478.346	1380.44
478.564	1350.44
478.783	1341.44
479.002	1373.44
479.22	1377.44
479.439	1387.44
479.658	1491.44
479.876	1436.44
480.095	1284.44
480.313	1263.44
480.532	1242.44
480.751	1267.44
480.969	1230.44
481.188	1232.44
481.406	1224.44
481.624	1198.44
481.843	1206.44
482.061	1229.44
482.28	1286.44
482.498	1280.44
482.717	1255.44
482.935	1270.44
483.153	1291.44
483.372	1316.44
483.59	1314.44
483.808	1276.44
484.027	1310.44
484.245	1401.44
484.463	1640.44
484.681	1811.44
484.9	1422.44
485.118	1353.44
485.336	1302.44
485.554	1348.44
485.772	1362.44
485.99	1302.44
486.209	1346.44
486.427	1314.44
486.645	1354.44
486.863	1377.44
487.081	1408.44
487.299	1413.44
487.517	1395.44
487.735	1397.44
487.953	1462.44
488.171	1432.44
488.389	1366.44
488.607	1404.44
488.825	1550.44
489.043	1490.44
489.261	1334.44
489.479	1412.44
489.696	1438.44
489.914	1402.44
490.132	1359.44
490.35	1404.44
490.568	1477.44
490.786	1444.44
491.003	1416.44
491.221	1476.44
491.439	1516.44
491.657	1525.44
491.874	1538.44
492.092	1580.44
492.31	1643.44
492.527	1569.44
492.745	1589.44
492.963	1515.44
493.18	1548.44
493.398	1628.44
493.615	1654.44
493.833	1515.44
494.05	1523.44
494.268	1522.44
494.485	1553.44
