Data from WStandard_LampEnergy10_LIBS07252019.E.O._I.C._HRD10591_15-55-34-928.txt Node
Date: Thu Jul 25 15:55:34 EDT 2019
User: cochatt
Spectrometer: HR+D1059
Trigger mode: 1
Integration Time (sec): 1.000000E-1
Scans to average: 1
Electric dark correction enabled: true
Nonlinearity correction enabled: false
Boxcar width: 0
XAxis mode: Wavelengths
Number of Pixels in Spectrum: 2048
>>>>>Begin Spectral Data<<<<<
223.165	-21.62
223.4	-21.62
223.635	-21.62
223.869	-14.62
224.104	-23.62
224.338	-15.62
224.573	-23.62
224.808	-7.62
225.042	1.38
225.277	4.38
225.511	-2.62
225.746	10.38
225.98	-3.62
226.215	-1.62
226.449	18.38
226.683	11.38
226.918	32.38
227.152	36.38
227.387	36.38
227.621	33.38
227.856	38.38
228.09	36.38
228.324	43.38
228.559	52.38
228.793	74.38
229.027	135.38
229.262	140.38
229.496	141.38
229.73	157.38
229.964	166.38
230.199	166.38
230.433	188.38
230.667	188.38
230.901	188.38
231.136	188.38
231.37	172.38
231.604	160.38
231.838	170.38
232.072	171.38
232.306	164.38
232.541	186.38
232.775	196.38
233.009	216.38
233.243	186.38
233.477	183.38
233.711	188.38
233.945	195.38
234.179	196.38
234.413	209.38
234.647	200.38
234.881	185.38
235.115	188.38
235.349	197.38
235.583	181.38
235.817	191.38
236.051	173.38
236.285	182.38
236.519	209.38
236.753	211.38
236.987	220.38
237.221	224.38
237.455	247.38
237.689	226.38
237.922	221.38
238.156	203.38
238.39	211.38
238.624	225.38
238.858	240.38
239.091	222.38
239.325	246.38
239.559	291.38
239.793	311.38
240.027	301.38
240.26	268.38
240.494	232.38
240.728	226.38
240.961	232.38
241.195	238.38
241.429	261.38
241.662	249.38
241.896	228.38
242.13	252.38
242.363	266.38
242.597	276.38
242.83	278.38
243.064	266.38
243.298	281.38
243.531	269.38
243.765	284.38
243.998	276.38
244.232	253.38
244.465	256.38
244.699	255.38
244.932	273.38
245.166	306.38
245.399	295.38
245.633	280.38
245.866	273.38
246.099	281.38
246.333	272.38
246.566	302.38
246.8	313.38
247.033	310.38
247.266	317.38
247.5	315.38
247.733	318.38
247.966	337.38
248.2	370.38
248.433	343.38
248.666	364.38
248.899	392.38
249.133	410.38
249.366	454.38
249.599	395.38
249.832	360.38
250.066	368.38
250.299	357.38
250.532	330.38
250.765	322.38
250.998	338.38
251.231	338.38
251.465	340.38
251.698	324.38
251.931	331.38
252.164	358.38
252.397	338.38
252.63	350.38
252.863	315.38
253.096	316.38
253.329	328.38
253.562	346.38
253.795	382.38
254.028	348.38
254.261	346.38
254.494	339.38
254.727	322.38
254.96	339.38
255.193	373.38
255.426	392.38
255.659	432.38
255.892	431.38
256.124	391.38
256.357	369.38
256.59	388.38
256.823	380.38
257.056	403.38
257.289	454.38
257.521	480.38
257.754	449.38
257.987	415.38
258.22	465.38
258.452	430.38
258.685	388.38
258.918	364.38
259.151	384.38
259.383	369.38
259.616	353.38
259.849	355.38
260.081	406.38
260.314	453.38
260.547	441.38
260.779	452.38
261.012	420.38
261.244	381.38
261.477	380.38
261.71	408.38
261.942	385.38
262.175	387.38
262.407	418.38
262.64	358.38
262.872	362.38
263.105	348.38
263.337	381.38
263.57	354.38
263.802	360.38
264.035	359.38
264.267	354.38
264.499	342.38
264.732	379.38
264.964	381.38
265.197	376.38
265.429	397.38
265.661	430.38
265.894	471.38
266.126	470.38
266.358	440.38
266.591	449.38
266.823	472.38
267.055	458.38
267.287	443.38
267.52	410.38
267.752	429.38
267.984	443.38
268.216	448.38
268.448	442.38
268.681	432.38
268.913	437.38
269.145	390.38
269.377	399.38
269.609	448.38
269.841	510.38
270.073	552.38
270.306	597.38
270.538	582.38
270.77	538.38
271.002	470.38
271.234	466.38
271.466	456.38
271.698	512.38
271.93	564.38
272.162	564.38
272.394	524.38
272.626	483.38
272.858	442.38
273.09	406.38
273.322	403.38
273.553	386.38
273.785	402.38
274.017	425.38
274.249	449.38
274.481	443.38
274.713	397.38
274.945	414.38
275.176	417.38
275.408	397.38
275.64	404.38
275.872	390.38
276.104	437.38
276.335	478.38
276.567	500.38
276.799	516.38
277.031	461.38
277.262	472.38
277.494	481.38
277.726	522.38
277.957	489.38
278.189	444.38
278.421	440.38
278.652	418.38
278.884	423.38
279.115	426.38
279.347	420.38
279.579	428.38
279.81	431.38
280.042	475.38
280.273	497.38
280.505	484.38
280.736	522.38
280.968	448.38
281.199	407.38
281.431	396.38
281.662	429.38
281.894	404.38
282.125	436.38
282.356	457.38
282.588	444.38
282.819	437.38
283.051	468.38
283.282	504.38
283.513	481.38
283.745	436.38
283.976	428.38
284.207	396.38
284.439	423.38
284.67	428.38
284.901	462.38
285.132	441.38
285.364	434.38
285.595	440.38
285.826	433.38
286.057	425.38
286.288	441.38
286.52	452.38
286.751	464.38
286.982	473.38
287.213	464.38
287.444	434.38
287.675	435.38
287.906	471.38
288.138	454.38
288.369	461.38
288.6	446.38
288.831	426.38
289.062	434.38
289.293	443.38
289.524	443.38
289.755	459.38
289.986	440.38
290.217	409.38
290.448	433.38
290.679	448.38
290.91	448.38
291.141	462.38
291.371	490.38
291.602	473.38
291.833	473.38
292.064	486.38
292.295	483.38
292.526	461.38
292.757	493.38
292.987	475.38
293.218	452.38
293.449	524.38
293.68	553.38
293.91	559.38
294.141	546.38
294.372	544.38
294.603	544.38
294.833	533.38
295.064	524.38
295.295	462.38
295.525	457.38
295.756	432.38
295.987	413.38
296.217	435.38
296.448	448.38
296.679	448.38
296.909	433.38
297.14	459.38
297.37	474.38
297.601	486.38
297.831	513.38
298.062	505.38
298.292	457.38
298.523	450.38
298.753	438.38
298.984	456.38
299.214	480.38
299.445	469.38
299.675	483.38
299.905	483.38
300.136	458.38
300.366	446.38
300.597	458.38
300.827	457.38
301.057	486.38
301.288	484.38
301.518	503.38
301.748	520.38
301.979	536.38
302.209	547.38
302.439	567.38
302.669	598.38
302.9	531.38
303.13	492.38
303.36	482.38
303.59	524.38
303.82	498.38
304.051	514.38
304.281	511.38
304.511	504.38
304.741	540.38
304.971	585.38
305.201	591.38
305.431	540.38
305.661	458.38
305.891	437.38
306.121	444.38
306.352	474.38
306.582	494.38
306.812	537.38
307.042	548.38
307.272	562.38
307.502	566.38
307.731	587.38
307.961	634.38
308.191	571.38
308.421	492.38
308.651	500.38
308.881	492.38
309.111	481.38
309.341	489.38
309.571	478.38
309.8	496.38
310.03	477.38
310.26	475.38
310.49	476.38
310.72	516.38
310.949	513.38
311.179	517.38
311.409	488.38
311.639	491.38
311.868	490.38
312.098	509.38
312.328	523.38
312.557	481.38
312.787	481.38
313.017	531.38
313.246	521.38
313.476	514.38
313.706	512.38
313.935	524.38
314.165	517.38
314.394	546.38
314.624	586.38
314.853	615.38
315.083	616.38
315.312	625.38
315.542	577.38
315.771	540.38
316.001	556.38
316.23	570.38
316.46	538.38
316.689	547.38
316.919	505.38
317.148	503.38
317.377	515.38
317.607	572.38
317.836	645.38
318.065	620.38
318.295	600.38
318.524	568.38
318.753	565.38
318.983	533.38
319.212	540.38
319.441	532.38
319.67	534.38
319.9	577.38
320.129	589.38
320.358	600.38
320.587	602.38
320.816	598.38
321.046	556.38
321.275	577.38
321.504	594.38
321.733	613.38
321.962	589.38
322.191	567.38
322.42	570.38
322.649	530.38
322.878	531.38
323.108	540.38
323.337	571.38
323.566	557.38
323.795	566.38
324.024	562.38
324.253	540.38
324.482	538.38
324.71	518.38
324.939	523.38
325.168	530.38
325.397	564.38
325.626	559.38
325.855	547.38
326.084	548.38
326.313	536.38
326.542	556.38
326.77	562.38
326.999	571.38
327.228	546.38
327.457	516.38
327.686	520.38
327.914	525.38
328.143	548.38
328.372	558.38
328.6	551.38
328.829	546.38
329.058	530.38
329.287	544.38
329.515	569.38
329.744	571.38
329.972	608.38
330.201	592.38
330.43	601.38
330.658	581.38
330.887	589.38
331.115	564.38
331.344	573.38
331.572	574.38
331.801	571.38
332.03	587.38
332.258	565.38
332.486	579.38
332.715	579.38
332.943	626.38
333.172	591.38
333.4	587.38
333.629	585.38
333.857	659.38
334.085	700.38
334.314	821.38
334.542	805.38
334.771	738.38
334.999	673.38
335.227	630.38
335.455	621.38
335.684	635.38
335.912	652.38
336.14	667.38
336.369	619.38
336.597	601.38
336.825	596.38
337.053	619.38
337.281	659.38
337.51	679.38
337.738	648.38
337.966	644.38
338.194	590.38
338.422	554.38
338.65	571.38
338.878	573.38
339.106	562.38
339.334	577.38
339.562	556.38
339.79	571.38
340.018	598.38
340.246	616.38
340.474	612.38
340.702	598.38
340.93	600.38
341.158	595.38
341.386	603.38
341.614	598.38
341.842	595.38
342.07	580.38
342.298	594.38
342.526	581.38
342.754	571.38
342.981	588.38
343.209	593.38
343.437	561.38
343.665	561.38
343.893	590.38
344.12	611.38
344.348	617.38
344.576	607.38
344.804	584.38
345.031	612.38
345.259	582.38
345.487	547.38
345.714	532.38
345.942	522.38
346.17	573.38
346.397	549.38
346.625	550.38
346.853	534.38
347.08	525.38
347.308	530.38
347.535	553.38
347.763	571.38
347.99	555.38
348.218	541.38
348.445	543.38
348.673	556.38
348.9	592.38
349.128	587.38
349.355	594.38
349.583	580.38
349.81	537.38
350.037	508.38
350.265	530.38
350.492	538.38
350.72	565.38
350.947	570.38
351.174	583.38
351.402	544.38
351.629	530.38
351.856	501.38
352.083	513.38
352.311	515.38
352.538	553.38
352.765	580.38
352.992	579.38
353.22	540.38
353.447	548.38
353.674	555.38
353.901	570.38
354.128	557.38
354.355	539.38
354.583	563.38
354.81	584.38
355.037	569.38
355.264	570.38
355.491	569.38
355.718	532.38
355.945	526.38
356.172	536.38
356.399	534.38
356.626	549.38
356.853	581.38
357.08	618.38
357.307	661.38
357.534	621.38
357.761	546.38
357.988	534.38
358.215	558.38
358.441	502.38
358.668	534.38
358.895	556.38
359.122	594.38
359.349	619.38
359.576	604.38
359.802	573.38
360.029	531.38
360.256	514.38
360.483	548.38
360.709	558.38
360.936	600.38
361.163	631.38
361.39	676.38
361.616	696.38
361.843	678.38
362.07	629.38
362.296	574.38
362.523	545.38
362.749	554.38
362.976	550.38
363.203	580.38
363.429	568.38
363.656	568.38
363.882	591.38
364.109	636.38
364.335	649.38
364.562	596.38
364.788	594.38
365.015	575.38
365.241	546.38
365.468	567.38
365.694	591.38
365.92	616.38
366.147	574.38
366.373	566.38
366.599	565.38
366.826	545.38
367.052	529.38
367.278	572.38
367.505	585.38
367.731	596.38
367.957	598.38
368.184	636.38
368.41	644.38
368.636	666.38
368.862	644.38
369.089	660.38
369.315	608.38
369.541	600.38
369.767	591.38
369.993	563.38
370.219	568.38
370.445	603.38
370.672	620.38
370.898	674.38
371.124	644.38
371.35	634.38
371.576	640.38
371.802	653.38
372.028	616.38
372.254	612.38
372.48	581.38
372.706	589.38
372.932	612.38
373.158	596.38
373.384	631.38
373.61	636.38
373.835	636.38
374.061	609.38
374.287	621.38
374.513	638.38
374.739	634.38
374.965	641.38
375.191	639.38
375.416	629.38
375.642	663.38
375.868	693.38
376.094	684.38
376.319	663.38
376.545	638.38
376.771	661.38
376.997	665.38
377.222	660.38
377.448	660.38
377.674	662.38
377.899	653.38
378.125	693.38
378.35	681.38
378.576	624.38
378.802	642.38
379.027	629.38
379.253	623.38
379.478	629.38
379.704	645.38
379.929	644.38
380.155	638.38
380.38	645.38
380.606	641.38
380.831	661.38
381.057	695.38
381.282	675.38
381.507	676.38
381.733	717.38
381.958	722.38
382.184	655.38
382.409	656.38
382.634	671.38
382.86	689.38
383.085	666.38
383.31	736.38
383.535	777.38
383.761	777.38
383.986	752.38
384.211	715.38
384.436	713.38
384.662	770.38
384.887	761.38
385.112	704.38
385.337	711.38
385.562	719.38
385.787	718.38
386.013	722.38
386.238	742.38
386.463	734.38
386.688	841.38
386.913	828.38
387.138	803.38
387.363	749.38
387.588	781.38
387.813	749.38
388.038	728.38
388.263	789.38
388.488	764.38
388.713	712.38
388.938	700.38
389.163	725.38
389.387	742.38
389.612	734.38
389.837	734.38
390.062	734.38
390.287	731.38
390.512	722.38
390.736	738.38
390.961	701.38
391.186	739.38
391.411	715.38
391.636	728.38
391.86	733.38
392.085	741.38
392.31	719.38
392.534	726.38
392.759	752.38
392.984	770.38
393.208	748.38
393.433	774.38
393.658	792.38
393.882	804.38
394.107	751.38
394.331	762.38
394.556	741.38
394.78	765.38
395.005	802.38
395.229	792.38
395.454	833.38
395.678	845.38
395.903	820.38
396.127	788.38
396.352	811.38
396.576	825.38
396.801	828.38
397.025	833.38
397.249	808.38
397.474	810.38
397.698	808.38
397.922	833.38
398.147	876.38
398.371	887.38
398.595	884.38
398.82	828.38
399.044	863.38
399.268	918.38
399.492	936.38
399.717	968.38
399.941	970.38
400.165	975.38
400.389	934.38
400.613	966.38
400.837	1121.38
401.062	1151.38
401.286	1012.38
401.51	953.38
401.734	940.38
401.958	892.38
402.182	891.38
402.406	874.38
402.63	852.38
402.854	889.38
403.078	873.38
403.302	882.38
403.526	898.38
403.75	912.38
403.974	932.38
404.198	915.38
404.422	952.38
404.645	973.38
404.869	956.38
405.093	880.38
405.317	869.38
405.541	907.38
405.765	903.38
405.988	933.38
406.212	936.38
406.436	948.38
406.66	985.38
406.883	997.38
407.107	1108.38
407.331	1214.38
407.555	1257.38
407.778	1130.38
408.002	981.38
408.226	947.38
408.449	937.38
408.673	948.38
408.896	931.38
409.12	927.38
409.344	945.38
409.567	945.38
409.791	918.38
410.014	924.38
410.238	1010.38
410.461	1041.38
410.685	944.38
410.908	932.38
411.132	954.38
411.355	914.38
411.578	916.38
411.802	924.38
412.025	927.38
412.249	925.38
412.472	906.38
412.695	892.38
412.919	891.38
413.142	881.38
413.365	902.38
413.589	948.38
413.812	982.38
414.035	965.38
414.258	907.38
414.482	914.38
414.705	896.38
414.928	889.38
415.151	903.38
415.374	900.38
415.597	931.38
415.821	949.38
416.044	932.38
416.267	928.38
416.49	922.38
416.713	900.38
416.936	944.38
417.159	944.38
417.382	934.38
417.605	918.38
417.828	932.38
418.051	935.38
418.274	889.38
418.497	883.38
418.72	938.38
418.943	914.38
419.166	948.38
419.389	948.38
419.611	935.38
419.834	928.38
420.057	932.38
420.28	939.38
420.503	910.38
420.726	927.38
420.948	924.38
421.171	905.38
421.394	915.38
421.617	984.38
421.839	977.38
422.062	933.38
422.285	917.38
422.507	898.38
422.73	881.38
422.953	878.38
423.175	890.38
423.398	914.38
423.621	909.38
423.843	918.38
424.066	940.38
424.288	1002.38
424.511	1033.38
424.733	1000.38
424.956	920.38
425.178	896.38
425.401	914.38
425.623	942.38
425.846	901.38
426.068	964.38
426.291	954.38
426.513	918.38
426.735	948.38
426.958	1010.38
427.18	1042.38
427.402	950.38
427.625	1001.38
427.847	978.38
428.069	910.38
428.292	900.38
428.514	886.38
428.736	859.38
428.958	891.38
429.181	939.38
429.403	1076.38
429.625	1181.38
429.847	1016.38
430.069	912.38
430.292	1048.38
430.514	1031.38
430.736	970.38
430.958	949.38
431.18	905.38
431.402	882.38
431.624	843.38
431.846	802.38
432.068	731.38
432.29	738.38
432.512	813.38
432.734	857.38
432.956	936.38
433.178	984.38
433.4	949.38
433.622	967.38
433.844	887.38
434.066	846.38
434.287	752.38
434.509	750.38
434.731	786.38
434.953	880.38
435.175	906.38
435.397	893.38
435.618	870.38
435.84	831.38
436.062	841.38
436.284	883.38
436.505	924.38
436.727	947.38
436.949	900.38
437.17	874.38
437.392	852.38
437.614	825.38
437.835	773.38
438.057	821.38
438.278	843.38
438.5	851.38
438.721	864.38
438.943	903.38
439.165	916.38
439.386	905.38
439.608	896.38
439.829	941.38
440.05	921.38
440.272	928.38
440.493	934.38
440.715	954.38
440.936	986.38
441.158	1044.38
441.379	1036.38
441.6	1011.38
441.822	995.38
442.043	990.38
442.264	979.38
442.486	940.38
442.707	937.38
442.928	957.38
443.149	977.38
443.371	971.38
443.592	992.38
443.813	985.38
444.034	996.38
444.255	1003.38
444.476	1019.38
444.698	1027.38
444.919	1002.38
445.14	1130.38
445.361	1063.38
445.582	1073.38
445.803	1026.38
446.024	1013.38
446.245	1004.38
446.466	1042.38
446.687	1058.38
446.908	1067.38
447.129	1009.38
447.35	1003.38
447.571	999.38
447.792	936.38
448.013	920.38
448.234	962.38
448.455	968.38
448.675	944.38
448.896	914.38
449.117	906.38
449.338	934.38
449.559	935.38
449.779	989.38
450	971.38
450.221	1022.38
450.442	976.38
450.662	917.38
450.883	877.38
451.104	867.38
451.324	859.38
451.545	882.38
451.766	843.38
451.986	827.38
452.207	814.38
452.428	789.38
452.648	755.38
452.869	769.38
453.089	769.38
453.31	777.38
453.53	758.38
453.751	720.38
453.971	672.38
454.192	720.38
454.412	758.38
454.633	761.38
454.853	738.38
455.073	756.38
455.294	772.38
455.514	770.38
455.734	759.38
455.955	761.38
456.175	758.38
456.395	706.38
456.616	708.38
456.836	720.38
457.056	714.38
457.276	704.38
457.497	686.38
457.717	707.38
457.937	698.38
458.157	723.38
458.377	680.38
458.598	673.38
458.818	672.38
459.038	697.38
459.258	703.38
459.478	686.38
459.698	696.38
459.918	722.38
460.138	797.38
460.358	816.38
460.578	839.38
460.798	834.38
461.018	869.38
461.238	839.38
461.458	834.38
461.678	852.38
461.898	804.38
462.118	799.38
462.338	836.38
462.558	840.38
462.777	861.38
462.997	863.38
463.217	880.38
463.437	875.38
463.657	838.38
463.876	826.38
464.096	836.38
464.316	826.38
464.536	883.38
464.755	846.38
464.975	827.38
465.195	855.38
465.414	852.38
465.634	874.38
465.854	887.38
466.073	937.38
466.293	911.38
466.512	846.38
466.732	867.38
466.951	889.38
467.171	874.38
467.391	859.38
467.61	872.38
467.829	902.38
468.049	950.38
468.268	1040.38
468.488	939.38
468.707	908.38
468.927	912.38
469.146	896.38
469.365	917.38
469.585	930.38
469.804	919.38
470.023	909.38
470.243	918.38
470.462	894.38
470.681	904.38
470.901	888.38
471.12	929.38
471.339	908.38
471.558	896.38
471.777	914.38
471.997	852.38
472.216	838.38
472.435	792.38
472.654	729.38
472.873	776.38
473.092	802.38
473.311	827.38
473.53	794.38
473.749	794.38
473.968	821.38
474.187	816.38
474.406	837.38
474.625	824.38
474.844	850.38
475.063	829.38
475.282	853.38
475.501	826.38
475.72	854.38
475.939	874.38
476.158	866.38
476.377	840.38
476.596	827.38
476.814	827.38
477.033	784.38
477.252	848.38
477.471	872.38
477.69	916.38
477.908	908.38
478.127	956.38
478.346	1007.38
478.564	998.38
478.783	981.38
479.002	998.38
479.22	990.38
479.439	1008.38
479.658	1046.38
479.876	976.38
480.095	877.38
480.313	874.38
480.532	871.38
480.751	870.38
480.969	801.38
481.188	808.38
481.406	780.38
481.624	748.38
481.843	796.38
482.061	808.38
482.28	858.38
482.498	886.38
482.717	812.38
482.935	859.38
483.153	970.38
483.372	1000.38
483.59	964.38
483.808	964.38
484.027	943.38
484.245	982.38
484.463	1194.38
484.681	1282.38
484.9	1026.38
485.118	937.38
485.336	908.38
485.554	890.38
485.772	875.38
485.99	868.38
486.209	904.38
486.427	883.38
486.645	928.38
486.863	997.38
487.081	1015.38
487.299	971.38
487.517	985.38
487.735	1104.38
487.953	1200.38
488.171	1165.38
488.389	1093.38
488.607	1063.38
488.825	1119.38
489.043	1024.38
489.261	979.38
489.479	1045.38
489.696	1051.38
489.914	982.38
490.132	1014.38
490.35	1072.38
490.568	1139.38
490.786	1153.38
491.003	1186.38
491.221	1203.38
491.439	1216.38
491.657	1300.38
491.874	1343.38
492.092	1404.38
492.31	1450.38
492.527	1414.38
492.745	1325.38
492.963	1284.38
493.18	1328.38
493.398	1308.38
493.615	1294.38
493.833	1257.38
494.05	1216.38
494.268	1191.38
494.485	1230.38
494.703	1222.38
494.92	1207.38
495.138	1180.38
495.355	1197.38
495.573	1264.38
495.79	1269.38
496.008	1247.38
496.225	1229.38
496.442	1180.38
496.66	1228.38
496.877	1197.38
497.094	1213.38
497.312	1201.38
497.529	1186.38
497.746	1178.38
497.963	1281.38
498.181	1278.38
498.398	1232.38
498.615	1227.38
498.832	1158.38
499.049	1111.38
499.267	1179.38
499.484	1242.38
499.701	1295.38
499.918	1339.38
500.135	1458.38
500.352	1520.38
500.569	1572.38
