Data from WStandard_LampEnergy5.5LIBS07252019.E.O._I.C._HRD10591_16-08-59-921.txt Node
Date: Thu Jul 25 16:08:59 EDT 2019
User: cochatt
Spectrometer: HR+D1059
Trigger mode: 1
Integration Time (sec): 1.000000E-1
Scans to average: 1
Electric dark correction enabled: true
Nonlinearity correction enabled: false
Boxcar width: 0
XAxis mode: Wavelengths
Number of Pixels in Spectrum: 2048
>>>>>Begin Spectral Data<<<<<
223.165	-16.88
223.4	-16.88
223.635	-16.88
223.869	-26.88
224.104	-18.88
224.338	-18.88
224.573	-8.88
224.808	-15.88
225.042	-8.88
225.277	-7.88
225.511	3.12
225.746	33.12
225.98	3.12
226.215	0.12
226.449	12.12
226.683	16.12
226.918	27.12
227.152	28.12
227.387	35.12
227.621	39.12
227.856	46.12
228.09	54.12
228.324	54.12
228.559	44.12
228.793	133.12
229.027	345.12
229.262	347.12
229.496	374.12
229.73	393.12
229.964	438.12
230.199	438.12
230.433	464.12
230.667	484.12
230.901	524.12
231.136	475.12
231.37	462.12
231.604	459.12
231.838	464.12
232.072	474.12
232.306	440.12
232.541	461.12
232.775	544.12
233.009	588.12
233.243	580.12
233.477	518.12
233.711	526.12
233.945	540.12
234.179	540.12
234.413	571.12
234.647	621.12
234.881	588.12
235.115	560.12
235.349	527.12
235.583	539.12
235.817	553.12
236.051	539.12
236.285	532.12
236.519	595.12
236.753	632.12
236.987	660.12
237.221	637.12
237.455	741.12
237.689	723.12
237.922	672.12
238.156	661.12
238.39	667.12
238.624	696.12
238.858	725.12
239.091	739.12
239.325	773.12
239.559	886.12
239.793	941.12
240.027	1017.12
240.26	1024.12
240.494	740.12
240.728	678.12
240.961	706.12
241.195	728.12
241.429	804.12
241.662	826.12
241.896	751.12
242.13	754.12
242.363	831.12
242.597	898.12
242.83	837.12
243.064	871.12
243.298	930.12
243.531	904.12
243.765	870.12
243.998	896.12
244.232	762.12
244.465	742.12
244.699	798.12
244.932	890.12
245.166	1023.12
245.399	940.12
245.633	847.12
245.866	855.12
246.099	882.12
246.333	924.12
246.566	930.12
246.8	1012.12
247.033	1118.12
247.266	1062.12
247.5	1045.12
247.733	1026.12
247.966	1084.12
248.2	1191.12
248.433	1156.12
248.666	1181.12
248.899	1283.12
249.133	1453.12
249.366	1684.12
249.599	1403.12
249.832	1217.12
250.066	1220.12
250.299	1266.12
250.532	1150.12
250.765	1050.12
250.998	1113.12
251.231	1133.12
251.465	1217.12
251.698	1118.12
251.931	1122.12
252.164	1195.12
252.397	1219.12
252.63	1213.12
252.863	1078.12
253.096	1062.12
253.329	1112.12
253.562	1156.12
253.795	1257.12
254.028	1268.12
254.261	1138.12
254.494	1111.12
254.727	1071.12
254.96	1115.12
255.193	1204.12
255.426	1388.12
255.659	1578.12
255.892	1621.12
256.124	1327.12
256.357	1303.12
256.59	1362.12
256.823	1364.12
257.056	1328.12
257.289	1660.12
257.521	1819.12
257.754	1636.12
257.987	1527.12
258.22	1707.12
258.452	1676.12
258.685	1377.12
258.918	1308.12
259.151	1326.12
259.383	1298.12
259.616	1137.12
259.849	1192.12
260.081	1359.12
260.314	1494.12
260.547	1622.12
260.779	1660.12
261.012	1560.12
261.244	1428.12
261.477	1337.12
261.71	1398.12
261.942	1383.12
262.175	1343.12
262.407	1410.12
262.64	1336.12
262.872	1257.12
263.105	1222.12
263.337	1258.12
263.57	1240.12
263.802	1261.12
264.035	1187.12
264.267	1120.12
264.499	1108.12
264.732	1187.12
264.964	1252.12
265.197	1287.12
265.429	1366.12
265.661	1514.12
265.894	1678.12
266.126	1761.12
266.358	1534.12
266.591	1555.12
266.823	1768.12
267.055	1583.12
267.287	1544.12
267.52	1529.12
267.752	1517.12
267.984	1518.12
268.216	1594.12
268.448	1597.12
268.681	1578.12
268.913	1436.12
269.145	1351.12
269.377	1338.12
269.609	1441.12
269.841	1665.12
270.073	2011.12
270.306	2210.12
270.538	2366.12
270.77	1988.12
271.002	1648.12
271.234	1607.12
271.466	1551.12
271.698	1754.12
271.93	2146.12
272.162	2123.12
272.394	1924.12
272.626	1844.12
272.858	1629.12
273.09	1410.12
273.322	1362.12
273.553	1360.12
273.785	1334.12
274.017	1412.12
274.249	1482.12
274.481	1564.12
274.713	1379.12
274.945	1344.12
275.176	1372.12
275.408	1343.12
275.64	1340.12
275.872	1318.12
276.104	1399.12
276.335	1603.12
276.567	1812.12
276.799	1820.12
277.031	1583.12
277.262	1538.12
277.494	1602.12
277.726	1784.12
277.957	1783.12
278.189	1642.12
278.421	1484.12
278.652	1454.12
278.884	1422.12
279.115	1455.12
279.347	1502.12
279.579	1410.12
279.81	1391.12
280.042	1573.12
280.273	1724.12
280.505	1677.12
280.736	1754.12
280.968	1682.12
281.199	1474.12
281.431	1366.12
281.662	1366.12
281.894	1407.12
282.125	1402.12
282.356	1501.12
282.588	1487.12
282.819	1488.12
283.051	1562.12
283.282	1739.12
283.513	1672.12
283.745	1437.12
283.976	1399.12
284.207	1420.12
284.439	1416.12
284.67	1451.12
284.901	1474.12
285.132	1489.12
285.364	1483.12
285.595	1510.12
285.826	1468.12
286.057	1491.12
286.288	1441.12
286.52	1491.12
286.751	1648.12
286.982	1683.12
287.213	1564.12
287.444	1399.12
287.675	1406.12
287.906	1475.12
288.138	1605.12
288.369	1526.12
288.6	1472.12
288.831	1424.12
289.062	1431.12
289.293	1443.12
289.524	1428.12
289.755	1522.12
289.986	1524.12
290.217	1419.12
290.448	1396.12
290.679	1454.12
290.91	1464.12
291.141	1516.12
291.371	1581.12
291.602	1565.12
291.833	1532.12
292.064	1576.12
292.295	1575.12
292.526	1616.12
292.757	1693.12
292.987	1576.12
293.218	1488.12
293.449	1625.12
293.68	1798.12
293.91	1926.12
294.141	1842.12
294.372	1714.12
294.603	1792.12
294.833	1836.12
295.064	1791.12
295.295	1625.12
295.525	1552.12
295.756	1441.12
295.987	1368.12
296.217	1442.12
296.448	1438.12
296.679	1474.12
296.909	1451.12
297.14	1464.12
297.37	1448.12
297.601	1587.12
297.831	1654.12
298.062	1666.12
298.292	1529.12
298.523	1502.12
298.753	1459.12
298.984	1485.12
299.214	1503.12
299.445	1533.12
299.675	1561.12
299.905	1543.12
300.136	1507.12
300.366	1467.12
300.597	1458.12
300.827	1439.12
301.057	1493.12
301.288	1570.12
301.518	1587.12
301.748	1642.12
301.979	1714.12
302.209	1694.12
302.439	1787.12
302.669	1912.12
302.9	1776.12
303.13	1566.12
303.36	1600.12
303.59	1645.12
303.82	1594.12
304.051	1595.12
304.281	1570.12
304.511	1589.12
304.741	1646.12
304.971	1852.12
305.201	2002.12
305.431	1899.12
305.661	1550.12
305.891	1396.12
306.121	1357.12
306.352	1449.12
306.582	1518.12
306.812	1613.12
307.042	1735.12
307.272	1743.12
307.502	1798.12
307.731	1924.12
307.961	2105.12
308.191	1920.12
308.421	1653.12
308.651	1551.12
308.881	1519.12
309.111	1515.12
309.341	1520.12
309.571	1544.12
309.8	1545.12
310.03	1523.12
310.26	1513.12
310.49	1531.12
310.72	1524.12
310.949	1605.12
311.179	1603.12
311.409	1607.12
311.639	1582.12
311.868	1534.12
312.098	1574.12
312.328	1540.12
312.557	1538.12
312.787	1603.12
313.017	1636.12
313.246	1576.12
313.476	1597.12
313.706	1586.12
313.935	1623.12
314.165	1679.12
314.394	1691.12
314.624	1780.12
314.853	1898.12
315.083	1920.12
315.312	1990.12
315.542	1863.12
315.771	1666.12
316.001	1644.12
316.23	1738.12
316.46	1738.12
316.689	1719.12
316.919	1603.12
317.148	1579.12
317.377	1543.12
317.607	1683.12
317.836	1922.12
318.065	1987.12
318.295	1878.12
318.524	1814.12
318.753	1727.12
318.983	1716.12
319.212	1724.12
319.441	1619.12
319.67	1655.12
319.9	1684.12
320.129	1746.12
320.358	1839.12
320.587	1871.12
320.816	1866.12
321.046	1901.12
321.275	1742.12
321.504	1762.12
321.733	1900.12
321.962	1827.12
322.191	1704.12
322.42	1708.12
322.649	1700.12
322.878	1637.12
323.108	1638.12
323.337	1756.12
323.566	1729.12
323.795	1724.12
324.024	1745.12
324.253	1711.12
324.482	1711.12
324.71	1682.12
324.939	1604.12
325.168	1608.12
325.397	1679.12
325.626	1707.12
325.855	1760.12
326.084	1646.12
326.313	1686.12
326.542	1701.12
326.77	1742.12
326.999	1744.12
327.228	1695.12
327.457	1578.12
327.686	1595.12
327.914	1601.12
328.143	1664.12
328.372	1687.12
328.6	1711.12
328.829	1700.12
329.058	1665.12
329.287	1626.12
329.515	1687.12
329.744	1743.12
329.972	1751.12
330.201	1902.12
330.43	1828.12
330.658	1779.12
330.887	1774.12
331.115	1762.12
331.344	1826.12
331.572	1757.12
331.801	1757.12
332.03	1730.12
332.258	1785.12
332.486	1800.12
332.715	1826.12
332.943	1802.12
333.172	1741.12
333.4	1845.12
333.629	1806.12
333.857	1906.12
334.085	2096.12
334.314	2403.12
334.542	2641.12
334.771	2468.12
334.999	2126.12
335.227	1994.12
335.455	1902.12
335.684	1897.12
335.912	1930.12
336.14	2023.12
336.369	1923.12
336.597	1817.12
336.825	1763.12
337.053	1858.12
337.281	1958.12
337.51	2001.12
337.738	2102.12
337.966	2063.12
338.194	1822.12
338.422	1794.12
338.65	1748.12
338.878	1711.12
339.106	1694.12
339.334	1722.12
339.562	1660.12
339.79	1693.12
340.018	1804.12
340.246	1886.12
340.474	1873.12
340.702	1806.12
340.93	1829.12
341.158	1805.12
341.386	1779.12
341.614	1730.12
341.842	1732.12
342.07	1780.12
342.298	1751.12
342.526	1771.12
342.754	1731.12
342.981	1732.12
343.209	1727.12
343.437	1741.12
343.665	1781.12
343.893	1792.12
344.12	1896.12
344.348	1892.12
344.576	1828.12
344.804	1754.12
345.031	1728.12
345.259	1796.12
345.487	1691.12
345.714	1646.12
345.942	1610.12
346.17	1614.12
346.397	1654.12
346.625	1707.12
346.853	1625.12
347.08	1548.12
347.308	1572.12
347.535	1621.12
347.763	1693.12
347.99	1631.12
348.218	1530.12
348.445	1649.12
348.673	1630.12
348.9	1672.12
349.128	1711.12
349.355	1800.12
349.583	1739.12
349.81	1666.12
350.037	1550.12
350.265	1514.12
350.492	1526.12
350.72	1588.12
350.947	1625.12
351.174	1701.12
351.402	1628.12
351.629	1568.12
351.856	1512.12
352.083	1483.12
352.311	1522.12
352.538	1574.12
352.765	1650.12
352.992	1690.12
353.22	1617.12
353.447	1542.12
353.674	1583.12
353.901	1628.12
354.128	1616.12
354.355	1568.12
354.583	1633.12
354.81	1666.12
355.037	1693.12
355.264	1685.12
355.491	1616.12
355.718	1678.12
355.945	1606.12
356.172	1585.12
356.399	1579.12
356.626	1551.12
356.853	1598.12
357.08	1698.12
357.307	1902.12
357.534	1931.12
357.761	1684.12
357.988	1565.12
358.215	1509.12
358.441	1540.12
358.668	1551.12
358.895	1553.12
359.122	1642.12
359.349	1835.12
359.576	1825.12
359.802	1607.12
360.029	1552.12
360.256	1528.12
360.483	1572.12
360.709	1621.12
360.936	1706.12
361.163	1716.12
361.39	1865.12
361.616	1990.12
361.843	1988.12
362.07	1907.12
362.296	1636.12
362.523	1617.12
362.749	1546.12
362.976	1654.12
363.203	1628.12
363.429	1604.12
363.656	1560.12
363.882	1614.12
364.109	1758.12
364.335	1919.12
364.562	1788.12
364.788	1718.12
365.015	1646.12
365.241	1565.12
365.468	1593.12
365.694	1692.12
365.92	1726.12
366.147	1664.12
366.373	1609.12
366.599	1571.12
366.826	1577.12
367.052	1568.12
367.278	1558.12
367.505	1607.12
367.731	1636.12
367.957	1650.12
368.184	1677.12
368.41	1798.12
368.636	1811.12
368.862	1789.12
369.089	1828.12
369.315	1756.12
369.541	1728.12
369.767	1657.12
369.993	1608.12
370.219	1592.12
370.445	1638.12
370.672	1706.12
370.898	1820.12
371.124	1831.12
371.35	1732.12
371.576	1789.12
371.802	1780.12
372.028	1737.12
372.254	1668.12
372.48	1637.12
372.706	1608.12
372.932	1613.12
373.158	1629.12
373.384	1646.12
373.61	1708.12
373.835	1796.12
374.061	1720.12
374.287	1692.12
374.513	1711.12
374.739	1701.12
374.965	1736.12
375.191	1735.12
375.416	1767.12
375.642	1751.12
375.868	1814.12
376.094	1857.12
376.319	1829.12
376.545	1715.12
376.771	1748.12
376.997	1846.12
377.222	1835.12
377.448	1754.12
377.674	1794.12
377.899	1725.12
378.125	1826.12
378.35	1850.12
378.576	1721.12
378.802	1608.12
379.027	1665.12
379.253	1653.12
379.478	1691.12
379.704	1667.12
379.929	1691.12
380.155	1680.12
380.38	1725.12
380.606	1690.12
380.831	1685.12
381.057	1765.12
381.282	1834.12
381.507	1796.12
381.733	1860.12
381.958	1979.12
382.184	1832.12
382.409	1752.12
382.634	1780.12
382.86	1766.12
383.085	1744.12
383.31	1818.12
383.535	1968.12
383.761	2048.12
383.986	1962.12
384.211	1908.12
384.436	1895.12
384.662	1953.12
384.887	2020.12
385.112	1998.12
385.337	1993.12
385.562	1906.12
385.787	1940.12
386.013	1974.12
386.238	2000.12
386.463	1964.12
386.688	2086.12
386.913	2234.12
387.138	2145.12
387.363	1963.12
387.588	1996.12
387.813	1993.12
388.038	1979.12
388.263	2052.12
388.488	2004.12
388.713	1904.12
388.938	1858.12
389.163	1868.12
389.387	1899.12
389.612	1884.12
389.837	1939.12
390.062	1941.12
390.287	1946.12
390.512	1911.12
390.736	1869.12
390.961	1892.12
391.186	1830.12
391.411	1828.12
391.636	1921.12
391.86	1926.12
392.085	1948.12
392.31	1923.12
392.534	1940.12
392.759	1935.12
392.984	1949.12
393.208	1979.12
393.433	1986.12
393.658	2026.12
393.882	2090.12
394.107	1953.12
394.331	1942.12
394.556	1927.12
394.78	1924.12
395.005	2028.12
395.229	2045.12
395.454	2211.12
395.678	2214.12
395.903	2122.12
396.127	2056.12
396.352	2084.12
396.576	2135.12
396.801	2119.12
397.025	2078.12
397.249	2109.12
397.474	2067.12
397.698	2067.12
397.922	2157.12
398.147	2228.12
398.371	2292.12
398.595	2301.12
398.82	2217.12
399.044	2241.12
399.268	2380.12
399.492	2459.12
399.717	2599.12
399.941	2622.12
400.165	2565.12
400.389	2460.12
400.613	2468.12
400.837	2677.12
401.062	3097.12
401.286	2678.12
401.51	2428.12
401.734	2505.12
401.958	2439.12
402.182	2309.12
402.406	2216.12
402.63	2196.12
402.854	2208.12
403.078	2250.12
403.302	2275.12
403.526	2282.12
403.75	2288.12
403.974	2284.12
404.198	2303.12
404.422	2366.12
404.645	2451.12
404.869	2484.12
405.093	2283.12
405.317	2194.12
405.541	2291.12
405.765	2330.12
405.988	2295.12
406.212	2332.12
406.436	2391.12
406.66	2508.12
406.883	2475.12
407.107	2692.12
407.331	2987.12
407.555	3259.12
407.778	3040.12
408.002	2489.12
408.226	2414.12
408.449	2440.12
408.673	2344.12
408.896	2416.12
409.12	2436.12
409.344	2386.12
409.567	2266.12
409.791	2367.12
410.014	2387.12
410.238	2418.12
410.461	2582.12
410.685	2384.12
410.908	2201.12
411.132	2291.12
411.355	2272.12
411.578	2223.12
411.802	2238.12
412.025	2332.12
412.249	2262.12
412.472	2190.12
412.695	2117.12
412.919	2178.12
413.142	2198.12
413.365	2194.12
413.589	2258.12
413.812	2406.12
414.035	2431.12
414.258	2266.12
414.482	2172.12
414.705	2197.12
414.928	2188.12
415.151	2192.12
415.374	2216.12
415.597	2254.12
415.821	2184.12
416.044	2306.12
416.267	2323.12
416.49	2136.12
416.713	2096.12
416.936	2196.12
417.159	2243.12
417.382	2267.12
417.605	2123.12
417.828	2252.12
418.051	2272.12
418.274	2149.12
418.497	2090.12
418.72	2111.12
418.943	2113.12
419.166	2291.12
419.389	2387.12
419.611	2260.12
419.834	2160.12
420.057	2207.12
420.28	2096.12
420.503	2110.12
420.726	2123.12
420.948	2152.12
421.171	2070.12
421.394	2128.12
421.617	2200.12
421.839	2190.12
422.062	2178.12
422.285	2086.12
422.507	2050.12
422.73	2050.12
422.953	2004.12
423.175	2034.12
423.398	2090.12
423.621	2140.12
423.843	2123.12
424.066	2183.12
424.288	2219.12
424.511	2278.12
424.733	2196.12
424.956	2015.12
425.178	1991.12
425.401	2041.12
425.623	2050.12
425.846	2066.12
426.068	2151.12
426.291	2140.12
426.513	2100.12
426.735	2168.12
426.958	2300.12
427.18	2432.12
427.402	2203.12
427.625	2287.12
427.847	2295.12
428.069	2143.12
428.292	2040.12
428.514	2036.12
428.736	1992.12
428.958	2031.12
429.181	2062.12
429.403	2323.12
429.625	2875.12
429.847	2535.12
430.069	2086.12
430.292	2305.12
430.514	2380.12
430.736	2227.12
430.958	2370.12
431.18	2211.12
431.402	2003.12
431.624	2029.12
431.846	2048.12
432.068	1997.12
432.29	2013.12
432.512	2084.12
432.734	2101.12
432.956	2145.12
433.178	2267.12
433.4	2192.12
433.622	2202.12
433.844	2138.12
434.066	2051.12
434.287	2011.12
434.509	2091.12
434.731	2220.12
434.953	2353.12
435.175	2286.12
435.397	2152.12
435.618	2178.12
435.84	2180.12
436.062	2151.12
436.284	2118.12
436.505	2133.12
436.727	2214.12
436.949	2130.12
437.17	2063.12
437.392	2070.12
437.614	2090.12
437.835	1966.12
438.057	2170.12
438.278	2205.12
438.5	2096.12
438.721	2059.12
438.943	2017.12
439.165	1987.12
439.386	1954.12
439.608	2011.12
439.829	2007.12
440.05	2007.12
440.272	2057.12
440.493	1975.12
440.715	2039.12
440.936	2153.12
441.158	2392.12
441.379	2343.12
441.6	2280.12
441.822	2210.12
442.043	2172.12
442.264	2159.12
442.486	2074.12
442.707	2028.12
442.928	2029.12
443.149	2115.12
443.371	2203.12
443.592	2276.12
443.813	2219.12
444.034	2197.12
444.255	2203.12
444.476	2272.12
444.698	2300.12
444.919	2244.12
445.14	2334.12
445.361	2398.12
445.582	2457.12
445.803	2317.12
446.024	2250.12
446.245	2361.12
446.466	2242.12
446.687	2153.12
446.908	2094.12
447.129	2061.12
447.35	2096.12
447.571	2108.12
447.792	2014.12
448.013	2010.12
448.234	2108.12
448.455	2132.12
448.675	2173.12
448.896	1966.12
449.117	1928.12
449.338	2007.12
449.559	2070.12
449.779	2208.12
450	2423.12
450.221	2652.12
450.442	2508.12
450.662	2184.12
450.883	1922.12
451.104	1922.12
451.324	1978.12
451.545	2054.12
451.766	1927.12
451.986	1882.12
452.207	1862.12
452.428	1819.12
452.648	1823.12
452.869	1864.12
453.089	1990.12
453.31	2010.12
453.53	2057.12
453.751	2001.12
453.971	1842.12
454.192	1866.12
454.412	2080.12
454.633	1954.12
454.853	1867.12
455.073	1791.12
455.294	1776.12
455.514	1780.12
455.734	1781.12
455.955	1854.12
456.175	1802.12
456.395	1854.12
456.616	1894.12
456.836	1926.12
457.056	1888.12
457.276	1887.12
457.497	1773.12
457.717	1772.12
457.937	1795.12
458.157	1828.12
458.377	1838.12
458.598	1822.12
458.818	1827.12
459.038	1970.12
459.258	2041.12
459.478	2103.12
459.698	2013.12
459.918	2054.12
460.138	2120.12
460.358	2206.12
460.578	2205.12
460.798	2251.12
461.018	2430.12
461.238	2299.12
461.458	2141.12
461.678	2190.12
461.898	2173.12
462.118	2101.12
462.338	2186.12
462.558	2193.12
462.777	2217.12
462.997	2301.12
463.217	2472.12
463.437	2374.12
463.657	2276.12
463.876	2248.12
464.096	2234.12
464.316	2208.12
464.536	2315.12
464.755	2262.12
464.975	2310.12
465.195	2271.12
465.414	2308.12
465.634	2336.12
465.854	2189.12
466.073	2270.12
466.293	2281.12
466.512	2027.12
466.732	2010.12
466.951	2101.12
467.171	2057.12
467.391	2012.12
467.61	1931.12
467.829	1964.12
468.049	2094.12
468.268	2347.12
468.488	2210.12
468.707	2116.12
468.927	2058.12
469.146	2007.12
469.365	1973.12
469.585	2002.12
469.804	1980.12
470.023	1946.12
470.243	2020.12
470.462	2010.12
470.681	1918.12
470.901	1992.12
471.12	2014.12
471.339	2029.12
471.558	1932.12
471.777	1916.12
471.997	1963.12
472.216	1951.12
472.435	1926.12
472.654	1923.12
472.873	2014.12
473.092	2104.12
473.311	2028.12
473.53	1908.12
473.749	1924.12
473.968	1961.12
474.187	2056.12
474.406	2174.12
474.625	2037.12
474.844	2005.12
475.063	2018.12
475.282	2101.12
475.501	1995.12
475.72	2028.12
475.939	2172.12
476.158	2057.12
476.377	2070.12
476.596	2043.12
476.814	2087.12
477.033	2094.12
477.252	2119.12
477.471	2188.12
477.69	2087.12
477.908	2098.12
478.127	2219.12
478.346	2430.12
478.564	2409.12
478.783	2368.12
479.002	2444.12
479.22	2405.12
479.439	2471.12
479.658	2824.12
479.876	2745.12
480.095	2397.12
480.313	2306.12
480.532	2229.12
480.751	2247.12
480.969	2307.12
481.188	2292.12
481.406	2248.12
481.624	2177.12
481.843	2252.12
482.061	2300.12
482.28	2275.12
482.498	2350.12
482.717	2330.12
482.935	2213.12
483.153	2215.12
483.372	2201.12
483.59	2222.12
483.808	2246.12
484.027	2263.12
484.245	2444.12
484.463	2759.12
484.681	3135.12
484.9	2480.12
485.118	2313.12
485.336	2263.12
485.554	2358.12
485.772	2476.12
485.99	2422.12
486.209	2415.12
486.427	2439.12
486.645	2372.12
486.863	2388.12
487.081	2429.12
487.299	2496.12
487.517	2436.12
