Data from WStandard_LampEnergy5.5LIBS07252019.E.O._I.C._HRD10591_16-06-50-920.txt Node
Date: Thu Jul 25 16:06:50 EDT 2019
User: cochatt
Spectrometer: HR+D1059
Trigger mode: 1
Integration Time (sec): 1.000000E-1
Scans to average: 1
Electric dark correction enabled: true
Nonlinearity correction enabled: false
Boxcar width: 0
XAxis mode: Wavelengths
Number of Pixels in Spectrum: 2048
>>>>>Begin Spectral Data<<<<<
223.165	-16.38
223.4	-16.38
223.635	-16.38
223.869	-28.38
224.104	-16.38
224.338	-19.38
224.573	7.62
224.808	-13.38
225.042	-7.38
225.277	5.62
225.511	-17.38
225.746	-7.38
225.98	2.62
226.215	21.62
226.449	25.62
226.683	20.62
226.918	18.62
227.152	23.62
227.387	49.62
227.621	43.62
227.856	46.62
228.09	47.62
228.324	59.62
228.559	62.62
228.793	162.62
229.027	362.62
229.262	376.62
229.496	398.62
229.73	391.62
229.964	463.62
230.199	469.62
230.433	482.62
230.667	500.62
230.901	542.62
231.136	520.62
231.37	484.62
231.604	486.62
231.838	470.62
232.072	479.62
232.306	445.62
232.541	491.62
232.775	572.62
233.009	636.62
233.243	608.62
233.477	530.62
233.711	550.62
233.945	594.62
234.179	566.62
234.413	590.62
234.647	663.62
234.881	602.62
235.115	575.62
235.349	580.62
235.583	588.62
235.817	573.62
236.051	547.62
236.285	554.62
236.519	619.62
236.753	684.62
236.987	714.62
237.221	692.62
237.455	772.62
237.689	713.62
237.922	682.62
238.156	690.62
238.39	662.62
238.624	725.62
238.858	786.62
239.091	789.62
239.325	814.62
239.559	962.62
239.793	994.62
240.027	1052.62
240.26	1071.62
240.494	764.62
240.728	708.62
240.961	719.62
241.195	741.62
241.429	837.62
241.662	828.62
241.896	796.62
242.13	777.62
242.363	863.62
242.597	927.62
242.83	908.62
243.064	927.62
243.298	1003.62
243.531	955.62
243.765	950.62
243.998	934.62
244.232	830.62
244.465	780.62
244.699	801.62
244.932	913.62
245.166	1060.62
245.399	984.62
245.633	926.62
245.866	894.62
246.099	934.62
246.333	956.62
246.566	995.62
246.8	1057.62
247.033	1197.62
247.266	1099.62
247.5	1100.62
247.733	1106.62
247.966	1112.62
248.2	1252.62
248.433	1223.62
248.666	1232.62
248.899	1344.62
249.133	1573.62
249.366	1792.62
249.599	1470.62
249.832	1315.62
250.066	1295.62
250.299	1325.62
250.532	1236.62
250.765	1096.62
250.998	1206.62
251.231	1216.62
251.465	1272.62
251.698	1214.62
251.931	1245.62
252.164	1207.62
252.397	1299.62
252.63	1298.62
252.863	1147.62
253.096	1117.62
253.329	1190.62
253.562	1242.62
253.795	1334.62
254.028	1332.62
254.261	1210.62
254.494	1198.62
254.727	1138.62
254.96	1195.62
255.193	1276.62
255.426	1458.62
255.659	1664.62
255.892	1720.62
256.124	1382.62
256.357	1332.62
256.59	1453.62
256.823	1468.62
257.056	1458.62
257.289	1763.62
257.521	1985.62
257.754	1744.62
257.987	1611.62
258.22	1851.62
258.452	1789.62
258.685	1429.62
258.918	1411.62
259.151	1415.62
259.383	1388.62
259.616	1178.62
259.849	1287.62
260.081	1428.62
260.314	1588.62
260.547	1739.62
260.779	1761.62
261.012	1647.62
261.244	1474.62
261.477	1371.62
261.71	1494.62
261.942	1456.62
262.175	1372.62
262.407	1479.62
262.64	1388.62
262.872	1351.62
263.105	1283.62
263.337	1300.62
263.57	1313.62
263.802	1318.62
264.035	1245.62
264.267	1152.62
264.499	1178.62
264.732	1218.62
264.964	1316.62
265.197	1375.62
265.429	1431.62
265.661	1628.62
265.894	1762.62
266.126	1825.62
266.358	1627.62
266.591	1722.62
266.823	1843.62
267.055	1624.62
267.287	1656.62
267.52	1619.62
267.752	1556.62
267.984	1596.62
268.216	1653.62
268.448	1719.62
268.681	1686.62
268.913	1569.62
269.145	1422.62
269.377	1432.62
269.609	1520.62
269.841	1731.62
270.073	2091.62
270.306	2345.62
270.538	2496.62
270.77	2075.62
271.002	1804.62
271.234	1686.62
271.466	1683.62
271.698	1893.62
271.93	2250.62
272.162	2286.62
272.394	2020.62
272.626	1982.62
272.858	1735.62
273.09	1469.62
273.322	1467.62
273.553	1371.62
273.785	1418.62
274.017	1478.62
274.249	1589.62
274.481	1583.62
274.713	1469.62
274.945	1440.62
275.176	1433.62
275.408	1419.62
275.64	1392.62
275.872	1367.62
276.104	1485.62
276.335	1722.62
276.567	1972.62
276.799	1984.62
277.031	1759.62
277.262	1623.62
277.494	1676.62
277.726	1876.62
277.957	1898.62
278.189	1683.62
278.421	1590.62
278.652	1559.62
278.884	1520.62
279.115	1501.62
279.347	1548.62
279.579	1466.62
279.81	1455.62
280.042	1670.62
280.273	1826.62
280.505	1834.62
280.736	1898.62
280.968	1751.62
281.199	1525.62
281.431	1462.62
281.662	1443.62
281.894	1455.62
282.125	1493.62
282.356	1556.62
282.588	1580.62
282.819	1584.62
283.051	1679.62
283.282	1802.62
283.513	1807.62
283.745	1571.62
283.976	1434.62
284.207	1466.62
284.439	1497.62
284.67	1483.62
284.901	1571.62
285.132	1569.62
285.364	1534.62
285.595	1578.62
285.826	1541.62
286.057	1539.62
286.288	1476.62
286.52	1589.62
286.751	1685.62
286.982	1749.62
287.213	1639.62
287.444	1499.62
287.675	1484.62
287.906	1566.62
288.138	1660.62
288.369	1639.62
288.6	1560.62
288.831	1492.62
289.062	1499.62
289.293	1499.62
289.524	1518.62
289.755	1568.62
289.986	1599.62
290.217	1482.62
290.448	1513.62
290.679	1562.62
290.91	1559.62
291.141	1592.62
291.371	1651.62
291.602	1612.62
291.833	1599.62
292.064	1696.62
292.295	1663.62
292.526	1686.62
292.757	1763.62
292.987	1684.62
293.218	1572.62
293.449	1676.62
293.68	1945.62
293.91	2069.62
294.141	1936.62
294.372	1776.62
294.603	1849.62
294.833	1918.62
295.064	1865.62
295.295	1670.62
295.525	1610.62
295.756	1496.62
295.987	1437.62
296.217	1470.62
296.448	1500.62
296.679	1507.62
296.909	1525.62
297.14	1496.62
297.37	1510.62
297.601	1605.62
297.831	1734.62
298.062	1763.62
298.292	1646.62
298.523	1537.62
298.753	1532.62
298.984	1597.62
299.214	1551.62
299.445	1599.62
299.675	1647.62
299.905	1612.62
300.136	1562.62
300.366	1564.62
300.597	1499.62
300.827	1482.62
301.057	1572.62
301.288	1642.62
301.518	1662.62
301.748	1674.62
301.979	1749.62
302.209	1779.62
302.439	1900.62
302.669	1997.62
302.9	1856.62
303.13	1648.62
303.36	1689.62
303.59	1709.62
303.82	1666.62
304.051	1659.62
304.281	1664.62
304.511	1666.62
304.741	1749.62
304.971	1917.62
305.201	2119.62
305.431	1984.62
305.661	1613.62
305.891	1467.62
306.121	1494.62
306.352	1500.62
306.582	1589.62
306.812	1710.62
307.042	1855.62
307.272	1837.62
307.502	1868.62
307.731	2025.62
307.961	2197.62
308.191	2059.62
308.421	1759.62
308.651	1612.62
308.881	1635.62
309.111	1616.62
309.341	1556.62
309.571	1571.62
309.8	1612.62
310.03	1594.62
310.26	1589.62
310.49	1591.62
310.72	1592.62
310.949	1686.62
311.179	1743.62
311.409	1701.62
311.639	1672.62
311.868	1602.62
312.098	1622.62
312.328	1635.62
312.557	1588.62
312.787	1633.62
313.017	1720.62
313.246	1666.62
313.476	1688.62
313.706	1711.62
313.935	1688.62
314.165	1707.62
314.394	1759.62
314.624	1863.62
314.853	1957.62
315.083	2025.62
315.312	2112.62
315.542	1963.62
315.771	1758.62
316.001	1714.62
316.23	1837.62
316.46	1842.62
316.689	1798.62
316.919	1736.62
317.148	1655.62
317.377	1624.62
317.607	1731.62
317.836	2017.62
318.065	2068.62
318.295	2012.62
318.524	1931.62
318.753	1785.62
318.983	1847.62
319.212	1801.62
319.441	1758.62
319.67	1727.62
319.9	1704.62
320.129	1831.62
320.358	1932.62
320.587	2014.62
320.816	2013.62
321.046	1900.62
321.275	1792.62
321.504	1849.62
321.733	2002.62
321.962	1925.62
322.191	1780.62
322.42	1763.62
322.649	1748.62
322.878	1741.62
323.108	1739.62
323.337	1816.62
323.566	1803.62
323.795	1806.62
324.024	1849.62
324.253	1793.62
324.482	1782.62
324.71	1718.62
324.939	1633.62
325.168	1693.62
325.397	1757.62
325.626	1831.62
325.855	1822.62
326.084	1773.62
326.313	1772.62
326.542	1816.62
326.77	1847.62
326.999	1848.62
327.228	1770.62
327.457	1676.62
327.686	1615.62
327.914	1673.62
328.143	1781.62
328.372	1747.62
328.6	1782.62
328.829	1738.62
329.058	1722.62
329.287	1709.62
329.515	1768.62
329.744	1787.62
329.972	1890.62
330.201	1966.62
330.43	1915.62
330.658	1846.62
330.887	1912.62
331.115	1876.62
331.344	1817.62
331.572	1844.62
331.801	1799.62
332.03	1820.62
332.258	1873.62
332.486	1835.62
332.715	1903.62
332.943	1907.62
333.172	1859.62
333.4	1914.62
333.629	1910.62
333.857	2002.62
334.085	2227.62
334.314	2482.62
334.542	2767.62
334.771	2604.62
334.999	2274.62
335.227	2082.62
335.455	1999.62
335.684	1981.62
335.912	2061.62
336.14	2111.62
336.369	2013.62
336.597	1917.62
336.825	1850.62
337.053	1948.62
337.281	2002.62
337.51	2121.62
337.738	2221.62
337.966	2120.62
338.194	1950.62
338.422	1838.62
338.65	1820.62
338.878	1812.62
339.106	1778.62
339.334	1767.62
339.562	1688.62
339.79	1774.62
340.018	1880.62
340.246	1967.62
340.474	1976.62
340.702	1917.62
340.93	1984.62
341.158	1891.62
341.386	1856.62
341.614	1872.62
341.842	1814.62
342.07	1821.62
342.298	1884.62
342.526	1822.62
342.754	1829.62
342.981	1812.62
343.209	1787.62
343.437	1812.62
343.665	1822.62
343.893	1862.62
344.12	1946.62
344.348	2019.62
344.576	1902.62
344.804	1813.62
345.031	1805.62
345.259	1872.62
345.487	1731.62
345.714	1693.62
345.942	1635.62
346.17	1704.62
346.397	1711.62
346.625	1787.62
346.853	1673.62
347.08	1632.62
347.308	1637.62
347.535	1707.62
347.763	1740.62
347.99	1738.62
348.218	1696.62
348.445	1654.62
348.673	1676.62
348.9	1725.62
349.128	1771.62
349.355	1867.62
349.583	1781.62
349.81	1725.62
350.037	1605.62
350.265	1578.62
350.492	1634.62
350.72	1687.62
350.947	1725.62
351.174	1801.62
351.402	1676.62
351.629	1572.62
351.856	1564.62
352.083	1561.62
352.311	1565.62
352.538	1638.62
352.765	1698.62
352.992	1767.62
353.22	1687.62
353.447	1643.62
353.674	1682.62
353.901	1729.62
354.128	1634.62
354.355	1602.62
354.583	1689.62
354.81	1741.62
355.037	1739.62
355.264	1748.62
355.491	1696.62
355.718	1710.62
355.945	1663.62
356.172	1642.62
356.399	1656.62
356.626	1622.62
356.853	1658.62
357.08	1805.62
357.307	2002.62
357.534	1989.62
357.761	1813.62
357.988	1631.62
358.215	1541.62
358.441	1592.62
358.668	1606.62
358.895	1604.62
359.122	1711.62
359.349	1932.62
359.576	1890.62
359.802	1657.62
360.029	1595.62
360.256	1594.62
360.483	1634.62
360.709	1694.62
360.936	1745.62
361.163	1781.62
361.39	1962.62
361.616	2176.62
361.843	2075.62
362.07	1951.62
362.296	1706.62
362.523	1681.62
362.749	1633.62
362.976	1725.62
363.203	1710.62
363.429	1675.62
363.656	1635.62
363.882	1675.62
364.109	1839.62
364.335	2008.62
364.562	1876.62
364.788	1798.62
365.015	1716.62
365.241	1641.62
365.468	1672.62
365.694	1742.62
365.92	1851.62
366.147	1758.62
366.373	1652.62
366.599	1598.62
366.826	1617.62
367.052	1652.62
367.278	1648.62
367.505	1709.62
367.731	1706.62
367.957	1727.62
368.184	1741.62
368.41	1867.62
368.636	1939.62
368.862	1883.62
369.089	1924.62
369.315	1835.62
369.541	1759.62
369.767	1673.62
369.993	1663.62
370.219	1655.62
370.445	1701.62
370.672	1774.62
370.898	1871.62
371.124	1864.62
371.35	1736.62
371.576	1821.62
371.802	1942.62
372.028	1824.62
372.254	1736.62
372.48	1676.62
372.706	1662.62
372.932	1683.62
373.158	1742.62
373.384	1704.62
373.61	1719.62
373.835	1863.62
374.061	1808.62
374.287	1763.62
374.513	1736.62
374.739	1771.62
374.965	1773.62
375.191	1807.62
375.416	1814.62
375.642	1835.62
375.868	1910.62
376.094	1959.62
376.319	1885.62
376.545	1734.62
376.771	1796.62
376.997	1880.62
377.222	1867.62
377.448	1834.62
377.674	1842.62
377.899	1815.62
378.125	1971.62
378.35	1936.62
378.576	1743.62
378.802	1687.62
379.027	1679.62
379.253	1716.62
379.478	1776.62
379.704	1771.62
379.929	1745.62
380.155	1759.62
380.38	1723.62
380.606	1763.62
380.831	1774.62
381.057	1853.62
381.282	1885.62
381.507	1832.62
381.733	1952.62
381.958	2037.62
382.184	1856.62
382.409	1796.62
382.634	1858.62
382.86	1841.62
383.085	1844.62
383.31	1836.62
383.535	2027.62
383.761	2134.62
383.986	2073.62
384.211	1991.62
384.436	1952.62
384.662	2063.62
384.887	2121.62
385.112	1999.62
385.337	2076.62
385.562	2003.62
385.787	2007.62
386.013	2081.62
386.238	2088.62
386.463	2063.62
386.688	2135.62
386.913	2249.62
387.138	2252.62
387.363	2049.62
387.588	2063.62
387.813	2056.62
388.038	2080.62
388.263	2138.62
388.488	2047.62
388.713	1872.62
388.938	1889.62
389.163	1957.62
389.387	2008.62
389.612	1975.62
389.837	2015.62
390.062	2037.62
390.287	1997.62
390.512	1970.62
390.736	1963.62
390.961	1911.62
391.186	1868.62
391.411	1926.62
391.636	1982.62
391.86	2015.62
392.085	1993.62
392.31	1959.62
392.534	1992.62
392.759	2009.62
392.984	1996.62
393.208	2087.62
393.433	2110.62
393.658	2208.62
393.882	2176.62
394.107	2027.62
394.331	1984.62
394.556	1946.62
394.78	2005.62
395.005	2083.62
395.229	2104.62
395.454	2292.62
395.678	2342.62
395.903	2200.62
396.127	2084.62
396.352	2124.62
396.576	2201.62
396.801	2224.62
397.025	2193.62
397.249	2191.62
397.474	2157.62
397.698	2119.62
397.922	2194.62
398.147	2302.62
398.371	2374.62
398.595	2420.62
398.82	2278.62
399.044	2328.62
399.268	2443.62
399.492	2574.62
399.717	2716.62
399.941	2688.62
400.165	2684.62
400.389	2537.62
400.613	2497.62
400.837	2750.62
401.062	3206.62
401.286	2712.62
401.51	2470.62
401.734	2655.62
401.958	2501.62
402.182	2322.62
402.406	2296.62
402.63	2215.62
402.854	2307.62
403.078	2280.62
403.302	2365.62
403.526	2386.62
403.75	2361.62
403.974	2389.62
404.198	2383.62
404.422	2390.62
404.645	2547.62
404.869	2499.62
405.093	2332.62
405.317	2266.62
405.541	2347.62
405.765	2379.62
405.988	2339.62
406.212	2438.62
406.436	2457.62
406.66	2550.62
406.883	2526.62
407.107	2863.62
407.331	3095.62
407.555	3380.62
407.778	3085.62
408.002	2551.62
408.226	2483.62
408.449	2518.62
408.673	2417.62
408.896	2426.62
409.12	2520.62
409.344	2372.62
409.567	2348.62
409.791	2381.62
410.014	2453.62
410.238	2547.62
410.461	2669.62
410.685	2417.62
410.908	2276.62
411.132	2360.62
411.355	2357.62
411.578	2306.62
411.802	2332.62
412.025	2375.62
412.249	2341.62
412.472	2250.62
412.695	2203.62
412.919	2238.62
413.142	2239.62
413.365	2264.62
413.589	2336.62
413.812	2375.62
414.035	2500.62
414.258	2292.62
414.482	2254.62
414.705	2308.62
414.928	2275.62
415.151	2272.62
415.374	2295.62
415.597	2285.62
415.821	2328.62
416.044	2423.62
416.267	2414.62
416.49	2198.62
416.713	2114.62
416.936	2228.62
417.159	2376.62
417.382	2355.62
417.605	2223.62
417.828	2274.62
418.051	2323.62
418.274	2262.62
418.497	2195.62
418.72	2189.62
418.943	2189.62
419.166	2332.62
419.389	2427.62
419.611	2264.62
419.834	2258.62
420.057	2257.62
420.28	2176.62
420.503	2231.62
420.726	2218.62
420.948	2261.62
421.171	2138.62
421.394	2197.62
421.617	2247.62
421.839	2247.62
422.062	2239.62
422.285	2168.62
422.507	2155.62
422.73	2140.62
422.953	2111.62
423.175	2062.62
423.398	2154.62
423.621	2185.62
423.843	2151.62
424.066	2182.62
424.288	2325.62
424.511	2359.62
424.733	2270.62
424.956	2076.62
425.178	2064.62
425.401	2100.62
425.623	2139.62
425.846	2091.62
426.068	2200.62
426.291	2328.62
426.513	2242.62
426.735	2277.62
426.958	2367.62
427.18	2548.62
427.402	2283.62
427.625	2399.62
427.847	2408.62
428.069	2267.62
428.292	2147.62
428.514	2068.62
428.736	2078.62
428.958	2120.62
429.181	2132.62
429.403	2416.62
429.625	2966.62
429.847	2624.62
430.069	2212.62
430.292	2355.62
430.514	2558.62
430.736	2328.62
430.958	2469.62
431.18	2269.62
431.402	2135.62
431.624	2098.62
431.846	2081.62
432.068	2072.62
432.29	2074.62
432.512	2075.62
432.734	2193.62
432.956	2219.62
433.178	2288.62
433.4	2322.62
433.622	2286.62
433.844	2169.62
434.066	2113.62
434.287	2056.62
434.509	2170.62
434.731	2233.62
434.953	2424.62
435.175	2399.62
435.397	2192.62
435.618	2253.62
435.84	2263.62
436.062	2217.62
436.284	2206.62
436.505	2260.62
436.727	2266.62
436.949	2238.62
437.17	2127.62
437.392	2126.62
437.614	2104.62
437.835	2046.62
438.057	2211.62
438.278	2301.62
438.5	2165.62
438.721	2110.62
438.943	2106.62
439.165	2094.62
439.386	2040.62
439.608	2091.62
439.829	2111.62
440.05	2120.62
440.272	2059.62
440.493	2041.62
440.715	2124.62
440.936	2280.62
441.158	2483.62
441.379	2453.62
441.6	2336.62
441.822	2280.62
442.043	2279.62
442.264	2197.62
442.486	2141.62
442.707	2088.62
442.928	2077.62
443.149	2155.62
443.371	2281.62
443.592	2392.62
443.813	2367.62
444.034	2277.62
444.255	2308.62
444.476	2379.62
444.698	2432.62
444.919	2380.62
445.14	2450.62
445.361	2420.62
445.582	2546.62
445.803	2389.62
446.024	2306.62
446.245	2397.62
446.466	2327.62
446.687	2121.62
446.908	2255.62
447.129	2141.62
447.35	2172.62
447.571	2159.62
447.792	2098.62
448.013	2023.62
448.234	2070.62
448.455	2205.62
448.675	2209.62
448.896	2055.62
449.117	2014.62
449.338	2058.62
449.559	2137.62
449.779	2267.62
450	2468.62
450.221	2702.62
450.442	2597.62
450.662	2294.62
450.883	2000.62
451.104	2000.62
451.324	2029.62
451.545	2092.62
451.766	2006.62
451.986	1930.62
452.207	1930.62
452.428	1918.62
452.648	1890.62
452.869	1935.62
453.089	2027.62
453.31	2038.62
453.53	2108.62
453.751	2027.62
453.971	1920.62
454.192	1945.62
454.412	2121.62
454.633	2057.62
454.853	1970.62
455.073	1844.62
455.294	1823.62
455.514	1856.62
455.734	1848.62
455.955	1896.62
456.175	1896.62
456.395	1869.62
456.616	1988.62
456.836	1993.62
457.056	1923.62
457.276	1945.62
457.497	1883.62
457.717	1817.62
457.937	1847.62
458.157	1892.62
458.377	1872.62
458.598	1835.62
458.818	1897.62
459.038	2000.62
459.258	2120.62
459.478	2144.62
459.698	2070.62
459.918	2126.62
460.138	2239.62
460.358	2197.62
460.578	2262.62
460.798	2313.62
461.018	2476.62
461.238	2356.62
461.458	2278.62
461.678	2293.62
461.898	2227.62
462.118	2129.62
462.338	2254.62
462.558	2258.62
462.777	2283.62
462.997	2387.62
463.217	2519.62
463.437	2488.62
463.657	2362.62
463.876	2252.62
464.096	2243.62
464.316	2241.62
464.536	2335.62
464.755	2343.62
464.975	2364.62
465.195	2313.62
465.414	2414.62
465.634	2394.62
465.854	2244.62
466.073	2402.62
466.293	2405.62
466.512	2078.62
466.732	2077.62
466.951	2154.62
467.171	2125.62
467.391	2036.62
467.61	2015.62
467.829	2067.62
468.049	2210.62
468.268	2475.62
468.488	2300.62
468.707	2206.62
468.927	2108.62
469.146	2037.62
469.365	2065.62
469.585	2064.62
469.804	2054.62
470.023	2002.62
470.243	2064.62
470.462	2036.62
470.681	2004.62
470.901	2054.62
471.12	2090.62
471.339	2026.62
471.558	2015.62
471.777	1993.62
471.997	2019.62
472.216	1992.62
472.435	1946.62
472.654	1991.62
472.873	2099.62
473.092	2202.62
473.311	2118.62
473.53	1981.62
473.749	1967.62
473.968	2058.62
474.187	2164.62
474.406	2251.62
474.625	2152.62
474.844	2101.62
475.063	2048.62
475.282	2156.62
475.501	2093.62
475.72	2093.62
475.939	2220.62
476.158	2156.62
476.377	2083.62
476.596	2072.62
476.814	2137.62
477.033	2202.62
477.252	2287.62
477.471	2328.62
477.69	2275.62
477.908	2180.62
478.127	2264.62
478.346	2498.62
478.564	2498.62
478.783	2499.62
479.002	2554.62
479.22	2416.62
479.439	2596.62
479.658	2908.62
479.876	2940.62
480.095	2473.62
480.313	2400.62
480.532	2279.62
480.751	2314.62
480.969	2392.62
481.188	2341.62
481.406	2279.62
481.624	2217.62
481.843	2276.62
482.061	2337.62
482.28	2363.62
482.498	2402.62
482.717	2410.62
482.935	2323.62
483.153	2289.62
483.372	2259.62
483.59	2292.62
483.808	2304.62
484.027	2357.62
484.245	2521.62
484.463	2890.62
484.681	3384.62
484.9	2559.62
485.118	2387.62
485.336	2290.62
485.554	2423.62
485.772	2507.62
485.99	2447.62
486.209	2538.62
486.427	2518.62
486.645	2469.62
486.863	2448.62
487.081	2543.62
487.299	2547.62
