Data from WStandard_LampEnergy5.5LIBS07252019.E.O._I.C._HRD10591_16-07-01-919.txt Node
Date: Thu Jul 25 16:07:01 EDT 2019
User: cochatt
Spectrometer: HR+D1059
Trigger mode: 1
Integration Time (sec): 1.000000E-1
Scans to average: 1
Electric dark correction enabled: true
Nonlinearity correction enabled: false
Boxcar width: 0
XAxis mode: Wavelengths
Number of Pixels in Spectrum: 2048
>>>>>Begin Spectral Data<<<<<
223.165	-15.69
223.4	-15.69
223.635	-15.69
223.869	-13.69
224.104	-31.69
224.338	-9.69
224.573	-15.69
224.808	-22.69
225.042	2.31
225.277	-1.69
225.511	-14.69
225.746	4.31
225.98	15.31
226.215	6.31
226.449	13.31
226.683	22.31
226.918	29.31
227.152	32.31
227.387	40.31
227.621	25.31
227.856	32.31
228.09	43.31
228.324	50.31
228.559	46.31
228.793	149.31
229.027	359.31
229.262	376.31
229.496	394.31
229.73	369.31
229.964	440.31
230.199	461.31
230.433	478.31
230.667	512.31
230.901	530.31
231.136	470.31
231.37	471.31
231.604	453.31
231.838	463.31
232.072	478.31
232.306	459.31
232.541	478.31
232.775	548.31
233.009	615.31
233.243	570.31
233.477	516.31
233.711	542.31
233.945	574.31
234.179	567.31
234.413	583.31
234.647	620.31
234.881	603.31
235.115	539.31
235.349	539.31
235.583	579.31
235.817	576.31
236.051	529.31
236.285	562.31
236.519	591.31
236.753	668.31
236.987	691.31
237.221	656.31
237.455	760.31
237.689	714.31
237.922	676.31
238.156	671.31
238.39	659.31
238.624	713.31
238.858	756.31
239.091	768.31
239.325	818.31
239.559	915.31
239.793	983.31
240.027	1070.31
240.26	1072.31
240.494	779.31
240.728	718.31
240.961	724.31
241.195	725.31
241.429	823.31
241.662	819.31
241.896	747.31
242.13	751.31
242.363	858.31
242.597	927.31
242.83	889.31
243.064	892.31
243.298	970.31
243.531	904.31
243.765	924.31
243.998	930.31
244.232	809.31
244.465	782.31
244.699	801.31
244.932	887.31
245.166	1037.31
245.399	1002.31
245.633	909.31
245.866	869.31
246.099	944.31
246.333	972.31
246.566	982.31
246.8	1058.31
247.033	1193.31
247.266	1084.31
247.5	1090.31
247.733	1061.31
247.966	1116.31
248.2	1223.31
248.433	1159.31
248.666	1218.31
248.899	1304.31
249.133	1495.31
249.366	1751.31
249.599	1444.31
249.832	1225.31
250.066	1264.31
250.299	1312.31
250.532	1208.31
250.765	1082.31
250.998	1165.31
251.231	1217.31
251.465	1262.31
251.698	1172.31
251.931	1176.31
252.164	1220.31
252.397	1271.31
252.63	1285.31
252.863	1101.31
253.096	1070.31
253.329	1140.31
253.562	1163.31
253.795	1279.31
254.028	1261.31
254.261	1160.31
254.494	1162.31
254.727	1104.31
254.96	1154.31
255.193	1249.31
255.426	1414.31
255.659	1656.31
255.892	1663.31
256.124	1383.31
256.357	1337.31
256.59	1440.31
256.823	1440.31
257.056	1403.31
257.289	1686.31
257.521	1922.31
257.754	1692.31
257.987	1582.31
258.22	1760.31
258.452	1727.31
258.685	1387.31
258.918	1345.31
259.151	1385.31
259.383	1327.31
259.616	1158.31
259.849	1244.31
260.081	1367.31
260.314	1523.31
260.547	1686.31
260.779	1710.31
261.012	1635.31
261.244	1438.31
261.477	1374.31
261.71	1439.31
261.942	1426.31
262.175	1377.31
262.407	1503.31
262.64	1408.31
262.872	1258.31
263.105	1212.31
263.337	1244.31
263.57	1311.31
263.802	1315.31
264.035	1219.31
264.267	1130.31
264.499	1123.31
264.732	1192.31
264.964	1302.31
265.197	1355.31
265.429	1382.31
265.661	1554.31
265.894	1694.31
266.126	1834.31
266.358	1577.31
266.591	1624.31
266.823	1816.31
267.055	1636.31
267.287	1606.31
267.52	1525.31
267.752	1526.31
267.984	1552.31
268.216	1630.31
268.448	1646.31
268.681	1672.31
268.913	1507.31
269.145	1422.31
269.377	1396.31
269.609	1490.31
269.841	1746.31
270.073	2041.31
270.306	2264.31
270.538	2409.31
270.77	2050.31
271.002	1751.31
271.234	1618.31
271.466	1610.31
271.698	1829.31
271.93	2208.31
272.162	2248.31
272.394	1970.31
272.626	1890.31
272.858	1694.31
273.09	1423.31
273.322	1416.31
273.553	1375.31
273.785	1381.31
274.017	1439.31
274.249	1578.31
274.481	1588.31
274.713	1458.31
274.945	1376.31
275.176	1396.31
275.408	1400.31
275.64	1375.31
275.872	1313.31
276.104	1449.31
276.335	1639.31
276.567	1898.31
276.799	1957.31
277.031	1684.31
277.262	1580.31
277.494	1667.31
277.726	1870.31
277.957	1838.31
278.189	1697.31
278.421	1520.31
278.652	1480.31
278.884	1459.31
279.115	1442.31
279.347	1481.31
279.579	1416.31
279.81	1436.31
280.042	1632.31
280.273	1761.31
280.505	1771.31
280.736	1790.31
280.968	1663.31
281.199	1521.31
281.431	1418.31
281.662	1445.31
281.894	1432.31
282.125	1459.31
282.356	1536.31
282.588	1516.31
282.819	1513.31
283.051	1611.31
283.282	1799.31
283.513	1716.31
283.745	1500.31
283.976	1406.31
284.207	1433.31
284.439	1445.31
284.67	1469.31
284.901	1529.31
285.132	1526.31
285.364	1522.31
285.595	1519.31
285.826	1510.31
286.057	1455.31
286.288	1478.31
286.52	1532.31
286.751	1691.31
286.982	1747.31
287.213	1610.31
287.444	1447.31
287.675	1413.31
287.906	1492.31
288.138	1594.31
288.369	1592.31
288.6	1508.31
288.831	1415.31
289.062	1430.31
289.293	1484.31
289.524	1494.31
289.755	1525.31
289.986	1536.31
290.217	1454.31
290.448	1426.31
290.679	1475.31
290.91	1463.31
291.141	1504.31
291.371	1591.31
291.602	1571.31
291.833	1584.31
292.064	1586.31
292.295	1588.31
292.526	1646.31
292.757	1744.31
292.987	1651.31
293.218	1551.31
293.449	1617.31
293.68	1863.31
293.91	2007.31
294.141	1881.31
294.372	1710.31
294.603	1754.31
294.833	1868.31
295.064	1823.31
295.295	1617.31
295.525	1566.31
295.756	1479.31
295.987	1358.31
296.217	1426.31
296.448	1458.31
296.679	1484.31
296.909	1467.31
297.14	1488.31
297.37	1480.31
297.601	1581.31
297.831	1674.31
298.062	1688.31
298.292	1565.31
298.523	1490.31
298.753	1480.31
298.984	1495.31
299.214	1512.31
299.445	1558.31
299.675	1638.31
299.905	1586.31
300.136	1512.31
300.366	1511.31
300.597	1503.31
300.827	1444.31
301.057	1484.31
301.288	1604.31
301.518	1618.31
301.748	1620.31
301.979	1721.31
302.209	1702.31
302.439	1839.31
302.669	1955.31
302.9	1800.31
303.13	1584.31
303.36	1627.31
303.59	1659.31
303.82	1641.31
304.051	1586.31
304.281	1638.31
304.511	1584.31
304.741	1682.31
304.971	1890.31
305.201	2076.31
305.431	1914.31
305.661	1592.31
305.891	1446.31
306.121	1447.31
306.352	1480.31
306.582	1579.31
306.812	1662.31
307.042	1802.31
307.272	1756.31
307.502	1824.31
307.731	1976.31
307.961	2168.31
308.191	2001.31
308.421	1678.31
308.651	1571.31
308.881	1583.31
309.111	1555.31
309.341	1511.31
309.571	1530.31
309.8	1511.31
310.03	1566.31
310.26	1543.31
310.49	1514.31
310.72	1552.31
310.949	1653.31
311.179	1682.31
311.409	1631.31
311.639	1586.31
311.868	1547.31
312.098	1586.31
312.328	1567.31
312.557	1554.31
312.787	1543.31
313.017	1639.31
313.246	1607.31
313.476	1595.31
313.706	1639.31
313.935	1640.31
314.165	1625.31
314.394	1711.31
314.624	1798.31
314.853	1909.31
315.083	1938.31
315.312	2000.31
315.542	1889.31
315.771	1681.31
316.001	1647.31
316.23	1778.31
316.46	1774.31
316.689	1723.31
316.919	1641.31
317.148	1575.31
317.377	1603.31
317.607	1666.31
317.836	1914.31
318.065	2003.31
318.295	1910.31
318.524	1824.31
318.753	1779.31
318.983	1768.31
319.212	1729.31
319.441	1683.31
319.67	1670.31
319.9	1680.31
320.129	1763.31
320.358	1865.31
320.587	1894.31
320.816	1854.31
321.046	1817.31
321.275	1726.31
321.504	1776.31
321.733	1907.31
321.962	1889.31
322.191	1717.31
322.42	1727.31
322.649	1670.31
322.878	1646.31
323.108	1670.31
323.337	1753.31
323.566	1761.31
323.795	1744.31
324.024	1784.31
324.253	1714.31
324.482	1732.31
324.71	1667.31
324.939	1635.31
325.168	1614.31
325.397	1646.31
325.626	1728.31
325.855	1754.31
326.084	1664.31
326.313	1730.31
326.542	1735.31
326.77	1780.31
326.999	1787.31
327.228	1718.31
327.457	1605.31
327.686	1602.31
327.914	1634.31
328.143	1706.31
328.372	1724.31
328.6	1712.31
328.829	1701.31
329.058	1633.31
329.287	1648.31
329.515	1692.31
329.744	1713.31
329.972	1806.31
330.201	1914.31
330.43	1875.31
330.658	1816.31
330.887	1802.31
331.115	1771.31
331.344	1814.31
331.572	1772.31
331.801	1759.31
332.03	1793.31
332.258	1786.31
332.486	1801.31
332.715	1823.31
332.943	1809.31
333.172	1758.31
333.4	1796.31
333.629	1848.31
333.857	1947.31
334.085	2122.31
334.314	2397.31
334.542	2691.31
334.771	2492.31
334.999	2148.31
335.227	2059.31
335.455	1954.31
335.684	1903.31
335.912	1947.31
336.14	2031.31
336.369	1981.31
336.597	1808.31
336.825	1776.31
337.053	1841.31
337.281	1955.31
337.51	2038.31
337.738	2102.31
337.966	2090.31
338.194	1854.31
338.422	1781.31
338.65	1762.31
338.878	1722.31
339.106	1696.31
339.334	1722.31
339.562	1662.31
339.79	1662.31
340.018	1777.31
340.246	1920.31
340.474	1893.31
340.702	1824.31
340.93	1881.31
341.158	1816.31
341.386	1808.31
341.614	1763.31
341.842	1758.31
342.07	1773.31
342.298	1827.31
342.526	1747.31
342.754	1751.31
342.981	1732.31
343.209	1718.31
343.437	1721.31
343.665	1739.31
343.893	1802.31
344.12	1811.31
344.348	1930.31
344.576	1829.31
344.804	1724.31
345.031	1710.31
345.259	1764.31
345.487	1735.31
345.714	1641.31
345.942	1575.31
346.17	1643.31
346.397	1629.31
346.625	1699.31
346.853	1590.31
347.08	1562.31
347.308	1578.31
347.535	1589.31
347.763	1680.31
347.99	1656.31
348.218	1594.31
348.445	1583.31
348.673	1653.31
348.9	1699.31
349.128	1721.31
349.355	1782.31
349.583	1733.31
349.81	1658.31
350.037	1548.31
350.265	1507.31
350.492	1578.31
350.72	1589.31
350.947	1608.31
351.174	1722.31
351.402	1627.31
351.629	1533.31
351.856	1560.31
352.083	1458.31
352.311	1530.31
352.538	1574.31
352.765	1643.31
352.992	1719.31
353.22	1655.31
353.447	1571.31
353.674	1602.31
353.901	1651.31
354.128	1630.31
354.355	1586.31
354.583	1635.31
354.81	1682.31
355.037	1659.31
355.264	1669.31
355.491	1649.31
355.718	1646.31
355.945	1655.31
356.172	1555.31
356.399	1512.31
356.626	1554.31
356.853	1639.31
357.08	1736.31
357.307	1919.31
357.534	1966.31
357.761	1724.31
357.988	1566.31
358.215	1518.31
358.441	1568.31
358.668	1551.31
358.895	1574.31
359.122	1623.31
359.349	1826.31
359.576	1805.31
359.802	1627.31
360.029	1578.31
360.256	1523.31
360.483	1591.31
360.709	1613.31
360.936	1654.31
361.163	1711.31
361.39	1909.31
361.616	2062.31
361.843	1979.31
362.07	1910.31
362.296	1618.31
362.523	1600.31
362.749	1588.31
362.976	1634.31
363.203	1694.31
363.429	1651.31
363.656	1544.31
363.882	1610.31
364.109	1766.31
364.335	1956.31
364.562	1804.31
364.788	1729.31
365.015	1639.31
365.241	1584.31
365.468	1583.31
365.694	1659.31
365.92	1775.31
366.147	1701.31
366.373	1559.31
366.599	1530.31
366.826	1555.31
367.052	1604.31
367.278	1584.31
367.505	1586.31
367.731	1629.31
367.957	1647.31
368.184	1688.31
368.41	1787.31
368.636	1791.31
368.862	1823.31
369.089	1835.31
369.315	1723.31
369.541	1722.31
369.767	1623.31
369.993	1607.31
370.219	1584.31
370.445	1610.31
370.672	1727.31
370.898	1845.31
371.124	1774.31
371.35	1660.31
371.576	1740.31
371.802	1828.31
372.028	1782.31
372.254	1656.31
372.48	1623.31
372.706	1581.31
372.932	1625.31
373.158	1667.31
373.384	1655.31
373.61	1709.31
373.835	1822.31
374.061	1730.31
374.287	1682.31
374.513	1673.31
374.739	1685.31
374.965	1735.31
375.191	1748.31
375.416	1727.31
375.642	1723.31
375.868	1842.31
376.094	1900.31
376.319	1840.31
376.545	1664.31
376.771	1705.31
376.997	1820.31
377.222	1830.31
377.448	1715.31
377.674	1810.31
377.899	1746.31
378.125	1862.31
378.35	1887.31
378.576	1718.31
378.802	1605.31
379.027	1638.31
379.253	1642.31
379.478	1660.31
379.704	1690.31
379.929	1657.31
380.155	1688.31
380.38	1707.31
380.606	1730.31
380.831	1710.31
381.057	1751.31
381.282	1823.31
381.507	1707.31
381.733	1822.31
381.958	1936.31
382.184	1785.31
382.409	1711.31
382.634	1764.31
382.86	1794.31
383.085	1751.31
383.31	1784.31
383.535	1914.31
383.761	2074.31
383.986	1984.31
384.211	1884.31
384.436	1886.31
384.662	1992.31
384.887	2049.31
385.112	1931.31
385.337	1983.31
385.562	1906.31
385.787	1945.31
386.013	1931.31
386.238	1999.31
386.463	1940.31
386.688	2069.31
386.913	2179.31
387.138	2176.31
387.363	2022.31
387.588	2011.31
387.813	2003.31
388.038	1989.31
388.263	2039.31
388.488	2035.31
388.713	1795.31
388.938	1839.31
389.163	1871.31
389.387	1902.31
389.612	1856.31
389.837	1922.31
390.062	1955.31
390.287	1950.31
390.512	1898.31
390.736	1913.31
390.961	1854.31
391.186	1779.31
391.411	1861.31
391.636	1856.31
391.86	1909.31
392.085	1979.31
392.31	1887.31
392.534	1896.31
392.759	1957.31
392.984	1940.31
393.208	1961.31
393.433	1976.31
393.658	2056.31
393.882	2109.31
394.107	1999.31
394.331	1942.31
394.556	1915.31
394.78	1916.31
395.005	1998.31
395.229	2034.31
395.454	2215.31
395.678	2200.31
395.903	2099.31
396.127	1998.31
396.352	2061.31
396.576	2112.31
396.801	2152.31
397.025	2139.31
397.249	2100.31
397.474	2085.31
397.698	2024.31
397.922	2134.31
398.147	2244.31
398.371	2326.31
398.595	2295.31
398.82	2195.31
399.044	2240.31
399.268	2264.31
399.492	2481.31
399.717	2547.31
399.941	2614.31
400.165	2552.31
400.389	2425.31
400.613	2397.31
400.837	2646.31
401.062	3075.31
401.286	2676.31
401.51	2408.31
401.734	2514.31
401.958	2451.31
402.182	2262.31
402.406	2201.31
402.63	2131.31
402.854	2163.31
403.078	2240.31
403.302	2261.31
403.526	2299.31
403.75	2288.31
403.974	2314.31
404.198	2275.31
404.422	2378.31
404.645	2456.31
404.869	2470.31
405.093	2268.31
405.317	2204.31
405.541	2240.31
405.765	2302.31
405.988	2243.31
406.212	2373.31
406.436	2400.31
406.66	2440.31
406.883	2443.31
407.107	2663.31
407.331	2980.31
407.555	3213.31
407.778	3000.31
408.002	2458.31
408.226	2383.31
408.449	2397.31
408.673	2336.31
408.896	2339.31
409.12	2431.31
409.344	2339.31
409.567	2212.31
409.791	2282.31
410.014	2316.31
410.238	2432.31
410.461	2552.31
410.685	2343.31
410.908	2236.31
411.132	2275.31
411.355	2229.31
411.578	2190.31
411.802	2252.31
412.025	2333.31
412.249	2213.31
412.472	2162.31
412.695	2140.31
412.919	2124.31
413.142	2145.31
413.365	2228.31
413.589	2224.31
413.812	2314.31
414.035	2434.31
414.258	2198.31
414.482	2169.31
414.705	2198.31
414.928	2144.31
415.151	2149.31
415.374	2145.31
415.597	2224.31
415.821	2274.31
416.044	2343.31
416.267	2334.31
416.49	2115.31
416.713	2099.31
416.936	2152.31
417.159	2263.31
417.382	2263.31
417.605	2111.31
417.828	2178.31
418.051	2215.31
418.274	2180.31
418.497	2080.31
418.72	2075.31
418.943	2056.31
419.166	2259.31
419.389	2320.31
419.611	2170.31
419.834	2138.31
420.057	2181.31
420.28	2114.31
420.503	2082.31
420.726	2159.31
420.948	2139.31
421.171	2061.31
421.394	2094.31
421.617	2186.31
421.839	2180.31
422.062	2146.31
422.285	2075.31
422.507	2080.31
422.73	2041.31
422.953	1988.31
423.175	2008.31
423.398	2082.31
423.621	2076.31
423.843	2084.31
424.066	2141.31
424.288	2211.31
424.511	2264.31
424.733	2207.31
424.956	2034.31
425.178	1966.31
425.401	2018.31
425.623	2013.31
425.846	2016.31
426.068	2193.31
426.291	2178.31
426.513	2174.31
426.735	2138.31
426.958	2270.31
427.18	2437.31
427.402	2230.31
427.625	2272.31
427.847	2325.31
428.069	2121.31
428.292	2066.31
428.514	1983.31
428.736	2011.31
428.958	2033.31
429.181	2036.31
429.403	2289.31
429.625	2848.31
429.847	2539.31
430.069	2064.31
430.292	2290.31
430.514	2420.31
430.736	2182.31
430.958	2289.31
431.18	2214.31
431.402	2084.31
431.624	1994.31
431.846	2054.31
432.068	1958.31
432.29	2035.31
432.512	2056.31
432.734	2098.31
432.956	2093.31
433.178	2176.31
433.4	2245.31
433.622	2187.31
433.844	2073.31
434.066	2000.31
434.287	1980.31
434.509	2083.31
434.731	2198.31
434.953	2374.31
435.175	2259.31
435.397	2144.31
435.618	2170.31
435.84	2210.31
436.062	2142.31
436.284	2111.31
436.505	2152.31
436.727	2161.31
436.949	2122.31
437.17	2052.31
437.392	2078.31
437.614	2054.31
437.835	2014.31
438.057	2153.31
438.278	2194.31
438.5	2086.31
438.721	2038.31
438.943	2039.31
439.165	2004.31
439.386	1984.31
439.608	1985.31
439.829	1992.31
440.05	2048.31
440.272	1991.31
440.493	1945.31
440.715	2011.31
440.936	2136.31
441.158	2361.31
441.379	2338.31
441.6	2256.31
441.822	2220.31
442.043	2192.31
442.264	2186.31
442.486	1994.31
442.707	2030.31
442.928	2005.31
443.149	2105.31
443.371	2265.31
443.592	2325.31
443.813	2276.31
444.034	2208.31
444.255	2265.31
444.476	2257.31
444.698	2319.31
444.919	2257.31
445.14	2373.31
445.361	2401.31
445.582	2429.31
445.803	2333.31
446.024	2218.31
446.245	2298.31
446.466	2231.31
446.687	2143.31
446.908	2149.31
447.129	2060.31
447.35	2137.31
447.571	2097.31
447.792	2012.31
448.013	2007.31
448.234	2062.31
448.455	2084.31
448.675	2139.31
448.896	2002.31
449.117	1920.31
449.338	2000.31
449.559	2108.31
449.779	2205.31
450	2462.31
450.221	2630.31
450.442	2531.31
450.662	2224.31
450.883	1978.31
451.104	1891.31
451.324	1939.31
451.545	2059.31
451.766	2010.31
451.986	1926.31
452.207	1864.31
452.428	1841.31
452.648	1782.31
452.869	1863.31
453.089	1973.31
453.31	1975.31
453.53	2075.31
453.751	1967.31
453.971	1875.31
454.192	1905.31
454.412	2048.31
454.633	1956.31
454.853	1915.31
455.073	1787.31
455.294	1724.31
455.514	1801.31
455.734	1832.31
455.955	1819.31
456.175	1822.31
456.395	1822.31
456.616	1883.31
456.836	1904.31
457.056	1904.31
457.276	1863.31
457.497	1817.31
457.717	1722.31
457.937	1770.31
458.157	1868.31
458.377	1806.31
458.598	1766.31
458.818	1798.31
459.038	1885.31
459.258	2076.31
459.478	2119.31
459.698	1971.31
459.918	2035.31
460.138	2151.31
460.358	2186.31
460.578	2159.31
460.798	2295.31
461.018	2410.31
461.238	2328.31
461.458	2170.31
461.678	2162.31
461.898	2098.31
462.118	2038.31
462.338	2165.31
462.558	2181.31
462.777	2154.31
462.997	2274.31
463.217	2381.31
463.437	2397.31
463.657	2222.31
463.876	2188.31
464.096	2165.31
464.316	2113.31
464.536	2291.31
464.755	2286.31
464.975	2302.31
465.195	2202.31
465.414	2330.31
465.634	2313.31
465.854	2166.31
466.073	2362.31
466.293	2310.31
466.512	2025.31
466.732	1999.31
466.951	2105.31
467.171	2036.31
467.391	1967.31
467.61	1921.31
467.829	1960.31
468.049	2139.31
468.268	2386.31
468.488	2223.31
468.707	2080.31
468.927	2011.31
469.146	1997.31
469.365	1943.31
469.585	1995.31
469.804	1978.31
470.023	1985.31
470.243	2048.31
470.462	1972.31
470.681	1918.31
470.901	2019.31
471.12	2011.31
471.339	1970.31
471.558	1950.31
471.777	1895.31
471.997	1949.31
472.216	1966.31
472.435	1879.31
472.654	1893.31
472.873	2056.31
473.092	2122.31
473.311	2011.31
473.53	1891.31
473.749	1846.31
473.968	1932.31
474.187	2024.31
474.406	2185.31
474.625	2073.31
474.844	2022.31
475.063	2001.31
475.282	2119.31
475.501	2032.31
475.72	2030.31
475.939	2180.31
476.158	2080.31
476.377	2035.31
476.596	1995.31
476.814	2050.31
477.033	2115.31
477.252	2170.31
477.471	2243.31
477.69	2111.31
477.908	2121.31
478.127	2225.31
478.346	2447.31
478.564	2422.31
478.783	2374.31
479.002	2467.31
479.22	2361.31
479.439	2464.31
479.658	2841.31
479.876	2800.31
480.095	2432.31
480.313	2358.31
480.532	2182.31
480.751	2250.31
480.969	2261.31
481.188	2290.31
481.406	2216.31
481.624	2162.31
481.843	2219.31
482.061	2268.31
482.28	2284.31
482.498	2356.31
482.717	2320.31
482.935	2161.31
483.153	2183.31
483.372	2236.31
483.59	2201.31
483.808	2236.31
484.027	2280.31
484.245	2415.31
484.463	2758.31
484.681	3234.31
484.9	2436.31
485.118	2310.31
485.336	2195.31
485.554	2347.31
485.772	2436.31
485.99	2429.31
486.209	2431.31
486.427	2377.31
486.645	2406.31
486.863	2345.31
487.081	2505.31
487.299	2498.31
