Data from WStandard_LampEnergy10_LIBS07252019.E.O._I.C._HRD10591_15-53-39-928.txt Node
Date: Thu Jul 25 15:53:39 EDT 2019
User: cochatt
Spectrometer: HR+D1059
Trigger mode: 1
Integration Time (sec): 1.000000E-1
Scans to average: 1
Electric dark correction enabled: true
Nonlinearity correction enabled: false
Boxcar width: 0
XAxis mode: Wavelengths
Number of Pixels in Spectrum: 2048
>>>>>Begin Spectral Data<<<<<
223.165	-0.44
223.4	-0.44
223.635	-0.44
223.869	-26.44
224.104	-5.44
224.338	-33.44
224.573	-27.44
224.808	-11.44
225.042	-11.44
225.277	2.56
225.511	-6.44
225.746	-18.44
225.98	27.56
226.215	21.56
226.449	7.56
226.683	29.56
226.918	22.56
227.152	29.56
227.387	34.56
227.621	38.56
227.856	41.56
228.09	53.56
228.324	45.56
228.559	44.56
228.793	92.56
229.027	134.56
229.262	129.56
229.496	143.56
229.73	159.56
229.964	176.56
230.199	159.56
230.433	187.56
230.667	187.56
230.901	175.56
231.136	167.56
231.37	165.56
231.604	175.56
231.838	194.56
232.072	179.56
232.306	182.56
232.541	182.56
232.775	216.56
233.009	223.56
233.243	193.56
233.477	183.56
233.711	204.56
233.945	208.56
234.179	190.56
234.413	196.56
234.647	216.56
234.881	204.56
235.115	185.56
235.349	210.56
235.583	190.56
235.817	179.56
236.051	212.56
236.285	202.56
236.519	208.56
236.753	220.56
236.987	214.56
237.221	239.56
237.455	240.56
237.689	249.56
237.922	227.56
238.156	220.56
238.39	212.56
238.624	227.56
238.858	257.56
239.091	245.56
239.325	257.56
239.559	301.56
239.793	294.56
240.027	318.56
240.26	294.56
240.494	229.56
240.728	243.56
240.961	238.56
241.195	255.56
241.429	257.56
241.662	248.56
241.896	248.56
242.13	236.56
242.363	266.56
242.597	291.56
242.83	265.56
243.064	278.56
243.298	286.56
243.531	290.56
243.765	279.56
243.998	277.56
244.232	267.56
244.465	259.56
244.699	267.56
244.932	300.56
245.166	325.56
245.399	297.56
245.633	285.56
245.866	263.56
246.099	293.56
246.333	301.56
246.566	309.56
246.8	316.56
247.033	349.56
247.266	329.56
247.5	311.56
247.733	321.56
247.966	324.56
248.2	357.56
248.433	351.56
248.666	371.56
248.899	409.56
249.133	441.56
249.366	462.56
249.599	390.56
249.832	375.56
250.066	375.56
250.299	366.56
250.532	349.56
250.765	326.56
250.998	354.56
251.231	369.56
251.465	349.56
251.698	339.56
251.931	335.56
252.164	361.56
252.397	365.56
252.63	340.56
252.863	326.56
253.096	328.56
253.329	335.56
253.562	352.56
253.795	373.56
254.028	357.56
254.261	341.56
254.494	329.56
254.727	348.56
254.96	358.56
255.193	351.56
255.426	414.56
255.659	440.56
255.892	459.56
256.124	384.56
256.357	395.56
256.59	411.56
256.823	409.56
257.056	425.56
257.289	487.56
257.521	505.56
257.754	471.56
257.987	441.56
258.22	458.56
258.452	437.56
258.685	407.56
258.918	398.56
259.151	398.56
259.383	378.56
259.616	349.56
259.849	393.56
260.081	408.56
260.314	453.56
260.547	481.56
260.779	472.56
261.012	438.56
261.244	422.56
261.477	381.56
261.71	429.56
261.942	388.56
262.175	392.56
262.407	411.56
262.64	402.56
262.872	355.56
263.105	355.56
263.337	385.56
263.57	382.56
263.802	372.56
264.035	357.56
264.267	338.56
264.499	333.56
264.732	362.56
264.964	378.56
265.197	401.56
265.429	418.56
265.661	464.56
265.894	488.56
266.126	506.56
266.358	468.56
266.591	468.56
266.823	513.56
267.055	445.56
267.287	456.56
267.52	447.56
267.752	436.56
267.984	447.56
268.216	470.56
268.448	467.56
268.681	454.56
268.913	437.56
269.145	406.56
269.377	430.56
269.609	470.56
269.841	531.56
270.073	573.56
270.306	613.56
270.538	632.56
270.77	550.56
271.002	483.56
271.234	462.56
271.466	487.56
271.698	537.56
271.93	601.56
272.162	623.56
272.394	540.56
272.626	505.56
272.858	458.56
273.09	413.56
273.322	428.56
273.553	410.56
273.785	413.56
274.017	419.56
274.249	415.56
274.481	458.56
274.713	430.56
274.945	429.56
275.176	422.56
275.408	403.56
275.64	402.56
275.872	407.56
276.104	430.56
276.335	499.56
276.567	533.56
276.799	520.56
277.031	493.56
277.262	466.56
277.494	505.56
277.726	531.56
277.957	519.56
278.189	460.56
278.421	447.56
278.652	431.56
278.884	447.56
279.115	439.56
279.347	429.56
279.579	423.56
279.81	446.56
280.042	461.56
280.273	517.56
280.505	523.56
280.736	521.56
280.968	476.56
281.199	439.56
281.431	427.56
281.662	418.56
281.894	434.56
282.125	435.56
282.356	458.56
282.588	468.56
282.819	461.56
283.051	489.56
283.282	511.56
283.513	502.56
283.745	442.56
283.976	439.56
284.207	446.56
284.439	436.56
284.67	448.56
284.901	463.56
285.132	473.56
285.364	462.56
285.595	453.56
285.826	445.56
286.057	444.56
286.288	445.56
286.52	466.56
286.751	498.56
286.982	488.56
287.213	472.56
287.444	446.56
287.675	451.56
287.906	452.56
288.138	492.56
288.369	472.56
288.6	431.56
288.831	445.56
289.062	418.56
289.293	437.56
289.524	463.56
289.755	450.56
289.986	467.56
290.217	462.56
290.448	457.56
290.679	452.56
290.91	486.56
291.141	506.56
291.371	484.56
291.602	472.56
291.833	491.56
292.064	492.56
292.295	502.56
292.526	515.56
292.757	500.56
292.987	481.56
293.218	491.56
293.449	511.56
293.68	559.56
293.91	582.56
294.141	569.56
294.372	541.56
294.603	540.56
294.833	563.56
295.064	541.56
295.295	517.56
295.525	470.56
295.756	451.56
295.987	440.56
296.217	459.56
296.448	474.56
296.679	469.56
296.909	467.56
297.14	440.56
297.37	476.56
297.601	514.56
297.831	539.56
298.062	514.56
298.292	467.56
298.523	450.56
298.753	454.56
298.984	464.56
299.214	497.56
299.445	490.56
299.675	492.56
299.905	479.56
300.136	492.56
300.366	469.56
300.597	470.56
300.827	490.56
301.057	493.56
301.288	514.56
301.518	509.56
301.748	532.56
301.979	558.56
302.209	566.56
302.439	600.56
302.669	582.56
302.9	563.56
303.13	506.56
303.36	520.56
303.59	511.56
303.82	502.56
304.051	514.56
304.281	533.56
304.511	555.56
304.741	573.56
304.971	610.56
305.201	653.56
305.431	578.56
305.661	503.56
305.891	467.56
306.121	439.56
306.352	516.56
306.582	492.56
306.812	531.56
307.042	563.56
307.272	573.56
307.502	591.56
307.731	637.56
307.961	637.56
308.191	587.56
308.421	537.56
308.651	501.56
308.881	500.56
309.111	506.56
309.341	492.56
309.571	510.56
309.8	491.56
310.03	481.56
310.26	497.56
310.49	494.56
310.72	531.56
310.949	542.56
311.179	512.56
311.409	531.56
311.639	514.56
311.868	516.56
312.098	515.56
312.328	513.56
312.557	502.56
312.787	538.56
313.017	540.56
313.246	514.56
313.476	532.56
313.706	531.56
313.935	546.56
314.165	547.56
314.394	577.56
314.624	618.56
314.853	606.56
315.083	631.56
315.312	616.56
315.542	597.56
315.771	550.56
316.001	554.56
316.23	573.56
316.46	567.56
316.689	565.56
316.919	538.56
317.148	531.56
317.377	574.56
317.607	587.56
317.836	651.56
318.065	619.56
318.295	609.56
318.524	594.56
318.753	563.56
318.983	576.56
319.212	572.56
319.441	561.56
319.67	551.56
319.9	572.56
320.129	596.56
320.358	619.56
320.587	626.56
320.816	614.56
321.046	609.56
321.275	577.56
321.504	572.56
321.733	619.56
321.962	602.56
322.191	559.56
322.42	572.56
322.649	571.56
322.878	550.56
323.108	581.56
323.337	591.56
323.566	578.56
323.795	580.56
324.024	572.56
324.253	567.56
324.482	545.56
324.71	542.56
324.939	533.56
325.168	551.56
325.397	577.56
325.626	579.56
325.855	581.56
326.084	565.56
326.313	579.56
326.542	566.56
326.77	582.56
326.999	583.56
327.228	545.56
327.457	543.56
327.686	531.56
327.914	536.56
328.143	569.56
328.372	574.56
328.6	551.56
328.829	556.56
329.058	546.56
329.287	551.56
329.515	551.56
329.744	593.56
329.972	620.56
330.201	647.56
330.43	623.56
330.658	593.56
330.887	600.56
331.115	617.56
331.344	610.56
331.572	582.56
331.801	598.56
332.03	587.56
332.258	603.56
332.486	601.56
332.715	617.56
332.943	602.56
333.172	608.56
333.4	595.56
333.629	624.56
333.857	663.56
334.085	749.56
334.314	825.56
334.542	860.56
334.771	781.56
334.999	696.56
335.227	661.56
335.455	631.56
335.684	645.56
335.912	666.56
336.14	661.56
336.369	641.56
336.597	602.56
336.825	599.56
337.053	625.56
337.281	665.56
337.51	706.56
337.738	707.56
337.966	664.56
338.194	615.56
338.422	613.56
338.65	599.56
338.878	597.56
339.106	579.56
339.334	583.56
339.562	580.56
339.79	592.56
340.018	640.56
340.246	637.56
340.474	633.56
340.702	628.56
340.93	618.56
341.158	629.56
341.386	615.56
341.614	603.56
341.842	599.56
342.07	614.56
342.298	621.56
342.526	619.56
342.754	598.56
342.981	597.56
343.209	600.56
343.437	591.56
343.665	598.56
343.893	621.56
344.12	654.56
344.348	633.56
344.576	609.56
344.804	598.56
345.031	604.56
345.259	601.56
345.487	573.56
345.714	566.56
345.942	570.56
346.17	573.56
346.397	567.56
346.625	563.56
346.853	542.56
347.08	527.56
347.308	558.56
347.535	575.56
347.763	555.56
347.99	551.56
348.218	528.56
348.445	557.56
348.673	565.56
348.9	596.56
349.128	610.56
349.355	616.56
349.583	607.56
349.81	569.56
350.037	552.56
350.265	555.56
350.492	567.56
350.72	585.56
350.947	591.56
351.174	577.56
351.402	556.56
351.629	549.56
351.856	532.56
352.083	512.56
352.311	527.56
352.538	558.56
352.765	594.56
352.992	578.56
353.22	570.56
353.447	552.56
353.674	551.56
353.901	571.56
354.128	536.56
354.355	570.56
354.583	583.56
354.81	614.56
355.037	585.56
355.264	598.56
355.491	569.56
355.718	569.56
355.945	557.56
356.172	573.56
356.399	539.56
356.626	567.56
356.853	602.56
357.08	650.56
357.307	689.56
357.534	665.56
357.761	585.56
357.988	511.56
358.215	542.56
358.441	559.56
358.668	557.56
358.895	557.56
359.122	597.56
359.349	641.56
359.576	631.56
359.802	594.56
360.029	557.56
360.256	549.56
360.483	572.56
360.709	602.56
360.936	614.56
361.163	648.56
361.39	675.56
361.616	711.56
361.843	681.56
362.07	656.56
362.296	577.56
362.523	565.56
362.749	561.56
362.976	598.56
363.203	618.56
363.429	572.56
363.656	573.56
363.882	600.56
364.109	656.56
364.335	667.56
364.562	617.56
364.788	580.56
365.015	577.56
365.241	571.56
365.468	581.56
365.694	626.56
365.92	610.56
366.147	567.56
366.373	572.56
366.599	583.56
366.826	577.56
367.052	573.56
367.278	554.56
367.505	592.56
367.731	611.56
367.957	626.56
368.184	637.56
368.41	679.56
368.636	704.56
368.862	689.56
369.089	661.56
369.315	645.56
369.541	625.56
369.767	577.56
369.993	592.56
370.219	582.56
370.445	617.56
370.672	639.56
370.898	673.56
371.124	633.56
371.35	646.56
371.576	656.56
371.802	665.56
372.028	635.56
372.254	634.56
372.48	614.56
372.706	598.56
372.932	613.56
373.158	623.56
373.384	639.56
373.61	652.56
373.835	657.56
374.061	645.56
374.287	647.56
374.513	645.56
374.739	641.56
374.965	651.56
375.191	644.56
375.416	649.56
375.642	667.56
375.868	727.56
376.094	703.56
376.319	663.56
376.545	674.56
376.771	676.56
376.997	712.56
377.222	694.56
377.448	671.56
377.674	677.56
377.899	678.56
378.125	726.56
378.35	699.56
378.576	631.56
378.802	612.56
379.027	620.56
379.253	636.56
379.478	620.56
379.704	645.56
379.929	677.56
380.155	655.56
380.38	647.56
380.606	656.56
380.831	673.56
381.057	719.56
381.282	685.56
381.507	692.56
381.733	727.56
381.958	742.56
382.184	692.56
382.409	678.56
382.634	700.56
382.86	687.56
383.085	695.56
383.31	724.56
383.535	787.56
383.761	833.56
383.986	777.56
384.211	740.56
384.436	767.56
384.662	761.56
384.887	767.56
385.112	750.56
385.337	731.56
385.562	702.56
385.787	755.56
386.013	771.56
386.238	732.56
386.463	753.56
386.688	819.56
386.913	862.56
387.138	835.56
387.363	829.56
387.588	764.56
387.813	769.56
388.038	797.56
388.263	826.56
388.488	789.56
388.713	714.56
388.938	723.56
389.163	720.56
389.387	757.56
389.612	721.56
389.837	761.56
390.062	746.56
390.287	757.56
390.512	742.56
390.736	738.56
390.961	740.56
391.186	745.56
391.411	746.56
391.636	760.56
391.86	751.56
392.085	741.56
392.31	782.56
392.534	769.56
392.759	761.56
392.984	758.56
393.208	787.56
393.433	805.56
393.658	829.56
393.882	812.56
394.107	795.56
394.331	781.56
394.556	753.56
394.78	790.56
395.005	810.56
395.229	860.56
395.454	889.56
395.678	857.56
395.903	835.56
396.127	803.56
396.352	826.56
396.576	839.56
396.801	899.56
397.025	847.56
397.249	828.56
397.474	835.56
397.698	856.56
397.922	855.56
398.147	901.56
398.371	903.56
398.595	893.56
398.82	879.56
399.044	895.56
399.268	945.56
399.492	1001.56
399.717	977.56
399.941	997.56
400.165	981.56
400.389	969.56
400.613	985.56
400.837	1121.56
401.062	1185.56
401.286	1014.56
401.51	961.56
401.734	970.56
401.958	955.56
402.182	900.56
402.406	872.56
402.63	872.56
402.854	895.56
403.078	881.56
403.302	926.56
403.526	929.56
403.75	918.56
403.974	947.56
404.198	925.56
404.422	957.56
404.645	1030.56
404.869	965.56
405.093	924.56
405.317	892.56
405.541	909.56
405.765	917.56
405.988	923.56
406.212	941.56
406.436	971.56
406.66	999.56
406.883	1028.56
407.107	1131.56
407.331	1205.56
407.555	1293.56
407.778	1137.56
408.002	987.56
408.226	961.56
408.449	999.56
408.673	934.56
408.896	961.56
409.12	965.56
409.344	945.56
409.567	920.56
409.791	948.56
410.014	1009.56
410.238	1045.56
410.461	1035.56
410.685	983.56
410.908	933.56
411.132	974.56
411.355	962.56
411.578	913.56
411.802	970.56
412.025	949.56
412.249	932.56
412.472	946.56
412.695	907.56
412.919	915.56
413.142	937.56
413.365	912.56
413.589	958.56
413.812	1025.56
414.035	1009.56
414.258	952.56
414.482	933.56
414.705	943.56
414.928	926.56
415.151	942.56
415.374	943.56
415.597	943.56
415.821	952.56
416.044	961.56
416.267	959.56
416.49	936.56
416.713	907.56
416.936	939.56
417.159	1013.56
417.382	956.56
417.605	939.56
417.828	960.56
418.051	934.56
418.274	971.56
418.497	930.56
418.72	933.56
418.943	950.56
419.166	990.56
419.389	996.56
419.611	963.56
419.834	962.56
420.057	951.56
420.28	950.56
420.503	939.56
420.726	953.56
420.948	926.56
421.171	951.56
421.394	968.56
421.617	984.56
421.839	978.56
422.062	984.56
422.285	958.56
422.507	928.56
422.73	915.56
422.953	903.56
423.175	902.56
423.398	941.56
423.621	942.56
423.843	923.56
424.066	1001.56
424.288	1030.56
424.511	1084.56
424.733	1030.56
424.956	940.56
425.178	933.56
425.401	940.56
425.623	952.56
425.846	955.56
426.068	976.56
426.291	959.56
426.513	957.56
426.735	964.56
426.958	1056.56
427.18	1059.56
427.402	989.56
427.625	1006.56
427.847	964.56
428.069	947.56
428.292	939.56
428.514	924.56
428.736	901.56
428.958	899.56
429.181	946.56
429.403	1039.56
429.625	1245.56
429.847	1041.56
430.069	948.56
430.292	1057.56
430.514	1053.56
430.736	972.56
430.958	979.56
431.18	934.56
431.402	866.56
431.624	846.56
431.846	808.56
432.068	726.56
432.29	761.56
432.512	809.56
432.734	885.56
432.956	925.56
433.178	970.56
433.4	974.56
433.622	967.56
433.844	925.56
434.066	875.56
434.287	814.56
434.509	784.56
434.731	808.56
434.953	900.56
435.175	941.56
435.397	935.56
435.618	908.56
435.84	857.56
436.062	850.56
436.284	901.56
436.505	943.56
436.727	965.56
436.949	933.56
437.17	923.56
437.392	866.56
437.614	857.56
437.835	810.56
438.057	825.56
438.278	827.56
438.5	867.56
438.721	903.56
438.943	921.56
439.165	914.56
439.386	927.56
439.608	1006.56
439.829	968.56
440.05	970.56
440.272	970.56
440.493	921.56
440.715	956.56
440.936	1035.56
441.158	1057.56
441.379	1045.56
441.6	1053.56
441.822	1037.56
442.043	1035.56
442.264	1024.56
442.486	960.56
442.707	962.56
442.928	980.56
443.149	1009.56
443.371	1019.56
443.592	1054.56
443.813	1045.56
444.034	1035.56
444.255	1030.56
444.476	1031.56
444.698	1055.56
444.919	1079.56
445.14	1149.56
445.361	1092.56
445.582	1109.56
445.803	1064.56
446.024	1048.56
446.245	1081.56
446.466	1066.56
446.687	1053.56
446.908	1052.56
447.129	1003.56
447.35	1066.56
447.571	1015.56
447.792	972.56
448.013	954.56
448.234	960.56
448.455	1015.56
448.675	1001.56
448.896	943.56
449.117	900.56
449.338	961.56
449.559	936.56
449.779	1003.56
450	1014.56
450.221	1065.56
450.442	989.56
450.662	958.56
450.883	903.56
451.104	871.56
451.324	890.56
451.545	882.56
451.766	862.56
451.986	857.56
452.207	837.56
452.428	789.56
452.648	821.56
452.869	794.56
453.089	784.56
453.31	783.56
453.53	777.56
453.751	718.56
453.971	696.56
454.192	728.56
454.412	767.56
454.633	779.56
454.853	761.56
455.073	767.56
455.294	762.56
455.514	764.56
455.734	775.56
455.955	776.56
456.175	762.56
456.395	743.56
456.616	738.56
456.836	744.56
457.056	748.56
457.276	737.56
457.497	722.56
457.717	720.56
457.937	719.56
458.157	725.56
458.377	685.56
458.598	677.56
458.818	672.56
459.038	709.56
459.258	699.56
459.478	723.56
459.698	712.56
459.918	757.56
460.138	817.56
460.358	832.56
460.578	839.56
460.798	832.56
461.018	910.56
461.238	875.56
461.458	864.56
461.678	852.56
461.898	810.56
462.118	827.56
462.338	865.56
462.558	863.56
462.777	853.56
462.997	882.56
463.217	891.56
463.437	896.56
463.657	840.56
463.876	839.56
464.096	818.56
464.316	828.56
464.536	883.56
464.755	911.56
464.975	890.56
465.195	876.56
465.414	912.56
465.634	887.56
465.854	910.56
466.073	979.56
466.293	961.56
466.512	877.56
466.732	880.56
466.951	927.56
467.171	896.56
467.391	892.56
467.61	895.56
467.829	905.56
468.049	985.56
468.268	1077.56
468.488	966.56
468.707	939.56
468.927	924.56
469.146	921.56
469.365	921.56
469.585	917.56
469.804	942.56
470.023	952.56
470.243	959.56
470.462	966.56
470.681	931.56
470.901	963.56
471.12	932.56
471.339	979.56
471.558	910.56
471.777	924.56
471.997	907.56
472.216	867.56
472.435	801.56
472.654	771.56
472.873	807.56
473.092	842.56
473.311	829.56
473.53	824.56
473.749	840.56
473.968	841.56
474.187	878.56
474.406	859.56
474.625	881.56
474.844	876.56
475.063	866.56
475.282	897.56
475.501	831.56
475.72	844.56
475.939	937.56
476.158	885.56
476.377	907.56
476.596	887.56
476.814	834.56
477.033	795.56
477.252	835.56
477.471	907.56
477.69	913.56
477.908	941.56
478.127	998.56
478.346	1010.56
478.564	1032.56
478.783	1003.56
479.002	1045.56
479.22	1017.56
479.439	1036.56
479.658	1062.56
479.876	1005.56
480.095	897.56
480.313	899.56
480.532	894.56
480.751	881.56
480.969	819.56
481.188	774.56
481.406	795.56
481.624	790.56
481.843	795.56
482.061	830.56
482.28	867.56
482.498	882.56
482.717	887.56
482.935	910.56
483.153	976.56
483.372	1050.56
483.59	1027.56
483.808	970.56
484.027	962.56
484.245	993.56
484.463	1254.56
484.681	1301.56
484.9	1049.56
485.118	998.56
485.336	949.56
485.554	909.56
485.772	910.56
485.99	876.56
486.209	927.56
486.427	919.56
486.645	951.56
486.863	1014.56
487.081	1066.56
487.299	1019.56
487.517	1009.56
487.735	1112.56
487.953	1179.56
488.171	1179.56
488.389	1141.56
488.607	1105.56
488.825	1175.56
489.043	1073.56
489.261	985.56
489.479	1050.56
489.696	1075.56
489.914	1064.56
490.132	1062.56
490.35	1099.56
490.568	1182.56
490.786	1205.56
491.003	1196.56
491.221	1287.56
491.439	1308.56
491.657	1329.56
491.874	1369.56
492.092	1469.56
492.31	1487.56
492.527	1472.56
492.745	1387.56
492.963	1345.56
493.18	1337.56
493.398	1384.56
493.615	1360.56
493.833	1280.56
494.05	1244.56
494.268	1231.56
494.485	1258.56
494.703	1260.56
494.92	1279.56
495.138	1224.56
495.355	1241.56
495.573	1265.56
495.79	1300.56
496.008	1291.56
496.225	1244.56
496.442	1251.56
496.66	1237.56
496.877	1265.56
497.094	1245.56
497.312	1230.56
497.529	1221.56
497.746	1181.56
497.963	1291.56
498.181	1306.56
498.398	1282.56
498.615	1211.56
498.832	1169.56
499.049	1189.56
499.267	1193.56
499.484	1261.56
499.701	1394.56
499.918	1389.56
500.135	1493.56
