Data from WStandard_LampEnergy8_LIBS07252019.E.O._I.C._HRD10591_15-58-12-928.txt Node
Date: Thu Jul 25 15:58:12 EDT 2019
User: cochatt
Spectrometer: HR+D1059
Trigger mode: 1
Integration Time (sec): 1.000000E-1
Scans to average: 1
Electric dark correction enabled: true
Nonlinearity correction enabled: false
Boxcar width: 0
XAxis mode: Wavelengths
Number of Pixels in Spectrum: 2048
>>>>>Begin Spectral Data<<<<<
223.165	-3
223.4	-3
223.635	-3
223.869	-19
224.104	-20
224.338	-15
224.573	-12
224.808	-18
225.042	-14
225.277	-15
225.511	1
225.746	-8
225.98	-4
226.215	7
226.449	14
226.683	33
226.918	28
227.152	45
227.387	42
227.621	42
227.856	37
228.09	57
228.324	44
228.559	54
228.793	99
229.027	202
229.262	200
229.496	222
229.73	232
229.964	257
230.199	265
230.433	278
230.667	294
230.901	288
231.136	265
231.37	268
231.604	275
231.838	264
232.072	276
232.306	260
232.541	268
232.775	299
233.009	326
233.243	313
233.477	305
233.711	314
233.945	342
234.179	315
234.413	342
234.647	347
234.881	333
235.115	305
235.349	290
235.583	305
235.817	291
236.051	308
236.285	284
236.519	332
236.753	382
236.987	356
237.221	346
237.455	373
237.689	388
237.922	358
238.156	370
238.39	340
238.624	371
238.858	391
239.091	416
239.325	425
239.559	480
239.793	498
240.027	532
240.26	511
240.494	402
240.728	388
240.961	396
241.195	397
241.429	442
241.662	405
241.896	394
242.13	410
242.363	452
242.597	458
242.83	469
243.064	468
243.298	491
243.531	505
243.765	493
243.998	493
244.232	433
244.465	411
244.699	415
244.932	475
245.166	541
245.399	473
245.633	467
245.866	489
246.099	499
246.333	489
246.566	523
246.8	562
247.033	601
247.266	539
247.5	519
247.733	572
247.966	585
248.2	628
248.433	609
248.666	637
248.899	698
249.133	761
249.366	852
249.599	717
249.832	666
250.066	636
250.299	655
250.532	620
250.765	564
250.998	594
251.231	586
251.465	621
251.698	613
251.931	593
252.164	612
252.397	626
252.63	629
252.863	571
253.096	574
253.329	608
253.562	616
253.795	646
254.028	620
254.261	600
254.494	609
254.727	554
254.96	608
255.193	637
255.426	718
255.659	829
255.892	813
256.124	692
256.357	670
256.59	704
256.823	704
257.056	733
257.289	880
257.521	932
257.754	835
257.987	810
258.22	877
258.452	857
258.685	710
258.918	724
259.151	709
259.383	668
259.616	611
259.849	663
260.081	737
260.314	784
260.547	858
260.779	876
261.012	813
261.244	715
261.477	700
261.71	712
261.942	713
262.175	691
262.407	766
262.64	682
262.872	652
263.105	628
263.337	643
263.57	651
263.802	658
264.035	620
264.267	582
264.499	569
264.732	628
264.964	678
265.197	688
265.429	732
265.661	796
265.894	875
266.126	890
266.358	814
266.591	830
266.823	890
267.055	794
267.287	816
267.52	812
267.752	781
267.984	802
268.216	824
268.448	834
268.681	818
268.913	746
269.145	715
269.377	726
269.609	820
269.841	910
270.073	1068
270.306	1148
270.538	1184
270.77	996
271.002	874
271.234	846
271.466	853
271.698	954
271.93	1091
272.162	1099
272.394	997
272.626	956
272.858	806
273.09	736
273.322	717
273.553	701
273.785	741
274.017	752
274.249	792
274.481	799
274.713	720
274.945	753
275.176	723
275.408	693
275.64	707
275.872	693
276.104	775
276.335	868
276.567	978
276.799	952
277.031	871
277.262	846
277.494	880
277.726	964
277.957	929
278.189	845
278.421	789
278.652	778
278.884	746
279.115	762
279.347	783
279.579	726
279.81	786
280.042	850
280.273	892
280.505	912
280.736	922
280.968	882
281.199	795
281.431	737
281.662	734
281.894	748
282.125	774
282.356	806
282.588	812
282.819	792
283.051	852
283.282	945
283.513	878
283.745	765
283.976	741
284.207	741
284.439	746
284.67	765
284.901	781
285.132	817
285.364	814
285.595	788
285.826	753
286.057	794
286.288	774
286.52	822
286.751	873
286.982	890
287.213	817
287.444	751
287.675	745
287.906	809
288.138	860
288.369	820
288.6	759
288.831	747
289.062	758
289.293	786
289.524	803
289.755	830
289.986	796
290.217	741
290.448	768
290.679	822
290.91	795
291.141	837
291.371	844
291.602	844
291.833	829
292.064	858
292.295	857
292.526	884
292.757	890
292.987	855
293.218	858
293.449	908
293.68	1023
293.91	1026
294.141	982
294.372	962
294.603	992
294.833	1003
295.064	961
295.295	871
295.525	833
295.756	793
295.987	754
296.217	771
296.448	776
296.679	824
296.909	794
297.14	802
297.37	841
297.601	862
297.831	912
298.062	906
298.292	812
298.523	778
298.753	821
298.984	819
299.214	860
299.445	878
299.675	857
299.905	852
300.136	847
300.366	819
300.597	761
300.827	797
301.057	833
301.288	865
301.518	853
301.748	909
301.979	930
302.209	972
302.439	1036
302.669	1037
302.9	957
303.13	890
303.36	890
303.59	869
303.82	866
304.051	866
304.281	885
304.511	946
304.741	972
304.971	1044
305.201	1130
305.431	969
305.661	836
305.891	769
306.121	787
306.352	806
306.582	861
306.812	926
307.042	972
307.272	983
307.502	1050
307.731	1099
307.961	1146
308.191	1045
308.421	890
308.651	856
308.881	857
309.111	833
309.341	857
309.571	873
309.8	862
310.03	836
310.26	872
310.49	846
310.72	884
310.949	928
311.179	925
311.409	889
311.639	874
311.868	864
312.098	884
312.328	868
312.557	854
312.787	891
313.017	889
313.246	894
313.476	897
313.706	912
313.935	914
314.165	888
314.394	960
314.624	1027
314.853	1056
315.083	1090
315.312	1100
315.542	1002
315.771	916
316.001	940
316.23	956
316.46	984
316.689	974
316.919	916
317.148	861
317.377	926
317.607	969
317.836	1089
318.065	1076
318.295	1042
318.524	1026
318.753	982
318.983	956
319.212	949
319.441	960
319.67	936
319.9	933
320.129	1046
320.358	1060
320.587	1050
320.816	1062
321.046	1013
321.275	962
321.504	998
321.733	1088
321.962	1035
322.191	964
322.42	954
322.649	962
322.878	948
323.108	945
323.337	988
323.566	991
323.795	993
324.024	968
324.253	962
324.482	976
324.71	932
324.939	893
325.168	910
325.397	950
325.626	1003
325.855	963
326.084	938
326.313	972
326.542	959
326.77	989
326.999	999
327.228	960
327.457	921
327.686	903
327.914	916
328.143	954
328.372	959
328.6	959
328.829	928
329.058	920
329.287	933
329.515	941
329.744	985
329.972	1022
330.201	1069
330.43	1010
330.658	1046
330.887	1002
331.115	1035
331.344	1049
331.572	1028
331.801	978
332.03	997
332.258	1000
332.486	1065
332.715	1022
332.943	1038
333.172	997
333.4	1015
333.629	1046
333.857	1154
334.085	1295
334.314	1400
334.542	1469
334.771	1336
334.999	1189
335.227	1113
335.455	1090
335.684	1103
335.912	1126
336.14	1142
336.369	1059
336.597	1016
336.825	1000
337.053	1063
337.281	1123
337.51	1163
337.738	1211
337.966	1170
338.194	1059
338.422	1031
338.65	1016
338.878	976
339.106	933
339.334	939
339.562	954
339.79	991
340.018	1056
340.246	1106
340.474	1033
340.702	1029
340.93	1054
341.158	1008
341.386	1030
341.614	1022
341.842	998
342.07	994
342.298	1043
342.526	997
342.754	978
342.981	1012
343.209	1002
343.437	976
343.665	1002
343.893	1067
344.12	1096
344.348	1067
344.576	1026
344.804	1020
345.031	1011
345.259	987
345.487	971
345.714	939
345.942	940
346.17	933
346.397	974
346.625	953
346.853	902
347.08	888
347.308	919
347.535	929
347.763	954
347.99	940
348.218	917
348.445	887
348.673	964
348.9	966
349.128	1003
349.355	1030
349.583	989
349.81	957
350.037	900
350.265	884
350.492	875
350.72	933
350.947	940
351.174	977
351.402	911
351.629	868
351.856	839
352.083	866
352.311	904
352.538	909
352.765	944
352.992	959
353.22	919
353.447	924
353.674	947
353.901	948
354.128	902
354.355	922
354.583	963
354.81	988
355.037	988
355.264	1003
355.491	939
355.718	926
355.945	926
356.172	916
356.399	911
356.626	912
356.853	963
357.08	1058
357.307	1138
357.534	1077
357.761	981
357.988	926
358.215	905
358.441	925
358.668	910
358.895	926
359.122	1012
359.349	1062
359.576	1007
359.802	950
360.029	899
360.256	887
360.483	916
360.709	945
360.936	1004
361.163	1040
361.39	1129
361.616	1202
361.843	1140
362.07	1105
362.296	969
362.523	912
362.749	916
362.976	947
363.203	985
363.429	900
363.656	899
363.882	992
364.109	1079
364.335	1108
364.562	1050
364.788	962
365.015	939
365.241	931
365.468	1000
365.694	1021
365.92	1000
366.147	948
366.373	912
366.599	919
366.826	900
367.052	932
367.278	909
367.505	950
367.731	1008
367.957	995
368.184	1026
368.41	1076
368.636	1114
368.862	1048
369.089	1079
369.315	1025
369.541	1006
369.767	981
369.993	910
370.219	951
370.445	969
370.672	1048
370.898	1093
371.124	1077
371.35	1014
371.576	1069
371.802	1067
372.028	1002
372.254	1002
372.48	966
372.706	967
372.932	925
373.158	980
373.384	998
373.61	1030
373.835	1038
374.061	1006
374.287	1003
374.513	1003
374.739	1001
374.965	970
375.191	1028
375.416	1038
375.642	1037
375.868	1143
376.094	1132
376.319	1060
376.545	1041
376.771	1058
376.997	1139
377.222	1085
377.448	1022
377.674	1078
377.899	1056
378.125	1129
378.35	1117
378.576	984
378.802	977
379.027	956
379.253	968
379.478	1032
379.704	1015
379.929	980
380.155	1006
380.38	1033
380.606	1028
380.831	1042
381.057	1106
381.282	1085
381.507	1059
381.733	1122
381.958	1170
382.184	1065
382.409	1059
382.634	1056
382.86	1048
383.085	1049
383.31	1083
383.535	1214
383.761	1232
383.986	1184
384.211	1146
384.436	1145
384.662	1206
384.887	1223
385.112	1156
385.337	1185
385.562	1140
385.787	1144
386.013	1177
386.238	1176
386.463	1164
386.688	1300
386.913	1332
387.138	1239
387.363	1230
387.588	1170
387.813	1171
388.038	1210
388.263	1249
388.488	1160
388.713	1090
388.938	1112
389.163	1100
389.387	1152
389.612	1139
389.837	1205
390.062	1148
390.287	1176
390.512	1154
390.736	1114
390.961	1101
391.186	1108
391.411	1141
391.636	1167
391.86	1132
392.085	1146
392.31	1115
392.534	1177
392.759	1140
392.984	1133
393.208	1194
393.433	1193
393.658	1275
393.882	1263
394.107	1184
394.331	1164
394.556	1147
394.78	1164
395.005	1196
395.229	1272
395.454	1361
395.678	1307
395.903	1238
396.127	1241
396.352	1268
396.576	1268
396.801	1267
397.025	1292
397.249	1278
397.474	1264
397.698	1250
397.922	1288
398.147	1340
398.371	1418
398.595	1382
398.82	1324
399.044	1344
399.268	1405
399.492	1498
399.717	1493
399.941	1489
400.165	1472
400.389	1475
400.613	1508
400.837	1693
401.062	1813
401.286	1555
401.51	1442
401.734	1514
401.958	1459
402.182	1325
402.406	1325
402.63	1294
402.854	1274
403.078	1314
403.302	1358
403.526	1404
403.75	1362
403.974	1376
404.198	1366
404.422	1451
404.645	1514
404.869	1456
405.093	1333
405.317	1312
405.541	1387
405.765	1378
405.988	1367
406.212	1387
406.436	1453
406.66	1481
406.883	1500
407.107	1751
407.331	1837
407.555	1952
407.778	1693
408.002	1461
408.226	1422
408.449	1448
408.673	1400
408.896	1406
409.12	1429
409.344	1397
409.567	1351
409.791	1412
410.014	1412
410.238	1472
410.461	1594
410.685	1426
410.908	1335
411.132	1361
411.355	1358
411.578	1322
411.802	1341
412.025	1408
412.249	1337
412.472	1310
412.695	1329
412.919	1302
413.142	1344
413.365	1346
413.589	1403
413.812	1486
414.035	1482
414.258	1327
414.482	1318
414.705	1319
414.928	1311
415.151	1297
415.374	1317
415.597	1345
415.821	1362
416.044	1357
416.267	1363
416.49	1279
416.713	1324
416.936	1361
417.159	1418
417.382	1418
417.605	1323
417.828	1338
418.051	1345
418.274	1365
418.497	1294
418.72	1281
418.943	1292
419.166	1358
419.389	1396
419.611	1372
419.834	1312
420.057	1322
420.28	1317
420.503	1322
420.726	1361
420.948	1328
421.171	1284
421.394	1304
421.617	1400
421.839	1378
422.062	1340
422.285	1313
422.507	1308
422.73	1280
422.953	1262
423.175	1274
423.398	1304
423.621	1285
423.843	1323
424.066	1339
424.288	1421
424.511	1418
424.733	1402
424.956	1273
425.178	1281
425.401	1271
425.623	1305
425.846	1302
426.068	1332
426.291	1344
426.513	1333
426.735	1338
426.958	1470
427.18	1532
427.402	1398
427.625	1450
427.847	1443
428.069	1330
428.292	1282
428.514	1241
428.736	1245
428.958	1267
429.181	1325
429.403	1507
429.625	1733
429.847	1472
430.069	1318
430.292	1485
430.514	1483
430.736	1374
430.958	1415
431.18	1323
431.402	1236
431.624	1209
431.846	1191
432.068	1149
432.29	1155
432.512	1246
432.734	1286
432.956	1307
433.178	1358
433.4	1353
433.622	1361
433.844	1278
434.066	1216
434.287	1213
434.509	1255
434.731	1317
434.953	1373
435.175	1356
435.397	1278
435.618	1330
435.84	1281
436.062	1230
436.284	1301
436.505	1315
436.727	1349
436.949	1308
437.17	1265
437.392	1253
437.614	1246
437.835	1189
438.057	1261
438.278	1264
438.5	1229
438.721	1221
438.943	1251
439.165	1278
439.386	1244
439.608	1278
439.829	1248
440.05	1314
440.272	1248
440.493	1257
440.715	1295
440.936	1373
441.158	1451
441.379	1446
441.6	1416
441.822	1372
442.043	1389
442.264	1344
442.486	1292
442.707	1301
442.928	1283
443.149	1317
443.371	1400
443.592	1386
443.813	1379
444.034	1384
444.255	1388
444.476	1404
444.698	1444
444.919	1416
445.14	1523
445.361	1474
445.582	1494
445.803	1410
446.024	1440
446.245	1456
446.466	1397
446.687	1361
446.908	1353
447.129	1310
447.35	1329
447.571	1296
447.792	1279
448.013	1249
448.234	1259
448.455	1330
448.675	1342
448.896	1231
449.117	1202
449.338	1241
449.559	1305
449.779	1356
450	1453
450.221	1516
450.442	1462
450.662	1290
450.883	1182
451.104	1197
451.324	1223
451.545	1264
451.766	1176
451.986	1148
452.207	1156
452.428	1148
452.648	1131
452.869	1164
453.089	1159
453.31	1169
453.53	1189
453.751	1148
453.971	1079
454.192	1123
454.412	1156
454.633	1180
454.853	1114
455.073	1066
455.294	1089
455.514	1092
455.734	1068
455.955	1107
456.175	1090
456.395	1100
456.616	1148
456.836	1107
457.056	1118
457.276	1106
457.497	1060
457.717	1023
457.937	1072
458.157	1067
458.377	1047
458.598	1075
458.818	1094
459.038	1122
459.258	1194
459.478	1151
459.698	1132
459.918	1181
460.138	1220
460.358	1279
460.578	1307
460.798	1335
461.018	1387
461.238	1308
461.458	1293
461.678	1256
461.898	1208
462.118	1222
462.338	1309
462.558	1283
462.777	1284
462.997	1310
463.217	1347
463.437	1381
463.657	1297
463.876	1268
464.096	1254
464.316	1272
464.536	1297
464.755	1360
464.975	1358
465.195	1268
465.414	1349
465.634	1342
465.854	1317
466.073	1398
466.293	1373
466.512	1207
466.732	1208
466.951	1281
467.171	1242
467.391	1226
467.61	1203
467.829	1279
468.049	1348
468.268	1500
468.488	1352
468.707	1283
468.927	1269
469.146	1245
469.365	1231
469.585	1226
469.804	1268
470.023	1257
470.243	1276
470.462	1254
470.681	1219
470.901	1286
471.12	1245
471.339	1240
471.558	1242
471.777	1222
471.997	1207
472.216	1186
472.435	1155
472.654	1148
472.873	1198
473.092	1248
473.311	1202
473.53	1184
473.749	1143
473.968	1190
474.187	1281
474.406	1255
474.625	1249
474.844	1213
475.063	1218
475.282	1233
475.501	1236
475.72	1218
475.939	1303
476.158	1247
476.377	1223
476.596	1255
476.814	1257
477.033	1238
477.252	1265
477.471	1357
477.69	1335
477.908	1309
478.127	1398
478.346	1436
478.564	1470
478.783	1427
479.002	1457
479.22	1404
479.439	1487
479.658	1626
479.876	1533
480.095	1409
480.313	1379
480.532	1311
480.751	1326
480.969	1312
481.188	1303
481.406	1258
481.624	1251
481.843	1282
482.061	1319
482.28	1342
482.498	1344
482.717	1363
482.935	1302
483.153	1405
483.372	1410
483.59	1357
483.808	1384
484.027	1408
484.245	1480
484.463	1796
484.681	1901
484.9	1493
485.118	1420
485.336	1390
485.554	1412
485.772	1414
485.99	1399
486.209	1400
486.427	1393
486.645	1434
486.863	1463
487.081	1499
487.299	1491
487.517	1455
487.735	1474
487.953	1504
488.171	1546
488.389	1512
488.607	1483
488.825	1580
489.043	1570
489.261	1417
489.479	1493
489.696	1491
489.914	1521
490.132	1457
490.35	1482
490.568	1592
490.786	1507
491.003	1487
491.221	1571
491.439	1623
491.657	1623
491.874	1646
492.092	1668
492.31	1724
492.527	1684
492.745	1637
492.963	1615
493.18	1664
493.398	1747
493.615	1748
493.833	1630
494.05	1602
494.268	1536
494.485	1587
494.703	1572
494.92	1556
495.138	1564
495.355	1593
495.573	1639
495.79	1669
496.008	1730
496.225	1650
496.442	1636
496.66	1639
496.877	1668
497.094	1677
497.312	1641
497.529	1654
497.746	1649
497.963	1900
498.181	2020
498.398	1939
498.615	1876
498.832	1808
499.049	1778
499.267	1826
499.484	1912
499.701	2026
499.918	2083
500.135	2265
500.352	2380
500.569	2390
500.786	2551
501.003	2356
501.22	2152
501.437	2069
501.654	2100
501.871	1992
502.088	1778
502.305	1834
502.522	1707
502.739	1592
502.956	1568
503.172	1561
503.389	1572
503.606	1502
503.823	1525
504.04	1502
504.256	1545
504.473	1526
504.69	1584
504.907	1492
505.123	1431
505.34	1581
505.557	1996
505.773	1649
505.99	1408
506.207	1356
506.423	1319
506.64	1306
506.856	1346
507.073	1525
507.289	1618
507.506	1536
507.722	1315
507.939	1254
508.155	1280
508.372	1283
508.588	1230
508.805	1202
509.021	1188
509.238	1181
509.454	1148
509.67	1171
509.887	1148
510.103	1148
510.319	1137
510.536	1213
510.752	1253
510.968	1240
511.184	1323
511.401	1251
511.617	1150
511.833	1126
512.049	1145
512.265	1140
512.481	1102
512.698	1176
512.914	1252
513.13	1220
513.346	1132
513.562	1106
513.778	1133
513.994	1197
514.21	1224
514.426	1233
514.642	1344
514.858	1265
515.074	1161
515.29	1098
515.506	1164
515.721	1190
515.937	1213
516.153	1319
516.369	1274
516.585	1202
516.801	1178
517.016	1175
517.232	1200
517.448	1249
517.664	1235
517.879	1236
518.095	1293
518.311	1236
518.527	1194
518.742	1189
518.958	1173
519.173	1170
519.389	1171
519.605	1186
519.82	1212
520.036	1255
520.251	1171
520.467	1180
520.682	1259
520.898	1299
521.113	1167
521.329	1144
521.544	1240
521.76	1151
521.975	1118
522.19	1098
522.406	1116
522.621	1393
522.836	1312
523.052	1106
523.267	1110
523.482	1148
523.698	1109
523.913	1050
524.128	1106
524.343	1171
524.559	1188
524.774	1114
524.989	1114
525.204	1094
525.419	1060
525.634	1085
525.849	1064
526.064	1093
526.28	1046
526.495	1043
526.71	1014
526.925	1032
527.14	1023
527.355	974
527.57	962
527.785	1018
527.999	996
528.214	997
528.429	994
528.644	1051
528.859	1076
529.074	1064
529.289	1140
529.503	1117
529.718	1112
529.933	1039
530.148	963
530.363	970
530.577	999
530.792	1027
531.007	994
531.221	979
531.436	1011
531.651	1055
531.865	1081
532.08	1066
532.295	1018
532.509	967
532.724	984
532.938	1014
533.153	1112
533.367	1074
533.582	1055
533.796	1012
534.011	1042
534.225	995
534.44	988
534.654	967
534.868	967
535.083	1036
535.297	1041
535.511	1024
535.726	1033
535.94	1028
536.154	982
536.369	974
536.583	948
536.797	960
537.011	981
537.225	941
537.44	925
537.654	981
537.868	978
538.082	917
538.296	949
538.51	933
538.724	956
538.938	969
539.153	1026
539.367	999
539.581	982
539.795	1009
540.009	984
540.222	968
540.436	997
540.65	1078
540.864	1128
541.078	1109
541.292	1060
541.506	1106
541.72	1136
541.934	1156
542.147	1206
542.361	1111
542.575	1076
542.789	1017
543.002	980
543.216	1004
543.43	1032
543.644	1083
543.857	1116
544.071	1118
544.285	1145
544.498	1130
544.712	1101
544.925	1149
545.139	1142
545.352	1092
545.566	1082
545.779	1051
545.993	1108
546.206	1118
546.42	1094
546.633	1065
546.847	1063
547.06	1091
547.274	1078
547.487	1116
547.7	1066
547.914	1098
548.127	1131
548.34	1101
548.554	1082
548.767	1064
548.98	1063
549.193	1099
