Data from WStandard_LampEnergy10_LIBS07252019.E.O._I.C._HRD10591_15-55-18-928.txt Node
Date: Thu Jul 25 15:55:18 EDT 2019
User: cochatt
Spectrometer: HR+D1059
Trigger mode: 1
Integration Time (sec): 1.000000E-1
Scans to average: 1
Electric dark correction enabled: true
Nonlinearity correction enabled: false
Boxcar width: 0
XAxis mode: Wavelengths
Number of Pixels in Spectrum: 2048
>>>>>Begin Spectral Data<<<<<
223.165	-12.38
223.4	-12.38
223.635	-12.38
223.869	-9.38
224.104	-40.38
224.338	0.62
224.573	-10.38
224.808	-17.38
225.042	-17.38
225.277	-1.38
225.511	-3.38
225.746	7.62
225.98	2.62
226.215	10.62
226.449	23.62
226.683	24.62
226.918	14.62
227.152	27.62
227.387	34.62
227.621	42.62
227.856	50.62
228.09	43.62
228.324	48.62
228.559	40.62
228.793	79.62
229.027	134.62
229.262	136.62
229.496	143.62
229.73	149.62
229.964	152.62
230.199	157.62
230.433	149.62
230.667	170.62
230.901	190.62
231.136	168.62
231.37	160.62
231.604	175.62
231.838	169.62
232.072	183.62
232.306	178.62
232.541	186.62
232.775	206.62
233.009	209.62
233.243	188.62
233.477	178.62
233.711	189.62
233.945	186.62
234.179	200.62
234.413	198.62
234.647	211.62
234.881	218.62
235.115	190.62
235.349	186.62
235.583	187.62
235.817	201.62
236.051	184.62
236.285	196.62
236.519	198.62
236.753	219.62
236.987	225.62
237.221	217.62
237.455	243.62
237.689	213.62
237.922	225.62
238.156	215.62
238.39	235.62
238.624	219.62
238.858	230.62
239.091	248.62
239.325	253.62
239.559	273.62
239.793	269.62
240.027	289.62
240.26	281.62
240.494	224.62
240.728	217.62
240.961	243.62
241.195	229.62
241.429	237.62
241.662	260.62
241.896	243.62
242.13	237.62
242.363	255.62
242.597	281.62
242.83	248.62
243.064	267.62
243.298	273.62
243.531	260.62
243.765	270.62
243.998	267.62
244.232	231.62
244.465	248.62
244.699	267.62
244.932	274.62
245.166	285.62
245.399	289.62
245.633	275.62
245.866	276.62
246.099	284.62
246.333	287.62
246.566	291.62
246.8	299.62
247.033	325.62
247.266	310.62
247.5	293.62
247.733	311.62
247.966	319.62
248.2	354.62
248.433	335.62
248.666	341.62
248.899	385.62
249.133	404.62
249.366	435.62
249.599	370.62
249.832	332.62
250.066	356.62
250.299	352.62
250.532	339.62
250.765	321.62
250.998	331.62
251.231	345.62
251.465	352.62
251.698	341.62
251.931	352.62
252.164	326.62
252.397	346.62
252.63	340.62
252.863	328.62
253.096	320.62
253.329	341.62
253.562	361.62
253.795	368.62
254.028	373.62
254.261	337.62
254.494	323.62
254.727	337.62
254.96	345.62
255.193	354.62
255.426	396.62
255.659	431.62
255.892	437.62
256.124	371.62
256.357	392.62
256.59	411.62
256.823	416.62
257.056	424.62
257.289	480.62
257.521	507.62
257.754	467.62
257.987	435.62
258.22	465.62
258.452	442.62
258.685	385.62
258.918	381.62
259.151	377.62
259.383	353.62
259.616	333.62
259.849	359.62
260.081	395.62
260.314	439.62
260.547	469.62
260.779	441.62
261.012	409.62
261.244	385.62
261.477	383.62
261.71	385.62
261.942	378.62
262.175	365.62
262.407	413.62
262.64	376.62
262.872	358.62
263.105	343.62
263.337	371.62
263.57	360.62
263.802	361.62
264.035	347.62
264.267	331.62
264.499	328.62
264.732	342.62
264.964	379.62
265.197	397.62
265.429	404.62
265.661	431.62
265.894	466.62
266.126	511.62
266.358	441.62
266.591	475.62
266.823	480.62
267.055	443.62
267.287	442.62
267.52	417.62
267.752	429.62
267.984	438.62
268.216	474.62
268.448	439.62
268.681	433.62
268.913	411.62
269.145	411.62
269.377	422.62
269.609	438.62
269.841	537.62
270.073	553.62
270.306	601.62
270.538	593.62
270.77	496.62
271.002	456.62
271.234	465.62
271.466	465.62
271.698	523.62
271.93	569.62
272.162	580.62
272.394	541.62
272.626	497.62
272.858	435.62
273.09	407.62
273.322	399.62
273.553	398.62
273.785	398.62
274.017	402.62
274.249	438.62
274.481	438.62
274.713	403.62
274.945	404.62
275.176	396.62
275.408	398.62
275.64	380.62
275.872	387.62
276.104	435.62
276.335	479.62
276.567	525.62
276.799	511.62
277.031	485.62
277.262	480.62
277.494	486.62
277.726	531.62
277.957	473.62
278.189	446.62
278.421	455.62
278.652	413.62
278.884	407.62
279.115	417.62
279.347	434.62
279.579	408.62
279.81	425.62
280.042	473.62
280.273	478.62
280.505	491.62
280.736	475.62
280.968	452.62
281.199	419.62
281.431	391.62
281.662	417.62
281.894	431.62
282.125	413.62
282.356	442.62
282.588	438.62
282.819	460.62
283.051	473.62
283.282	511.62
283.513	501.62
283.745	455.62
283.976	409.62
284.207	433.62
284.439	457.62
284.67	460.62
284.901	448.62
285.132	462.62
285.364	436.62
285.595	460.62
285.826	429.62
286.057	431.62
286.288	422.62
286.52	442.62
286.751	482.62
286.982	490.62
287.213	442.62
287.444	418.62
287.675	431.62
287.906	441.62
288.138	468.62
288.369	442.62
288.6	445.62
288.831	452.62
289.062	447.62
289.293	456.62
289.524	445.62
289.755	451.62
289.986	461.62
290.217	432.62
290.448	424.62
290.679	449.62
290.91	467.62
291.141	462.62
291.371	489.62
291.602	468.62
291.833	440.62
292.064	473.62
292.295	470.62
292.526	487.62
292.757	487.62
292.987	485.62
293.218	491.62
293.449	516.62
293.68	531.62
293.91	575.62
294.141	520.62
294.372	518.62
294.603	542.62
294.833	544.62
295.064	529.62
295.295	475.62
295.525	451.62
295.756	450.62
295.987	437.62
296.217	426.62
296.448	456.62
296.679	440.62
296.909	457.62
297.14	448.62
297.37	465.62
297.601	522.62
297.831	507.62
298.062	502.62
298.292	478.62
298.523	452.62
298.753	455.62
298.984	473.62
299.214	482.62
299.445	484.62
299.675	494.62
299.905	501.62
300.136	460.62
300.366	443.62
300.597	448.62
300.827	457.62
301.057	471.62
301.288	501.62
301.518	503.62
301.748	518.62
301.979	524.62
302.209	541.62
302.439	558.62
302.669	584.62
302.9	533.62
303.13	515.62
303.36	511.62
303.59	531.62
303.82	514.62
304.051	512.62
304.281	494.62
304.511	490.62
304.741	557.62
304.971	605.62
305.201	618.62
305.431	551.62
305.661	468.62
305.891	455.62
306.121	449.62
306.352	479.62
306.582	507.62
306.812	522.62
307.042	569.62
307.272	554.62
307.502	587.62
307.731	625.62
307.961	601.62
308.191	571.62
308.421	525.62
308.651	511.62
308.881	498.62
309.111	495.62
309.341	488.62
309.571	487.62
309.8	474.62
310.03	470.62
310.26	479.62
310.49	490.62
310.72	507.62
310.949	537.62
311.179	517.62
311.409	501.62
311.639	479.62
311.868	495.62
312.098	504.62
312.328	510.62
312.557	486.62
312.787	513.62
313.017	518.62
313.246	526.62
313.476	522.62
313.706	518.62
313.935	519.62
314.165	534.62
314.394	566.62
314.624	560.62
314.853	598.62
315.083	618.62
315.312	604.62
315.542	566.62
315.771	520.62
316.001	529.62
316.23	589.62
316.46	560.62
316.689	538.62
316.919	513.62
317.148	519.62
317.377	549.62
317.607	581.62
317.836	613.62
318.065	613.62
318.295	601.62
318.524	558.62
318.753	549.62
318.983	555.62
319.212	545.62
319.441	543.62
319.67	555.62
319.9	541.62
320.129	579.62
320.358	607.62
320.587	614.62
320.816	610.62
321.046	578.62
321.275	580.62
321.504	595.62
321.733	597.62
321.962	595.62
322.191	556.62
322.42	560.62
322.649	535.62
322.878	533.62
323.108	564.62
323.337	568.62
323.566	575.62
323.795	558.62
324.024	566.62
324.253	552.62
324.482	545.62
324.71	527.62
324.939	524.62
325.168	531.62
325.397	547.62
325.626	546.62
325.855	563.62
326.084	544.62
326.313	580.62
326.542	551.62
326.77	577.62
326.999	549.62
327.228	529.62
327.457	543.62
327.686	505.62
327.914	537.62
328.143	550.62
328.372	543.62
328.6	559.62
328.829	538.62
329.058	533.62
329.287	544.62
329.515	558.62
329.744	582.62
329.972	592.62
330.201	627.62
330.43	590.62
330.658	581.62
330.887	574.62
331.115	628.62
331.344	585.62
331.572	581.62
331.801	588.62
332.03	597.62
332.258	608.62
332.486	612.62
332.715	588.62
332.943	579.62
333.172	569.62
333.4	583.62
333.629	593.62
333.857	643.62
334.085	723.62
334.314	821.62
334.542	804.62
334.771	724.62
334.999	661.62
335.227	631.62
335.455	609.62
335.684	624.62
335.912	639.62
336.14	664.62
336.369	606.62
336.597	581.62
336.825	604.62
337.053	641.62
337.281	655.62
337.51	699.62
337.738	673.62
337.966	653.62
338.194	591.62
338.422	584.62
338.65	579.62
338.878	584.62
339.106	580.62
339.334	573.62
339.562	565.62
339.79	597.62
340.018	609.62
340.246	611.62
340.474	615.62
340.702	615.62
340.93	595.62
341.158	605.62
341.386	584.62
341.614	583.62
341.842	593.62
342.07	585.62
342.298	595.62
342.526	575.62
342.754	581.62
342.981	584.62
343.209	565.62
343.437	565.62
343.665	598.62
343.893	602.62
344.12	629.62
344.348	610.62
344.576	583.62
344.804	604.62
345.031	581.62
345.259	592.62
345.487	566.62
345.714	559.62
345.942	549.62
346.17	585.62
346.397	574.62
346.625	570.62
346.853	529.62
347.08	538.62
347.308	541.62
347.535	535.62
347.763	578.62
347.99	565.62
348.218	540.62
348.445	544.62
348.673	535.62
348.9	584.62
349.128	601.62
349.355	604.62
349.583	570.62
349.81	563.62
350.037	534.62
350.265	519.62
350.492	534.62
350.72	546.62
350.947	556.62
351.174	549.62
351.402	536.62
351.629	520.62
351.856	507.62
352.083	514.62
352.311	528.62
352.538	544.62
352.765	569.62
352.992	569.62
353.22	546.62
353.447	535.62
353.674	564.62
353.901	557.62
354.128	541.62
354.355	563.62
354.583	575.62
354.81	582.62
355.037	571.62
355.264	555.62
355.491	555.62
355.718	585.62
355.945	561.62
356.172	545.62
356.399	541.62
356.626	524.62
356.853	584.62
357.08	642.62
357.307	679.62
357.534	638.62
357.761	567.62
357.988	545.62
358.215	525.62
358.441	539.62
358.668	542.62
358.895	557.62
359.122	583.62
359.349	620.62
359.576	579.62
359.802	541.62
360.029	565.62
360.256	517.62
360.483	548.62
360.709	563.62
360.936	599.62
361.163	612.62
361.39	681.62
361.616	695.62
361.843	681.62
362.07	626.62
362.296	561.62
362.523	576.62
362.749	572.62
362.976	567.62
363.203	588.62
363.429	542.62
363.656	555.62
363.882	608.62
364.109	647.62
364.335	669.62
364.562	617.62
364.788	585.62
365.015	574.62
365.241	567.62
365.468	571.62
365.694	575.62
365.92	614.62
366.147	577.62
366.373	559.62
366.599	533.62
366.826	559.62
367.052	558.62
367.278	569.62
367.505	582.62
367.731	587.62
367.957	577.62
368.184	619.62
368.41	641.62
368.636	647.62
368.862	641.62
369.089	618.62
369.315	617.62
369.541	609.62
369.767	589.62
369.993	572.62
370.219	567.62
370.445	606.62
370.672	656.62
370.898	658.62
371.124	627.62
371.35	639.62
371.576	641.62
371.802	663.62
372.028	609.62
372.254	593.62
372.48	613.62
372.706	603.62
372.932	600.62
373.158	592.62
373.384	624.62
373.61	631.62
373.835	617.62
374.061	602.62
374.287	627.62
374.513	633.62
374.739	631.62
374.965	621.62
375.191	643.62
375.416	659.62
375.642	651.62
375.868	681.62
376.094	690.62
376.319	665.62
376.545	621.62
376.771	665.62
376.997	673.62
377.222	680.62
377.448	645.62
377.674	654.62
377.899	677.62
378.125	697.62
378.35	678.62
378.576	612.62
378.802	617.62
379.027	617.62
379.253	633.62
379.478	616.62
379.704	643.62
379.929	655.62
380.155	627.62
380.38	648.62
380.606	654.62
380.831	674.62
381.057	685.62
381.282	673.62
381.507	680.62
381.733	724.62
381.958	713.62
382.184	663.62
382.409	687.62
382.634	689.62
382.86	651.62
383.085	669.62
383.31	708.62
383.535	751.62
383.761	779.62
383.986	779.62
384.211	710.62
384.436	709.62
384.662	774.62
384.887	767.62
385.112	705.62
385.337	705.62
385.562	708.62
385.787	742.62
386.013	764.62
386.238	730.62
386.463	747.62
386.688	819.62
386.913	839.62
387.138	816.62
387.363	783.62
387.588	758.62
387.813	759.62
388.038	791.62
388.263	767.62
388.488	749.62
388.713	710.62
388.938	709.62
389.163	718.62
389.387	746.62
389.612	729.62
389.837	744.62
390.062	734.62
390.287	728.62
390.512	706.62
390.736	714.62
390.961	719.62
391.186	729.62
391.411	720.62
391.636	733.62
391.86	725.62
392.085	724.62
392.31	739.62
392.534	749.62
392.759	758.62
392.984	746.62
393.208	787.62
393.433	780.62
393.658	823.62
393.882	815.62
394.107	773.62
394.331	768.62
394.556	778.62
394.78	766.62
395.005	807.62
395.229	835.62
395.454	864.62
395.678	846.62
395.903	789.62
396.127	786.62
396.352	821.62
396.576	797.62
396.801	836.62
397.025	826.62
397.249	810.62
397.474	792.62
397.698	802.62
397.922	845.62
398.147	870.62
398.371	886.62
398.595	870.62
398.82	852.62
399.044	856.62
399.268	900.62
399.492	948.62
399.717	961.62
399.941	975.62
400.165	943.62
400.389	941.62
400.613	974.62
400.837	1121.62
401.062	1191.62
401.286	994.62
401.51	962.62
401.734	965.62
401.958	919.62
402.182	864.62
402.406	858.62
402.63	839.62
402.854	869.62
403.078	895.62
403.302	902.62
403.526	932.62
403.75	901.62
403.974	932.62
404.198	920.62
404.422	955.62
404.645	998.62
404.869	921.62
405.093	889.62
405.317	893.62
405.541	883.62
405.765	915.62
405.988	923.62
406.212	949.62
406.436	964.62
406.66	968.62
406.883	1023.62
407.107	1138.62
407.331	1217.62
407.555	1253.62
407.778	1098.62
408.002	961.62
408.226	941.62
408.449	945.62
408.673	926.62
408.896	962.62
409.12	936.62
409.344	934.62
409.567	906.62
409.791	894.62
410.014	961.62
410.238	1035.62
410.461	1009.62
410.685	940.62
410.908	915.62
411.132	944.62
411.355	913.62
411.578	892.62
411.802	943.62
412.025	937.62
412.249	906.62
412.472	901.62
412.695	898.62
412.919	911.62
413.142	922.62
413.365	915.62
413.589	951.62
413.812	989.62
414.035	988.62
414.258	906.62
414.482	921.62
414.705	890.62
414.928	904.62
415.151	914.62
415.374	930.62
415.597	945.62
415.821	947.62
416.044	976.62
416.267	893.62
416.49	886.62
416.713	904.62
416.936	931.62
417.159	968.62
417.382	969.62
417.605	897.62
417.828	932.62
418.051	949.62
418.274	897.62
418.497	893.62
418.72	902.62
418.943	899.62
419.166	934.62
419.389	946.62
419.611	929.62
419.834	922.62
420.057	943.62
420.28	943.62
420.503	901.62
420.726	947.62
420.948	929.62
421.171	901.62
421.394	948.62
421.617	952.62
421.839	967.62
422.062	955.62
422.285	917.62
422.507	916.62
422.73	893.62
422.953	854.62
423.175	857.62
423.398	899.62
423.621	893.62
423.843	923.62
424.066	974.62
424.288	1009.62
424.511	1038.62
424.733	992.62
424.956	918.62
425.178	915.62
425.401	919.62
425.623	912.62
425.846	941.62
426.068	943.62
426.291	942.62
426.513	952.62
426.735	955.62
426.958	1026.62
427.18	1041.62
427.402	961.62
427.625	1015.62
427.847	959.62
428.069	901.62
428.292	887.62
428.514	891.62
428.736	874.62
428.958	887.62
429.181	931.62
429.403	1051.62
429.625	1208.62
429.847	1025.62
430.069	953.62
430.292	1063.62
430.514	1007.62
430.736	973.62
430.958	974.62
431.18	910.62
431.402	880.62
431.624	827.62
431.846	768.62
432.068	731.62
432.29	727.62
432.512	785.62
432.734	880.62
432.956	911.62
433.178	936.62
433.4	960.62
433.622	957.62
433.844	882.62
434.066	836.62
434.287	777.62
434.509	773.62
434.731	824.62
434.953	895.62
435.175	901.62
435.397	861.62
435.618	885.62
435.84	850.62
436.062	849.62
436.284	893.62
436.505	891.62
436.727	923.62
436.949	870.62
437.17	874.62
437.392	902.62
437.614	839.62
437.835	779.62
438.057	781.62
438.278	845.62
438.5	855.62
438.721	901.62
438.943	891.62
439.165	924.62
439.386	907.62
439.608	959.62
439.829	943.62
440.05	955.62
440.272	955.62
440.493	938.62
440.715	943.62
440.936	989.62
441.158	1052.62
441.379	1033.62
441.6	1021.62
441.822	1010.62
442.043	1012.62
442.264	973.62
442.486	928.62
442.707	972.62
442.928	934.62
443.149	973.62
443.371	992.62
443.592	1017.62
443.813	1006.62
444.034	984.62
444.255	973.62
444.476	1023.62
444.698	1011.62
444.919	1003.62
445.14	1152.62
445.361	1083.62
445.582	1062.62
445.803	1019.62
446.024	1027.62
446.245	1054.62
446.466	1027.62
446.687	1041.62
446.908	1050.62
447.129	1006.62
447.35	1017.62
447.571	993.62
447.792	964.62
448.013	930.62
448.234	979.62
448.455	974.62
448.675	977.62
448.896	911.62
449.117	886.62
449.338	903.62
449.559	917.62
449.779	938.62
450	1017.62
450.221	1033.62
450.442	999.62
450.662	929.62
450.883	870.62
451.104	865.62
451.324	864.62
451.545	872.62
451.766	863.62
451.986	806.62
452.207	803.62
452.428	802.62
452.648	759.62
452.869	773.62
453.089	780.62
453.31	746.62
453.53	743.62
453.751	711.62
453.971	685.62
454.192	713.62
454.412	769.62
454.633	776.62
454.853	762.62
455.073	769.62
455.294	771.62
455.514	764.62
455.734	751.62
455.955	752.62
456.175	733.62
456.395	714.62
456.616	723.62
456.836	731.62
457.056	731.62
457.276	725.62
457.497	693.62
457.717	671.62
457.937	738.62
458.157	702.62
458.377	675.62
458.598	690.62
458.818	678.62
459.038	681.62
459.258	709.62
459.478	701.62
459.698	731.62
459.918	741.62
460.138	788.62
460.358	834.62
460.578	810.62
460.798	847.62
461.018	874.62
461.238	863.62
461.458	830.62
461.678	817.62
461.898	806.62
462.118	821.62
462.338	854.62
462.558	858.62
462.777	837.62
462.997	844.62
463.217	902.62
463.437	877.62
463.657	817.62
463.876	821.62
464.096	804.62
464.316	817.62
464.536	831.62
464.755	854.62
464.975	848.62
465.195	833.62
465.414	866.62
465.634	856.62
465.854	865.62
466.073	948.62
466.293	921.62
466.512	892.62
466.732	883.62
466.951	884.62
467.171	887.62
467.391	887.62
467.61	870.62
467.829	867.62
468.049	964.62
468.268	1031.62
468.488	930.62
468.707	895.62
468.927	875.62
469.146	903.62
469.365	911.62
469.585	937.62
469.804	913.62
470.023	899.62
470.243	936.62
470.462	904.62
470.681	907.62
470.901	890.62
471.12	931.62
471.339	906.62
471.558	910.62
471.777	898.62
471.997	895.62
472.216	843.62
472.435	785.62
472.654	752.62
472.873	790.62
473.092	823.62
473.311	812.62
473.53	815.62
473.749	806.62
473.968	845.62
474.187	815.62
474.406	839.62
474.625	834.62
474.844	868.62
475.063	855.62
475.282	863.62
475.501	795.62
475.72	831.62
475.939	917.62
476.158	867.62
476.377	868.62
476.596	832.62
476.814	821.62
477.033	806.62
477.252	838.62
477.471	892.62
477.69	935.62
477.908	939.62
478.127	964.62
478.346	1007.62
478.564	989.62
478.783	965.62
479.002	993.62
479.22	1002.62
479.439	1014.62
479.658	1020.62
479.876	1021.62
480.095	885.62
480.313	855.62
480.532	897.62
480.751	854.62
480.969	833.62
481.188	757.62
481.406	778.62
481.624	768.62
481.843	792.62
482.061	839.62
482.28	850.62
482.498	856.62
482.717	826.62
482.935	886.62
483.153	971.62
483.372	1016.62
483.59	1002.62
483.808	965.62
484.027	943.62
484.245	1000.62
484.463	1171.62
484.681	1286.62
484.9	1027.62
485.118	959.62
485.336	880.62
485.554	885.62
485.772	888.62
485.99	876.62
486.209	859.62
486.427	889.62
486.645	934.62
486.863	996.62
487.081	1024.62
487.299	994.62
487.517	1030.62
487.735	1083.62
487.953	1186.62
488.171	1161.62
488.389	1130.62
488.607	1073.62
488.825	1134.62
489.043	1021.62
489.261	980.62
489.479	1007.62
489.696	1049.62
489.914	995.62
490.132	1007.62
490.35	1086.62
490.568	1169.62
490.786	1172.62
491.003	1149.62
491.221	1210.62
491.439	1273.62
491.657	1284.62
491.874	1325.62
492.092	1421.62
492.31	1489.62
492.527	1440.62
492.745	1342.62
492.963	1285.62
493.18	1272.62
493.398	1333.62
493.615	1280.62
493.833	1263.62
494.05	1205.62
494.268	1206.62
494.485	1243.62
494.703	1234.62
494.92	1219.62
495.138	1224.62
495.355	1204.62
495.573	1240.62
495.79	1270.62
496.008	1260.62
496.225	1213.62
496.442	1191.62
496.66	1244.62
496.877	1207.62
497.094	1236.62
497.312	1211.62
497.529	1193.62
497.746	1175.62
497.963	1227.62
498.181	1303.62
498.398	1241.62
498.615	1190.62
498.832	1119.62
499.049	1105.62
499.267	1151.62
499.484	1239.62
499.701	1333.62
499.918	1346.62
500.135	1457.62
500.352	1527.62
500.569	1526.62
