Data from WStandard_LampEnergy5.5LIBS07252019.E.O._I.C._HRD10591_16-09-15-921.txt Node
Date: Thu Jul 25 16:09:15 EDT 2019
User: cochatt
Spectrometer: HR+D1059
Trigger mode: 1
Integration Time (sec): 1.000000E-1
Scans to average: 1
Electric dark correction enabled: true
Nonlinearity correction enabled: false
Boxcar width: 0
XAxis mode: Wavelengths
Number of Pixels in Spectrum: 2048
>>>>>Begin Spectral Data<<<<<
223.165	-27.25
223.4	-27.25
223.635	-27.25
223.869	-10.25
224.104	-12.25
224.338	-24.25
224.573	-13.25
224.808	-12.25
225.042	-2.25
225.277	-16.25
225.511	-9.25
225.746	-14.25
225.98	15.75
226.215	16.75
226.449	17.75
226.683	18.75
226.918	34.75
227.152	37.75
227.387	33.75
227.621	41.75
227.856	29.75
228.09	51.75
228.324	54.75
228.559	62.75
228.793	124.75
229.027	334.75
229.262	341.75
229.496	333.75
229.73	371.75
229.964	409.75
230.199	445.75
230.433	425.75
230.667	483.75
230.901	502.75
231.136	431.75
231.37	408.75
231.604	441.75
231.838	422.75
232.072	413.75
232.306	417.75
232.541	448.75
232.775	529.75
233.009	563.75
233.243	543.75
233.477	481.75
233.711	508.75
233.945	521.75
234.179	521.75
234.413	556.75
234.647	603.75
234.881	569.75
235.115	509.75
235.349	524.75
235.583	529.75
235.817	527.75
236.051	496.75
236.285	499.75
236.519	555.75
236.753	619.75
236.987	624.75
237.221	621.75
237.455	692.75
237.689	687.75
237.922	633.75
238.156	624.75
238.39	641.75
238.624	659.75
238.858	673.75
239.091	709.75
239.325	727.75
239.559	869.75
239.793	903.75
240.027	987.75
240.26	969.75
240.494	711.75
240.728	641.75
240.961	684.75
241.195	675.75
241.429	742.75
241.662	757.75
241.896	703.75
242.13	702.75
242.363	803.75
242.597	848.75
242.83	831.75
243.064	849.75
243.298	895.75
243.531	877.75
243.765	870.75
243.998	855.75
244.232	741.75
244.465	696.75
244.699	747.75
244.932	819.75
245.166	973.75
245.399	911.75
245.633	830.75
245.866	811.75
246.099	884.75
246.333	898.75
246.566	909.75
246.8	973.75
247.033	1086.75
247.266	1003.75
247.5	974.75
247.733	976.75
247.966	1029.75
248.2	1130.75
248.433	1067.75
248.666	1128.75
248.899	1240.75
249.133	1417.75
249.366	1649.75
249.599	1315.75
249.832	1141.75
250.066	1177.75
250.299	1212.75
250.532	1103.75
250.765	1005.75
250.998	1058.75
251.231	1110.75
251.465	1168.75
251.698	1087.75
251.931	1080.75
252.164	1145.75
252.397	1163.75
252.63	1155.75
252.863	1008.75
253.096	1015.75
253.329	1059.75
253.562	1103.75
253.795	1187.75
254.028	1143.75
254.261	1088.75
254.494	1080.75
254.727	1025.75
254.96	1065.75
255.193	1157.75
255.426	1323.75
255.659	1504.75
255.892	1563.75
256.124	1295.75
256.357	1244.75
256.59	1356.75
256.823	1316.75
257.056	1328.75
257.289	1607.75
257.521	1802.75
257.754	1593.75
257.987	1488.75
258.22	1636.75
258.452	1659.75
258.685	1309.75
258.918	1273.75
259.151	1278.75
259.383	1251.75
259.616	1102.75
259.849	1167.75
260.081	1295.75
260.314	1417.75
260.547	1563.75
260.779	1645.75
261.012	1504.75
261.244	1351.75
261.477	1243.75
261.71	1330.75
261.942	1313.75
262.175	1279.75
262.407	1361.75
262.64	1296.75
262.872	1177.75
263.105	1141.75
263.337	1188.75
263.57	1175.75
263.802	1180.75
264.035	1110.75
264.267	1064.75
264.499	1047.75
264.732	1137.75
264.964	1229.75
265.197	1229.75
265.429	1295.75
265.661	1452.75
265.894	1621.75
266.126	1678.75
266.358	1493.75
266.591	1559.75
266.823	1679.75
267.055	1509.75
267.287	1468.75
267.52	1460.75
267.752	1413.75
267.984	1425.75
268.216	1490.75
268.448	1512.75
268.681	1521.75
268.913	1399.75
269.145	1334.75
269.377	1339.75
269.609	1408.75
269.841	1628.75
270.073	1880.75
270.306	2090.75
270.538	2272.75
270.77	1923.75
271.002	1615.75
271.234	1508.75
271.466	1533.75
271.698	1688.75
271.93	2004.75
272.162	1997.75
272.394	1837.75
272.626	1783.75
272.858	1553.75
273.09	1373.75
273.322	1326.75
273.553	1273.75
273.785	1251.75
274.017	1341.75
274.249	1443.75
274.481	1444.75
274.713	1330.75
274.945	1311.75
275.176	1350.75
275.408	1279.75
275.64	1268.75
275.872	1279.75
276.104	1353.75
276.335	1521.75
276.567	1721.75
276.799	1792.75
277.031	1572.75
277.262	1477.75
277.494	1536.75
277.726	1668.75
277.957	1719.75
278.189	1561.75
278.421	1416.75
278.652	1397.75
278.884	1388.75
279.115	1357.75
279.347	1432.75
279.579	1375.75
279.81	1357.75
280.042	1508.75
280.273	1621.75
280.505	1631.75
280.736	1716.75
280.968	1598.75
281.199	1416.75
281.431	1350.75
281.662	1285.75
281.894	1308.75
282.125	1384.75
282.356	1455.75
282.588	1417.75
282.819	1436.75
283.051	1551.75
283.282	1691.75
283.513	1647.75
283.745	1399.75
283.976	1349.75
284.207	1333.75
284.439	1354.75
284.67	1425.75
284.901	1393.75
285.132	1446.75
285.364	1405.75
285.595	1416.75
285.826	1426.75
286.057	1410.75
286.288	1368.75
286.52	1447.75
286.751	1576.75
286.982	1620.75
287.213	1502.75
287.444	1356.75
287.675	1323.75
287.906	1407.75
288.138	1511.75
288.369	1493.75
288.6	1415.75
288.831	1348.75
289.062	1342.75
289.293	1423.75
289.524	1401.75
289.755	1481.75
289.986	1500.75
290.217	1328.75
290.448	1367.75
290.679	1392.75
290.91	1397.75
291.141	1473.75
291.371	1528.75
291.602	1478.75
291.833	1463.75
292.064	1522.75
292.295	1495.75
292.526	1518.75
292.757	1619.75
292.987	1521.75
293.218	1408.75
293.449	1536.75
293.68	1739.75
293.91	1903.75
294.141	1766.75
294.372	1624.75
294.603	1674.75
294.833	1755.75
295.064	1703.75
295.295	1543.75
295.525	1504.75
295.756	1385.75
295.987	1301.75
296.217	1357.75
296.448	1397.75
296.679	1415.75
296.909	1375.75
297.14	1395.75
297.37	1412.75
297.601	1449.75
297.831	1595.75
298.062	1601.75
298.292	1469.75
298.523	1425.75
298.753	1432.75
298.984	1435.75
299.214	1424.75
299.445	1455.75
299.675	1496.75
299.905	1475.75
300.136	1465.75
300.366	1421.75
300.597	1377.75
300.827	1352.75
301.057	1399.75
301.288	1487.75
301.518	1470.75
301.748	1523.75
301.979	1596.75
302.209	1622.75
302.439	1759.75
302.669	1788.75
302.9	1734.75
303.13	1543.75
303.36	1541.75
303.59	1571.75
303.82	1548.75
304.051	1521.75
304.281	1520.75
304.511	1500.75
304.741	1596.75
304.971	1776.75
305.201	1905.75
305.431	1853.75
305.661	1457.75
305.891	1330.75
306.121	1328.75
306.352	1381.75
306.582	1470.75
306.812	1571.75
307.042	1696.75
307.272	1655.75
307.502	1688.75
307.731	1879.75
307.961	1999.75
308.191	1849.75
308.421	1583.75
308.651	1491.75
308.881	1459.75
309.111	1469.75
309.341	1463.75
309.571	1465.75
309.8	1455.75
310.03	1425.75
310.26	1469.75
310.49	1428.75
310.72	1453.75
310.949	1545.75
311.179	1569.75
311.409	1517.75
311.639	1503.75
311.868	1488.75
312.098	1475.75
312.328	1475.75
312.557	1475.75
312.787	1493.75
313.017	1540.75
313.246	1488.75
313.476	1523.75
313.706	1543.75
313.935	1521.75
314.165	1517.75
314.394	1615.75
314.624	1692.75
314.853	1760.75
315.083	1821.75
315.312	1911.75
315.542	1779.75
315.771	1570.75
316.001	1589.75
316.23	1680.75
316.46	1661.75
316.689	1606.75
316.919	1538.75
317.148	1490.75
317.377	1524.75
317.607	1611.75
317.836	1827.75
318.065	1881.75
318.295	1815.75
318.524	1737.75
318.753	1654.75
318.983	1636.75
319.212	1609.75
319.441	1624.75
319.67	1583.75
319.9	1585.75
320.129	1703.75
320.358	1751.75
320.587	1826.75
320.816	1785.75
321.046	1732.75
321.275	1625.75
321.504	1683.75
321.733	1794.75
321.962	1762.75
322.191	1626.75
322.42	1598.75
322.649	1606.75
322.878	1567.75
323.108	1620.75
323.337	1678.75
323.566	1650.75
323.795	1654.75
324.024	1624.75
324.253	1622.75
324.482	1629.75
324.71	1643.75
324.939	1548.75
325.168	1519.75
325.397	1605.75
325.626	1663.75
325.855	1632.75
326.084	1614.75
326.313	1607.75
326.542	1635.75
326.77	1678.75
326.999	1665.75
327.228	1629.75
327.457	1583.75
327.686	1476.75
327.914	1540.75
328.143	1605.75
328.372	1620.75
328.6	1577.75
328.829	1599.75
329.058	1545.75
329.287	1580.75
329.515	1589.75
329.744	1641.75
329.972	1691.75
330.201	1791.75
330.43	1742.75
330.658	1696.75
330.887	1720.75
331.115	1678.75
331.344	1698.75
331.572	1681.75
331.801	1645.75
332.03	1668.75
332.258	1658.75
332.486	1711.75
332.715	1704.75
332.943	1767.75
333.172	1698.75
333.4	1707.75
333.629	1711.75
333.857	1841.75
334.085	2023.75
334.314	2238.75
334.542	2514.75
334.771	2302.75
334.999	2000.75
335.227	1928.75
335.455	1830.75
335.684	1796.75
335.912	1824.75
336.14	1915.75
336.369	1849.75
336.597	1715.75
336.825	1741.75
337.053	1805.75
337.281	1857.75
337.51	1952.75
337.738	2047.75
337.966	1927.75
338.194	1777.75
338.422	1683.75
338.65	1691.75
338.878	1655.75
339.106	1607.75
339.334	1623.75
339.562	1568.75
339.79	1655.75
340.018	1691.75
340.246	1757.75
340.474	1817.75
340.702	1742.75
340.93	1753.75
341.158	1725.75
341.386	1635.75
341.614	1680.75
341.842	1646.75
342.07	1655.75
342.298	1702.75
342.526	1657.75
342.754	1663.75
342.981	1640.75
343.209	1634.75
343.437	1641.75
343.665	1675.75
343.893	1751.75
344.12	1783.75
344.348	1845.75
344.576	1731.75
344.804	1695.75
345.031	1657.75
345.259	1716.75
345.487	1650.75
345.714	1577.75
345.942	1568.75
346.17	1566.75
346.397	1604.75
346.625	1603.75
346.853	1508.75
347.08	1487.75
347.308	1491.75
347.535	1563.75
347.763	1637.75
347.99	1570.75
348.218	1537.75
348.445	1544.75
348.673	1563.75
348.9	1569.75
349.128	1633.75
349.355	1664.75
349.583	1661.75
349.81	1541.75
350.037	1458.75
350.265	1481.75
350.492	1489.75
350.72	1505.75
350.947	1581.75
351.174	1637.75
351.402	1531.75
351.629	1465.75
351.856	1463.75
352.083	1424.75
352.311	1455.75
352.538	1518.75
352.765	1547.75
352.992	1592.75
353.22	1512.75
353.447	1483.75
353.674	1534.75
353.901	1507.75
354.128	1562.75
354.355	1492.75
354.583	1572.75
354.81	1596.75
355.037	1605.75
355.264	1570.75
355.491	1544.75
355.718	1558.75
355.945	1536.75
356.172	1544.75
356.399	1481.75
356.626	1486.75
356.853	1571.75
357.08	1643.75
357.307	1828.75
357.534	1819.75
357.761	1585.75
357.988	1516.75
358.215	1459.75
358.441	1468.75
358.668	1459.75
358.895	1474.75
359.122	1565.75
359.349	1714.75
359.576	1716.75
359.802	1534.75
360.029	1497.75
360.256	1449.75
360.483	1510.75
360.709	1564.75
360.936	1600.75
361.163	1624.75
361.39	1723.75
361.616	1906.75
361.843	1891.75
362.07	1772.75
362.296	1551.75
362.523	1524.75
362.749	1525.75
362.976	1557.75
363.203	1582.75
363.429	1524.75
363.656	1451.75
363.882	1515.75
364.109	1673.75
364.335	1839.75
364.562	1750.75
364.788	1628.75
365.015	1558.75
365.241	1503.75
365.468	1533.75
365.694	1595.75
365.92	1684.75
366.147	1661.75
366.373	1535.75
366.599	1498.75
366.826	1476.75
367.052	1455.75
367.278	1519.75
367.505	1567.75
367.731	1551.75
367.957	1588.75
368.184	1592.75
368.41	1698.75
368.636	1743.75
368.862	1724.75
369.089	1733.75
369.315	1661.75
369.541	1603.75
369.767	1592.75
369.993	1510.75
370.219	1491.75
370.445	1586.75
370.672	1634.75
370.898	1696.75
371.124	1707.75
371.35	1607.75
371.576	1661.75
371.802	1750.75
372.028	1653.75
372.254	1587.75
372.48	1542.75
372.706	1507.75
372.932	1561.75
373.158	1556.75
373.384	1617.75
373.61	1638.75
373.835	1726.75
374.061	1622.75
374.287	1625.75
374.513	1589.75
374.739	1632.75
374.965	1599.75
375.191	1637.75
375.416	1625.75
375.642	1677.75
375.868	1740.75
376.094	1804.75
376.319	1732.75
376.545	1604.75
376.771	1620.75
376.997	1727.75
377.222	1707.75
377.448	1645.75
377.674	1692.75
377.899	1652.75
378.125	1740.75
378.35	1745.75
378.576	1598.75
378.802	1584.75
379.027	1584.75
379.253	1608.75
379.478	1590.75
379.704	1616.75
379.929	1578.75
380.155	1574.75
380.38	1638.75
380.606	1657.75
380.831	1605.75
381.057	1689.75
381.282	1749.75
381.507	1700.75
381.733	1760.75
381.958	1868.75
382.184	1755.75
382.409	1630.75
382.634	1647.75
382.86	1651.75
383.085	1674.75
383.31	1711.75
383.535	1828.75
383.761	1940.75
383.986	1846.75
384.211	1851.75
384.436	1800.75
384.662	1884.75
384.887	1947.75
385.112	1867.75
385.337	1839.75
385.562	1818.75
385.787	1807.75
386.013	1882.75
386.238	1872.75
386.463	1879.75
386.688	1982.75
386.913	2123.75
387.138	2079.75
387.363	1889.75
387.588	1899.75
387.813	1875.75
388.038	1871.75
388.263	1967.75
388.488	1865.75
388.713	1757.75
388.938	1736.75
389.163	1739.75
389.387	1830.75
389.612	1779.75
389.837	1849.75
390.062	1856.75
390.287	1841.75
390.512	1830.75
390.736	1789.75
390.961	1780.75
391.186	1743.75
391.411	1775.75
391.636	1793.75
391.86	1839.75
392.085	1835.75
392.31	1811.75
392.534	1836.75
392.759	1867.75
392.984	1835.75
393.208	1868.75
393.433	1899.75
393.658	1925.75
393.882	1973.75
394.107	1870.75
394.331	1828.75
394.556	1822.75
394.78	1847.75
395.005	1932.75
395.229	1956.75
395.454	2098.75
395.678	2095.75
395.903	2056.75
396.127	1928.75
396.352	1956.75
396.576	2002.75
396.801	2056.75
397.025	1986.75
397.249	2035.75
397.474	1948.75
397.698	1945.75
397.922	2024.75
398.147	2099.75
398.371	2202.75
398.595	2175.75
398.82	2096.75
399.044	2120.75
399.268	2235.75
399.492	2344.75
399.717	2447.75
399.941	2459.75
400.165	2403.75
400.389	2371.75
400.613	2324.75
400.837	2477.75
401.062	2947.75
401.286	2557.75
401.51	2304.75
401.734	2361.75
401.958	2297.75
402.182	2168.75
402.406	2058.75
402.63	2121.75
402.854	2051.75
403.078	2108.75
403.302	2155.75
403.526	2217.75
403.75	2157.75
403.974	2204.75
404.198	2164.75
404.422	2225.75
404.645	2366.75
404.869	2351.75
405.093	2126.75
405.317	2108.75
405.541	2203.75
405.765	2202.75
405.988	2178.75
406.212	2271.75
406.436	2246.75
406.66	2332.75
406.883	2339.75
407.107	2630.75
407.331	2811.75
407.555	3119.75
407.778	2821.75
408.002	2363.75
408.226	2312.75
408.449	2309.75
408.673	2219.75
408.896	2278.75
409.12	2262.75
409.344	2234.75
409.567	2143.75
409.791	2191.75
410.014	2196.75
410.238	2297.75
410.461	2459.75
410.685	2240.75
410.908	2126.75
411.132	2207.75
411.355	2179.75
411.578	2131.75
411.802	2120.75
412.025	2180.75
412.249	2157.75
412.472	2077.75
412.695	2065.75
412.919	2059.75
413.142	2045.75
413.365	2111.75
413.589	2112.75
413.812	2185.75
414.035	2267.75
414.258	2125.75
414.482	2075.75
414.705	2110.75
414.928	2067.75
415.151	2081.75
415.374	2087.75
415.597	2116.75
415.821	2115.75
416.044	2190.75
416.267	2219.75
416.49	1997.75
416.713	1966.75
416.936	2070.75
417.159	2114.75
417.382	2157.75
417.605	2032.75
417.828	2098.75
418.051	2206.75
418.274	2081.75
418.497	2003.75
418.72	1993.75
418.943	1998.75
419.166	2177.75
419.389	2248.75
419.611	2145.75
419.834	2105.75
420.057	2130.75
420.28	1998.75
420.503	2011.75
420.726	2054.75
420.948	2048.75
421.171	2010.75
421.394	1982.75
421.617	2090.75
421.839	2036.75
422.062	1989.75
422.285	1995.75
422.507	2016.75
422.73	1967.75
422.953	1942.75
423.175	1892.75
423.398	2009.75
423.621	1993.75
423.843	2008.75
424.066	2027.75
424.288	2087.75
424.511	2140.75
424.733	2092.75
424.956	1933.75
425.178	1893.75
425.401	1909.75
425.623	1981.75
425.846	1936.75
426.068	2046.75
426.291	2081.75
426.513	2068.75
426.735	2047.75
426.958	2154.75
427.18	2315.75
427.402	2099.75
427.625	2143.75
427.847	2164.75
428.069	2035.75
428.292	2013.75
428.514	1920.75
428.736	1893.75
428.958	1955.75
429.181	1935.75
429.403	2155.75
429.625	2763.75
429.847	2423.75
430.069	1993.75
430.292	2178.75
430.514	2311.75
430.736	2103.75
430.958	2193.75
431.18	2146.75
431.402	1950.75
431.624	1951.75
431.846	1963.75
432.068	1907.75
432.29	1916.75
432.512	1944.75
432.734	1981.75
432.956	2031.75
433.178	2116.75
433.4	2147.75
433.622	2086.75
433.844	2015.75
434.066	1923.75
434.287	1925.75
434.509	1977.75
434.731	2095.75
434.953	2200.75
435.175	2165.75
435.397	2054.75
435.618	2059.75
435.84	2080.75
436.062	2039.75
436.284	2037.75
436.505	2052.75
436.727	2097.75
436.949	2009.75
437.17	1981.75
437.392	1925.75
437.614	1965.75
437.835	1912.75
438.057	2058.75
438.278	2123.75
438.5	1993.75
438.721	1907.75
438.943	1941.75
439.165	1930.75
439.386	1847.75
439.608	1903.75
439.829	1916.75
440.05	1921.75
440.272	1925.75
440.493	1862.75
440.715	1943.75
440.936	2035.75
441.158	2257.75
441.379	2192.75
441.6	2142.75
441.822	2097.75
442.043	2095.75
442.264	2016.75
442.486	1966.75
442.707	1931.75
442.928	1948.75
443.149	2033.75
443.371	2125.75
443.592	2180.75
443.813	2107.75
444.034	2113.75
444.255	2139.75
444.476	2114.75
444.698	2205.75
444.919	2155.75
445.14	2229.75
445.361	2291.75
445.582	2328.75
445.803	2259.75
446.024	2085.75
446.245	2221.75
446.466	2140.75
446.687	2040.75
446.908	2037.75
447.129	1929.75
447.35	1983.75
447.571	1976.75
447.792	1923.75
448.013	1885.75
448.234	1917.75
448.455	2012.75
448.675	2024.75
448.896	1868.75
449.117	1836.75
449.338	1931.75
449.559	1991.75
449.779	2073.75
450	2301.75
450.221	2478.75
450.442	2431.75
450.662	2072.75
450.883	1849.75
451.104	1828.75
451.324	1889.75
451.545	1920.75
451.766	1905.75
451.986	1802.75
452.207	1837.75
452.428	1730.75
452.648	1711.75
452.869	1820.75
453.089	1935.75
453.31	1867.75
453.53	1927.75
453.751	1874.75
453.971	1751.75
454.192	1837.75
454.412	1936.75
454.633	1849.75
454.853	1797.75
455.073	1697.75
455.294	1678.75
455.514	1661.75
455.734	1693.75
455.955	1776.75
456.175	1736.75
456.395	1759.75
456.616	1745.75
456.836	1841.75
457.056	1742.75
457.276	1779.75
457.497	1725.75
457.717	1689.75
457.937	1680.75
458.157	1745.75
458.377	1736.75
458.598	1720.75
458.818	1731.75
459.038	1847.75
459.258	1985.75
459.478	1960.75
459.698	1876.75
459.918	1986.75
460.138	2035.75
460.358	2063.75
460.578	2069.75
460.798	2135.75
461.018	2286.75
461.238	2191.75
461.458	2054.75
461.678	2103.75
461.898	2051.75
462.118	1972.75
462.338	2081.75
462.558	2056.75
462.777	2055.75
462.997	2171.75
463.217	2302.75
463.437	2279.75
463.657	2117.75
463.876	2105.75
464.096	2108.75
464.316	2087.75
464.536	2140.75
464.755	2124.75
464.975	2195.75
465.195	2140.75
465.414	2219.75
465.634	2173.75
465.854	2062.75
466.073	2203.75
466.293	2157.75
466.512	1908.75
466.732	1888.75
466.951	1984.75
467.171	1975.75
467.391	1871.75
467.61	1833.75
467.829	1924.75
468.049	1990.75
468.268	2247.75
468.488	2092.75
468.707	1990.75
468.927	1927.75
469.146	1910.75
469.365	1871.75
469.585	1885.75
469.804	1856.75
470.023	1887.75
470.243	1911.75
470.462	1917.75
470.681	1827.75
470.901	1935.75
471.12	1873.75
471.339	1851.75
471.558	1837.75
471.777	1842.75
471.997	1819.75
472.216	1867.75
472.435	1811.75
472.654	1852.75
472.873	1943.75
473.092	2037.75
473.311	1937.75
473.53	1820.75
473.749	1785.75
473.968	1928.75
474.187	1950.75
474.406	2083.75
474.625	1943.75
474.844	1935.75
475.063	1907.75
475.282	2015.75
475.501	1930.75
475.72	1890.75
475.939	2043.75
476.158	1959.75
476.377	1907.75
476.596	1936.75
476.814	2028.75
477.033	2011.75
477.252	2052.75
477.471	2112.75
477.69	2042.75
477.908	2015.75
478.127	2100.75
478.346	2261.75
478.564	2292.75
478.783	2226.75
479.002	2317.75
479.22	2287.75
479.439	2388.75
479.658	2670.75
479.876	2637.75
480.095	2314.75
480.313	2193.75
480.532	2116.75
480.751	2180.75
480.969	2207.75
481.188	2170.75
481.406	2129.75
481.624	2071.75
481.843	2096.75
482.061	2102.75
482.28	2233.75
482.498	2235.75
482.717	2182.75
482.935	2095.75
483.153	2111.75
483.372	2160.75
483.59	2129.75
483.808	2129.75
484.027	2188.75
484.245	2325.75
484.463	2639.75
484.681	3018.75
484.9	2338.75
485.118	2184.75
485.336	2159.75
485.554	2246.75
485.772	2333.75
485.99	2322.75
486.209	2294.75
486.427	2333.75
486.645	2254.75
486.863	2242.75
487.081	2302.75
487.299	2394.75
487.517	2320.75
