Data from WStandard_LampEnergy10_LIBS07252019.E.O._I.C._HRD10591_15-55-16-928.txt Node
Date: Thu Jul 25 15:55:16 EDT 2019
User: cochatt
Spectrometer: HR+D1059
Trigger mode: 1
Integration Time (sec): 1.000000E-1
Scans to average: 1
Electric dark correction enabled: true
Nonlinearity correction enabled: false
Boxcar width: 0
XAxis mode: Wavelengths
Number of Pixels in Spectrum: 2048
>>>>>Begin Spectral Data<<<<<
223.165	-11.25
223.4	-11.25
223.635	-11.25
223.869	-13.25
224.104	-13.25
224.338	-19.25
224.573	-4.25
224.808	-18.25
225.042	-8.25
225.277	-12.25
225.511	8.75
225.746	-3.25
225.98	-2.25
226.215	6.75
226.449	13.75
226.683	23.75
226.918	22.75
227.152	29.75
227.387	34.75
227.621	54.75
227.856	49.75
228.09	55.75
228.324	63.75
228.559	60.75
228.793	96.75
229.027	138.75
229.262	144.75
229.496	156.75
229.73	155.75
229.964	176.75
230.199	182.75
230.433	172.75
230.667	186.75
230.901	201.75
231.136	183.75
231.37	171.75
231.604	176.75
231.838	175.75
232.072	194.75
232.306	194.75
232.541	192.75
232.775	195.75
233.009	219.75
233.243	212.75
233.477	187.75
233.711	194.75
233.945	194.75
234.179	190.75
234.413	212.75
234.647	216.75
234.881	199.75
235.115	206.75
235.349	194.75
235.583	195.75
235.817	171.75
236.051	210.75
236.285	205.75
236.519	220.75
236.753	230.75
236.987	238.75
237.221	254.75
237.455	236.75
237.689	251.75
237.922	218.75
238.156	225.75
238.39	223.75
238.624	224.75
238.858	232.75
239.091	237.75
239.325	268.75
239.559	287.75
239.793	307.75
240.027	312.75
240.26	294.75
240.494	244.75
240.728	243.75
240.961	239.75
241.195	248.75
241.429	262.75
241.662	266.75
241.896	256.75
242.13	246.75
242.363	287.75
242.597	272.75
242.83	287.75
243.064	291.75
243.298	286.75
243.531	294.75
243.765	288.75
243.998	276.75
244.232	256.75
244.465	236.75
244.699	244.75
244.932	282.75
245.166	318.75
245.399	302.75
245.633	299.75
245.866	285.75
246.099	277.75
246.333	301.75
246.566	307.75
246.8	290.75
247.033	335.75
247.266	326.75
247.5	298.75
247.733	338.75
247.966	346.75
248.2	356.75
248.433	349.75
248.666	347.75
248.899	399.75
249.133	439.75
249.366	471.75
249.599	392.75
249.832	378.75
250.066	389.75
250.299	374.75
250.532	344.75
250.765	338.75
250.998	335.75
251.231	366.75
251.465	361.75
251.698	343.75
251.931	357.75
252.164	362.75
252.397	363.75
252.63	350.75
252.863	331.75
253.096	331.75
253.329	326.75
253.562	338.75
253.795	363.75
254.028	372.75
254.261	346.75
254.494	352.75
254.727	328.75
254.96	344.75
255.193	384.75
255.426	405.75
255.659	469.75
255.892	459.75
256.124	411.75
256.357	388.75
256.59	398.75
256.823	393.75
257.056	411.75
257.289	487.75
257.521	499.75
257.754	452.75
257.987	464.75
258.22	472.75
258.452	456.75
258.685	406.75
258.918	395.75
259.151	392.75
259.383	373.75
259.616	348.75
259.849	384.75
260.081	423.75
260.314	450.75
260.547	456.75
260.779	477.75
261.012	433.75
261.244	420.75
261.477	387.75
261.71	409.75
261.942	423.75
262.175	412.75
262.407	424.75
262.64	394.75
262.872	380.75
263.105	366.75
263.337	388.75
263.57	370.75
263.802	387.75
264.035	357.75
264.267	355.75
264.499	336.75
264.732	374.75
264.964	388.75
265.197	392.75
265.429	410.75
265.661	438.75
265.894	482.75
266.126	499.75
266.358	473.75
266.591	478.75
266.823	498.75
267.055	483.75
267.287	446.75
267.52	436.75
267.752	442.75
267.984	437.75
268.216	486.75
268.448	468.75
268.681	449.75
268.913	452.75
269.145	398.75
269.377	428.75
269.609	431.75
269.841	511.75
270.073	583.75
270.306	626.75
270.538	650.75
270.77	533.75
271.002	485.75
271.234	489.75
271.466	495.75
271.698	539.75
271.93	623.75
272.162	575.75
272.394	545.75
272.626	516.75
272.858	469.75
273.09	428.75
273.322	424.75
273.553	395.75
273.785	406.75
274.017	414.75
274.249	431.75
274.481	429.75
274.713	403.75
274.945	406.75
275.176	416.75
275.408	406.75
275.64	399.75
275.872	408.75
276.104	446.75
276.335	511.75
276.567	540.75
276.799	527.75
277.031	487.75
277.262	498.75
277.494	506.75
277.726	542.75
277.957	527.75
278.189	473.75
278.421	441.75
278.652	418.75
278.884	442.75
279.115	428.75
279.347	414.75
279.579	424.75
279.81	451.75
280.042	481.75
280.273	498.75
280.505	503.75
280.736	502.75
280.968	471.75
281.199	432.75
281.431	429.75
281.662	421.75
281.894	436.75
282.125	446.75
282.356	460.75
282.588	448.75
282.819	466.75
283.051	500.75
283.282	517.75
283.513	516.75
283.745	444.75
283.976	434.75
284.207	436.75
284.439	444.75
284.67	439.75
284.901	482.75
285.132	472.75
285.364	447.75
285.595	468.75
285.826	463.75
286.057	471.75
286.288	452.75
286.52	478.75
286.751	498.75
286.982	505.75
287.213	489.75
287.444	434.75
287.675	444.75
287.906	480.75
288.138	479.75
288.369	480.75
288.6	447.75
288.831	426.75
289.062	436.75
289.293	450.75
289.524	474.75
289.755	475.75
289.986	463.75
290.217	446.75
290.448	450.75
290.679	455.75
290.91	468.75
291.141	480.75
291.371	491.75
291.602	485.75
291.833	487.75
292.064	505.75
292.295	501.75
292.526	515.75
292.757	520.75
292.987	501.75
293.218	466.75
293.449	533.75
293.68	577.75
293.91	586.75
294.141	562.75
294.372	540.75
294.603	570.75
294.833	569.75
295.064	545.75
295.295	489.75
295.525	468.75
295.756	462.75
295.987	422.75
296.217	453.75
296.448	469.75
296.679	470.75
296.909	459.75
297.14	454.75
297.37	493.75
297.601	495.75
297.831	530.75
298.062	504.75
298.292	487.75
298.523	479.75
298.753	460.75
298.984	487.75
299.214	489.75
299.445	502.75
299.675	504.75
299.905	509.75
300.136	485.75
300.366	474.75
300.597	462.75
300.827	464.75
301.057	511.75
301.288	502.75
301.518	510.75
301.748	538.75
301.979	536.75
302.209	562.75
302.439	584.75
302.669	561.75
302.9	575.75
303.13	511.75
303.36	512.75
303.59	513.75
303.82	516.75
304.051	526.75
304.281	519.75
304.511	545.75
304.741	571.75
304.971	636.75
305.201	646.75
305.431	587.75
305.661	490.75
305.891	466.75
306.121	469.75
306.352	483.75
306.582	503.75
306.812	534.75
307.042	584.75
307.272	575.75
307.502	610.75
307.731	640.75
307.961	632.75
308.191	599.75
308.421	535.75
308.651	495.75
308.881	491.75
309.111	497.75
309.341	484.75
309.571	505.75
309.8	494.75
310.03	479.75
310.26	517.75
310.49	483.75
310.72	504.75
310.949	530.75
311.179	521.75
311.409	532.75
311.639	532.75
311.868	506.75
312.098	515.75
312.328	512.75
312.557	499.75
312.787	518.75
313.017	525.75
313.246	525.75
313.476	543.75
313.706	561.75
313.935	538.75
314.165	542.75
314.394	543.75
314.624	593.75
314.853	632.75
315.083	623.75
315.312	628.75
315.542	586.75
315.771	545.75
316.001	549.75
316.23	579.75
316.46	574.75
316.689	564.75
316.919	540.75
317.148	495.75
317.377	518.75
317.607	590.75
317.836	642.75
318.065	666.75
318.295	634.75
318.524	617.75
318.753	596.75
318.983	588.75
319.212	550.75
319.441	557.75
319.67	571.75
319.9	558.75
320.129	611.75
320.358	640.75
320.587	614.75
320.816	605.75
321.046	617.75
321.275	579.75
321.504	621.75
321.733	643.75
321.962	609.75
322.191	573.75
322.42	562.75
322.649	588.75
322.878	562.75
323.108	574.75
323.337	600.75
323.566	566.75
323.795	598.75
324.024	571.75
324.253	557.75
324.482	578.75
324.71	564.75
324.939	550.75
325.168	536.75
325.397	572.75
325.626	575.75
325.855	592.75
326.084	588.75
326.313	575.75
326.542	581.75
326.77	613.75
326.999	590.75
327.228	552.75
327.457	527.75
327.686	548.75
327.914	571.75
328.143	571.75
328.372	562.75
328.6	563.75
328.829	572.75
329.058	559.75
329.287	584.75
329.515	572.75
329.744	600.75
329.972	635.75
330.201	634.75
330.43	601.75
330.658	597.75
330.887	578.75
331.115	575.75
331.344	621.75
331.572	582.75
331.801	589.75
332.03	606.75
332.258	614.75
332.486	589.75
332.715	618.75
332.943	603.75
333.172	598.75
333.4	598.75
333.629	634.75
333.857	711.75
334.085	754.75
334.314	825.75
334.542	820.75
334.771	752.75
334.999	712.75
335.227	631.75
335.455	646.75
335.684	642.75
335.912	671.75
336.14	690.75
336.369	634.75
336.597	604.75
336.825	640.75
337.053	645.75
337.281	685.75
337.51	673.75
337.738	707.75
337.966	650.75
338.194	586.75
338.422	591.75
338.65	610.75
338.878	581.75
339.106	586.75
339.334	573.75
339.562	576.75
339.79	626.75
340.018	624.75
340.246	638.75
340.474	629.75
340.702	619.75
340.93	641.75
341.158	610.75
341.386	621.75
341.614	600.75
341.842	604.75
342.07	618.75
342.298	599.75
342.526	592.75
342.754	578.75
342.981	599.75
343.209	587.75
343.437	583.75
343.665	610.75
343.893	622.75
344.12	638.75
344.348	648.75
344.576	607.75
344.804	604.75
345.031	588.75
345.259	593.75
345.487	592.75
345.714	558.75
345.942	551.75
346.17	582.75
346.397	553.75
346.625	580.75
346.853	558.75
347.08	568.75
347.308	565.75
347.535	586.75
347.763	563.75
347.99	582.75
348.218	578.75
348.445	563.75
348.673	570.75
348.9	602.75
349.128	612.75
349.355	615.75
349.583	618.75
349.81	582.75
350.037	537.75
350.265	541.75
350.492	526.75
350.72	552.75
350.947	574.75
351.174	607.75
351.402	578.75
351.629	538.75
351.856	539.75
352.083	550.75
352.311	572.75
352.538	536.75
352.765	598.75
352.992	583.75
353.22	564.75
353.447	543.75
353.674	582.75
353.901	578.75
354.128	557.75
354.355	562.75
354.583	618.75
354.81	615.75
355.037	599.75
355.264	601.75
355.491	568.75
355.718	559.75
355.945	578.75
356.172	582.75
356.399	572.75
356.626	559.75
356.853	597.75
357.08	642.75
357.307	708.75
357.534	655.75
357.761	603.75
357.988	576.75
358.215	553.75
358.441	572.75
358.668	539.75
358.895	569.75
359.122	618.75
359.349	660.75
359.576	617.75
359.802	558.75
360.029	537.75
360.256	553.75
360.483	581.75
360.709	613.75
360.936	621.75
361.163	630.75
361.39	692.75
361.616	690.75
361.843	695.75
362.07	643.75
362.296	580.75
362.523	566.75
362.749	575.75
362.976	580.75
363.203	590.75
363.429	571.75
363.656	567.75
363.882	602.75
364.109	662.75
364.335	660.75
364.562	623.75
364.788	607.75
365.015	573.75
365.241	555.75
365.468	588.75
365.694	612.75
365.92	624.75
366.147	592.75
366.373	565.75
366.599	553.75
366.826	564.75
367.052	564.75
367.278	581.75
367.505	593.75
367.731	598.75
367.957	619.75
368.184	628.75
368.41	692.75
368.636	674.75
368.862	680.75
369.089	697.75
369.315	638.75
369.541	617.75
369.767	596.75
369.993	603.75
370.219	600.75
370.445	604.75
370.672	655.75
370.898	666.75
371.124	638.75
371.35	635.75
371.576	643.75
371.802	679.75
372.028	651.75
372.254	614.75
372.48	598.75
372.706	611.75
372.932	598.75
373.158	633.75
373.384	639.75
373.61	644.75
373.835	663.75
374.061	647.75
374.287	644.75
374.513	647.75
374.739	648.75
374.965	645.75
375.191	638.75
375.416	657.75
375.642	683.75
375.868	701.75
376.094	730.75
376.319	669.75
376.545	666.75
376.771	707.75
376.997	727.75
377.222	695.75
377.448	677.75
377.674	676.75
377.899	678.75
378.125	712.75
378.35	696.75
378.576	649.75
378.802	638.75
379.027	640.75
379.253	659.75
379.478	650.75
379.704	644.75
379.929	631.75
380.155	646.75
380.38	661.75
380.606	654.75
380.831	666.75
381.057	702.75
381.282	675.75
381.507	712.75
381.733	722.75
381.958	760.75
382.184	696.75
382.409	672.75
382.634	696.75
382.86	682.75
383.085	696.75
383.31	703.75
383.535	780.75
383.761	786.75
383.986	769.75
384.211	740.75
384.436	756.75
384.662	772.75
384.887	790.75
385.112	755.75
385.337	767.75
385.562	739.75
385.787	749.75
386.013	773.75
386.238	750.75
386.463	754.75
386.688	855.75
386.913	898.75
387.138	843.75
387.363	812.75
387.588	771.75
387.813	772.75
388.038	821.75
388.263	814.75
388.488	776.75
388.713	728.75
388.938	734.75
389.163	755.75
389.387	749.75
389.612	735.75
389.837	770.75
390.062	788.75
390.287	741.75
390.512	744.75
390.736	772.75
390.961	773.75
391.186	756.75
391.411	754.75
391.636	766.75
391.86	764.75
392.085	775.75
392.31	751.75
392.534	747.75
392.759	773.75
392.984	744.75
393.208	777.75
393.433	812.75
393.658	868.75
393.882	822.75
394.107	772.75
394.331	754.75
394.556	788.75
394.78	783.75
395.005	815.75
395.229	812.75
395.454	877.75
395.678	877.75
395.903	837.75
396.127	810.75
396.352	838.75
396.576	838.75
396.801	868.75
397.025	826.75
397.249	851.75
397.474	831.75
397.698	827.75
397.922	885.75
398.147	886.75
398.371	917.75
398.595	903.75
398.82	869.75
399.044	895.75
399.268	934.75
399.492	989.75
399.717	997.75
399.941	1007.75
400.165	972.75
400.389	972.75
400.613	1015.75
400.837	1136.75
401.062	1219.75
401.286	1018.75
401.51	1000.75
401.734	1000.75
401.958	984.75
402.182	899.75
402.406	884.75
402.63	854.75
402.854	898.75
403.078	877.75
403.302	925.75
403.526	954.75
403.75	885.75
403.974	956.75
404.198	948.75
404.422	994.75
404.645	1016.75
404.869	962.75
405.093	926.75
405.317	922.75
405.541	927.75
405.765	950.75
405.988	950.75
406.212	954.75
406.436	964.75
406.66	984.75
406.883	1036.75
407.107	1193.75
407.331	1212.75
407.555	1258.75
407.778	1134.75
408.002	1004.75
408.226	992.75
408.449	986.75
408.673	959.75
408.896	953.75
409.12	966.75
409.344	935.75
409.567	937.75
409.791	938.75
410.014	982.75
410.238	1042.75
410.461	1050.75
410.685	942.75
410.908	934.75
411.132	978.75
411.355	939.75
411.578	932.75
411.802	944.75
412.025	967.75
412.249	924.75
412.472	916.75
412.695	923.75
412.919	912.75
413.142	920.75
413.365	904.75
413.589	950.75
413.812	989.75
414.035	982.75
414.258	947.75
414.482	912.75
414.705	936.75
414.928	912.75
415.151	933.75
415.374	950.75
415.597	951.75
415.821	939.75
416.044	960.75
416.267	950.75
416.49	910.75
416.713	960.75
416.936	971.75
417.159	999.75
417.382	974.75
417.605	927.75
417.828	921.75
418.051	962.75
418.274	944.75
418.497	939.75
418.72	946.75
418.943	927.75
419.166	946.75
419.389	974.75
419.611	1000.75
419.834	937.75
420.057	930.75
420.28	923.75
420.503	943.75
420.726	981.75
420.948	908.75
421.171	906.75
421.394	971.75
421.617	998.75
421.839	1002.75
422.062	989.75
422.285	924.75
422.507	934.75
422.73	902.75
422.953	890.75
423.175	883.75
423.398	899.75
423.621	935.75
423.843	906.75
424.066	939.75
424.288	1026.75
424.511	1031.75
424.733	1022.75
424.956	937.75
425.178	952.75
425.401	950.75
425.623	959.75
425.846	958.75
426.068	986.75
426.291	964.75
426.513	958.75
426.735	970.75
426.958	1022.75
427.18	1074.75
427.402	1004.75
427.625	1050.75
427.847	973.75
428.069	938.75
428.292	894.75
428.514	904.75
428.736	874.75
428.958	892.75
429.181	933.75
429.403	1108.75
429.625	1238.75
429.847	1053.75
430.069	967.75
430.292	1040.75
430.514	1028.75
430.736	956.75
430.958	976.75
431.18	935.75
431.402	875.75
431.624	850.75
431.846	812.75
432.068	734.75
432.29	744.75
432.512	785.75
432.734	886.75
432.956	960.75
433.178	972.75
433.4	979.75
433.622	929.75
433.844	913.75
434.066	859.75
434.287	793.75
434.509	790.75
434.731	838.75
434.953	918.75
435.175	944.75
435.397	921.75
435.618	892.75
435.84	837.75
436.062	850.75
436.284	903.75
436.505	943.75
436.727	946.75
436.949	939.75
437.17	922.75
437.392	886.75
437.614	860.75
437.835	812.75
438.057	811.75
438.278	843.75
438.5	845.75
438.721	895.75
438.943	950.75
439.165	927.75
439.386	922.75
439.608	954.75
439.829	958.75
440.05	986.75
440.272	956.75
440.493	958.75
440.715	973.75
440.936	1045.75
441.158	1078.75
441.379	1036.75
441.6	1027.75
441.822	1015.75
442.043	1015.75
442.264	997.75
442.486	976.75
442.707	974.75
442.928	956.75
443.149	988.75
443.371	1005.75
443.592	1036.75
443.813	1037.75
444.034	1034.75
444.255	1029.75
444.476	1038.75
444.698	1069.75
444.919	1030.75
445.14	1129.75
445.361	1091.75
445.582	1095.75
445.803	1047.75
446.024	1067.75
446.245	1082.75
446.466	1060.75
446.687	1063.75
446.908	1039.75
447.129	994.75
447.35	1026.75
447.571	1004.75
447.792	950.75
448.013	975.75
448.234	969.75
448.455	998.75
448.675	997.75
448.896	922.75
449.117	916.75
449.338	935.75
449.559	968.75
449.779	971.75
450	1050.75
450.221	1040.75
450.442	1039.75
450.662	943.75
450.883	882.75
451.104	859.75
451.324	871.75
451.545	918.75
451.766	858.75
451.986	830.75
452.207	849.75
452.428	813.75
452.648	790.75
452.869	790.75
453.089	803.75
453.31	792.75
453.53	786.75
453.751	724.75
453.971	672.75
454.192	725.75
454.412	788.75
454.633	790.75
454.853	798.75
455.073	752.75
455.294	779.75
455.514	759.75
455.734	743.75
455.955	766.75
456.175	780.75
456.395	733.75
456.616	729.75
456.836	768.75
457.056	737.75
457.276	710.75
457.497	714.75
457.717	706.75
457.937	723.75
458.157	710.75
458.377	700.75
458.598	686.75
458.818	679.75
459.038	719.75
459.258	720.75
459.478	741.75
459.698	696.75
459.918	750.75
460.138	820.75
460.358	820.75
460.578	833.75
460.798	876.75
461.018	916.75
461.238	893.75
461.458	877.75
461.678	830.75
461.898	832.75
462.118	855.75
462.338	890.75
462.558	874.75
462.777	854.75
462.997	887.75
463.217	918.75
463.437	895.75
463.657	847.75
463.876	828.75
464.096	836.75
464.316	849.75
464.536	892.75
464.755	870.75
464.975	891.75
465.195	865.75
465.414	863.75
465.634	872.75
465.854	912.75
466.073	973.75
466.293	943.75
466.512	879.75
466.732	890.75
466.951	913.75
467.171	935.75
467.391	901.75
467.61	895.75
467.829	901.75
468.049	957.75
468.268	1076.75
468.488	950.75
468.707	915.75
468.927	916.75
469.146	896.75
469.365	898.75
469.585	918.75
469.804	934.75
470.023	944.75
470.243	969.75
470.462	909.75
470.681	939.75
470.901	934.75
471.12	968.75
471.339	947.75
471.558	916.75
471.777	921.75
471.997	899.75
472.216	850.75
472.435	802.75
472.654	761.75
472.873	794.75
473.092	848.75
473.311	834.75
473.53	815.75
473.749	824.75
473.968	836.75
474.187	848.75
474.406	848.75
474.625	858.75
474.844	872.75
475.063	869.75
475.282	848.75
475.501	840.75
475.72	853.75
475.939	916.75
476.158	898.75
476.377	880.75
476.596	856.75
476.814	832.75
477.033	819.75
477.252	857.75
477.471	905.75
477.69	950.75
477.908	938.75
478.127	989.75
478.346	1001.75
478.564	1017.75
478.783	1019.75
479.002	1052.75
479.22	1021.75
479.439	1034.75
479.658	1078.75
479.876	997.75
480.095	933.75
480.313	904.75
480.532	899.75
480.751	877.75
480.969	842.75
481.188	809.75
481.406	800.75
481.624	787.75
481.843	812.75
482.061	855.75
482.28	865.75
482.498	899.75
482.717	874.75
482.935	906.75
483.153	985.75
483.372	1034.75
483.59	1013.75
483.808	972.75
484.027	960.75
484.245	985.75
484.463	1218.75
484.681	1286.75
484.9	1021.75
485.118	973.75
485.336	964.75
485.554	930.75
485.772	908.75
485.99	899.75
486.209	913.75
486.427	924.75
486.645	942.75
486.863	1024.75
487.081	1054.75
487.299	1022.75
487.517	1037.75
487.735	1123.75
487.953	1212.75
488.171	1178.75
488.389	1160.75
488.607	1103.75
488.825	1158.75
489.043	1086.75
489.261	961.75
489.479	1039.75
489.696	1061.75
489.914	1050.75
490.132	1042.75
490.35	1089.75
490.568	1170.75
490.786	1145.75
491.003	1186.75
491.221	1252.75
491.439	1301.75
491.657	1332.75
491.874	1390.75
492.092	1439.75
492.31	1511.75
492.527	1427.75
492.745	1368.75
492.963	1317.75
493.18	1303.75
493.398	1353.75
493.615	1323.75
493.833	1283.75
494.05	1231.75
494.268	1259.75
494.485	1274.75
494.703	1239.75
494.92	1212.75
495.138	1238.75
495.355	1274.75
495.573	1261.75
495.79	1292.75
496.008	1269.75
496.225	1234.75
496.442	1238.75
496.66	1227.75
496.877	1219.75
497.094	1229.75
497.312	1240.75
497.529	1197.75
497.746	1237.75
497.963	1269.75
498.181	1314.75
498.398	1286.75
498.615	1211.75
498.832	1158.75
499.049	1130.75
499.267	1171.75
499.484	1262.75
499.701	1378.75
499.918	1392.75
500.135	1522.75
