Data from WStandard_LampEnergy8_LIBS07252019.E.O._I.C._HRD10591_15-58-45-930.txt Node
Date: Thu Jul 25 15:58:45 EDT 2019
User: cochatt
Spectrometer: HR+D1059
Trigger mode: 1
Integration Time (sec): 1.000000E-1
Scans to average: 1
Electric dark correction enabled: true
Nonlinearity correction enabled: false
Boxcar width: 0
XAxis mode: Wavelengths
Number of Pixels in Spectrum: 2048
>>>>>Begin Spectral Data<<<<<
223.165	-17
223.4	-17
223.635	-17
223.869	4
224.104	-26
224.338	-11
224.573	-24
224.808	-17
225.042	-6
225.277	-15
225.511	-15
225.746	0
225.98	2
226.215	19
226.449	18
226.683	17
226.918	22
227.152	49
227.387	35
227.621	41
227.856	50
228.09	45
228.324	45
228.559	53
228.793	95
229.027	206
229.262	211
229.496	215
229.73	225
229.964	262
230.199	249
230.433	269
230.667	285
230.901	278
231.136	248
231.37	270
231.604	283
231.838	253
232.072	245
232.306	259
232.541	272
232.775	313
233.009	319
233.243	325
233.477	294
233.711	302
233.945	312
234.179	297
234.413	311
234.647	333
234.881	322
235.115	297
235.349	291
235.583	308
235.817	309
236.051	305
236.285	300
236.519	325
236.753	353
236.987	364
237.221	346
237.455	382
237.689	363
237.922	363
238.156	355
238.39	345
238.624	371
238.858	387
239.091	406
239.325	419
239.559	456
239.793	480
240.027	506
240.26	517
240.494	392
240.728	389
240.961	374
241.195	392
241.429	410
241.662	419
241.896	395
242.13	410
242.363	433
242.597	463
242.83	453
243.064	446
243.298	478
243.531	462
243.765	453
243.998	466
244.232	414
244.465	398
244.699	420
244.932	448
245.166	517
245.399	487
245.633	473
245.866	454
246.099	482
246.333	492
246.566	496
246.8	522
247.033	554
247.266	552
247.5	531
247.733	537
247.966	571
248.2	586
248.433	585
248.666	620
248.899	652
249.133	766
249.366	797
249.599	703
249.832	630
250.066	641
250.299	612
250.532	583
250.765	543
250.998	570
251.231	614
251.465	583
251.698	586
251.931	578
252.164	605
252.397	623
252.63	592
252.863	534
253.096	549
253.329	567
253.562	586
253.795	632
254.028	633
254.261	575
254.494	590
254.727	568
254.96	571
255.193	670
255.426	719
255.659	787
255.892	789
256.124	677
256.357	625
256.59	697
256.823	706
257.056	710
257.289	829
257.521	887
257.754	807
257.987	768
258.22	830
258.452	828
258.685	692
258.918	693
259.151	658
259.383	672
259.616	600
259.849	618
260.081	669
260.314	765
260.547	835
260.779	798
261.012	766
261.244	703
261.477	692
261.71	691
261.942	669
262.175	690
262.407	708
262.64	678
262.872	634
263.105	612
263.337	649
263.57	657
263.802	625
264.035	594
264.267	595
264.499	567
264.732	616
264.964	671
265.197	673
265.429	710
265.661	781
265.894	834
266.126	867
266.358	781
266.591	811
266.823	855
267.055	793
267.287	786
267.52	776
267.752	750
267.984	769
268.216	793
268.448	787
268.681	774
268.913	718
269.145	709
269.377	712
269.609	794
269.841	895
270.073	1009
270.306	1106
270.538	1110
270.77	952
271.002	828
271.234	782
271.466	844
271.698	941
271.93	1074
272.162	1073
272.394	963
272.626	874
272.858	787
273.09	714
273.322	699
273.553	668
273.785	715
274.017	718
274.249	735
274.481	758
274.713	710
274.945	696
275.176	705
275.408	680
275.64	665
275.872	672
276.104	751
276.335	826
276.567	914
276.799	927
277.031	831
277.262	779
277.494	823
277.726	950
277.957	900
278.189	834
278.421	753
278.652	731
278.884	748
279.115	742
279.347	759
279.579	725
279.81	739
280.042	809
280.273	882
280.505	876
280.736	862
280.968	838
281.199	737
281.431	728
281.662	712
281.894	729
282.125	756
282.356	755
282.588	757
282.819	814
283.051	866
283.282	918
283.513	859
283.745	760
283.976	711
284.207	729
284.439	757
284.67	764
284.901	767
285.132	777
285.364	796
285.595	774
285.826	765
286.057	734
286.288	774
286.52	801
286.751	851
286.982	840
287.213	787
287.444	741
287.675	750
287.906	820
288.138	838
288.369	789
288.6	769
288.831	732
289.062	733
289.293	769
289.524	757
289.755	769
289.986	770
290.217	745
290.448	755
290.679	773
290.91	770
291.141	798
291.371	827
291.602	802
291.833	796
292.064	835
292.295	813
292.526	842
292.757	856
292.987	835
293.218	843
293.449	891
293.68	976
293.91	1028
294.141	973
294.372	896
294.603	941
294.833	999
295.064	899
295.295	833
295.525	790
295.756	773
295.987	733
296.217	763
296.448	773
296.679	796
296.909	779
297.14	784
297.37	812
297.601	827
297.831	867
298.062	889
298.292	827
298.523	803
298.753	782
298.984	825
299.214	784
299.445	825
299.675	836
299.905	842
300.136	803
300.366	781
300.597	750
300.827	780
301.057	820
301.288	841
301.518	858
301.748	865
301.979	886
302.209	917
302.439	993
302.669	1005
302.9	920
303.13	874
303.36	853
303.59	871
303.82	843
304.051	843
304.281	886
304.511	881
304.741	958
304.971	1004
305.201	1062
305.431	983
305.661	811
305.891	761
306.121	757
306.352	801
306.582	860
306.812	871
307.042	957
307.272	979
307.502	985
307.731	1075
307.961	1066
308.191	1009
308.421	869
308.651	837
308.881	837
309.111	830
309.341	845
309.571	847
309.8	833
310.03	817
310.26	815
310.49	819
310.72	841
310.949	866
311.179	895
311.409	857
311.639	870
311.868	845
312.098	840
312.328	853
312.557	859
312.787	853
313.017	872
313.246	889
313.476	903
313.706	915
313.935	883
314.165	885
314.394	921
314.624	988
314.853	1030
315.083	1059
315.312	1059
315.542	975
315.771	889
316.001	955
316.23	942
316.46	937
316.689	919
316.919	871
317.148	866
317.377	895
317.607	954
317.836	1077
318.065	1051
318.295	1042
318.524	987
318.753	927
318.983	962
319.212	963
319.441	921
319.67	935
319.9	945
320.129	974
320.358	1045
320.587	1054
320.816	1032
321.046	1006
321.275	929
321.504	974
321.733	1039
321.962	1007
322.191	940
322.42	924
322.649	915
322.878	919
323.108	960
323.337	967
323.566	971
323.795	942
324.024	969
324.253	937
324.482	942
324.71	903
324.939	879
325.168	903
325.397	936
325.626	971
325.855	929
326.084	915
326.313	933
326.542	949
326.77	977
326.999	958
327.228	937
327.457	890
327.686	898
327.914	909
328.143	937
328.372	914
328.6	932
328.829	940
329.058	898
329.287	932
329.515	939
329.744	925
329.972	1012
330.201	1046
330.43	999
330.658	998
330.887	973
331.115	990
331.344	991
331.572	978
331.801	984
332.03	965
332.258	986
332.486	1013
332.715	998
332.943	991
333.172	965
333.4	992
333.629	1009
333.857	1101
334.085	1209
334.314	1370
334.542	1425
334.771	1306
334.999	1171
335.227	1102
335.455	1038
335.684	1062
335.912	1109
336.14	1126
336.369	1066
336.597	999
336.825	1013
337.053	1038
337.281	1101
337.51	1108
337.738	1137
337.966	1118
338.194	1031
338.422	987
338.65	960
338.878	967
339.106	943
339.334	926
339.562	941
339.79	933
340.018	1003
340.246	1035
340.474	1040
340.702	1016
340.93	1021
341.158	1019
341.386	976
341.614	999
341.842	987
342.07	971
342.298	994
342.526	988
342.754	958
342.981	970
343.209	975
343.437	963
343.665	958
343.893	1018
344.12	1067
344.348	1054
344.576	994
344.804	975
345.031	999
345.259	993
345.487	965
345.714	929
345.942	888
346.17	923
346.397	940
346.625	956
346.853	890
347.08	890
347.308	884
347.535	917
347.763	967
347.99	939
348.218	914
348.445	915
348.673	925
348.9	929
349.128	993
349.355	1004
349.583	989
349.81	929
350.037	883
350.265	869
350.492	908
350.72	920
350.947	945
351.174	949
351.402	898
351.629	870
351.856	865
352.083	833
352.311	860
352.538	898
352.765	962
352.992	940
353.22	897
353.447	899
353.674	912
353.901	915
354.128	899
354.355	882
354.583	938
354.81	974
355.037	948
355.264	912
355.491	936
355.718	936
355.945	922
356.172	903
356.399	892
356.626	898
356.853	936
357.08	1033
357.307	1099
357.534	1083
357.761	942
357.988	869
358.215	890
358.441	901
358.668	863
358.895	901
359.122	956
359.349	1090
359.576	1001
359.802	939
360.029	892
360.256	885
360.483	915
360.709	945
360.936	950
361.163	995
361.39	1126
361.616	1157
361.843	1116
362.07	1070
362.296	963
362.523	909
362.749	935
362.976	965
363.203	963
363.429	903
363.656	887
363.882	996
364.109	1060
364.335	1105
364.562	1031
364.788	965
365.015	921
365.241	916
365.468	933
365.694	975
365.92	1001
366.147	965
366.373	903
366.599	889
366.826	894
367.052	889
367.278	928
367.505	947
367.731	929
367.957	952
368.184	1003
368.41	1069
368.636	1074
368.862	1075
369.089	1067
369.315	1012
369.541	995
369.767	953
369.993	902
370.219	941
370.445	997
370.672	1039
370.898	1064
371.124	1030
371.35	999
371.576	1047
371.802	1045
372.028	973
372.254	974
372.48	939
372.706	905
372.932	934
373.158	950
373.384	975
373.61	997
373.835	1051
374.061	1001
374.287	986
374.513	972
374.739	970
374.965	989
375.191	1009
375.416	989
375.642	1041
375.868	1083
376.094	1091
376.319	1033
376.545	987
376.771	1027
376.997	1075
377.222	1024
377.448	1042
377.674	1019
377.899	1054
378.125	1130
378.35	1071
378.576	979
378.802	957
379.027	955
379.253	923
379.478	971
379.704	989
379.929	985
380.155	986
380.38	990
380.606	980
380.831	1030
381.057	1099
381.282	1051
381.507	1045
381.733	1123
381.958	1137
382.184	1037
382.409	1013
382.634	1019
382.86	995
383.085	1049
383.31	1109
383.535	1191
383.761	1201
383.986	1133
384.211	1089
384.436	1123
384.662	1173
384.887	1230
385.112	1147
385.337	1101
385.562	1123
385.787	1130
386.013	1135
386.238	1172
386.463	1164
386.688	1266
386.913	1301
387.138	1280
387.363	1205
387.588	1161
387.813	1146
388.038	1168
388.263	1228
388.488	1141
388.713	1095
388.938	1078
389.163	1078
389.387	1117
389.612	1089
389.837	1135
390.062	1124
390.287	1117
390.512	1117
390.736	1086
390.961	1105
391.186	1078
391.411	1104
391.636	1086
391.86	1115
392.085	1118
392.31	1087
392.534	1135
392.759	1136
392.984	1141
393.208	1155
393.433	1171
393.658	1224
393.882	1233
394.107	1143
394.331	1149
394.556	1143
394.78	1188
395.005	1170
395.229	1274
395.454	1315
395.678	1277
395.903	1197
396.127	1222
396.352	1192
396.576	1244
396.801	1250
397.025	1267
397.249	1224
397.474	1219
397.698	1246
397.922	1241
398.147	1299
398.371	1373
398.595	1335
398.82	1326
399.044	1341
399.268	1393
399.492	1459
399.717	1459
399.941	1471
400.165	1439
400.389	1421
400.613	1428
400.837	1665
401.062	1818
401.286	1551
401.51	1398
401.734	1499
401.958	1418
402.182	1317
402.406	1260
402.63	1281
402.854	1306
403.078	1284
403.302	1357
403.526	1329
403.75	1338
403.974	1377
404.198	1365
404.422	1415
404.645	1469
404.869	1467
405.093	1319
405.317	1309
405.541	1317
405.765	1357
405.988	1366
406.212	1363
406.436	1406
406.66	1470
406.883	1476
407.107	1632
407.331	1792
407.555	1874
407.778	1658
408.002	1427
408.226	1392
408.449	1417
408.673	1362
408.896	1374
409.12	1389
409.344	1375
409.567	1299
409.791	1374
410.014	1384
410.238	1431
410.461	1512
410.685	1354
410.908	1377
411.132	1399
411.355	1351
411.578	1333
411.802	1356
412.025	1353
412.249	1338
412.472	1263
412.695	1293
412.919	1299
413.142	1253
413.365	1303
413.589	1343
413.812	1429
414.035	1413
414.258	1303
414.482	1310
414.705	1342
414.928	1291
415.151	1268
415.374	1306
415.597	1321
415.821	1309
416.044	1353
416.267	1302
416.49	1283
416.713	1257
416.936	1333
417.159	1377
417.382	1332
417.605	1284
417.828	1285
418.051	1324
418.274	1307
418.497	1297
418.72	1257
418.943	1277
419.166	1343
419.389	1375
419.611	1314
419.834	1285
420.057	1317
420.28	1337
420.503	1270
420.726	1332
420.948	1293
421.171	1252
421.394	1248
421.617	1336
421.839	1331
422.062	1330
422.285	1273
422.507	1325
422.73	1229
422.953	1233
423.175	1230
423.398	1214
423.621	1240
423.843	1281
424.066	1317
424.288	1370
424.511	1397
424.733	1356
424.956	1235
425.178	1211
425.401	1229
425.623	1266
425.846	1271
426.068	1296
426.291	1342
426.513	1310
426.735	1331
426.958	1437
427.18	1507
427.402	1358
427.625	1399
427.847	1368
428.069	1269
428.292	1243
428.514	1201
428.736	1219
428.958	1268
429.181	1285
429.403	1470
429.625	1741
429.847	1475
430.069	1327
430.292	1469
430.514	1431
430.736	1362
430.958	1349
431.18	1293
431.402	1216
431.624	1171
431.846	1185
432.068	1142
432.29	1131
432.512	1184
432.734	1239
432.956	1254
433.178	1357
433.4	1331
433.622	1305
433.844	1255
434.066	1194
434.287	1166
434.509	1195
434.731	1268
434.953	1377
435.175	1316
435.397	1318
435.618	1283
435.84	1228
436.062	1239
436.284	1263
436.505	1295
436.727	1300
436.949	1245
437.17	1228
437.392	1219
437.614	1197
437.835	1153
438.057	1229
438.278	1223
438.5	1203
438.721	1218
438.943	1255
439.165	1242
439.386	1224
439.608	1256
439.829	1260
440.05	1224
440.272	1216
440.493	1258
440.715	1287
440.936	1360
441.158	1427
441.379	1405
441.6	1390
441.822	1383
442.043	1336
442.264	1319
442.486	1251
442.707	1268
442.928	1283
443.149	1307
443.371	1362
443.592	1389
443.813	1340
444.034	1385
444.255	1365
444.476	1389
444.698	1411
444.919	1407
445.14	1477
445.361	1437
445.582	1465
445.803	1414
446.024	1341
446.245	1433
446.466	1375
446.687	1354
446.908	1326
447.129	1317
447.35	1333
447.571	1305
447.792	1274
448.013	1227
448.234	1265
448.455	1320
448.675	1299
448.896	1186
449.117	1202
449.338	1230
449.559	1263
449.779	1285
450	1397
450.221	1488
450.442	1424
450.662	1274
450.883	1167
451.104	1164
451.324	1200
451.545	1222
451.766	1189
451.986	1147
452.207	1112
452.428	1088
452.648	1110
452.869	1082
453.089	1149
453.31	1148
453.53	1166
453.751	1134
453.971	1063
454.192	1085
454.412	1160
454.633	1134
454.853	1125
455.073	1068
455.294	1055
455.514	1077
455.734	1079
455.955	1073
456.175	1079
456.395	1069
456.616	1101
456.836	1066
457.056	1085
457.276	1063
457.497	1076
457.717	1010
457.937	1046
458.157	1087
458.377	1058
458.598	1026
458.818	1019
459.038	1082
459.258	1145
459.478	1122
459.698	1124
459.918	1112
460.138	1233
460.358	1247
460.578	1242
460.798	1291
461.018	1355
461.238	1282
461.458	1256
461.678	1267
461.898	1235
462.118	1199
462.338	1267
462.558	1236
462.777	1244
462.997	1289
463.217	1337
463.437	1318
463.657	1280
463.876	1270
464.096	1217
464.316	1261
464.536	1340
464.755	1262
464.975	1289
465.195	1244
465.414	1313
465.634	1277
465.854	1304
466.073	1426
466.293	1380
466.512	1186
466.732	1204
466.951	1244
467.171	1227
467.391	1194
467.61	1194
467.829	1212
468.049	1321
468.268	1454
468.488	1331
468.707	1280
468.927	1226
469.146	1229
469.365	1235
469.585	1252
469.804	1213
470.023	1221
470.243	1218
470.462	1215
470.681	1219
470.901	1282
471.12	1230
471.339	1227
471.558	1194
471.777	1175
471.997	1198
472.216	1188
472.435	1117
472.654	1121
472.873	1147
473.092	1205
473.311	1190
473.53	1110
473.749	1145
473.968	1203
474.187	1193
474.406	1235
474.625	1191
474.844	1177
475.063	1205
475.282	1231
475.501	1177
475.72	1221
475.939	1296
476.158	1282
476.377	1246
476.596	1193
476.814	1189
477.033	1208
477.252	1249
477.471	1307
477.69	1276
477.908	1281
478.127	1359
478.346	1431
478.564	1423
478.783	1418
479.002	1441
479.22	1421
479.439	1442
479.658	1562
479.876	1550
480.095	1400
480.313	1295
480.532	1275
480.751	1336
480.969	1290
481.188	1258
481.406	1238
481.624	1229
481.843	1234
482.061	1269
482.28	1311
482.498	1350
482.717	1303
482.935	1267
483.153	1382
483.372	1356
483.59	1331
483.808	1337
484.027	1330
484.245	1447
484.463	1734
484.681	1878
484.9	1459
485.118	1372
485.336	1365
485.554	1379
485.772	1399
485.99	1362
486.209	1382
486.427	1398
486.645	1389
486.863	1421
487.081	1447
487.299	1470
487.517	1465
487.735	1444
487.953	1510
488.171	1486
488.389	1469
488.607	1482
488.825	1621
489.043	1558
489.261	1419
489.479	1479
489.696	1493
489.914	1456
490.132	1457
490.35	1431
490.568	1495
490.786	1498
491.003	1482
491.221	1562
491.439	1589
491.657	1597
491.874	1616
492.092	1639
492.31	1682
492.527	1689
492.745	1612
492.963	1585
493.18	1580
493.398	1718
493.615	1702
493.833	1587
494.05	1530
494.268	1546
494.485	1580
494.703	1533
494.92	1552
495.138	1569
495.355	1564
495.573	1607
495.79	1688
496.008	1671
496.225	1593
496.442	1582
496.66	1598
496.877	1581
497.094	1670
497.312	1619
497.529	1633
497.746	1650
497.963	1829
498.181	1946
498.398	1852
498.615	1822
498.832	1745
499.049	1737
499.267	1739
499.484	1895
499.701	2041
499.918	2007
500.135	2217
500.352	2309
500.569	2305
500.786	2532
501.003	2265
501.22	2079
501.437	2039
501.654	2111
501.871	1945
502.088	1793
502.305	1768
502.522	1685
502.739	1611
502.956	1573
503.172	1546
503.389	1475
503.606	1482
503.823	1490
504.04	1463
504.256	1502
504.473	1512
504.69	1517
504.907	1448
505.123	1432
505.34	1503
505.557	1957
505.773	1683
505.99	1399
506.207	1305
506.423	1319
506.64	1296
506.856	1286
507.073	1502
507.289	1593
507.506	1466
507.722	1310
507.939	1242
508.155	1243
508.372	1254
508.588	1214
508.805	1194
509.021	1150
509.238	1148
509.454	1161
509.67	1155
509.887	1144
510.103	1123
510.319	1149
510.536	1214
510.752	1267
510.968	1201
511.184	1274
511.401	1213
511.617	1116
511.833	1093
512.049	1096
512.265	1088
512.481	1095
512.698	1169
512.914	1159
513.13	1135
513.346	1132
513.562	1083
513.778	1093
513.994	1186
514.21	1203
514.426	1221
514.642	1309
514.858	1225
515.074	1139
515.29	1103
515.506	1141
515.721	1173
515.937	1195
516.153	1293
516.369	1230
516.585	1203
516.801	1144
517.016	1134
517.232	1187
517.448	1186
517.664	1189
517.879	1229
518.095	1256
518.311	1203
518.527	1165
518.742	1156
518.958	1120
519.173	1141
519.389	1173
519.605	1186
519.82	1152
520.036	1173
520.251	1167
520.467	1147
520.682	1243
520.898	1238
521.113	1109
521.329	1111
521.544	1210
521.76	1163
521.975	1113
522.19	1067
522.406	1107
522.621	1383
522.836	1285
523.052	1119
523.267	1104
523.482	1114
523.698	1049
523.913	1053
524.128	1099
524.343	1185
524.559	1185
524.774	1110
524.989	1085
525.204	1055
525.419	1047
525.634	1040
525.849	1077
526.064	1050
526.28	1049
526.495	1022
526.71	985
526.925	983
527.14	991
527.355	984
527.57	944
527.785	1019
527.999	968
528.214	1006
528.429	1007
528.644	1022
528.859	1049
529.074	1096
529.289	1096
529.503	1081
529.718	1081
529.933	1016
530.148	976
530.363	963
530.577	964
530.792	980
531.007	985
531.221	994
531.436	981
531.651	1049
531.865	1019
532.08	1029
532.295	987
532.509	941
532.724	932
532.938	1009
533.153	1050
533.367	1040
533.582	1041
533.796	1021
534.011	1010
534.225	1002
534.44	938
534.654	978
534.868	958
535.083	1023
535.297	1028
535.511	990
535.726	997
535.94	966
536.154	982
536.369	930
536.583	916
536.797	930
537.011	941
537.225	943
537.44	926
537.654	989
537.868	937
538.082	869
538.296	891
538.51	919
538.724	921
538.938	960
539.153	1000
539.367	1003
539.581	951
539.795	974
540.009	957
540.222	957
540.436	993
540.65	1053
540.864	1099
541.078	1078
541.292	1016
541.506	1088
541.72	1105
541.934	1137
542.147	1173
542.361	1143
542.575	1049
542.789	990
543.002	950
543.216	942
543.43	1004
543.644	1052
543.857	1106
544.071	1131
544.285	1105
544.498	1086
544.712	1120
544.925	1114
545.139	1102
545.352	1085
545.566	1025
545.779	1054
545.993	1042
546.206	1084
546.42	1066
546.633	1084
546.847	1030
547.06	1045
547.274	1057
547.487	1089
547.7	1076
547.914	1078
548.127	1100
548.34	1096
548.554	1087
548.767	1071
548.98	1021
549.193	1058
549.407	1116
549.62	1103
549.833	1064
550.046	1019
550.259	1039
