Data from WStandard_LampEnergy8_LIBS07252019.E.O._I.C._HRD10591_15-59-55-929.txt Node
Date: Thu Jul 25 15:59:55 EDT 2019
User: cochatt
Spectrometer: HR+D1059
Trigger mode: 1
Integration Time (sec): 1.000000E-1
Scans to average: 1
Electric dark correction enabled: true
Nonlinearity correction enabled: false
Boxcar width: 0
XAxis mode: Wavelengths
Number of Pixels in Spectrum: 2048
>>>>>Begin Spectral Data<<<<<
223.165	-19.81
223.4	-19.81
223.635	-19.81
223.869	-22.81
224.104	-30.81
224.338	1.19
224.573	-14.81
224.808	-13.81
225.042	-3.81
225.277	1.19
225.511	-10.81
225.746	9.19
225.98	-0.81
226.215	8.19
226.449	9.19
226.683	24.19
226.918	30.19
227.152	34.19
227.387	30.19
227.621	39.19
227.856	37.19
228.09	32.19
228.324	47.19
228.559	60.19
228.793	96.19
229.027	195.19
229.262	223.19
229.496	225.19
229.73	209.19
229.964	254.19
230.199	256.19
230.433	257.19
230.667	286.19
230.901	279.19
231.136	265.19
231.37	264.19
231.604	253.19
231.838	257.19
232.072	272.19
232.306	253.19
232.541	271.19
232.775	316.19
233.009	342.19
233.243	316.19
233.477	297.19
233.711	326.19
233.945	315.19
234.179	297.19
234.413	314.19
234.647	343.19
234.881	321.19
235.115	303.19
235.349	292.19
235.583	325.19
235.817	293.19
236.051	291.19
236.285	300.19
236.519	315.19
236.753	336.19
236.987	356.19
237.221	358.19
237.455	378.19
237.689	385.19
237.922	343.19
238.156	373.19
238.39	361.19
238.624	379.19
238.858	403.19
239.091	407.19
239.325	422.19
239.559	469.19
239.793	495.19
240.027	521.19
240.26	513.19
240.494	369.19
240.728	375.19
240.961	396.19
241.195	375.19
241.429	437.19
241.662	423.19
241.896	401.19
242.13	397.19
242.363	445.19
242.597	452.19
242.83	444.19
243.064	474.19
243.298	488.19
243.531	473.19
243.765	478.19
243.998	491.19
244.232	413.19
244.465	397.19
244.699	405.19
244.932	452.19
245.166	501.19
245.399	494.19
245.633	463.19
245.866	460.19
246.099	477.19
246.333	496.19
246.566	497.19
246.8	536.19
247.033	582.19
247.266	534.19
247.5	535.19
247.733	523.19
247.966	560.19
248.2	630.19
248.433	598.19
248.666	627.19
248.899	665.19
249.133	756.19
249.366	828.19
249.599	689.19
249.832	620.19
250.066	613.19
250.299	640.19
250.532	593.19
250.765	525.19
250.998	589.19
251.231	598.19
251.465	609.19
251.698	589.19
251.931	593.19
252.164	604.19
252.397	610.19
252.63	609.19
252.863	543.19
253.096	564.19
253.329	583.19
253.562	613.19
253.795	632.19
254.028	625.19
254.261	602.19
254.494	575.19
254.727	570.19
254.96	571.19
255.193	642.19
255.426	717.19
255.659	796.19
255.892	777.19
256.124	681.19
256.357	664.19
256.59	723.19
256.823	704.19
257.056	723.19
257.289	836.19
257.521	892.19
257.754	793.19
257.987	764.19
258.22	840.19
258.452	811.19
258.685	681.19
258.918	665.19
259.151	661.19
259.383	646.19
259.616	589.19
259.849	626.19
260.081	695.19
260.314	798.19
260.547	830.19
260.779	827.19
261.012	773.19
261.244	683.19
261.477	653.19
261.71	708.19
261.942	681.19
262.175	673.19
262.407	725.19
262.64	669.19
262.872	628.19
263.105	602.19
263.337	656.19
263.57	636.19
263.802	652.19
264.035	602.19
264.267	593.19
264.499	576.19
264.732	631.19
264.964	657.19
265.197	703.19
265.429	708.19
265.661	796.19
265.894	869.19
266.126	876.19
266.358	795.19
266.591	821.19
266.823	841.19
267.055	831.19
267.287	785.19
267.52	776.19
267.752	761.19
267.984	802.19
268.216	803.19
268.448	847.19
268.681	834.19
268.913	719.19
269.145	712.19
269.377	724.19
269.609	771.19
269.841	863.19
270.073	1025.19
270.306	1153.19
270.538	1124.19
270.77	957.19
271.002	842.19
271.234	792.19
271.466	816.19
271.698	962.19
271.93	1080.19
272.162	1052.19
272.394	962.19
272.626	905.19
272.858	793.19
273.09	724.19
273.322	713.19
273.553	679.19
273.785	702.19
274.017	711.19
274.249	768.19
274.481	783.19
274.713	695.19
274.945	687.19
275.176	701.19
275.408	695.19
275.64	689.19
275.872	698.19
276.104	751.19
276.335	847.19
276.567	931.19
276.799	903.19
277.031	843.19
277.262	801.19
277.494	837.19
277.726	924.19
277.957	897.19
278.189	822.19
278.421	754.19
278.652	754.19
278.884	755.19
279.115	739.19
279.347	787.19
279.579	726.19
279.81	755.19
280.042	826.19
280.273	898.19
280.505	899.19
280.736	900.19
280.968	841.19
281.199	744.19
281.431	713.19
281.662	729.19
281.894	722.19
282.125	752.19
282.356	781.19
282.588	774.19
282.819	765.19
283.051	847.19
283.282	889.19
283.513	840.19
283.745	777.19
283.976	716.19
284.207	737.19
284.439	771.19
284.67	771.19
284.901	749.19
285.132	795.19
285.364	781.19
285.595	780.19
285.826	749.19
286.057	748.19
286.288	754.19
286.52	795.19
286.751	840.19
286.982	863.19
287.213	817.19
287.444	756.19
287.675	765.19
287.906	785.19
288.138	832.19
288.369	798.19
288.6	762.19
288.831	723.19
289.062	755.19
289.293	780.19
289.524	771.19
289.755	797.19
289.986	812.19
290.217	747.19
290.448	756.19
290.679	790.19
290.91	792.19
291.141	818.19
291.371	831.19
291.602	805.19
291.833	825.19
292.064	834.19
292.295	825.19
292.526	832.19
292.757	896.19
292.987	844.19
293.218	822.19
293.449	922.19
293.68	1011.19
293.91	1024.19
294.141	948.19
294.372	916.19
294.603	934.19
294.833	977.19
295.064	948.19
295.295	853.19
295.525	803.19
295.756	775.19
295.987	731.19
296.217	748.19
296.448	787.19
296.679	791.19
296.909	796.19
297.14	781.19
297.37	802.19
297.601	845.19
297.831	889.19
298.062	901.19
298.292	813.19
298.523	817.19
298.753	787.19
298.984	807.19
299.214	816.19
299.445	859.19
299.675	870.19
299.905	838.19
300.136	811.19
300.366	806.19
300.597	788.19
300.827	808.19
301.057	831.19
301.288	874.19
301.518	853.19
301.748	893.19
301.979	921.19
302.209	933.19
302.439	1007.19
302.669	1016.19
302.9	948.19
303.13	867.19
303.36	832.19
303.59	889.19
303.82	857.19
304.051	868.19
304.281	869.19
304.511	908.19
304.741	933.19
304.971	1015.19
305.201	1056.19
305.431	982.19
305.661	831.19
305.891	763.19
306.121	781.19
306.352	816.19
306.582	859.19
306.812	903.19
307.042	982.19
307.272	983.19
307.502	1021.19
307.731	1063.19
307.961	1087.19
308.191	1019.19
308.421	890.19
308.651	839.19
308.881	843.19
309.111	832.19
309.341	819.19
309.571	862.19
309.8	855.19
310.03	841.19
310.26	832.19
310.49	851.19
310.72	866.19
310.949	891.19
311.179	900.19
311.409	889.19
311.639	860.19
311.868	869.19
312.098	855.19
312.328	859.19
312.557	866.19
312.787	890.19
313.017	889.19
313.246	867.19
313.476	869.19
313.706	909.19
313.935	901.19
314.165	920.19
314.394	918.19
314.624	985.19
314.853	1029.19
315.083	1081.19
315.312	1075.19
315.542	995.19
315.771	926.19
316.001	940.19
316.23	955.19
316.46	975.19
316.689	946.19
316.919	888.19
317.148	877.19
317.377	886.19
317.607	967.19
317.836	1061.19
318.065	1091.19
318.295	1042.19
318.524	981.19
318.753	980.19
318.983	979.19
319.212	903.19
319.441	890.19
319.67	899.19
319.9	956.19
320.129	995.19
320.358	1039.19
320.587	1048.19
320.816	1041.19
321.046	995.19
321.275	970.19
321.504	1013.19
321.733	1055.19
321.962	1010.19
322.191	951.19
322.42	959.19
322.649	940.19
322.878	900.19
323.108	930.19
323.337	973.19
323.566	977.19
323.795	954.19
324.024	957.19
324.253	940.19
324.482	948.19
324.71	904.19
324.939	880.19
325.168	919.19
325.397	956.19
325.626	977.19
325.855	962.19
326.084	927.19
326.313	941.19
326.542	971.19
326.77	990.19
326.999	977.19
327.228	927.19
327.457	919.19
327.686	898.19
327.914	888.19
328.143	967.19
328.372	928.19
328.6	935.19
328.829	919.19
329.058	903.19
329.287	927.19
329.515	961.19
329.744	998.19
329.972	1037.19
330.201	1052.19
330.43	1046.19
330.658	968.19
330.887	1014.19
331.115	988.19
331.344	994.19
331.572	1008.19
331.801	985.19
332.03	1001.19
332.258	1026.19
332.486	1011.19
332.715	1016.19
332.943	1040.19
333.172	986.19
333.4	1001.19
333.629	1037.19
333.857	1088.19
334.085	1245.19
334.314	1403.19
334.542	1460.19
334.771	1317.19
334.999	1199.19
335.227	1075.19
335.455	1043.19
335.684	1069.19
335.912	1084.19
336.14	1138.19
336.369	1075.19
336.597	1043.19
336.825	1016.19
337.053	1055.19
337.281	1107.19
337.51	1187.19
337.738	1195.19
337.966	1098.19
338.194	1005.19
338.422	1017.19
338.65	977.19
338.878	989.19
339.106	982.19
339.334	959.19
339.562	951.19
339.79	963.19
340.018	1047.19
340.246	1043.19
340.474	1057.19
340.702	1050.19
340.93	1055.19
341.158	989.19
341.386	988.19
341.614	997.19
341.842	999.19
342.07	1026.19
342.298	1009.19
342.526	984.19
342.754	980.19
342.981	963.19
343.209	995.19
343.437	985.19
343.665	972.19
343.893	1009.19
344.12	1040.19
344.348	1034.19
344.576	983.19
344.804	972.19
345.031	950.19
345.259	1008.19
345.487	970.19
345.714	937.19
345.942	917.19
346.17	934.19
346.397	963.19
346.625	954.19
346.853	913.19
347.08	905.19
347.308	911.19
347.535	916.19
347.763	960.19
347.99	928.19
348.218	884.19
348.445	911.19
348.673	958.19
348.9	982.19
349.128	998.19
349.355	991.19
349.583	996.19
349.81	970.19
350.037	874.19
350.265	853.19
350.492	897.19
350.72	921.19
350.947	948.19
351.174	967.19
351.402	893.19
351.629	876.19
351.856	864.19
352.083	890.19
352.311	869.19
352.538	913.19
352.765	951.19
352.992	974.19
353.22	888.19
353.447	885.19
353.674	921.19
353.901	913.19
354.128	912.19
354.355	917.19
354.583	944.19
354.81	943.19
355.037	999.19
355.264	963.19
355.491	956.19
355.718	940.19
355.945	931.19
356.172	922.19
356.399	899.19
356.626	920.19
356.853	959.19
357.08	1045.19
357.307	1114.19
357.534	1073.19
357.761	974.19
357.988	905.19
358.215	897.19
358.441	914.19
358.668	891.19
358.895	907.19
359.122	987.19
359.349	1057.19
359.576	1027.19
359.802	963.19
360.029	905.19
360.256	900.19
360.483	919.19
360.709	959.19
360.936	995.19
361.163	1025.19
361.39	1117.19
361.616	1167.19
361.843	1123.19
362.07	1059.19
362.296	936.19
362.523	926.19
362.749	941.19
362.976	948.19
363.203	929.19
363.429	907.19
363.656	895.19
363.882	966.19
364.109	1043.19
364.335	1100.19
364.562	1039.19
364.788	1005.19
365.015	940.19
365.241	915.19
365.468	945.19
365.694	997.19
365.92	1004.19
366.147	969.19
366.373	916.19
366.599	897.19
366.826	920.19
367.052	935.19
367.278	943.19
367.505	957.19
367.731	960.19
367.957	969.19
368.184	987.19
368.41	1098.19
368.636	1069.19
368.862	1064.19
369.089	1056.19
369.315	1013.19
369.541	960.19
369.767	969.19
369.993	932.19
370.219	914.19
370.445	987.19
370.672	1028.19
370.898	1084.19
371.124	1039.19
371.35	1019.19
371.576	1042.19
371.802	1075.19
372.028	1012.19
372.254	985.19
372.48	975.19
372.706	953.19
372.932	972.19
373.158	954.19
373.384	976.19
373.61	1010.19
373.835	1040.19
374.061	1008.19
374.287	1002.19
374.513	976.19
374.739	1007.19
374.965	1013.19
375.191	1026.19
375.416	1053.19
375.642	1020.19
375.868	1109.19
376.094	1132.19
376.319	1044.19
376.545	1009.19
376.771	1061.19
376.997	1101.19
377.222	1071.19
377.448	1061.19
377.674	1049.19
377.899	1055.19
378.125	1096.19
378.35	1095.19
378.576	1002.19
378.802	959.19
379.027	969.19
379.253	979.19
379.478	996.19
379.704	991.19
379.929	961.19
380.155	999.19
380.38	1019.19
380.606	1009.19
380.831	1011.19
381.057	1071.19
381.282	1072.19
381.507	1059.19
381.733	1114.19
381.958	1164.19
382.184	1059.19
382.409	1055.19
382.634	1087.19
382.86	1071.19
383.085	1013.19
383.31	1084.19
383.535	1211.19
383.761	1239.19
383.986	1190.19
384.211	1142.19
384.436	1123.19
384.662	1210.19
384.887	1218.19
385.112	1125.19
385.337	1147.19
385.562	1127.19
385.787	1131.19
386.013	1190.19
386.238	1164.19
386.463	1140.19
386.688	1279.19
386.913	1313.19
387.138	1241.19
387.363	1191.19
387.588	1175.19
387.813	1155.19
388.038	1184.19
388.263	1215.19
388.488	1161.19
388.713	1112.19
388.938	1119.19
389.163	1107.19
389.387	1129.19
389.612	1155.19
389.837	1147.19
390.062	1163.19
390.287	1158.19
390.512	1124.19
390.736	1122.19
390.961	1109.19
391.186	1089.19
391.411	1084.19
391.636	1125.19
391.86	1125.19
392.085	1133.19
392.31	1127.19
392.534	1129.19
392.759	1170.19
392.984	1141.19
393.208	1170.19
393.433	1183.19
393.658	1256.19
393.882	1242.19
394.107	1160.19
394.331	1145.19
394.556	1130.19
394.78	1156.19
395.005	1237.19
395.229	1252.19
395.454	1315.19
395.678	1283.19
395.903	1242.19
396.127	1184.19
396.352	1237.19
396.576	1264.19
396.801	1257.19
397.025	1273.19
397.249	1233.19
397.474	1250.19
397.698	1228.19
397.922	1275.19
398.147	1348.19
398.371	1375.19
398.595	1344.19
398.82	1305.19
399.044	1305.19
399.268	1362.19
399.492	1431.19
399.717	1477.19
399.941	1511.19
400.165	1481.19
400.389	1471.19
400.613	1447.19
400.837	1678.19
401.062	1831.19
401.286	1568.19
401.51	1469.19
401.734	1479.19
401.958	1381.19
402.182	1318.19
402.406	1275.19
402.63	1245.19
402.854	1292.19
403.078	1293.19
403.302	1330.19
403.526	1363.19
403.75	1367.19
403.974	1357.19
404.198	1370.19
404.422	1401.19
404.645	1461.19
404.869	1442.19
405.093	1353.19
405.317	1318.19
405.541	1351.19
405.765	1353.19
405.988	1367.19
406.212	1411.19
406.436	1411.19
406.66	1480.19
406.883	1469.19
407.107	1689.19
407.331	1814.19
407.555	1969.19
407.778	1693.19
408.002	1467.19
408.226	1422.19
408.449	1453.19
408.673	1399.19
408.896	1366.19
409.12	1401.19
409.344	1364.19
409.567	1341.19
409.791	1381.19
410.014	1374.19
410.238	1474.19
410.461	1569.19
410.685	1388.19
410.908	1368.19
411.132	1388.19
411.355	1332.19
411.578	1348.19
411.802	1355.19
412.025	1369.19
412.249	1353.19
412.472	1346.19
412.695	1322.19
412.919	1282.19
413.142	1314.19
413.365	1332.19
413.589	1367.19
413.812	1416.19
414.035	1461.19
414.258	1363.19
414.482	1309.19
414.705	1301.19
414.928	1316.19
415.151	1327.19
415.374	1305.19
415.597	1367.19
415.821	1366.19
416.044	1367.19
416.267	1316.19
416.49	1265.19
416.713	1285.19
416.936	1371.19
417.159	1375.19
417.382	1367.19
417.605	1324.19
417.828	1327.19
418.051	1356.19
418.274	1312.19
418.497	1293.19
418.72	1291.19
418.943	1316.19
419.166	1345.19
419.389	1399.19
419.611	1347.19
419.834	1289.19
420.057	1338.19
420.28	1301.19
420.503	1303.19
420.726	1356.19
420.948	1338.19
421.171	1280.19
421.394	1307.19
421.617	1306.19
421.839	1336.19
422.062	1331.19
422.285	1292.19
422.507	1310.19
422.73	1252.19
422.953	1231.19
423.175	1248.19
423.398	1248.19
423.621	1262.19
423.843	1289.19
424.066	1340.19
424.288	1360.19
424.511	1452.19
424.733	1380.19
424.956	1255.19
425.178	1233.19
425.401	1290.19
425.623	1313.19
425.846	1293.19
426.068	1359.19
426.291	1367.19
426.513	1297.19
426.735	1324.19
426.958	1475.19
427.18	1520.19
427.402	1386.19
427.625	1402.19
427.847	1397.19
428.069	1283.19
428.292	1275.19
428.514	1255.19
428.736	1224.19
428.958	1236.19
429.181	1284.19
429.403	1483.19
429.625	1814.19
429.847	1473.19
430.069	1341.19
430.292	1455.19
430.514	1483.19
430.736	1371.19
430.958	1394.19
431.18	1297.19
431.402	1219.19
431.624	1200.19
431.846	1221.19
432.068	1140.19
432.29	1172.19
432.512	1172.19
432.734	1269.19
432.956	1298.19
433.178	1344.19
433.4	1343.19
433.622	1304.19
433.844	1247.19
434.066	1225.19
434.287	1215.19
434.509	1198.19
434.731	1286.19
434.953	1376.19
435.175	1324.19
435.397	1306.19
435.618	1296.19
435.84	1262.19
436.062	1241.19
436.284	1269.19
436.505	1286.19
436.727	1305.19
436.949	1309.19
437.17	1248.19
437.392	1249.19
437.614	1230.19
437.835	1177.19
438.057	1241.19
438.278	1280.19
438.5	1210.19
438.721	1228.19
438.943	1248.19
439.165	1225.19
439.386	1211.19
439.608	1274.19
439.829	1302.19
440.05	1272.19
440.272	1235.19
440.493	1265.19
440.715	1294.19
440.936	1383.19
441.158	1444.19
441.379	1398.19
441.6	1367.19
441.822	1340.19
442.043	1336.19
442.264	1337.19
442.486	1260.19
442.707	1288.19
442.928	1248.19
443.149	1302.19
443.371	1329.19
443.592	1410.19
443.813	1354.19
444.034	1371.19
444.255	1354.19
444.476	1366.19
444.698	1411.19
444.919	1401.19
445.14	1568.19
445.361	1484.19
445.582	1477.19
445.803	1408.19
446.024	1390.19
446.245	1421.19
446.466	1357.19
446.687	1345.19
446.908	1352.19
447.129	1281.19
447.35	1268.19
447.571	1295.19
447.792	1232.19
448.013	1266.19
448.234	1268.19
448.455	1317.19
448.675	1294.19
448.896	1205.19
449.117	1195.19
449.338	1260.19
449.559	1296.19
449.779	1353.19
450	1441.19
450.221	1461.19
450.442	1419.19
450.662	1309.19
450.883	1199.19
451.104	1153.19
451.324	1196.19
451.545	1237.19
451.766	1170.19
451.986	1153.19
452.207	1127.19
452.428	1122.19
452.648	1097.19
452.869	1120.19
453.089	1156.19
453.31	1137.19
453.53	1153.19
453.751	1114.19
453.971	1074.19
454.192	1100.19
454.412	1183.19
454.633	1163.19
454.853	1136.19
455.073	1049.19
455.294	1071.19
455.514	1057.19
455.734	1085.19
455.955	1089.19
456.175	1077.19
456.395	1058.19
456.616	1097.19
456.836	1104.19
457.056	1073.19
457.276	1072.19
457.497	1059.19
457.717	1015.19
457.937	1065.19
458.157	1074.19
458.377	1070.19
458.598	1060.19
458.818	1055.19
459.038	1092.19
459.258	1173.19
459.478	1136.19
459.698	1153.19
459.918	1136.19
460.138	1240.19
460.358	1246.19
460.578	1252.19
460.798	1289.19
461.018	1353.19
461.238	1292.19
461.458	1272.19
461.678	1247.19
461.898	1238.19
462.118	1227.19
462.338	1267.19
462.558	1275.19
462.777	1294.19
462.997	1357.19
463.217	1393.19
463.437	1335.19
463.657	1281.19
463.876	1261.19
464.096	1258.19
464.316	1302.19
464.536	1297.19
464.755	1306.19
464.975	1282.19
465.195	1248.19
465.414	1313.19
465.634	1279.19
465.854	1299.19
466.073	1384.19
466.293	1308.19
466.512	1216.19
466.732	1234.19
466.951	1255.19
467.171	1236.19
467.391	1209.19
467.61	1177.19
467.829	1231.19
468.049	1356.19
468.268	1420.19
468.488	1340.19
468.707	1324.19
468.927	1258.19
469.146	1202.19
469.365	1221.19
469.585	1247.19
469.804	1226.19
470.023	1220.19
470.243	1277.19
470.462	1255.19
470.681	1235.19
470.901	1223.19
471.12	1240.19
471.339	1258.19
471.558	1205.19
471.777	1201.19
471.997	1219.19
472.216	1177.19
472.435	1130.19
472.654	1147.19
472.873	1187.19
473.092	1251.19
473.311	1225.19
473.53	1132.19
473.749	1117.19
473.968	1186.19
474.187	1227.19
474.406	1232.19
474.625	1183.19
474.844	1236.19
475.063	1209.19
475.282	1265.19
475.501	1210.19
475.72	1236.19
475.939	1267.19
476.158	1247.19
476.377	1231.19
476.596	1224.19
476.814	1236.19
477.033	1199.19
477.252	1256.19
477.471	1298.19
477.69	1310.19
477.908	1308.19
478.127	1371.19
478.346	1427.19
478.564	1449.19
478.783	1440.19
479.002	1469.19
479.22	1398.19
479.439	1482.19
479.658	1637.19
479.876	1553.19
480.095	1394.19
480.313	1342.19
480.532	1295.19
480.751	1318.19
480.969	1346.19
481.188	1312.19
481.406	1253.19
481.624	1240.19
481.843	1267.19
482.061	1301.19
482.28	1336.19
482.498	1351.19
482.717	1350.19
482.935	1314.19
483.153	1326.19
483.372	1369.19
483.59	1368.19
483.808	1369.19
484.027	1365.19
484.245	1456.19
484.463	1767.19
484.681	1900.19
484.9	1469.19
485.118	1356.19
485.336	1364.19
485.554	1409.19
485.772	1403.19
485.99	1378.19
486.209	1387.19
486.427	1386.19
486.645	1412.19
486.863	1438.19
487.081	1464.19
487.299	1462.19
487.517	1477.19
487.735	1463.19
487.953	1519.19
488.171	1535.19
488.389	1481.19
488.607	1489.19
488.825	1658.19
489.043	1558.19
489.261	1409.19
489.479	1476.19
489.696	1489.19
489.914	1445.19
490.132	1421.19
490.35	1441.19
490.568	1572.19
490.786	1488.19
491.003	1506.19
491.221	1556.19
491.439	1583.19
491.657	1563.19
491.874	1623.19
492.092	1687.19
492.31	1687.19
492.527	1682.19
492.745	1620.19
492.963	1592.19
493.18	1631.19
493.398	1750.19
