Data from WStandard_LampEnergy10_LIBS07252019.E.O._I.C._HRD10591_15-54-33-928.txt Node
Date: Thu Jul 25 15:54:33 EDT 2019
User: cochatt
Spectrometer: HR+D1059
Trigger mode: 1
Integration Time (sec): 1.000000E-1
Scans to average: 1
Electric dark correction enabled: true
Nonlinearity correction enabled: false
Boxcar width: 0
XAxis mode: Wavelengths
Number of Pixels in Spectrum: 2048
>>>>>Begin Spectral Data<<<<<
223.165	6
223.4	6
223.635	6
223.869	-27
224.104	-25
224.338	-2
224.573	-8
224.808	-28
225.042	-10
225.277	6
225.511	-8
225.746	1
225.98	10
226.215	7
226.449	4
226.683	7
226.918	21
227.152	46
227.387	44
227.621	25
227.856	48
228.09	45
228.324	34
228.559	50
228.793	85
229.027	134
229.262	141
229.496	155
229.73	150
229.964	164
230.199	146
230.433	174
230.667	183
230.901	180
231.136	170
231.37	182
231.604	191
231.838	180
232.072	157
232.306	171
232.541	171
232.775	199
233.009	213
233.243	188
233.477	194
233.711	194
233.945	183
234.179	188
234.413	189
234.647	217
234.881	198
235.115	184
235.349	195
235.583	194
235.817	200
236.051	194
236.285	188
236.519	212
236.753	215
236.987	222
237.221	234
237.455	242
237.689	223
237.922	216
238.156	204
238.39	237
238.624	216
238.858	238
239.091	246
239.325	261
239.559	293
239.793	264
240.027	304
240.26	306
240.494	238
240.728	224
240.961	236
241.195	247
241.429	274
241.662	254
241.896	234
242.13	249
242.363	264
242.597	273
242.83	290
243.064	280
243.298	296
243.531	292
243.765	288
243.998	260
244.232	244
244.465	253
244.699	253
244.932	270
245.166	290
245.399	284
245.633	274
245.866	282
246.099	315
246.333	300
246.566	300
246.8	328
247.033	351
247.266	327
247.5	312
247.733	315
247.966	360
248.2	349
248.433	351
248.666	352
248.899	400
249.133	436
249.366	458
249.599	378
249.832	368
250.066	367
250.299	361
250.532	342
250.765	316
250.998	335
251.231	350
251.465	348
251.698	328
251.931	336
252.164	365
252.397	354
252.63	363
252.863	326
253.096	325
253.329	358
253.562	354
253.795	392
254.028	356
254.261	332
254.494	331
254.727	333
254.96	379
255.193	384
255.426	410
255.659	440
255.892	441
256.124	393
256.357	379
256.59	400
256.823	401
257.056	403
257.289	471
257.521	498
257.754	461
257.987	458
258.22	492
258.452	442
258.685	383
258.918	384
259.151	393
259.383	363
259.616	357
259.849	392
260.081	419
260.314	424
260.547	474
260.779	472
261.012	434
261.244	408
261.477	391
261.71	404
261.942	423
262.175	383
262.407	390
262.64	398
262.872	372
263.105	376
263.337	382
263.57	379
263.802	383
264.035	362
264.267	326
264.499	324
264.732	340
264.964	385
265.197	395
265.429	416
265.661	447
265.894	472
266.126	487
266.358	457
266.591	472
266.823	487
267.055	443
267.287	444
267.52	440
267.752	452
267.984	441
268.216	443
268.448	448
268.681	447
268.913	444
269.145	415
269.377	422
269.609	458
269.841	492
270.073	558
270.306	610
270.538	621
270.77	546
271.002	495
271.234	449
271.466	482
271.698	547
271.93	594
272.162	591
272.394	554
272.626	517
272.858	443
273.09	418
273.322	392
273.553	392
273.785	402
274.017	423
274.249	438
274.481	423
274.713	412
274.945	410
275.176	417
275.408	405
275.64	403
275.872	398
276.104	441
276.335	485
276.567	513
276.799	512
277.031	490
277.262	484
277.494	486
277.726	520
277.957	509
278.189	442
278.421	429
278.652	434
278.884	432
279.115	426
279.347	411
279.579	413
279.81	440
280.042	476
280.273	479
280.505	520
280.736	508
280.968	476
281.199	428
281.431	421
281.662	434
281.894	419
282.125	451
282.356	452
282.588	463
282.819	464
283.051	485
283.282	520
283.513	479
283.745	419
283.976	418
284.207	421
284.439	450
284.67	448
284.901	440
285.132	463
285.364	437
285.595	439
285.826	452
286.057	441
286.288	443
286.52	470
286.751	492
286.982	520
287.213	489
287.444	428
287.675	443
287.906	481
288.138	468
288.369	463
288.6	449
288.831	452
289.062	440
289.293	441
289.524	444
289.755	454
289.986	465
290.217	445
290.448	451
290.679	488
290.91	467
291.141	483
291.371	499
291.602	495
291.833	492
292.064	500
292.295	487
292.526	494
292.757	499
292.987	484
293.218	466
293.449	512
293.68	562
293.91	562
294.141	546
294.372	525
294.603	552
294.833	552
295.064	525
295.295	506
295.525	482
295.756	461
295.987	439
296.217	443
296.448	452
296.679	434
296.909	460
297.14	487
297.37	482
297.601	487
297.831	534
298.062	486
298.292	482
298.523	460
298.753	462
298.984	496
299.214	487
299.445	513
299.675	510
299.905	492
300.136	474
300.366	459
300.597	459
300.827	471
301.057	488
301.288	520
301.518	487
301.748	518
301.979	546
302.209	535
302.439	567
302.669	573
302.9	570
303.13	527
303.36	503
303.59	517
303.82	502
304.051	506
304.281	511
304.511	535
304.741	557
304.971	625
305.201	614
305.431	574
305.661	488
305.891	444
306.121	461
306.352	472
306.582	524
306.812	554
307.042	559
307.272	597
307.502	597
307.731	631
307.961	586
308.191	584
308.421	520
308.651	511
308.881	478
309.111	490
309.341	488
309.571	508
309.8	499
310.03	482
310.26	493
310.49	501
310.72	490
310.949	537
311.179	543
311.409	501
311.639	517
311.868	514
312.098	499
312.328	493
312.557	479
312.787	510
313.017	524
313.246	524
313.476	524
313.706	539
313.935	532
314.165	545
314.394	528
314.624	588
314.853	621
315.083	629
315.312	619
315.542	576
315.771	544
316.001	553
316.23	593
316.46	562
316.689	541
316.919	532
317.148	532
317.377	550
317.607	570
317.836	614
318.065	620
318.295	596
318.524	589
318.753	558
318.983	553
319.212	540
319.441	540
319.67	553
319.9	578
320.129	579
320.358	618
320.587	603
320.816	609
321.046	579
321.275	594
321.504	610
321.733	615
321.962	584
322.191	566
322.42	574
322.649	564
322.878	555
323.108	560
323.337	568
323.566	578
323.795	585
324.024	576
324.253	580
324.482	564
324.71	547
324.939	532
325.168	541
325.397	570
325.626	568
325.855	568
326.084	546
326.313	563
326.542	558
326.77	583
326.999	573
327.228	544
327.457	510
327.686	531
327.914	545
328.143	554
328.372	581
328.6	564
328.829	554
329.058	532
329.287	538
329.515	562
329.744	571
329.972	612
330.201	638
330.43	639
330.658	614
330.887	596
331.115	615
331.344	613
331.572	576
331.801	595
332.03	577
332.258	603
332.486	618
332.715	601
332.943	604
333.172	569
333.4	608
333.629	622
333.857	686
334.085	776
334.314	798
334.542	828
334.771	770
334.999	690
335.227	644
335.455	615
335.684	654
335.912	615
336.14	656
336.369	630
336.597	619
336.825	612
337.053	631
337.281	670
337.51	700
337.738	697
337.966	657
338.194	610
338.422	586
338.65	580
338.878	575
339.106	578
339.334	579
339.562	565
339.79	583
340.018	613
340.246	653
340.474	636
340.702	602
340.93	623
341.158	604
341.386	594
341.614	594
341.842	583
342.07	606
342.298	616
342.526	593
342.754	603
342.981	586
343.209	570
343.437	581
343.665	598
343.893	608
344.12	629
344.348	606
344.576	608
344.804	583
345.031	608
345.259	584
345.487	568
345.714	550
345.942	554
346.17	559
346.397	558
346.625	564
346.853	534
347.08	546
347.308	558
347.535	558
347.763	576
347.99	560
348.218	565
348.445	574
348.673	579
348.9	607
349.128	595
349.355	613
349.583	580
349.81	536
350.037	520
350.265	541
350.492	553
350.72	580
350.947	572
351.174	582
351.402	548
351.629	530
351.856	525
352.083	525
352.311	524
352.538	561
352.765	556
352.992	578
353.22	570
353.447	552
353.674	564
353.901	567
354.128	543
354.355	551
354.583	591
354.81	576
355.037	573
355.264	583
355.491	568
355.718	564
355.945	569
356.172	553
356.399	554
356.626	566
356.853	552
357.08	635
357.307	662
357.534	652
357.761	574
357.988	554
358.215	552
358.441	545
358.668	542
358.895	571
359.122	610
359.349	639
359.576	615
359.802	559
360.029	567
360.256	553
360.483	574
360.709	572
360.936	624
361.163	634
361.39	682
361.616	726
361.843	690
362.07	645
362.296	588
362.523	532
362.749	553
362.976	567
363.203	596
363.429	557
363.656	566
363.882	596
364.109	654
364.335	662
364.562	632
364.788	591
365.015	582
365.241	582
365.468	599
365.694	600
365.92	611
366.147	600
366.373	550
366.599	547
366.826	556
367.052	573
367.278	586
367.505	576
367.731	590
367.957	613
368.184	646
368.41	672
368.636	692
368.862	677
369.089	660
369.315	637
369.541	605
369.767	581
369.993	594
370.219	589
370.445	607
370.672	638
370.898	670
371.124	649
371.35	640
371.576	636
371.802	648
372.028	635
372.254	606
372.48	614
372.706	599
372.932	613
373.158	619
373.384	620
373.61	654
373.835	670
374.061	646
374.287	631
374.513	600
374.739	639
374.965	636
375.191	638
375.416	635
375.642	655
375.868	705
376.094	702
376.319	660
376.545	627
376.771	669
376.997	696
377.222	658
377.448	670
377.674	669
377.899	687
378.125	725
378.35	694
378.576	653
378.802	604
379.027	631
379.253	626
379.478	669
379.704	635
379.929	663
380.155	642
380.38	648
380.606	668
380.831	676
381.057	720
381.282	677
381.507	691
381.733	721
381.958	737
382.184	699
382.409	685
382.634	670
382.86	681
383.085	691
383.31	714
383.535	759
383.761	762
383.986	729
384.211	701
384.436	719
384.662	767
384.887	767
385.112	742
385.337	748
385.562	714
385.787	732
386.013	772
386.238	738
386.463	749
386.688	827
386.913	873
387.138	799
387.363	771
387.588	769
387.813	755
388.038	796
388.263	798
388.488	774
388.713	690
388.938	728
389.163	740
389.387	733
389.612	726
389.837	751
390.062	734
390.287	759
390.512	739
390.736	737
390.961	733
391.186	716
391.411	717
391.636	749
391.86	756
392.085	756
392.31	744
392.534	772
392.759	768
392.984	751
393.208	781
393.433	795
393.658	806
393.882	802
394.107	759
394.331	745
394.556	766
394.78	778
395.005	814
395.229	847
395.454	894
395.678	857
395.903	806
396.127	809
396.352	784
396.576	827
396.801	862
397.025	799
397.249	802
397.474	834
397.698	820
397.922	841
398.147	860
398.371	898
398.595	896
398.82	871
399.044	910
399.268	901
399.492	958
399.717	988
399.941	994
400.165	951
400.389	968
400.613	964
400.837	1134
401.062	1166
401.286	1003
401.51	950
401.734	949
401.958	936
402.182	869
402.406	875
402.63	870
402.854	873
403.078	891
403.302	871
403.526	896
403.75	911
403.974	895
404.198	929
404.422	974
404.645	977
404.869	960
405.093	918
405.317	909
405.541	886
405.765	926
405.988	943
406.212	940
406.436	952
406.66	996
406.883	1022
407.107	1131
407.331	1210
407.555	1270
407.778	1106
408.002	961
408.226	992
408.449	987
408.673	941
408.896	923
409.12	962
409.344	932
409.567	924
409.791	933
410.014	952
410.238	1012
410.461	1066
410.685	952
410.908	902
411.132	958
411.355	933
411.578	923
411.802	933
412.025	940
412.249	912
412.472	905
412.695	939
412.919	927
413.142	873
413.365	926
413.589	953
413.812	982
414.035	970
414.258	907
414.482	895
414.705	914
414.928	899
415.151	931
415.374	921
415.597	945
415.821	938
416.044	952
416.267	952
416.49	935
416.713	930
416.936	977
417.159	993
417.382	959
417.605	907
417.828	936
418.051	957
418.274	941
418.497	901
418.72	911
418.943	936
419.166	913
419.389	983
419.611	939
419.834	902
420.057	946
420.28	930
420.503	939
420.726	936
420.948	943
421.171	906
421.394	973
421.617	977
421.839	985
422.062	963
422.285	934
422.507	923
422.73	889
422.953	875
423.175	876
423.398	916
423.621	926
423.843	941
424.066	949
424.288	1002
424.511	1054
424.733	996
424.956	928
425.178	894
425.401	920
425.623	960
425.846	959
426.068	961
426.291	951
426.513	971
426.735	940
426.958	1028
427.18	1024
427.402	988
427.625	1024
427.847	980
428.069	946
428.292	923
428.514	902
428.736	899
428.958	912
429.181	934
429.403	1088
429.625	1199
429.847	1070
430.069	934
430.292	1029
430.514	1043
430.736	950
430.958	1005
431.18	924
431.402	879
431.624	846
431.846	808
432.068	712
432.29	743
432.512	794
432.734	866
432.956	926
433.178	991
433.4	976
433.622	957
433.844	907
434.066	851
434.287	788
434.509	786
434.731	840
434.953	905
435.175	924
435.397	914
435.618	874
435.84	849
436.062	834
436.284	884
436.505	932
436.727	940
436.949	913
437.17	900
437.392	898
437.614	854
437.835	791
438.057	807
438.278	803
438.5	856
438.721	876
438.943	922
439.165	918
439.386	916
439.608	960
439.829	939
440.05	974
440.272	975
440.493	954
440.715	963
440.936	1010
441.158	1026
441.379	1033
441.6	1039
441.822	1003
442.043	979
442.264	987
442.486	952
442.707	943
442.928	948
443.149	954
443.371	990
443.592	1014
443.813	1034
444.034	976
444.255	1015
444.476	1012
444.698	1029
444.919	1033
445.14	1152
445.361	1125
445.582	1053
445.803	1028
446.024	1007
446.245	1050
446.466	1053
446.687	1015
446.908	1044
447.129	1012
447.35	1018
447.571	1017
447.792	956
448.013	963
448.234	989
448.455	987
448.675	942
448.896	910
449.117	890
449.338	938
449.559	957
449.779	997
450	1002
450.221	1063
450.442	1007
450.662	919
450.883	864
451.104	858
451.324	873
451.545	896
451.766	870
451.986	826
452.207	799
452.428	799
452.648	791
452.869	787
453.089	770
453.31	766
453.53	774
453.751	719
453.971	681
454.192	713
454.412	766
454.633	791
454.853	775
455.073	763
455.294	776
455.514	772
455.734	743
455.955	741
456.175	728
456.395	726
456.616	747
456.836	722
457.056	729
457.276	716
457.497	706
457.717	698
457.937	685
458.157	706
458.377	697
458.598	672
458.818	676
459.038	691
459.258	706
459.478	706
459.698	682
459.918	741
460.138	792
460.358	790
460.578	825
460.798	855
461.018	898
461.238	876
461.458	858
461.678	819
461.898	828
462.118	806
462.338	849
462.558	831
462.777	824
462.997	836
463.217	848
463.437	851
463.657	848
463.876	822
464.096	815
464.316	836
464.536	840
464.755	873
464.975	848
465.195	860
465.414	877
465.634	874
465.854	873
466.073	961
466.293	942
466.512	864
466.732	902
466.951	895
467.171	898
467.391	863
467.61	871
467.829	883
468.049	986
468.268	1041
468.488	1012
468.707	919
468.927	893
469.146	880
469.365	886
469.585	897
469.804	911
470.023	916
470.243	943
470.462	919
470.681	923
470.901	934
471.12	926
471.339	943
471.558	898
471.777	922
471.997	891
472.216	833
472.435	790
472.654	764
472.873	771
473.092	828
473.311	841
473.53	795
473.749	831
473.968	860
474.187	810
474.406	832
474.625	830
474.844	864
475.063	856
475.282	863
475.501	827
475.72	800
475.939	873
476.158	872
476.377	885
476.596	856
476.814	790
477.033	806
477.252	846
477.471	895
477.69	940
477.908	939
478.127	966
478.346	1016
478.564	984
478.783	1011
479.002	1011
479.22	1028
479.439	1049
479.658	1018
479.876	974
480.095	905
480.313	871
480.532	909
480.751	867
480.969	816
481.188	807
481.406	784
481.624	776
481.843	805
482.061	812
482.28	874
482.498	883
482.717	844
482.935	862
483.153	972
483.372	1034
483.59	978
483.808	966
484.027	931
484.245	997
484.463	1200
484.681	1278
484.9	1012
485.118	983
485.336	919
485.554	907
485.772	902
485.99	849
486.209	892
486.427	898
486.645	941
486.863	972
487.081	1047
487.299	1000
487.517	1004
487.735	1095
487.953	1176
488.171	1191
488.389	1116
488.607	1058
488.825	1132
489.043	1069
489.261	999
489.479	1058
489.696	1041
489.914	998
490.132	1032
490.35	1088
490.568	1173
490.786	1192
491.003	1204
491.221	1262
491.439	1261
491.657	1282
491.874	1360
492.092	1414
492.31	1540
492.527	1441
492.745	1354
492.963	1301
493.18	1314
493.398	1350
493.615	1326
493.833	1255
494.05	1227
494.268	1220
494.485	1243
494.703	1226
494.92	1188
495.138	1239
495.355	1225
495.573	1284
495.79	1271
496.008	1291
496.225	1247
496.442	1238
496.66	1236
496.877	1218
497.094	1222
497.312	1186
497.529	1223
497.746	1205
497.963	1261
498.181	1300
498.398	1270
498.615	1190
498.832	1143
499.049	1128
499.267	1166
499.484	1258
499.701	1294
499.918	1342
500.135	1452
500.352	1506
500.569	1559
500.786	1680
501.003	1516
501.22	1396
501.437	1368
501.654	1418
501.871	1338
502.088	1190
502.305	1164
502.522	1135
502.739	1072
502.956	1065
503.172	1038
503.389	1032
503.606	990
503.823	969
504.04	994
504.256	980
504.473	987
504.69	1010
504.907	971
505.123	989
505.34	1068
505.557	1327
505.773	1118
505.99	973
506.207	911
506.423	899
506.64	863
506.856	909
507.073	1014
507.289	1108
507.506	1031
507.722	897
507.939	852
508.155	842
508.372	839
508.588	824
508.805	784
509.021	794
509.238	779
509.454	764
509.67	767
509.887	729
510.103	739
510.319	748
510.536	731
510.752	756
510.968	756
511.184	789
511.401	762
511.617	712
511.833	692
512.049	686
512.265	710
512.481	711
512.698	749
512.914	761
513.13	745
513.346	720
513.562	692
513.778	715
513.994	723
514.21	735
514.426	798
514.642	815
514.858	794
515.074	734
515.29	718
515.506	728
515.721	742
515.937	732
516.153	796
516.369	754
516.585	747
516.801	724
517.016	715
517.232	771
517.448	761
517.664	783
517.879	794
518.095	803
518.311	778
518.527	762
518.742	732
518.958	720
519.173	737
519.389	769
519.605	780
519.82	783
520.036	770
520.251	769
520.467	778
520.682	799
520.898	796
521.113	734
521.329	703
521.544	763
521.76	735
521.975	702
522.19	719
522.406	752
522.621	939
522.836	874
523.052	737
523.267	735
523.482	755
523.698	736
523.913	746
524.128	756
524.343	807
524.559	815
524.774	779
524.989	763
525.204	743
525.419	717
525.634	761
525.849	702
526.064	714
526.28	684
526.495	658
526.71	626
526.925	636
527.14	634
527.355	639
527.57	634
527.785	674
527.999	645
528.214	664
528.429	700
528.644	720
528.859	795
529.074	843
529.289	869
529.503	868
529.718	814
529.933	722
530.148	675
530.363	620
530.577	631
530.792	614
531.007	621
531.221	634
531.436	620
531.651	648
531.865	678
532.08	654
532.295	627
532.509	595
532.724	638
532.938	657
533.153	714
533.367	727
533.582	726
533.796	721
534.011	706
534.225	675
534.44	592
534.654	654
534.868	645
535.083	694
535.297	706
535.511	671
535.726	678
535.94	678
536.154	644
536.369	634
536.583	616
536.797	627
537.011	613
537.225	598
537.44	610
537.654	640
537.868	617
538.082	598
538.296	581
538.51	623
538.724	680
538.938	692
539.153	743
539.367	740
539.581	683
539.795	683
540.009	643
540.222	637
540.436	662
540.65	740
540.864	802
541.078	809
541.292	848
541.506	914
541.72	950
541.934	1029
542.147	1080
542.361	994
542.575	911
542.789	827
543.002	767
543.216	741
543.43	767
543.644	792
543.857	872
544.071	894
544.285	888
544.498	956
544.712	948
544.925	964
545.139	949
545.352	946
545.566	938
545.779	905
545.993	945
546.206	958
546.42	944
546.633	949
546.847	940
547.06	955
547.274	975
547.487	993
547.7	997
547.914	994
548.127	936
548.34	949
548.554	922
548.767	927
548.98	950
549.193	909
549.407	954
549.62	984
549.833	894
550.046	910
550.259	893
550.473	877
550.686	902
550.899	867
551.112	846
551.325	836
551.538	841
551.751	867
551.964	686
552.177	738
552.39	771
552.603	814
552.816	845
553.029	904
553.242	954
553.455	904
553.667	932
553.88	905
554.093	860
554.306	863
554.519	823
554.732	835
554.944	826
555.157	814
555.37	772
555.583	818
555.795	759
556.008	737
556.221	717
556.433	722
556.646	718
556.859	727
557.071	746
557.284	728
557.496	762
557.709	764
557.921	713
558.134	732
558.346	754
558.559	729
558.771	734
558.984	683
559.196	676
559.409	672
559.621	683
559.833	652
560.046	679
560.258	691
560.47	685
560.683	684
560.895	676
561.107	686
561.32	716
561.532	676
