Data from WStandard_LampEnergy8_LIBS07252019.E.O._I.C._HRD10591_15-59-38-930.txt Node
Date: Thu Jul 25 15:59:38 EDT 2019
User: cochatt
Spectrometer: HR+D1059
Trigger mode: 1
Integration Time (sec): 1.000000E-1
Scans to average: 1
Electric dark correction enabled: true
Nonlinearity correction enabled: false
Boxcar width: 0
XAxis mode: Wavelengths
Number of Pixels in Spectrum: 2048
>>>>>Begin Spectral Data<<<<<
223.165	-12.81
223.4	-12.81
223.635	-12.81
223.869	-14.81
224.104	-18.81
224.338	-16.81
224.573	-0.81
224.808	-11.81
225.042	10.19
225.277	-4.81
225.511	-8.81
225.746	3.19
225.98	7.19
226.215	0.19
226.449	19.19
226.683	8.19
226.918	13.19
227.152	28.19
227.387	33.19
227.621	39.19
227.856	45.19
228.09	42.19
228.324	34.19
228.559	68.19
228.793	100.19
229.027	195.19
229.262	207.19
229.496	218.19
229.73	217.19
229.964	238.19
230.199	252.19
230.433	246.19
230.667	278.19
230.901	294.19
231.136	247.19
231.37	258.19
231.604	247.19
231.838	255.19
232.072	262.19
232.306	244.19
232.541	254.19
232.775	316.19
233.009	322.19
233.243	294.19
233.477	276.19
233.711	278.19
233.945	312.19
234.179	301.19
234.413	311.19
234.647	325.19
234.881	315.19
235.115	293.19
235.349	300.19
235.583	308.19
235.817	289.19
236.051	300.19
236.285	307.19
236.519	335.19
236.753	348.19
236.987	373.19
237.221	335.19
237.455	370.19
237.689	349.19
237.922	354.19
238.156	353.19
238.39	351.19
238.624	378.19
238.858	387.19
239.091	388.19
239.325	411.19
239.559	460.19
239.793	500.19
240.027	498.19
240.26	497.19
240.494	397.19
240.728	372.19
240.961	353.19
241.195	391.19
241.429	414.19
241.662	416.19
241.896	384.19
242.13	388.19
242.363	432.19
242.597	432.19
242.83	449.19
243.064	439.19
243.298	464.19
243.531	468.19
243.765	458.19
243.998	466.19
244.232	393.19
244.465	416.19
244.699	404.19
244.932	454.19
245.166	517.19
245.399	480.19
245.633	435.19
245.866	441.19
246.099	473.19
246.333	469.19
246.566	498.19
246.8	528.19
247.033	573.19
247.266	519.19
247.5	519.19
247.733	514.19
247.966	544.19
248.2	567.19
248.433	606.19
248.666	602.19
248.899	681.19
249.133	733.19
249.366	769.19
249.599	663.19
249.832	583.19
250.066	607.19
250.299	594.19
250.532	559.19
250.765	524.19
250.998	569.19
251.231	597.19
251.465	569.19
251.698	541.19
251.931	554.19
252.164	588.19
252.397	608.19
252.63	583.19
252.863	550.19
253.096	531.19
253.329	551.19
253.562	600.19
253.795	629.19
254.028	617.19
254.261	573.19
254.494	559.19
254.727	545.19
254.96	578.19
255.193	609.19
255.426	731.19
255.659	775.19
255.892	737.19
256.124	680.19
256.357	658.19
256.59	679.19
256.823	707.19
257.056	689.19
257.289	792.19
257.521	860.19
257.754	807.19
257.987	752.19
258.22	807.19
258.452	803.19
258.685	701.19
258.918	656.19
259.151	653.19
259.383	639.19
259.616	583.19
259.849	606.19
260.081	682.19
260.314	775.19
260.547	794.19
260.779	808.19
261.012	755.19
261.244	703.19
261.477	655.19
261.71	678.19
261.942	668.19
262.175	670.19
262.407	687.19
262.64	657.19
262.872	633.19
263.105	611.19
263.337	607.19
263.57	645.19
263.802	613.19
264.035	613.19
264.267	555.19
264.499	567.19
264.732	601.19
264.964	638.19
265.197	659.19
265.429	695.19
265.661	768.19
265.894	810.19
266.126	839.19
266.358	777.19
266.591	796.19
266.823	841.19
267.055	788.19
267.287	754.19
267.52	746.19
267.752	747.19
267.984	758.19
268.216	769.19
268.448	796.19
268.681	782.19
268.913	711.19
269.145	694.19
269.377	701.19
269.609	745.19
269.841	874.19
270.073	983.19
270.306	1072.19
270.538	1117.19
270.77	932.19
271.002	823.19
271.234	820.19
271.466	820.19
271.698	890.19
271.93	1039.19
272.162	1011.19
272.394	934.19
272.626	875.19
272.858	807.19
273.09	689.19
273.322	698.19
273.553	663.19
273.785	658.19
274.017	712.19
274.249	746.19
274.481	741.19
274.713	694.19
274.945	677.19
275.176	678.19
275.408	688.19
275.64	685.19
275.872	689.19
276.104	746.19
276.335	816.19
276.567	891.19
276.799	913.19
277.031	811.19
277.262	809.19
277.494	842.19
277.726	879.19
277.957	869.19
278.189	795.19
278.421	753.19
278.652	703.19
278.884	696.19
279.115	715.19
279.347	745.19
279.579	701.19
279.81	733.19
280.042	811.19
280.273	864.19
280.505	854.19
280.736	847.19
280.968	802.19
281.199	729.19
281.431	689.19
281.662	707.19
281.894	724.19
282.125	751.19
282.356	773.19
282.588	749.19
282.819	783.19
283.051	843.19
283.282	871.19
283.513	835.19
283.745	761.19
283.976	721.19
284.207	698.19
284.439	719.19
284.67	736.19
284.901	753.19
285.132	760.19
285.364	755.19
285.595	761.19
285.826	754.19
286.057	771.19
286.288	745.19
286.52	781.19
286.751	824.19
286.982	851.19
287.213	773.19
287.444	741.19
287.675	716.19
287.906	777.19
288.138	803.19
288.369	805.19
288.6	755.19
288.831	729.19
289.062	723.19
289.293	739.19
289.524	768.19
289.755	792.19
289.986	785.19
290.217	736.19
290.448	735.19
290.679	758.19
290.91	765.19
291.141	777.19
291.371	827.19
291.602	804.19
291.833	824.19
292.064	835.19
292.295	815.19
292.526	841.19
292.757	848.19
292.987	796.19
293.218	788.19
293.449	881.19
293.68	977.19
293.91	999.19
294.141	937.19
294.372	892.19
294.603	922.19
294.833	950.19
295.064	933.19
295.295	833.19
295.525	795.19
295.756	734.19
295.987	723.19
296.217	755.19
296.448	756.19
296.679	758.19
296.909	743.19
297.14	759.19
297.37	799.19
297.601	818.19
297.831	885.19
298.062	876.19
298.292	826.19
298.523	767.19
298.753	749.19
298.984	780.19
299.214	811.19
299.445	841.19
299.675	844.19
299.905	810.19
300.136	803.19
300.366	790.19
300.597	771.19
300.827	794.19
301.057	803.19
301.288	843.19
301.518	824.19
301.748	863.19
301.979	921.19
302.209	898.19
302.439	972.19
302.669	993.19
302.9	937.19
303.13	857.19
303.36	833.19
303.59	855.19
303.82	835.19
304.051	857.19
304.281	873.19
304.511	864.19
304.741	926.19
304.971	1031.19
305.201	1044.19
305.431	970.19
305.661	800.19
305.891	738.19
306.121	781.19
306.352	822.19
306.582	847.19
306.812	910.19
307.042	961.19
307.272	963.19
307.502	989.19
307.731	1062.19
307.961	1091.19
308.191	963.19
308.421	880.19
308.651	855.19
308.881	819.19
309.111	810.19
309.341	824.19
309.571	821.19
309.8	822.19
310.03	812.19
310.26	831.19
310.49	841.19
310.72	845.19
310.949	876.19
311.179	849.19
311.409	837.19
311.639	828.19
311.868	803.19
312.098	833.19
312.328	821.19
312.557	825.19
312.787	829.19
313.017	886.19
313.246	864.19
313.476	840.19
313.706	862.19
313.935	866.19
314.165	892.19
314.394	932.19
314.624	966.19
314.853	1015.19
315.083	1034.19
315.312	1041.19
315.542	964.19
315.771	902.19
316.001	895.19
316.23	954.19
316.46	959.19
316.689	931.19
316.919	893.19
317.148	866.19
317.377	885.19
317.607	968.19
317.836	1048.19
318.065	1076.19
318.295	1024.19
318.524	978.19
318.753	949.19
318.983	955.19
319.212	897.19
319.441	919.19
319.67	891.19
319.9	921.19
320.129	968.19
320.358	994.19
320.587	1035.19
320.816	1030.19
321.046	989.19
321.275	936.19
321.504	991.19
321.733	1061.19
321.962	970.19
322.191	927.19
322.42	931.19
322.649	907.19
322.878	920.19
323.108	922.19
323.337	944.19
323.566	948.19
323.795	949.19
324.024	951.19
324.253	935.19
324.482	916.19
324.71	897.19
324.939	887.19
325.168	863.19
325.397	927.19
325.626	972.19
325.855	931.19
326.084	934.19
326.313	933.19
326.542	923.19
326.77	953.19
326.999	988.19
327.228	922.19
327.457	884.19
327.686	876.19
327.914	922.19
328.143	937.19
328.372	923.19
328.6	895.19
328.829	935.19
329.058	898.19
329.287	920.19
329.515	939.19
329.744	964.19
329.972	1036.19
330.201	1039.19
330.43	1023.19
330.658	967.19
330.887	947.19
331.115	973.19
331.344	995.19
331.572	981.19
331.801	983.19
332.03	969.19
332.258	944.19
332.486	1003.19
332.715	1009.19
332.943	1023.19
333.172	968.19
333.4	1029.19
333.629	1018.19
333.857	1107.19
334.085	1247.19
334.314	1350.19
334.542	1371.19
334.771	1266.19
334.999	1139.19
335.227	1091.19
335.455	1071.19
335.684	1036.19
335.912	1077.19
336.14	1083.19
336.369	1045.19
336.597	976.19
336.825	1026.19
337.053	1057.19
337.281	1111.19
337.51	1151.19
337.738	1155.19
337.966	1089.19
338.194	981.19
338.422	967.19
338.65	971.19
338.878	976.19
339.106	965.19
339.334	931.19
339.562	924.19
339.79	951.19
340.018	1030.19
340.246	1039.19
340.474	1031.19
340.702	1011.19
340.93	1027.19
341.158	1011.19
341.386	979.19
341.614	977.19
341.842	976.19
342.07	997.19
342.298	1004.19
342.526	992.19
342.754	986.19
342.981	967.19
343.209	983.19
343.437	973.19
343.665	972.19
343.893	1019.19
344.12	1063.19
344.348	1087.19
344.576	1019.19
344.804	962.19
345.031	955.19
345.259	978.19
345.487	935.19
345.714	886.19
345.942	910.19
346.17	907.19
346.397	918.19
346.625	904.19
346.853	901.19
347.08	877.19
347.308	884.19
347.535	893.19
347.763	939.19
347.99	914.19
348.218	882.19
348.445	892.19
348.673	913.19
348.9	977.19
349.128	979.19
349.355	1010.19
349.583	960.19
349.81	903.19
350.037	863.19
350.265	879.19
350.492	893.19
350.72	902.19
350.947	957.19
351.174	916.19
351.402	891.19
351.629	867.19
351.856	849.19
352.083	862.19
352.311	861.19
352.538	891.19
352.765	915.19
352.992	934.19
353.22	907.19
353.447	897.19
353.674	916.19
353.901	929.19
354.128	892.19
354.355	932.19
354.583	953.19
354.81	967.19
355.037	935.19
355.264	930.19
355.491	924.19
355.718	949.19
355.945	901.19
356.172	863.19
356.399	862.19
356.626	903.19
356.853	934.19
357.08	1019.19
357.307	1114.19
357.534	1050.19
357.761	938.19
357.988	898.19
358.215	864.19
358.441	882.19
358.668	847.19
358.895	926.19
359.122	962.19
359.349	1020.19
359.576	993.19
359.802	917.19
360.029	884.19
360.256	899.19
360.483	891.19
360.709	933.19
360.936	970.19
361.163	1000.19
361.39	1102.19
361.616	1147.19
361.843	1148.19
362.07	1023.19
362.296	942.19
362.523	908.19
362.749	932.19
362.976	950.19
363.203	931.19
363.429	915.19
363.656	879.19
363.882	932.19
364.109	1051.19
364.335	1071.19
364.562	981.19
364.788	984.19
365.015	956.19
365.241	884.19
365.468	937.19
365.694	966.19
365.92	989.19
366.147	939.19
366.373	923.19
366.599	886.19
366.826	918.19
367.052	907.19
367.278	896.19
367.505	936.19
367.731	960.19
367.957	964.19
368.184	1012.19
368.41	1064.19
368.636	1045.19
368.862	1047.19
369.089	1044.19
369.315	989.19
369.541	968.19
369.767	930.19
369.993	933.19
370.219	932.19
370.445	951.19
370.672	995.19
370.898	1061.19
371.124	1011.19
371.35	965.19
371.576	1010.19
371.802	1059.19
372.028	1023.19
372.254	973.19
372.48	925.19
372.706	932.19
372.932	938.19
373.158	938.19
373.384	964.19
373.61	992.19
373.835	1041.19
374.061	972.19
374.287	953.19
374.513	995.19
374.739	974.19
374.965	993.19
375.191	1017.19
375.416	1011.19
375.642	1051.19
375.868	1095.19
376.094	1101.19
376.319	1058.19
376.545	1012.19
376.771	1021.19
376.997	1078.19
377.222	1031.19
377.448	1029.19
377.674	1044.19
377.899	1011.19
378.125	1104.19
378.35	1077.19
378.576	967.19
378.802	915.19
379.027	927.19
379.253	961.19
379.478	1001.19
379.704	972.19
379.929	984.19
380.155	969.19
380.38	998.19
380.606	974.19
380.831	1018.19
381.057	1063.19
381.282	1106.19
381.507	1061.19
381.733	1082.19
381.958	1145.19
382.184	1071.19
382.409	990.19
382.634	1008.19
382.86	1013.19
383.085	1044.19
383.31	1057.19
383.535	1151.19
383.761	1204.19
383.986	1151.19
384.211	1112.19
384.436	1113.19
384.662	1168.19
384.887	1163.19
385.112	1124.19
385.337	1125.19
385.562	1097.19
385.787	1114.19
386.013	1159.19
386.238	1165.19
386.463	1119.19
386.688	1227.19
386.913	1306.19
387.138	1276.19
387.363	1172.19
387.588	1136.19
387.813	1154.19
388.038	1180.19
388.263	1237.19
388.488	1140.19
388.713	1055.19
388.938	1065.19
389.163	1089.19
389.387	1085.19
389.612	1115.19
389.837	1154.19
390.062	1131.19
390.287	1138.19
390.512	1131.19
390.736	1106.19
390.961	1081.19
391.186	1071.19
391.411	1114.19
391.636	1118.19
391.86	1119.19
392.085	1120.19
392.31	1114.19
392.534	1133.19
392.759	1144.19
392.984	1129.19
393.208	1132.19
393.433	1177.19
393.658	1220.19
393.882	1218.19
394.107	1156.19
394.331	1127.19
394.556	1135.19
394.78	1143.19
395.005	1190.19
395.229	1228.19
395.454	1333.19
395.678	1263.19
395.903	1220.19
396.127	1186.19
396.352	1226.19
396.576	1227.19
396.801	1258.19
397.025	1237.19
397.249	1225.19
397.474	1209.19
397.698	1224.19
397.922	1250.19
398.147	1285.19
398.371	1330.19
398.595	1351.19
398.82	1305.19
399.044	1324.19
399.268	1430.19
399.492	1477.19
399.717	1496.19
399.941	1485.19
400.165	1455.19
400.389	1418.19
400.613	1404.19
400.837	1644.19
401.062	1782.19
401.286	1538.19
401.51	1425.19
401.734	1448.19
401.958	1404.19
402.182	1319.19
402.406	1289.19
402.63	1273.19
402.854	1287.19
403.078	1305.19
403.302	1330.19
403.526	1312.19
403.75	1331.19
403.974	1350.19
404.198	1349.19
404.422	1424.19
404.645	1458.19
404.869	1395.19
405.093	1350.19
405.317	1313.19
405.541	1352.19
405.765	1355.19
405.988	1346.19
406.212	1363.19
406.436	1403.19
406.66	1463.19
406.883	1485.19
407.107	1684.19
407.331	1779.19
407.555	1908.19
407.778	1673.19
408.002	1441.19
408.226	1399.19
408.449	1403.19
408.673	1354.19
408.896	1378.19
409.12	1377.19
409.344	1384.19
409.567	1345.19
409.791	1369.19
410.014	1372.19
410.238	1478.19
410.461	1514.19
410.685	1342.19
410.908	1305.19
411.132	1348.19
411.355	1332.19
411.578	1296.19
411.802	1338.19
412.025	1352.19
412.249	1320.19
412.472	1341.19
412.695	1290.19
412.919	1280.19
413.142	1300.19
413.365	1291.19
413.589	1368.19
413.812	1443.19
414.035	1434.19
414.258	1325.19
414.482	1311.19
414.705	1296.19
414.928	1309.19
415.151	1299.19
415.374	1287.19
415.597	1346.19
415.821	1316.19
416.044	1316.19
416.267	1352.19
416.49	1301.19
416.713	1269.19
416.936	1331.19
417.159	1381.19
417.382	1343.19
417.605	1308.19
417.828	1319.19
418.051	1307.19
418.274	1274.19
418.497	1280.19
418.72	1269.19
418.943	1247.19
419.166	1301.19
419.389	1345.19
419.611	1324.19
419.834	1284.19
420.057	1315.19
420.28	1270.19
420.503	1297.19
420.726	1309.19
420.948	1299.19
421.171	1252.19
421.394	1268.19
421.617	1301.19
421.839	1337.19
422.062	1320.19
422.285	1252.19
422.507	1246.19
422.73	1205.19
422.953	1215.19
423.175	1229.19
423.398	1256.19
423.621	1280.19
423.843	1288.19
424.066	1330.19
424.288	1376.19
424.511	1420.19
424.733	1372.19
424.956	1231.19
425.178	1263.19
425.401	1227.19
425.623	1260.19
425.846	1283.19
426.068	1324.19
426.291	1331.19
426.513	1289.19
426.735	1351.19
426.958	1425.19
427.18	1471.19
427.402	1365.19
427.625	1391.19
427.847	1317.19
428.069	1258.19
428.292	1245.19
428.514	1245.19
428.736	1223.19
428.958	1224.19
429.181	1253.19
429.403	1441.19
429.625	1732.19
429.847	1436.19
430.069	1293.19
430.292	1444.19
430.514	1441.19
430.736	1360.19
430.958	1383.19
431.18	1289.19
431.402	1219.19
431.624	1185.19
431.846	1165.19
432.068	1112.19
432.29	1153.19
432.512	1139.19
432.734	1219.19
432.956	1278.19
433.178	1321.19
433.4	1332.19
433.622	1312.19
433.844	1257.19
434.066	1188.19
434.287	1161.19
434.509	1205.19
434.731	1272.19
434.953	1352.19
435.175	1299.19
435.397	1273.19
435.618	1285.19
435.84	1225.19
436.062	1227.19
436.284	1268.19
436.505	1277.19
436.727	1328.19
436.949	1249.19
437.17	1230.19
437.392	1201.19
437.614	1183.19
437.835	1191.19
438.057	1241.19
438.278	1230.19
438.5	1212.19
438.721	1224.19
438.943	1253.19
439.165	1221.19
439.386	1236.19
439.608	1250.19
439.829	1261.19
440.05	1250.19
440.272	1259.19
440.493	1231.19
440.715	1279.19
440.936	1336.19
441.158	1407.19
441.379	1396.19
441.6	1363.19
441.822	1339.19
442.043	1323.19
442.264	1318.19
442.486	1236.19
442.707	1253.19
442.928	1256.19
443.149	1271.19
443.371	1361.19
443.592	1352.19
443.813	1357.19
444.034	1349.19
444.255	1370.19
444.476	1384.19
444.698	1383.19
444.919	1399.19
445.14	1484.19
445.361	1429.19
445.582	1451.19
445.803	1382.19
446.024	1359.19
446.245	1430.19
446.466	1327.19
446.687	1346.19
446.908	1339.19
447.129	1296.19
447.35	1281.19
447.571	1281.19
447.792	1234.19
448.013	1250.19
448.234	1270.19
448.455	1321.19
448.675	1280.19
448.896	1184.19
449.117	1186.19
449.338	1235.19
449.559	1291.19
449.779	1338.19
450	1419.19
450.221	1476.19
450.442	1401.19
450.662	1285.19
450.883	1175.19
451.104	1190.19
451.324	1188.19
451.545	1201.19
451.766	1174.19
451.986	1141.19
452.207	1127.19
452.428	1129.19
452.648	1088.19
452.869	1101.19
453.089	1142.19
453.31	1155.19
453.53	1132.19
453.751	1095.19
453.971	1035.19
454.192	1068.19
454.412	1143.19
454.633	1118.19
454.853	1105.19
455.073	1062.19
455.294	1087.19
455.514	1076.19
455.734	1063.19
455.955	1077.19
456.175	1045.19
456.395	1042.19
456.616	1079.19
456.836	1089.19
457.056	1082.19
457.276	1062.19
457.497	1043.19
457.717	1017.19
457.937	1053.19
458.157	1058.19
458.377	1058.19
458.598	1032.19
458.818	1033.19
459.038	1127.19
459.258	1132.19
459.478	1126.19
459.698	1089.19
459.918	1159.19
460.138	1175.19
460.358	1233.19
460.578	1219.19
460.798	1273.19
461.018	1291.19
461.238	1312.19
461.458	1234.19
461.678	1205.19
461.898	1218.19
462.118	1173.19
462.338	1224.19
462.558	1239.19
462.777	1279.19
462.997	1291.19
463.217	1337.19
463.437	1336.19
463.657	1291.19
463.876	1261.19
464.096	1255.19
464.316	1276.19
464.536	1274.19
464.755	1345.19
464.975	1302.19
465.195	1259.19
465.414	1298.19
465.634	1278.19
465.854	1291.19
466.073	1400.19
466.293	1356.19
466.512	1199.19
466.732	1225.19
466.951	1220.19
467.171	1262.19
467.391	1191.19
467.61	1161.19
467.829	1215.19
468.049	1340.19
468.268	1452.19
468.488	1303.19
468.707	1266.19
468.927	1233.19
469.146	1206.19
469.365	1196.19
469.585	1232.19
469.804	1205.19
470.023	1226.19
470.243	1235.19
470.462	1210.19
470.681	1235.19
470.901	1223.19
471.12	1236.19
471.339	1227.19
471.558	1173.19
471.777	1181.19
471.997	1210.19
472.216	1141.19
472.435	1130.19
472.654	1149.19
472.873	1181.19
473.092	1240.19
473.311	1174.19
473.53	1147.19
473.749	1114.19
473.968	1154.19
474.187	1209.19
474.406	1222.19
474.625	1188.19
474.844	1192.19
475.063	1179.19
475.282	1224.19
475.501	1195.19
475.72	1197.19
475.939	1267.19
476.158	1221.19
476.377	1209.19
476.596	1177.19
476.814	1212.19
477.033	1190.19
477.252	1256.19
477.471	1297.19
477.69	1263.19
477.908	1267.19
478.127	1350.19
478.346	1404.19
478.564	1382.19
478.783	1391.19
479.002	1405.19
479.22	1406.19
479.439	1477.19
479.658	1578.19
479.876	1492.19
480.095	1364.19
480.313	1332.19
480.532	1325.19
480.751	1304.19
480.969	1286.19
481.188	1240.19
481.406	1246.19
481.624	1241.19
481.843	1250.19
482.061	1270.19
482.28	1288.19
482.498	1328.19
482.717	1324.19
482.935	1316.19
483.153	1346.19
483.372	1370.19
483.59	1359.19
483.808	1364.19
484.027	1364.19
484.245	1483.19
484.463	1693.19
484.681	1822.19
484.9	1440.19
485.118	1361.19
485.336	1343.19
485.554	1350.19
485.772	1359.19
485.99	1326.19
486.209	1380.19
486.427	1381.19
486.645	1369.19
486.863	1387.19
487.081	1426.19
487.299	1465.19
487.517	1451.19
487.735	1488.19
487.953	1476.19
488.171	1499.19
488.389	1445.19
488.607	1446.19
488.825	1561.19
489.043	1500.19
489.261	1395.19
489.479	1462.19
489.696	1491.19
489.914	1445.19
490.132	1451.19
490.35	1444.19
490.568	1534.19
490.786	1521.19
491.003	1456.19
491.221	1491.19
491.439	1595.19
491.657	1596.19
491.874	1604.19
492.092	1665.19
492.31	1684.19
492.527	1627.19
492.745	1596.19
492.963	1555.19
493.18	1623.19
493.398	1692.19
493.615	1675.19
493.833	1560.19
