Data from WStandard_LampEnergy5.5LIBS07252019.E.O._I.C._HRD10591_16-08-15-920.txt Node
Date: Thu Jul 25 16:08:15 EDT 2019
User: cochatt
Spectrometer: HR+D1059
Trigger mode: 1
Integration Time (sec): 1.000000E-1
Scans to average: 1
Electric dark correction enabled: true
Nonlinearity correction enabled: false
Boxcar width: 0
XAxis mode: Wavelengths
Number of Pixels in Spectrum: 2048
>>>>>Begin Spectral Data<<<<<
223.165	-19.81
223.4	-19.81
223.635	-19.81
223.869	-15.81
224.104	-21.81
224.338	-11.81
224.573	-24.81
224.808	-13.81
225.042	0.19
225.277	-16.81
225.511	-5.81
225.746	0.19
225.98	14.19
226.215	15.19
226.449	15.19
226.683	23.19
226.918	27.19
227.152	35.19
227.387	26.19
227.621	29.19
227.856	51.19
228.09	51.19
228.324	52.19
228.559	62.19
228.793	158.19
229.027	381.19
229.262	376.19
229.496	390.19
229.73	388.19
229.964	445.19
230.199	461.19
230.433	492.19
230.667	484.19
230.901	544.19
231.136	484.19
231.37	477.19
231.604	457.19
231.838	467.19
232.072	475.19
232.306	451.19
232.541	471.19
232.775	564.19
233.009	611.19
233.243	584.19
233.477	544.19
233.711	567.19
233.945	603.19
234.179	552.19
234.413	611.19
234.647	663.19
234.881	610.19
235.115	542.19
235.349	583.19
235.583	577.19
235.817	576.19
236.051	553.19
236.285	582.19
236.519	605.19
236.753	656.19
236.987	683.19
237.221	666.19
237.455	759.19
237.689	734.19
237.922	696.19
238.156	663.19
238.39	668.19
238.624	703.19
238.858	762.19
239.091	794.19
239.325	815.19
239.559	919.19
239.793	973.19
240.027	1088.19
240.26	1049.19
240.494	775.19
240.728	698.19
240.961	707.19
241.195	741.19
241.429	858.19
241.662	826.19
241.896	780.19
242.13	779.19
242.363	873.19
242.597	932.19
242.83	879.19
243.064	898.19
243.298	969.19
243.531	986.19
243.765	959.19
243.998	941.19
244.232	840.19
244.465	827.19
244.699	798.19
244.932	882.19
245.166	1061.19
245.399	980.19
245.633	913.19
245.866	908.19
246.099	972.19
246.333	964.19
246.566	971.19
246.8	1070.19
247.033	1195.19
247.266	1090.19
247.5	1076.19
247.733	1085.19
247.966	1146.19
248.2	1268.19
248.433	1206.19
248.666	1213.19
248.899	1349.19
249.133	1552.19
249.366	1803.19
249.599	1450.19
249.832	1259.19
250.066	1284.19
250.299	1326.19
250.532	1227.19
250.765	1080.19
250.998	1171.19
251.231	1232.19
251.465	1272.19
251.698	1194.19
251.931	1180.19
252.164	1213.19
252.397	1283.19
252.63	1262.19
252.863	1088.19
253.096	1106.19
253.329	1166.19
253.562	1185.19
253.795	1296.19
254.028	1279.19
254.261	1183.19
254.494	1188.19
254.727	1119.19
254.96	1142.19
255.193	1282.19
255.426	1435.19
255.659	1660.19
255.892	1732.19
256.124	1399.19
256.357	1343.19
256.59	1445.19
256.823	1465.19
257.056	1416.19
257.289	1722.19
257.521	1911.19
257.754	1718.19
257.987	1610.19
258.22	1823.19
258.452	1784.19
258.685	1443.19
258.918	1394.19
259.151	1405.19
259.383	1330.19
259.616	1196.19
259.849	1232.19
260.081	1414.19
260.314	1582.19
260.547	1703.19
260.779	1736.19
261.012	1655.19
261.244	1455.19
261.477	1373.19
261.71	1419.19
261.942	1458.19
262.175	1390.19
262.407	1476.19
262.64	1426.19
262.872	1302.19
263.105	1295.19
263.337	1304.19
263.57	1331.19
263.802	1353.19
264.035	1246.19
264.267	1145.19
264.499	1166.19
264.732	1228.19
264.964	1335.19
265.197	1387.19
265.429	1430.19
265.661	1592.19
265.894	1772.19
266.126	1835.19
266.358	1615.19
266.591	1642.19
266.823	1860.19
267.055	1666.19
267.287	1622.19
267.52	1598.19
267.752	1569.19
267.984	1572.19
268.216	1655.19
268.448	1710.19
268.681	1688.19
268.913	1556.19
269.145	1476.19
269.377	1389.19
269.609	1523.19
269.841	1765.19
270.073	2042.19
270.306	2296.19
270.538	2506.19
270.77	2094.19
271.002	1697.19
271.234	1693.19
271.466	1660.19
271.698	1838.19
271.93	2248.19
272.162	2267.19
272.394	1975.19
272.626	1994.19
272.858	1696.19
273.09	1475.19
273.322	1487.19
273.553	1391.19
273.785	1382.19
274.017	1423.19
274.249	1565.19
274.481	1620.19
274.713	1450.19
274.945	1410.19
275.176	1449.19
275.408	1429.19
275.64	1450.19
275.872	1370.19
276.104	1487.19
276.335	1682.19
276.567	1901.19
276.799	1965.19
277.031	1757.19
277.262	1678.19
277.494	1684.19
277.726	1901.19
277.957	1916.19
278.189	1722.19
278.421	1574.19
278.652	1522.19
278.884	1488.19
279.115	1503.19
279.347	1524.19
279.579	1480.19
279.81	1518.19
280.042	1642.19
280.273	1820.19
280.505	1824.19
280.736	1862.19
280.968	1816.19
281.199	1568.19
281.431	1515.19
281.662	1489.19
281.894	1502.19
282.125	1509.19
282.356	1585.19
282.588	1574.19
282.819	1519.19
283.051	1696.19
283.282	1805.19
283.513	1800.19
283.745	1559.19
283.976	1455.19
284.207	1481.19
284.439	1502.19
284.67	1553.19
284.901	1566.19
285.132	1602.19
285.364	1538.19
285.595	1559.19
285.826	1532.19
286.057	1523.19
286.288	1510.19
286.52	1553.19
286.751	1680.19
286.982	1772.19
287.213	1618.19
287.444	1512.19
287.675	1503.19
287.906	1580.19
288.138	1662.19
288.369	1605.19
288.6	1562.19
288.831	1510.19
289.062	1505.19
289.293	1553.19
289.524	1549.19
289.755	1611.19
289.986	1588.19
290.217	1472.19
290.448	1504.19
290.679	1583.19
290.91	1543.19
291.141	1627.19
291.371	1682.19
291.602	1639.19
291.833	1615.19
292.064	1679.19
292.295	1664.19
292.526	1717.19
292.757	1797.19
292.987	1677.19
293.218	1576.19
293.449	1698.19
293.68	1918.19
293.91	2052.19
294.141	1928.19
294.372	1781.19
294.603	1822.19
294.833	1951.19
295.064	1844.19
295.295	1659.19
295.525	1635.19
295.756	1503.19
295.987	1389.19
296.217	1504.19
296.448	1548.19
296.679	1533.19
296.909	1520.19
297.14	1520.19
297.37	1515.19
297.601	1621.19
297.831	1742.19
298.062	1772.19
298.292	1607.19
298.523	1540.19
298.753	1557.19
298.984	1563.19
299.214	1549.19
299.445	1614.19
299.675	1647.19
299.905	1656.19
300.136	1630.19
300.366	1574.19
300.597	1517.19
300.827	1514.19
301.057	1588.19
301.288	1647.19
301.518	1615.19
301.748	1696.19
301.979	1804.19
302.209	1741.19
302.439	1902.19
302.669	2012.19
302.9	1860.19
303.13	1704.19
303.36	1638.19
303.59	1713.19
303.82	1688.19
304.051	1655.19
304.281	1677.19
304.511	1661.19
304.741	1789.19
304.971	1952.19
305.201	2104.19
305.431	1933.19
305.661	1617.19
305.891	1497.19
306.121	1491.19
306.352	1492.19
306.582	1606.19
306.812	1726.19
307.042	1874.19
307.272	1851.19
307.502	1909.19
307.731	2028.19
307.961	2149.19
308.191	2021.19
308.421	1759.19
308.651	1612.19
308.881	1605.19
309.111	1606.19
309.341	1560.19
309.571	1574.19
309.8	1603.19
310.03	1583.19
310.26	1580.19
310.49	1557.19
310.72	1613.19
310.949	1699.19
311.179	1710.19
311.409	1671.19
311.639	1654.19
311.868	1612.19
312.098	1648.19
312.328	1634.19
312.557	1580.19
312.787	1638.19
313.017	1734.19
313.246	1709.19
313.476	1730.19
313.706	1700.19
313.935	1730.19
314.165	1762.19
314.394	1780.19
314.624	1822.19
314.853	1966.19
315.083	2053.19
315.312	2100.19
315.542	1995.19
315.771	1764.19
316.001	1759.19
316.23	1794.19
316.46	1814.19
316.689	1833.19
316.919	1695.19
317.148	1680.19
317.377	1670.19
317.607	1809.19
317.836	2030.19
318.065	2111.19
318.295	2037.19
318.524	1916.19
318.753	1816.19
318.983	1865.19
319.212	1746.19
319.441	1743.19
319.67	1734.19
319.9	1773.19
320.129	1850.19
320.358	1910.19
320.587	1994.19
320.816	1970.19
321.046	1917.19
321.275	1857.19
321.504	1844.19
321.733	1998.19
321.962	1959.19
322.191	1820.19
322.42	1794.19
322.649	1766.19
322.878	1755.19
323.108	1777.19
323.337	1869.19
323.566	1838.19
323.795	1825.19
324.024	1838.19
324.253	1755.19
324.482	1880.19
324.71	1755.19
324.939	1692.19
325.168	1699.19
325.397	1770.19
325.626	1816.19
325.855	1808.19
326.084	1787.19
326.313	1813.19
326.542	1811.19
326.77	1833.19
326.999	1840.19
327.228	1784.19
327.457	1681.19
327.686	1654.19
327.914	1727.19
328.143	1773.19
328.372	1785.19
328.6	1798.19
328.829	1729.19
329.058	1738.19
329.287	1693.19
329.515	1752.19
329.744	1806.19
329.972	1866.19
330.201	1982.19
330.43	1936.19
330.658	1851.19
330.887	1931.19
331.115	1899.19
331.344	1884.19
331.572	1866.19
331.801	1867.19
332.03	1868.19
332.258	1878.19
332.486	1880.19
332.715	1900.19
332.943	1925.19
333.172	1858.19
333.4	1915.19
333.629	1925.19
333.857	2070.19
334.085	2189.19
334.314	2523.19
334.542	2748.19
334.771	2529.19
334.999	2250.19
335.227	2138.19
335.455	2028.19
335.684	2013.19
335.912	2021.19
336.14	2108.19
336.369	2042.19
336.597	1910.19
336.825	1910.19
337.053	1956.19
337.281	2040.19
337.51	2146.19
337.738	2196.19
337.966	2165.19
338.194	1919.19
338.422	1848.19
338.65	1856.19
338.878	1826.19
339.106	1796.19
339.334	1781.19
339.562	1732.19
339.79	1788.19
340.018	1902.19
340.246	1990.19
340.474	1959.19
340.702	1933.19
340.93	1949.19
341.158	1919.19
341.386	1860.19
341.614	1854.19
341.842	1811.19
342.07	1846.19
342.298	1883.19
342.526	1849.19
342.754	1831.19
342.981	1835.19
343.209	1821.19
343.437	1796.19
343.665	1803.19
343.893	1872.19
344.12	1981.19
344.348	1984.19
344.576	1909.19
344.804	1858.19
345.031	1822.19
345.259	1880.19
345.487	1788.19
345.714	1711.19
345.942	1679.19
346.17	1723.19
346.397	1768.19
346.625	1812.19
346.853	1645.19
347.08	1638.19
347.308	1647.19
347.535	1686.19
347.763	1794.19
347.99	1735.19
348.218	1667.19
348.445	1704.19
348.673	1702.19
348.9	1774.19
349.128	1797.19
349.355	1854.19
349.583	1801.19
349.81	1737.19
350.037	1615.19
350.265	1599.19
350.492	1613.19
350.72	1687.19
350.947	1735.19
351.174	1733.19
351.402	1683.19
351.629	1606.19
351.856	1629.19
352.083	1580.19
352.311	1598.19
352.538	1641.19
352.765	1689.19
352.992	1752.19
353.22	1726.19
353.447	1607.19
353.674	1675.19
353.901	1682.19
354.128	1670.19
354.355	1651.19
354.583	1734.19
354.81	1782.19
355.037	1748.19
355.264	1737.19
355.491	1708.19
355.718	1711.19
355.945	1709.19
356.172	1661.19
356.399	1618.19
356.626	1639.19
356.853	1713.19
357.08	1845.19
357.307	2017.19
357.534	2038.19
357.761	1782.19
357.988	1644.19
358.215	1590.19
358.441	1610.19
358.668	1593.19
358.895	1611.19
359.122	1694.19
359.349	1904.19
359.576	1889.19
359.802	1726.19
360.029	1661.19
360.256	1603.19
360.483	1650.19
360.709	1708.19
360.936	1765.19
361.163	1778.19
361.39	1950.19
361.616	2121.19
361.843	2059.19
362.07	1984.19
362.296	1740.19
362.523	1666.19
362.749	1667.19
362.976	1703.19
363.203	1766.19
363.429	1698.19
363.656	1635.19
363.882	1679.19
364.109	1871.19
364.335	1999.19
364.562	1913.19
364.788	1814.19
365.015	1752.19
365.241	1686.19
365.468	1670.19
365.694	1753.19
365.92	1864.19
366.147	1800.19
366.373	1674.19
366.599	1633.19
366.826	1634.19
367.052	1656.19
367.278	1688.19
367.505	1679.19
367.731	1752.19
367.957	1698.19
368.184	1740.19
368.41	1869.19
368.636	1884.19
368.862	1887.19
369.089	1912.19
369.315	1828.19
369.541	1762.19
369.767	1715.19
369.993	1660.19
370.219	1668.19
370.445	1676.19
370.672	1826.19
370.898	1896.19
371.124	1862.19
371.35	1778.19
371.576	1866.19
371.802	1924.19
372.028	1862.19
372.254	1755.19
372.48	1726.19
372.706	1683.19
372.932	1673.19
373.158	1722.19
373.384	1707.19
373.61	1763.19
373.835	1890.19
374.061	1808.19
374.287	1780.19
374.513	1828.19
374.739	1817.19
374.965	1816.19
375.191	1839.19
375.416	1849.19
375.642	1809.19
375.868	1913.19
376.094	2028.19
376.319	1912.19
376.545	1792.19
376.771	1790.19
376.997	1876.19
377.222	1880.19
377.448	1779.19
377.674	1888.19
377.899	1870.19
378.125	1998.19
378.35	1982.19
378.576	1801.19
378.802	1724.19
379.027	1714.19
379.253	1736.19
379.478	1775.19
379.704	1740.19
379.929	1772.19
380.155	1756.19
380.38	1767.19
380.606	1837.19
380.831	1805.19
381.057	1858.19
381.282	1926.19
381.507	1802.19
381.733	1957.19
381.958	2014.19
382.184	1872.19
382.409	1813.19
382.634	1861.19
382.86	1835.19
383.085	1835.19
383.31	1889.19
383.535	2067.19
383.761	2165.19
383.986	2020.19
384.211	2012.19
384.436	1998.19
384.662	2041.19
384.887	2196.19
385.112	2047.19
385.337	2041.19
385.562	2024.19
385.787	2040.19
386.013	2069.19
386.238	2101.19
386.463	2074.19
386.688	2222.19
386.913	2278.19
387.138	2259.19
387.363	2139.19
387.588	2106.19
387.813	2091.19
388.038	2116.19
388.263	2183.19
388.488	2094.19
388.713	1934.19
388.938	1935.19
389.163	1914.19
389.387	1986.19
389.612	1969.19
389.837	2070.19
390.062	2026.19
390.287	2045.19
390.512	2043.19
390.736	2015.19
390.961	1970.19
391.186	1924.19
391.411	1971.19
391.636	2000.19
391.86	2055.19
392.085	2004.19
392.31	2016.19
392.534	2027.19
392.759	2020.19
392.984	2039.19
393.208	2019.19
393.433	2086.19
393.658	2162.19
393.882	2188.19
394.107	2084.19
394.331	2019.19
394.556	2029.19
394.78	2034.19
395.005	2122.19
395.229	2157.19
395.454	2283.19
395.678	2337.19
395.903	2266.19
396.127	2136.19
396.352	2143.19
396.576	2218.19
396.801	2238.19
397.025	2209.19
397.249	2219.19
397.474	2230.19
397.698	2180.19
397.922	2232.19
398.147	2369.19
398.371	2391.19
398.595	2437.19
398.82	2327.19
399.044	2364.19
399.268	2473.19
399.492	2622.19
399.717	2710.19
399.941	2694.19
400.165	2759.19
400.389	2610.19
400.613	2551.19
400.837	2775.19
401.062	3262.19
401.286	2840.19
401.51	2555.19
401.734	2640.19
401.958	2591.19
402.182	2394.19
402.406	2277.19
402.63	2314.19
402.854	2292.19
403.078	2319.19
403.302	2372.19
403.526	2386.19
403.75	2435.19
403.974	2442.19
404.198	2461.19
404.422	2501.19
404.645	2580.19
404.869	2541.19
405.093	2411.19
405.317	2330.19
405.541	2432.19
405.765	2407.19
405.988	2426.19
406.212	2447.19
406.436	2558.19
406.66	2599.19
406.883	2566.19
407.107	2877.19
407.331	3147.19
407.555	3424.19
407.778	3119.19
408.002	2651.19
408.226	2558.19
408.449	2557.19
408.673	2437.19
408.896	2510.19
409.12	2494.19
409.344	2460.19
409.567	2390.19
409.791	2458.19
410.014	2448.19
410.238	2603.19
410.461	2710.19
410.685	2466.19
410.908	2346.19
411.132	2392.19
411.355	2423.19
411.578	2314.19
411.802	2341.19
412.025	2409.19
412.249	2407.19
412.472	2333.19
412.695	2260.19
412.919	2278.19
413.142	2310.19
413.365	2340.19
413.589	2384.19
413.812	2484.19
414.035	2510.19
414.258	2328.19
414.482	2280.19
414.705	2333.19
414.928	2283.19
415.151	2251.19
415.374	2322.19
415.597	2345.19
415.821	2342.19
416.044	2493.19
416.267	2474.19
416.49	2271.19
416.713	2185.19
416.936	2286.19
417.159	2378.19
417.382	2385.19
417.605	2249.19
417.828	2340.19
418.051	2353.19
418.274	2302.19
418.497	2215.19
418.72	2236.19
418.943	2180.19
419.166	2379.19
419.389	2457.19
419.611	2307.19
419.834	2300.19
420.057	2318.19
420.28	2263.19
420.503	2196.19
420.726	2280.19
420.948	2240.19
421.171	2156.19
421.394	2226.19
421.617	2302.19
421.839	2258.19
422.062	2238.19
422.285	2188.19
422.507	2215.19
422.73	2162.19
422.953	2132.19
423.175	2121.19
423.398	2223.19
423.621	2261.19
423.843	2230.19
424.066	2243.19
424.288	2333.19
424.511	2374.19
424.733	2310.19
424.956	2122.19
425.178	2126.19
425.401	2138.19
425.623	2132.19
425.846	2116.19
426.068	2241.19
426.291	2327.19
426.513	2226.19
426.735	2240.19
426.958	2439.19
427.18	2537.19
427.402	2330.19
427.625	2388.19
427.847	2427.19
428.069	2266.19
428.292	2194.19
428.514	2111.19
428.736	2071.19
428.958	2181.19
429.181	2157.19
429.403	2425.19
429.625	3049.19
429.847	2643.19
430.069	2208.19
430.292	2401.19
430.514	2532.19
430.736	2331.19
430.958	2432.19
431.18	2298.19
431.402	2160.19
431.624	2154.19
431.846	2154.19
432.068	2092.19
432.29	2162.19
432.512	2160.19
432.734	2210.19
432.956	2220.19
433.178	2346.19
433.4	2287.19
433.622	2362.19
433.844	2198.19
434.066	2125.19
434.287	2109.19
434.509	2214.19
434.731	2302.19
434.953	2462.19
435.175	2406.19
435.397	2255.19
435.618	2269.19
435.84	2271.19
436.062	2240.19
436.284	2221.19
436.505	2263.19
436.727	2280.19
436.949	2221.19
437.17	2183.19
437.392	2152.19
437.614	2150.19
437.835	2116.19
438.057	2222.19
438.278	2338.19
438.5	2201.19
438.721	2166.19
438.943	2148.19
439.165	2186.19
439.386	2111.19
439.608	2114.19
439.829	2128.19
440.05	2144.19
440.272	2127.19
440.493	2131.19
440.715	2142.19
440.936	2269.19
441.158	2517.19
441.379	2469.19
441.6	2371.19
441.822	2321.19
442.043	2316.19
442.264	2216.19
442.486	2128.19
442.707	2159.19
442.928	2152.19
443.149	2192.19
443.371	2318.19
443.592	2461.19
443.813	2402.19
444.034	2329.19
444.255	2328.19
444.476	2411.19
444.698	2437.19
444.919	2413.19
445.14	2492.19
445.361	2460.19
445.582	2579.19
445.803	2429.19
446.024	2311.19
446.245	2452.19
446.466	2346.19
446.687	2266.19
446.908	2250.19
447.129	2164.19
447.35	2219.19
447.571	2207.19
447.792	2125.19
448.013	2070.19
448.234	2121.19
448.455	2234.19
448.675	2226.19
448.896	2072.19
449.117	2016.19
449.338	2094.19
449.559	2147.19
449.779	2290.19
450	2508.19
450.221	2724.19
450.442	2685.19
450.662	2348.19
450.883	2075.19
451.104	2027.19
451.324	2078.19
451.545	2150.19
451.766	2065.19
451.986	1999.19
452.207	2002.19
452.428	1934.19
452.648	1901.19
452.869	1992.19
453.089	2126.19
453.31	2113.19
453.53	2182.19
453.751	2104.19
453.971	1942.19
454.192	1982.19
454.412	2157.19
454.633	2061.19
454.853	1995.19
455.073	1853.19
455.294	1851.19
455.514	1832.19
455.734	1887.19
455.955	1918.19
456.175	1936.19
456.395	1914.19
456.616	1978.19
456.836	2022.19
457.056	1952.19
457.276	1974.19
457.497	1906.19
457.717	1858.19
457.937	1890.19
458.157	1959.19
458.377	1864.19
458.598	1946.19
458.818	1935.19
459.038	2055.19
459.258	2180.19
459.478	2182.19
459.698	2111.19
459.918	2122.19
460.138	2254.19
460.358	2270.19
460.578	2284.19
460.798	2379.19
461.018	2518.19
461.238	2443.19
461.458	2326.19
461.678	2300.19
461.898	2252.19
462.118	2158.19
462.338	2294.19
462.558	2310.19
462.777	2330.19
462.997	2430.19
463.217	2536.19
463.437	2548.19
463.657	2368.19
463.876	2307.19
464.096	2295.19
464.316	2282.19
464.536	2391.19
464.755	2400.19
464.975	2474.19
465.195	2352.19
465.414	2456.19
465.634	2446.19
465.854	2281.19
466.073	2419.19
466.293	2380.19
466.512	2157.19
466.732	2071.19
466.951	2178.19
467.171	2122.19
467.391	2078.19
467.61	2073.19
467.829	2045.19
468.049	2210.19
468.268	2477.19
468.488	2378.19
468.707	2175.19
468.927	2110.19
469.146	2127.19
469.365	2041.19
469.585	2104.19
469.804	2030.19
470.023	2093.19
470.243	2135.19
470.462	2110.19
470.681	2018.19
470.901	2109.19
471.12	2108.19
471.339	2071.19
471.558	2000.19
471.777	1970.19
471.997	2042.19
472.216	2085.19
472.435	1992.19
472.654	2045.19
472.873	2133.19
473.092	2212.19
473.311	2142.19
473.53	2009.19
473.749	1970.19
473.968	2084.19
474.187	2151.19
474.406	2234.19
474.625	2138.19
474.844	2143.19
475.063	2114.19
475.282	2173.19
475.501	2102.19
475.72	2094.19
475.939	2243.19
476.158	2156.19
476.377	2102.19
476.596	2184.19
476.814	2228.19
477.033	2170.19
477.252	2290.19
477.471	2343.19
477.69	2236.19
477.908	2188.19
478.127	2321.19
478.346	2461.19
478.564	2551.19
478.783	2487.19
479.002	2539.19
479.22	2526.19
479.439	2589.19
479.658	2930.19
479.876	2887.19
480.095	2552.19
480.313	2442.19
480.532	2306.19
480.751	2377.19
480.969	2469.19
481.188	2364.19
481.406	2340.19
481.624	2221.19
481.843	2343.19
482.061	2358.19
482.28	2393.19
482.498	2418.19
482.717	2425.19
482.935	2294.19
483.153	2321.19
483.372	2352.19
483.59	2294.19
483.808	2342.19
484.027	2398.19
484.245	2510.19
484.463	2886.19
484.681	3341.19
484.9	2624.19
485.118	2414.19
485.336	2364.19
485.554	2390.19
485.772	2622.19
485.99	2501.19
486.209	2522.19
486.427	2528.19
486.645	2507.19
486.863	2482.19
487.081	2583.19
487.299	2608.19
