Data from WStandard_LampEnergy8_LIBS07252019.E.O._I.C._HRD10591_15-58-09-928.txt Node
Date: Thu Jul 25 15:58:09 EDT 2019
User: cochatt
Spectrometer: HR+D1059
Trigger mode: 1
Integration Time (sec): 1.000000E-1
Scans to average: 1
Electric dark correction enabled: true
Nonlinearity correction enabled: false
Boxcar width: 0
XAxis mode: Wavelengths
Number of Pixels in Spectrum: 2048
>>>>>Begin Spectral Data<<<<<
223.165	-23.5
223.4	-23.5
223.635	-23.5
223.869	-13.5
224.104	-19.5
224.338	-13.5
224.573	-13.5
224.808	-14.5
225.042	2.5
225.277	-4.5
225.511	-26.5
225.746	3.5
225.98	7.5
226.215	16.5
226.449	18.5
226.683	25.5
226.918	25.5
227.152	29.5
227.387	34.5
227.621	36.5
227.856	49.5
228.09	55.5
228.324	46.5
228.559	56.5
228.793	111.5
229.027	195.5
229.262	206.5
229.496	213.5
229.73	223.5
229.964	261.5
230.199	263.5
230.433	280.5
230.667	276.5
230.901	300.5
231.136	291.5
231.37	281.5
231.604	238.5
231.838	275.5
232.072	259.5
232.306	263.5
232.541	278.5
232.775	319.5
233.009	317.5
233.243	315.5
233.477	272.5
233.711	296.5
233.945	307.5
234.179	305.5
234.413	304.5
234.647	352.5
234.881	320.5
235.115	299.5
235.349	308.5
235.583	316.5
235.817	288.5
236.051	288.5
236.285	308.5
236.519	321.5
236.753	340.5
236.987	351.5
237.221	338.5
237.455	380.5
237.689	383.5
237.922	360.5
238.156	346.5
238.39	361.5
238.624	374.5
238.858	393.5
239.091	409.5
239.325	447.5
239.559	463.5
239.793	480.5
240.027	514.5
240.26	493.5
240.494	387.5
240.728	377.5
240.961	360.5
241.195	391.5
241.429	419.5
241.662	427.5
241.896	390.5
242.13	404.5
242.363	441.5
242.597	452.5
242.83	471.5
243.064	472.5
243.298	489.5
243.531	458.5
243.765	455.5
243.998	471.5
244.232	405.5
244.465	400.5
244.699	422.5
244.932	458.5
245.166	521.5
245.399	481.5
245.633	475.5
245.866	449.5
246.099	464.5
246.333	495.5
246.566	489.5
246.8	548.5
247.033	578.5
247.266	544.5
247.5	532.5
247.733	531.5
247.966	523.5
248.2	609.5
248.433	598.5
248.666	625.5
248.899	663.5
249.133	747.5
249.366	808.5
249.599	684.5
249.832	604.5
250.066	639.5
250.299	637.5
250.532	587.5
250.765	542.5
250.998	575.5
251.231	608.5
251.465	610.5
251.698	589.5
251.931	594.5
252.164	574.5
252.397	627.5
252.63	589.5
252.863	555.5
253.096	545.5
253.329	570.5
253.562	589.5
253.795	639.5
254.028	634.5
254.261	581.5
254.494	588.5
254.727	554.5
254.96	581.5
255.193	649.5
255.426	721.5
255.659	795.5
255.892	815.5
256.124	679.5
256.357	647.5
256.59	681.5
256.823	702.5
257.056	710.5
257.289	826.5
257.521	900.5
257.754	833.5
257.987	773.5
258.22	855.5
258.452	792.5
258.685	660.5
258.918	692.5
259.151	675.5
259.383	643.5
259.616	592.5
259.849	631.5
260.081	699.5
260.314	765.5
260.547	839.5
260.779	834.5
261.012	772.5
261.244	708.5
261.477	695.5
261.71	696.5
261.942	691.5
262.175	694.5
262.407	723.5
262.64	676.5
262.872	641.5
263.105	647.5
263.337	626.5
263.57	641.5
263.802	621.5
264.035	627.5
264.267	580.5
264.499	581.5
264.732	613.5
264.964	661.5
265.197	666.5
265.429	695.5
265.661	777.5
265.894	861.5
266.126	886.5
266.358	778.5
266.591	813.5
266.823	888.5
267.055	807.5
267.287	791.5
267.52	782.5
267.752	742.5
267.984	768.5
268.216	814.5
268.448	831.5
268.681	829.5
268.913	727.5
269.145	701.5
269.377	706.5
269.609	755.5
269.841	882.5
270.073	992.5
270.306	1112.5
270.538	1132.5
270.77	949.5
271.002	827.5
271.234	816.5
271.466	855.5
271.698	917.5
271.93	1053.5
272.162	1057.5
272.394	970.5
272.626	896.5
272.858	821.5
273.09	711.5
273.322	716.5
273.553	698.5
273.785	702.5
274.017	720.5
274.249	760.5
274.481	780.5
274.713	721.5
274.945	685.5
275.176	709.5
275.408	707.5
275.64	679.5
275.872	664.5
276.104	765.5
276.335	832.5
276.567	888.5
276.799	917.5
277.031	865.5
277.262	820.5
277.494	840.5
277.726	893.5
277.957	896.5
278.189	814.5
278.421	762.5
278.652	770.5
278.884	742.5
279.115	711.5
279.347	760.5
279.579	733.5
279.81	755.5
280.042	811.5
280.273	892.5
280.505	905.5
280.736	880.5
280.968	844.5
281.199	743.5
281.431	712.5
281.662	712.5
281.894	719.5
282.125	735.5
282.356	759.5
282.588	788.5
282.819	771.5
283.051	815.5
283.282	872.5
283.513	854.5
283.745	740.5
283.976	715.5
284.207	710.5
284.439	721.5
284.67	789.5
284.901	784.5
285.132	786.5
285.364	787.5
285.595	775.5
285.826	740.5
286.057	757.5
286.288	738.5
286.52	790.5
286.751	867.5
286.982	862.5
287.213	788.5
287.444	756.5
287.675	744.5
287.906	769.5
288.138	822.5
288.369	769.5
288.6	772.5
288.831	727.5
289.062	741.5
289.293	774.5
289.524	771.5
289.755	811.5
289.986	801.5
290.217	756.5
290.448	754.5
290.679	803.5
290.91	803.5
291.141	820.5
291.371	842.5
291.602	820.5
291.833	826.5
292.064	857.5
292.295	828.5
292.526	836.5
292.757	863.5
292.987	845.5
293.218	827.5
293.449	889.5
293.68	977.5
293.91	1024.5
294.141	955.5
294.372	922.5
294.603	945.5
294.833	960.5
295.064	920.5
295.295	821.5
295.525	799.5
295.756	747.5
295.987	724.5
296.217	748.5
296.448	786.5
296.679	767.5
296.909	778.5
297.14	783.5
297.37	809.5
297.601	860.5
297.831	901.5
298.062	872.5
298.292	807.5
298.523	797.5
298.753	803.5
298.984	815.5
299.214	791.5
299.445	817.5
299.675	848.5
299.905	855.5
300.136	822.5
300.366	781.5
300.597	765.5
300.827	784.5
301.057	847.5
301.288	836.5
301.518	846.5
301.748	892.5
301.979	909.5
302.209	973.5
302.439	985.5
302.669	1007.5
302.9	936.5
303.13	881.5
303.36	851.5
303.59	883.5
303.82	850.5
304.051	854.5
304.281	880.5
304.511	891.5
304.741	957.5
304.971	1026.5
305.201	1080.5
305.431	971.5
305.661	823.5
305.891	756.5
306.121	772.5
306.352	808.5
306.582	837.5
306.812	876.5
307.042	946.5
307.272	968.5
307.502	997.5
307.731	1047.5
307.961	1087.5
308.191	985.5
308.421	887.5
308.651	864.5
308.881	835.5
309.111	850.5
309.341	835.5
309.571	823.5
309.8	840.5
310.03	813.5
310.26	799.5
310.49	810.5
310.72	840.5
310.949	898.5
311.179	897.5
311.409	865.5
311.639	864.5
311.868	833.5
312.098	855.5
312.328	828.5
312.557	871.5
312.787	882.5
313.017	879.5
313.246	886.5
313.476	883.5
313.706	882.5
313.935	907.5
314.165	918.5
314.394	940.5
314.624	993.5
314.853	1022.5
315.083	1068.5
315.312	1083.5
315.542	976.5
315.771	916.5
316.001	919.5
316.23	978.5
316.46	964.5
316.689	921.5
316.919	887.5
317.148	844.5
317.377	894.5
317.607	977.5
317.836	1073.5
318.065	1126.5
318.295	1059.5
318.524	995.5
318.753	953.5
318.983	947.5
319.212	948.5
319.441	897.5
319.67	920.5
319.9	955.5
320.129	979.5
320.358	1016.5
320.587	1073.5
320.816	1039.5
321.046	1017.5
321.275	963.5
321.504	997.5
321.733	1064.5
321.962	1015.5
322.191	940.5
322.42	906.5
322.649	937.5
322.878	941.5
323.108	962.5
323.337	977.5
323.566	961.5
323.795	952.5
324.024	947.5
324.253	915.5
324.482	953.5
324.71	928.5
324.939	875.5
325.168	907.5
325.397	943.5
325.626	964.5
325.855	970.5
326.084	927.5
326.313	933.5
326.542	961.5
326.77	1001.5
326.999	962.5
327.228	913.5
327.457	875.5
327.686	910.5
327.914	904.5
328.143	956.5
328.372	923.5
328.6	934.5
328.829	913.5
329.058	915.5
329.287	933.5
329.515	954.5
329.744	963.5
329.972	998.5
330.201	1056.5
330.43	1030.5
330.658	976.5
330.887	989.5
331.115	955.5
331.344	1015.5
331.572	1003.5
331.801	988.5
332.03	999.5
332.258	993.5
332.486	1028.5
332.715	1003.5
332.943	1004.5
333.172	968.5
333.4	984.5
333.629	1044.5
333.857	1108.5
334.085	1216.5
334.314	1385.5
334.542	1440.5
334.771	1315.5
334.999	1154.5
335.227	1113.5
335.455	1055.5
335.684	1054.5
335.912	1094.5
336.14	1112.5
336.369	1043.5
336.597	992.5
336.825	996.5
337.053	1040.5
337.281	1084.5
337.51	1141.5
337.738	1171.5
337.966	1100.5
338.194	993.5
338.422	995.5
338.65	990.5
338.878	995.5
339.106	933.5
339.334	916.5
339.562	929.5
339.79	1004.5
340.018	1002.5
340.246	1066.5
340.474	1053.5
340.702	1034.5
340.93	1034.5
341.158	1037.5
341.386	1002.5
341.614	1002.5
341.842	978.5
342.07	990.5
342.298	1006.5
342.526	986.5
342.754	976.5
342.981	974.5
343.209	987.5
343.437	983.5
343.665	977.5
343.893	1000.5
344.12	1084.5
344.348	1027.5
344.576	1023.5
344.804	998.5
345.031	999.5
345.259	990.5
345.487	947.5
345.714	904.5
345.942	900.5
346.17	947.5
346.397	941.5
346.625	955.5
346.853	892.5
347.08	879.5
347.308	908.5
347.535	930.5
347.763	960.5
347.99	913.5
348.218	890.5
348.445	919.5
348.673	943.5
348.9	981.5
349.128	1000.5
349.355	992.5
349.583	963.5
349.81	933.5
350.037	876.5
350.265	886.5
350.492	884.5
350.72	923.5
350.947	952.5
351.174	960.5
351.402	907.5
351.629	874.5
351.856	864.5
352.083	852.5
352.311	868.5
352.538	907.5
352.765	956.5
352.992	945.5
353.22	907.5
353.447	898.5
353.674	900.5
353.901	900.5
354.128	914.5
354.355	909.5
354.583	939.5
354.81	946.5
355.037	941.5
355.264	985.5
355.491	932.5
355.718	938.5
355.945	927.5
356.172	901.5
356.399	905.5
356.626	901.5
356.853	947.5
357.08	1041.5
357.307	1117.5
357.534	1065.5
357.761	948.5
357.988	898.5
358.215	885.5
358.441	863.5
358.668	852.5
358.895	911.5
359.122	973.5
359.349	1037.5
359.576	1023.5
359.802	940.5
360.029	927.5
360.256	906.5
360.483	907.5
360.709	929.5
360.936	989.5
361.163	1029.5
361.39	1108.5
361.616	1152.5
361.843	1123.5
362.07	1031.5
362.296	944.5
362.523	916.5
362.749	917.5
362.976	952.5
363.203	963.5
363.429	911.5
363.656	892.5
363.882	977.5
364.109	1053.5
364.335	1115.5
364.562	1017.5
364.788	978.5
365.015	948.5
365.241	916.5
365.468	916.5
365.694	982.5
365.92	1033.5
366.147	984.5
366.373	924.5
366.599	904.5
366.826	908.5
367.052	916.5
367.278	918.5
367.505	919.5
367.731	960.5
367.957	974.5
368.184	1017.5
368.41	1063.5
368.636	1081.5
368.862	1075.5
369.089	1049.5
369.315	1028.5
369.541	981.5
369.767	963.5
369.993	940.5
370.219	919.5
370.445	967.5
370.672	1042.5
370.898	1071.5
371.124	1019.5
371.35	986.5
371.576	1025.5
371.802	1044.5
372.028	979.5
372.254	945.5
372.48	934.5
372.706	934.5
372.932	976.5
373.158	970.5
373.384	967.5
373.61	1017.5
373.835	1031.5
374.061	981.5
374.287	981.5
374.513	986.5
374.739	1028.5
374.965	993.5
375.191	1018.5
375.416	1011.5
375.642	1021.5
375.868	1085.5
376.094	1119.5
376.319	1063.5
376.545	991.5
376.771	1045.5
376.997	1092.5
377.222	1048.5
377.448	1027.5
377.674	1049.5
377.899	1077.5
378.125	1128.5
378.35	1064.5
378.576	1002.5
378.802	978.5
379.027	977.5
379.253	983.5
379.478	989.5
379.704	963.5
379.929	984.5
380.155	993.5
380.38	1023.5
380.606	1008.5
380.831	1037.5
381.057	1068.5
381.282	1067.5
381.507	1063.5
381.733	1121.5
381.958	1148.5
382.184	1056.5
382.409	1036.5
382.634	1042.5
382.86	1059.5
383.085	1042.5
383.31	1089.5
383.535	1199.5
383.761	1207.5
383.986	1144.5
384.211	1151.5
384.436	1119.5
384.662	1153.5
384.887	1201.5
385.112	1121.5
385.337	1122.5
385.562	1121.5
385.787	1117.5
386.013	1152.5
386.238	1166.5
386.463	1195.5
386.688	1229.5
386.913	1309.5
387.138	1232.5
387.363	1184.5
387.588	1201.5
387.813	1152.5
388.038	1165.5
388.263	1227.5
388.488	1168.5
388.713	1073.5
388.938	1090.5
389.163	1093.5
389.387	1121.5
389.612	1115.5
389.837	1159.5
390.062	1128.5
390.287	1151.5
390.512	1114.5
390.736	1099.5
390.961	1102.5
391.186	1073.5
391.411	1092.5
391.636	1109.5
391.86	1141.5
392.085	1114.5
392.31	1104.5
392.534	1141.5
392.759	1166.5
392.984	1132.5
393.208	1155.5
393.433	1194.5
393.658	1215.5
393.882	1223.5
394.107	1181.5
394.331	1136.5
394.556	1144.5
394.78	1148.5
395.005	1187.5
395.229	1229.5
395.454	1291.5
395.678	1306.5
395.903	1279.5
396.127	1167.5
396.352	1230.5
396.576	1246.5
396.801	1285.5
397.025	1252.5
397.249	1242.5
397.474	1211.5
397.698	1203.5
397.922	1265.5
398.147	1324.5
398.371	1364.5
398.595	1377.5
398.82	1311.5
399.044	1316.5
399.268	1372.5
399.492	1426.5
399.717	1512.5
399.941	1492.5
400.165	1502.5
400.389	1445.5
400.613	1457.5
400.837	1667.5
401.062	1771.5
401.286	1517.5
401.51	1446.5
401.734	1449.5
401.958	1419.5
402.182	1362.5
402.406	1303.5
402.63	1274.5
402.854	1311.5
403.078	1329.5
403.302	1331.5
403.526	1323.5
403.75	1358.5
403.974	1356.5
404.198	1353.5
404.422	1421.5
404.645	1501.5
404.869	1437.5
405.093	1330.5
405.317	1305.5
405.541	1340.5
405.765	1379.5
405.988	1379.5
406.212	1345.5
406.436	1391.5
406.66	1471.5
406.883	1467.5
407.107	1669.5
407.331	1814.5
407.555	1891.5
407.778	1681.5
408.002	1470.5
408.226	1402.5
408.449	1435.5
408.673	1391.5
408.896	1367.5
409.12	1397.5
409.344	1366.5
409.567	1355.5
409.791	1320.5
410.014	1384.5
410.238	1467.5
410.461	1545.5
410.685	1373.5
410.908	1364.5
411.132	1348.5
411.355	1327.5
411.578	1331.5
411.802	1321.5
412.025	1363.5
412.249	1370.5
412.472	1307.5
412.695	1307.5
412.919	1268.5
413.142	1303.5
413.365	1291.5
413.589	1375.5
413.812	1445.5
414.035	1453.5
414.258	1353.5
414.482	1313.5
414.705	1337.5
414.928	1271.5
415.151	1293.5
415.374	1308.5
415.597	1311.5
415.821	1333.5
416.044	1365.5
416.267	1349.5
416.49	1272.5
416.713	1270.5
416.936	1337.5
417.159	1396.5
417.382	1361.5
417.605	1291.5
417.828	1359.5
418.051	1352.5
418.274	1302.5
418.497	1289.5
418.72	1258.5
418.943	1247.5
419.166	1296.5
419.389	1364.5
419.611	1321.5
419.834	1260.5
420.057	1325.5
420.28	1306.5
420.503	1316.5
420.726	1333.5
420.948	1318.5
421.171	1255.5
421.394	1281.5
421.617	1327.5
421.839	1341.5
422.062	1311.5
422.285	1291.5
422.507	1313.5
422.73	1247.5
422.953	1205.5
423.175	1229.5
423.398	1257.5
423.621	1283.5
423.843	1295.5
424.066	1335.5
424.288	1396.5
424.511	1408.5
424.733	1350.5
424.956	1285.5
425.178	1247.5
425.401	1268.5
425.623	1261.5
425.846	1268.5
426.068	1367.5
426.291	1327.5
426.513	1339.5
426.735	1346.5
426.958	1437.5
427.18	1470.5
427.402	1379.5
427.625	1405.5
427.847	1343.5
428.069	1257.5
428.292	1254.5
428.514	1219.5
428.736	1270.5
428.958	1256.5
429.181	1281.5
429.403	1492.5
429.625	1745.5
429.847	1457.5
430.069	1301.5
430.292	1469.5
430.514	1472.5
430.736	1361.5
430.958	1390.5
431.18	1280.5
431.402	1242.5
431.624	1231.5
431.846	1188.5
432.068	1169.5
432.29	1162.5
432.512	1184.5
432.734	1228.5
432.956	1291.5
433.178	1310.5
433.4	1339.5
433.622	1308.5
433.844	1251.5
434.066	1204.5
434.287	1171.5
434.509	1218.5
434.731	1270.5
434.953	1371.5
435.175	1353.5
435.397	1298.5
435.618	1259.5
435.84	1245.5
436.062	1233.5
436.284	1243.5
436.505	1260.5
436.727	1313.5
436.949	1287.5
437.17	1234.5
437.392	1225.5
437.614	1183.5
437.835	1156.5
438.057	1210.5
438.278	1244.5
438.5	1237.5
438.721	1274.5
438.943	1256.5
439.165	1234.5
439.386	1233.5
439.608	1288.5
439.829	1259.5
440.05	1270.5
440.272	1220.5
440.493	1244.5
440.715	1280.5
440.936	1364.5
441.158	1415.5
441.379	1427.5
441.6	1387.5
441.822	1339.5
442.043	1335.5
442.264	1321.5
442.486	1260.5
442.707	1253.5
442.928	1248.5
443.149	1281.5
443.371	1391.5
443.592	1400.5
443.813	1383.5
444.034	1393.5
444.255	1369.5
444.476	1381.5
444.698	1362.5
444.919	1420.5
445.14	1476.5
445.361	1444.5
445.582	1473.5
445.803	1422.5
446.024	1371.5
446.245	1415.5
446.466	1366.5
446.687	1340.5
446.908	1348.5
447.129	1288.5
447.35	1329.5
447.571	1320.5
447.792	1266.5
448.013	1285.5
448.234	1259.5
448.455	1323.5
448.675	1324.5
448.896	1202.5
449.117	1157.5
449.338	1234.5
449.559	1281.5
449.779	1319.5
450	1428.5
450.221	1494.5
450.442	1417.5
450.662	1303.5
450.883	1173.5
451.104	1177.5
451.324	1216.5
451.545	1204.5
451.766	1208.5
451.986	1128.5
452.207	1144.5
452.428	1139.5
452.648	1112.5
452.869	1155.5
453.089	1149.5
453.31	1195.5
453.53	1182.5
453.751	1119.5
453.971	1050.5
454.192	1090.5
454.412	1141.5
454.633	1161.5
454.853	1133.5
455.073	1071.5
455.294	1089.5
455.514	1065.5
455.734	1106.5
455.955	1124.5
456.175	1045.5
456.395	1063.5
456.616	1094.5
456.836	1088.5
457.056	1078.5
457.276	1071.5
457.497	1059.5
457.717	1021.5
457.937	1069.5
458.157	1065.5
458.377	1061.5
458.598	1045.5
458.818	1056.5
459.038	1111.5
459.258	1151.5
459.478	1093.5
459.698	1101.5
459.918	1157.5
460.138	1241.5
460.358	1252.5
460.578	1261.5
460.798	1288.5
461.018	1360.5
461.238	1339.5
461.458	1279.5
461.678	1252.5
461.898	1236.5
462.118	1204.5
462.338	1276.5
462.558	1259.5
462.777	1251.5
462.997	1307.5
463.217	1364.5
463.437	1343.5
463.657	1288.5
463.876	1229.5
464.096	1289.5
464.316	1244.5
464.536	1311.5
464.755	1293.5
464.975	1302.5
465.195	1284.5
465.414	1270.5
465.634	1298.5
465.854	1308.5
466.073	1391.5
466.293	1351.5
466.512	1209.5
466.732	1240.5
466.951	1254.5
467.171	1228.5
467.391	1191.5
467.61	1207.5
467.829	1226.5
468.049	1382.5
468.268	1448.5
468.488	1331.5
468.707	1269.5
468.927	1251.5
469.146	1192.5
469.365	1189.5
469.585	1228.5
469.804	1206.5
470.023	1240.5
470.243	1270.5
470.462	1241.5
470.681	1265.5
470.901	1213.5
471.12	1220.5
471.339	1219.5
471.558	1211.5
471.777	1161.5
471.997	1184.5
472.216	1185.5
472.435	1132.5
472.654	1143.5
472.873	1156.5
473.092	1204.5
473.311	1213.5
473.53	1145.5
473.749	1144.5
473.968	1157.5
474.187	1189.5
474.406	1233.5
474.625	1216.5
474.844	1203.5
475.063	1222.5
475.282	1244.5
475.501	1208.5
475.72	1240.5
475.939	1268.5
476.158	1254.5
476.377	1214.5
476.596	1185.5
476.814	1220.5
477.033	1219.5
477.252	1258.5
477.471	1307.5
477.69	1253.5
477.908	1265.5
478.127	1352.5
478.346	1417.5
478.564	1403.5
478.783	1421.5
479.002	1448.5
479.22	1383.5
479.439	1438.5
479.658	1592.5
479.876	1519.5
480.095	1379.5
480.313	1355.5
480.532	1300.5
480.751	1307.5
480.969	1316.5
481.188	1270.5
481.406	1286.5
481.624	1194.5
481.843	1270.5
482.061	1295.5
482.28	1331.5
482.498	1322.5
482.717	1333.5
482.935	1279.5
483.153	1341.5
483.372	1387.5
483.59	1364.5
483.808	1353.5
484.027	1354.5
484.245	1471.5
484.463	1738.5
484.681	1898.5
484.9	1456.5
485.118	1394.5
485.336	1344.5
485.554	1372.5
485.772	1384.5
485.99	1349.5
486.209	1387.5
486.427	1394.5
486.645	1402.5
486.863	1404.5
487.081	1461.5
487.299	1465.5
487.517	1468.5
487.735	1426.5
487.953	1522.5
488.171	1504.5
488.389	1428.5
488.607	1476.5
488.825	1562.5
489.043	1541.5
489.261	1431.5
489.479	1490.5
489.696	1473.5
489.914	1465.5
490.132	1434.5
490.35	1455.5
490.568	1524.5
490.786	1521.5
491.003	1462.5
491.221	1552.5
491.439	1566.5
491.657	1575.5
491.874	1622.5
492.092	1661.5
492.31	1685.5
492.527	1673.5
492.745	1598.5
492.963	1607.5
493.18	1659.5
493.398	1729.5
493.615	1683.5
493.833	1577.5
494.05	1549.5
494.268	1609.5
494.485	1574.5
494.703	1584.5
494.92	1514.5
495.138	1549.5
495.355	1559.5
495.573	1599.5
495.79	1668.5
496.008	1671.5
496.225	1612.5
496.442	1584.5
496.66	1600.5
496.877	1579.5
497.094	1616.5
497.312	1608.5
497.529	1619.5
497.746	1657.5
497.963	1853.5
498.181	1965.5
498.398	1903.5
498.615	1866.5
498.832	1767.5
499.049	1736.5
499.267	1789.5
499.484	1907.5
499.701	2007.5
499.918	2039.5
500.135	2220.5
500.352	2348.5
500.569	2385.5
500.786	2529.5
501.003	2312.5
501.22	2119.5
501.437	2077.5
501.654	2148.5
501.871	2002.5
502.088	1727.5
502.305	1748.5
502.522	1701.5
502.739	1583.5
502.956	1595.5
503.172	1577.5
503.389	1485.5
503.606	1477.5
503.823	1496.5
504.04	1497.5
504.256	1507.5
504.473	1496.5
504.69	1507.5
504.907	1482.5
505.123	1436.5
505.34	1546.5
505.557	1999.5
505.773	1613.5
505.99	1395.5
506.207	1304.5
506.423	1305.5
506.64	1298.5
506.856	1340.5
507.073	1534.5
507.289	1603.5
507.506	1500.5
507.722	1288.5
507.939	1243.5
508.155	1229.5
508.372	1216.5
508.588	1199.5
508.805	1177.5
509.021	1146.5
509.238	1175.5
509.454	1137.5
509.67	1157.5
509.887	1127.5
