Data from WStandard_LampEnergy5.5LIBS07252019.E.O._I.C._HRD10591_16-07-52-920.txt Node
Date: Thu Jul 25 16:07:52 EDT 2019
User: cochatt
Spectrometer: HR+D1059
Trigger mode: 1
Integration Time (sec): 1.000000E-1
Scans to average: 1
Electric dark correction enabled: true
Nonlinearity correction enabled: false
Boxcar width: 0
XAxis mode: Wavelengths
Number of Pixels in Spectrum: 2048
>>>>>Begin Spectral Data<<<<<
223.165	-28.75
223.4	-28.75
223.635	-28.75
223.869	-21.75
224.104	-13.75
224.338	6.25
224.573	-23.75
224.808	-9.75
225.042	-7.75
225.277	-10.75
225.511	-7.75
225.746	1.25
225.98	-0.75
226.215	19.25
226.449	25.25
226.683	22.25
226.918	23.25
227.152	27.25
227.387	34.25
227.621	38.25
227.856	43.25
228.09	48.25
228.324	58.25
228.559	63.25
228.793	145.25
229.027	378.25
229.262	381.25
229.496	401.25
229.73	419.25
229.964	440.25
230.199	470.25
230.433	473.25
230.667	517.25
230.901	552.25
231.136	489.25
231.37	462.25
231.604	473.25
231.838	477.25
232.072	491.25
232.306	447.25
232.541	479.25
232.775	557.25
233.009	630.25
233.243	602.25
233.477	542.25
233.711	568.25
233.945	595.25
234.179	569.25
234.413	604.25
234.647	648.25
234.881	615.25
235.115	548.25
235.349	564.25
235.583	575.25
235.817	573.25
236.051	556.25
236.285	567.25
236.519	615.25
236.753	687.25
236.987	695.25
237.221	707.25
237.455	745.25
237.689	742.25
237.922	688.25
238.156	683.25
238.39	674.25
238.624	718.25
238.858	796.25
239.091	782.25
239.325	814.25
239.559	965.25
239.793	968.25
240.027	1061.25
240.26	1052.25
240.494	776.25
240.728	729.25
240.961	749.25
241.195	778.25
241.429	868.25
241.662	807.25
241.896	784.25
242.13	830.25
242.363	879.25
242.597	923.25
242.83	890.25
243.064	895.25
243.298	980.25
243.531	959.25
243.765	981.25
243.998	942.25
244.232	848.25
244.465	791.25
244.699	822.25
244.932	937.25
245.166	1071.25
245.399	1010.25
245.633	954.25
245.866	918.25
246.099	963.25
246.333	985.25
246.566	990.25
246.8	1079.25
247.033	1232.25
247.266	1110.25
247.5	1098.25
247.733	1069.25
247.966	1138.25
248.2	1284.25
248.433	1182.25
248.666	1252.25
248.899	1367.25
249.133	1559.25
249.366	1817.25
249.599	1464.25
249.832	1266.25
250.066	1310.25
250.299	1342.25
250.532	1227.25
250.765	1107.25
250.998	1184.25
251.231	1205.25
251.465	1256.25
251.698	1215.25
251.931	1234.25
252.164	1211.25
252.397	1290.25
252.63	1326.25
252.863	1106.25
253.096	1153.25
253.329	1190.25
253.562	1218.25
253.795	1331.25
254.028	1327.25
254.261	1223.25
254.494	1190.25
254.727	1132.25
254.96	1182.25
255.193	1302.25
255.426	1456.25
255.659	1657.25
255.892	1756.25
256.124	1407.25
256.357	1358.25
256.59	1464.25
256.823	1451.25
257.056	1455.25
257.289	1755.25
257.521	1959.25
257.754	1770.25
257.987	1627.25
258.22	1850.25
258.452	1783.25
258.685	1430.25
258.918	1404.25
259.151	1429.25
259.383	1385.25
259.616	1192.25
259.849	1309.25
260.081	1402.25
260.314	1606.25
260.547	1751.25
260.779	1728.25
261.012	1660.25
261.244	1509.25
261.477	1407.25
261.71	1450.25
261.942	1452.25
262.175	1422.25
262.407	1492.25
262.64	1430.25
262.872	1331.25
263.105	1291.25
263.337	1351.25
263.57	1334.25
263.802	1336.25
264.035	1254.25
264.267	1189.25
264.499	1138.25
264.732	1234.25
264.964	1326.25
265.197	1387.25
265.429	1429.25
265.661	1624.25
265.894	1794.25
266.126	1832.25
266.358	1631.25
266.591	1673.25
266.823	1871.25
267.055	1668.25
267.287	1631.25
267.52	1584.25
267.752	1611.25
267.984	1613.25
268.216	1684.25
268.448	1730.25
268.681	1702.25
268.913	1558.25
269.145	1470.25
269.377	1421.25
269.609	1568.25
269.841	1784.25
270.073	2086.25
270.306	2318.25
270.538	2510.25
270.77	2103.25
271.002	1787.25
271.234	1694.25
271.466	1660.25
271.698	1864.25
271.93	2223.25
272.162	2270.25
272.394	2026.25
272.626	1955.25
272.858	1740.25
273.09	1473.25
273.322	1472.25
273.553	1430.25
273.785	1416.25
274.017	1483.25
274.249	1608.25
274.481	1636.25
274.713	1472.25
274.945	1435.25
275.176	1460.25
275.408	1447.25
275.64	1437.25
275.872	1385.25
276.104	1503.25
276.335	1663.25
276.567	1937.25
276.799	2006.25
277.031	1750.25
277.262	1656.25
277.494	1703.25
277.726	1878.25
277.957	1908.25
278.189	1736.25
278.421	1583.25
278.652	1548.25
278.884	1516.25
279.115	1533.25
279.347	1560.25
279.579	1492.25
279.81	1497.25
280.042	1645.25
280.273	1809.25
280.505	1832.25
280.736	1888.25
280.968	1761.25
281.199	1538.25
281.431	1469.25
281.662	1461.25
281.894	1464.25
282.125	1512.25
282.356	1585.25
282.588	1613.25
282.819	1552.25
283.051	1704.25
283.282	1857.25
283.513	1782.25
283.745	1530.25
283.976	1451.25
284.207	1440.25
284.439	1533.25
284.67	1519.25
284.901	1584.25
285.132	1644.25
285.364	1563.25
285.595	1614.25
285.826	1550.25
286.057	1542.25
286.288	1491.25
286.52	1622.25
286.751	1727.25
286.982	1794.25
287.213	1641.25
287.444	1505.25
287.675	1473.25
287.906	1544.25
288.138	1654.25
288.369	1635.25
288.6	1522.25
288.831	1477.25
289.062	1529.25
289.293	1556.25
289.524	1538.25
289.755	1592.25
289.986	1607.25
290.217	1472.25
290.448	1519.25
290.679	1547.25
290.91	1566.25
291.141	1600.25
291.371	1659.25
291.602	1618.25
291.833	1620.25
292.064	1697.25
292.295	1632.25
292.526	1684.25
292.757	1771.25
292.987	1690.25
293.218	1586.25
293.449	1664.25
293.68	1918.25
293.91	2107.25
294.141	1942.25
294.372	1822.25
294.603	1871.25
294.833	1984.25
295.064	1869.25
295.295	1679.25
295.525	1611.25
295.756	1552.25
295.987	1467.25
296.217	1491.25
296.448	1494.25
296.679	1529.25
296.909	1532.25
297.14	1519.25
297.37	1514.25
297.601	1596.25
297.831	1765.25
298.062	1784.25
298.292	1602.25
298.523	1541.25
298.753	1515.25
298.984	1595.25
299.214	1575.25
299.445	1622.25
299.675	1675.25
299.905	1630.25
300.136	1632.25
300.366	1605.25
300.597	1487.25
300.827	1532.25
301.057	1568.25
301.288	1663.25
301.518	1661.25
301.748	1672.25
301.979	1735.25
302.209	1792.25
302.439	1914.25
302.669	2017.25
302.9	1885.25
303.13	1685.25
303.36	1668.25
303.59	1692.25
303.82	1684.25
304.051	1691.25
304.281	1696.25
304.511	1693.25
304.741	1771.25
304.971	1946.25
305.201	2147.25
305.431	2037.25
305.661	1647.25
305.891	1477.25
306.121	1468.25
306.352	1522.25
306.582	1611.25
306.812	1736.25
307.042	1853.25
307.272	1851.25
307.502	1907.25
307.731	2059.25
307.961	2190.25
308.191	2057.25
308.421	1724.25
308.651	1644.25
308.881	1625.25
309.111	1646.25
309.341	1598.25
309.571	1613.25
309.8	1600.25
310.03	1607.25
310.26	1581.25
310.49	1560.25
310.72	1650.25
310.949	1726.25
311.179	1718.25
311.409	1686.25
311.639	1642.25
311.868	1606.25
312.098	1644.25
312.328	1635.25
312.557	1616.25
312.787	1646.25
313.017	1694.25
313.246	1713.25
313.476	1639.25
313.706	1690.25
313.935	1723.25
314.165	1726.25
314.394	1765.25
314.624	1873.25
314.853	1940.25
315.083	2029.25
315.312	2119.25
315.542	1975.25
315.771	1750.25
316.001	1678.25
316.23	1846.25
316.46	1800.25
316.689	1815.25
316.919	1687.25
317.148	1659.25
317.377	1635.25
317.607	1745.25
317.836	1986.25
318.065	2081.25
318.295	2008.25
318.524	1885.25
318.753	1844.25
318.983	1818.25
319.212	1774.25
319.441	1754.25
319.67	1737.25
319.9	1758.25
320.129	1851.25
320.358	1935.25
320.587	2004.25
320.816	1957.25
321.046	1963.25
321.275	1815.25
321.504	1824.25
321.733	1996.25
321.962	1956.25
322.191	1792.25
322.42	1804.25
322.649	1748.25
322.878	1738.25
323.108	1779.25
323.337	1836.25
323.566	1848.25
323.795	1846.25
324.024	1830.25
324.253	1765.25
324.482	1800.25
324.71	1730.25
324.939	1637.25
325.168	1687.25
325.397	1724.25
325.626	1818.25
325.855	1808.25
326.084	1787.25
326.313	1731.25
326.542	1778.25
326.77	1860.25
326.999	1876.25
327.228	1798.25
327.457	1635.25
327.686	1660.25
327.914	1685.25
328.143	1761.25
328.372	1776.25
328.6	1763.25
328.829	1750.25
329.058	1727.25
329.287	1700.25
329.515	1774.25
329.744	1771.25
329.972	1856.25
330.201	1958.25
330.43	1912.25
330.658	1868.25
330.887	1837.25
331.115	1879.25
331.344	1879.25
331.572	1828.25
331.801	1827.25
332.03	1845.25
332.258	1883.25
332.486	1881.25
332.715	1927.25
332.943	1882.25
333.172	1864.25
333.4	1876.25
333.629	1938.25
333.857	2034.25
334.085	2219.25
334.314	2517.25
334.542	2812.25
334.771	2562.25
334.999	2202.25
335.227	2148.25
335.455	2008.25
335.684	2012.25
335.912	2017.25
336.14	2073.25
336.369	2023.25
336.597	1899.25
336.825	1878.25
337.053	1990.25
337.281	2056.25
337.51	2088.25
337.738	2238.25
337.966	2127.25
338.194	1911.25
338.422	1887.25
338.65	1860.25
338.878	1858.25
339.106	1806.25
339.334	1798.25
339.562	1763.25
339.79	1772.25
340.018	1895.25
340.246	1980.25
340.474	1965.25
340.702	1893.25
340.93	1960.25
341.158	1884.25
341.386	1869.25
341.614	1829.25
341.842	1853.25
342.07	1848.25
342.298	1882.25
342.526	1853.25
342.754	1812.25
342.981	1816.25
343.209	1827.25
343.437	1796.25
343.665	1828.25
343.893	1915.25
344.12	2032.25
344.348	2013.25
344.576	1916.25
344.804	1837.25
345.031	1836.25
345.259	1842.25
345.487	1829.25
345.714	1733.25
345.942	1665.25
346.17	1690.25
346.397	1705.25
346.625	1807.25
346.853	1662.25
347.08	1663.25
347.308	1635.25
347.535	1730.25
347.763	1740.25
347.99	1690.25
348.218	1654.25
348.445	1678.25
348.673	1688.25
348.9	1758.25
349.128	1786.25
349.355	1835.25
349.583	1785.25
349.81	1775.25
350.037	1620.25
350.265	1588.25
350.492	1605.25
350.72	1644.25
350.947	1705.25
351.174	1767.25
351.402	1666.25
351.629	1599.25
351.856	1560.25
352.083	1570.25
352.311	1570.25
352.538	1679.25
352.765	1742.25
352.992	1773.25
353.22	1708.25
353.447	1635.25
353.674	1660.25
353.901	1710.25
354.128	1658.25
354.355	1628.25
354.583	1715.25
354.81	1738.25
355.037	1725.25
355.264	1694.25
355.491	1690.25
355.718	1731.25
355.945	1704.25
356.172	1679.25
356.399	1622.25
356.626	1624.25
356.853	1710.25
357.08	1824.25
357.307	2028.25
357.534	2015.25
357.761	1756.25
357.988	1669.25
358.215	1629.25
358.441	1622.25
358.668	1629.25
358.895	1617.25
359.122	1706.25
359.349	1887.25
359.576	1868.25
359.802	1676.25
360.029	1622.25
360.256	1590.25
360.483	1630.25
360.709	1684.25
360.936	1728.25
361.163	1786.25
361.39	1906.25
361.616	2135.25
361.843	2102.25
362.07	1950.25
362.296	1711.25
362.523	1686.25
362.749	1657.25
362.976	1697.25
363.203	1739.25
363.429	1670.25
363.656	1588.25
363.882	1684.25
364.109	1871.25
364.335	2008.25
364.562	1868.25
364.788	1796.25
365.015	1709.25
365.241	1641.25
365.468	1690.25
365.694	1782.25
365.92	1822.25
366.147	1801.25
366.373	1676.25
366.599	1646.25
366.826	1615.25
367.052	1635.25
367.278	1668.25
367.505	1668.25
367.731	1701.25
367.957	1714.25
368.184	1730.25
368.41	1872.25
368.636	1879.25
368.862	1867.25
369.089	1930.25
369.315	1831.25
369.541	1746.25
369.767	1709.25
369.993	1696.25
370.219	1680.25
370.445	1706.25
370.672	1781.25
370.898	1882.25
371.124	1870.25
371.35	1773.25
371.576	1781.25
371.802	1921.25
372.028	1794.25
372.254	1752.25
372.48	1666.25
372.706	1699.25
372.932	1698.25
373.158	1690.25
373.384	1718.25
373.61	1780.25
373.835	1859.25
374.061	1772.25
374.287	1806.25
374.513	1747.25
374.739	1770.25
374.965	1775.25
375.191	1791.25
375.416	1828.25
375.642	1849.25
375.868	1910.25
376.094	1968.25
376.319	1927.25
376.545	1773.25
376.771	1798.25
376.997	1906.25
377.222	1874.25
377.448	1831.25
377.674	1861.25
377.899	1820.25
378.125	1970.25
378.35	1954.25
378.576	1822.25
378.802	1725.25
379.027	1728.25
379.253	1745.25
379.478	1751.25
379.704	1728.25
379.929	1750.25
380.155	1704.25
380.38	1768.25
380.606	1774.25
380.831	1755.25
381.057	1858.25
381.282	1884.25
381.507	1862.25
381.733	1882.25
381.958	2058.25
382.184	1923.25
382.409	1812.25
382.634	1833.25
382.86	1850.25
383.085	1814.25
383.31	1892.25
383.535	2029.25
383.761	2182.25
383.986	2105.25
384.211	1966.25
384.436	1951.25
384.662	2084.25
384.887	2123.25
385.112	2027.25
385.337	2044.25
385.562	2024.25
385.787	1994.25
386.013	2037.25
386.238	2101.25
386.463	2041.25
386.688	2178.25
386.913	2286.25
387.138	2262.25
387.363	2083.25
387.588	2053.25
387.813	2028.25
388.038	2129.25
388.263	2163.25
388.488	2095.25
388.713	1932.25
388.938	1934.25
389.163	1929.25
389.387	1988.25
389.612	1970.25
389.837	2041.25
390.062	2046.25
390.287	2021.25
390.512	2030.25
390.736	2024.25
390.961	1934.25
391.186	1889.25
391.411	1947.25
391.636	1966.25
391.86	2039.25
392.085	1994.25
392.31	1995.25
392.534	1967.25
392.759	2016.25
392.984	2016.25
393.208	2025.25
393.433	2058.25
393.658	2166.25
393.882	2171.25
394.107	2058.25
394.331	2003.25
394.556	1984.25
394.78	2044.25
395.005	2102.25
395.229	2124.25
395.454	2341.25
395.678	2334.25
395.903	2234.25
396.127	2122.25
396.352	2109.25
396.576	2193.25
396.801	2237.25
397.025	2196.25
397.249	2244.25
397.474	2202.25
397.698	2193.25
397.922	2203.25
398.147	2297.25
398.371	2440.25
398.595	2399.25
398.82	2292.25
399.044	2328.25
399.268	2408.25
399.492	2616.25
399.717	2678.25
399.941	2726.25
400.165	2664.25
400.389	2596.25
400.613	2518.25
400.837	2774.25
401.062	3227.25
401.286	2788.25
401.51	2481.25
401.734	2621.25
401.958	2560.25
402.182	2348.25
402.406	2271.25
402.63	2273.25
402.854	2300.25
403.078	2318.25
403.302	2330.25
403.526	2411.25
403.75	2416.25
403.974	2419.25
404.198	2382.25
404.422	2447.25
404.645	2584.25
404.869	2570.25
405.093	2373.25
405.317	2300.25
405.541	2384.25
405.765	2479.25
405.988	2408.25
406.212	2459.25
406.436	2499.25
406.66	2516.25
406.883	2575.25
407.107	2852.25
407.331	3143.25
407.555	3362.25
407.778	3133.25
408.002	2585.25
408.226	2526.25
408.449	2514.25
408.673	2424.25
408.896	2464.25
409.12	2514.25
409.344	2393.25
409.567	2353.25
409.791	2405.25
410.014	2468.25
410.238	2548.25
410.461	2690.25
410.685	2439.25
410.908	2328.25
411.132	2370.25
411.355	2375.25
411.578	2329.25
411.802	2354.25
412.025	2398.25
412.249	2310.25
412.472	2266.25
412.695	2252.25
412.919	2284.25
413.142	2267.25
413.365	2320.25
413.589	2376.25
413.812	2485.25
414.035	2560.25
414.258	2343.25
414.482	2272.25
414.705	2304.25
414.928	2277.25
415.151	2265.25
415.374	2277.25
415.597	2317.25
415.821	2340.25
416.044	2428.25
416.267	2397.25
416.49	2202.25
416.713	2207.25
416.936	2236.25
417.159	2368.25
417.382	2384.25
417.605	2239.25
417.828	2276.25
418.051	2347.25
418.274	2275.25
418.497	2166.25
418.72	2215.25
418.943	2182.25
419.166	2344.25
419.389	2428.25
419.611	2320.25
419.834	2219.25
420.057	2281.25
420.28	2199.25
420.503	2212.25
420.726	2226.25
420.948	2250.25
421.171	2173.25
421.394	2208.25
421.617	2274.25
421.839	2267.25
422.062	2212.25
422.285	2197.25
422.507	2178.25
422.73	2142.25
422.953	2092.25
423.175	2086.25
423.398	2172.25
423.621	2210.25
423.843	2244.25
424.066	2220.25
424.288	2329.25
424.511	2411.25
424.733	2275.25
424.956	2091.25
425.178	2068.25
425.401	2116.25
425.623	2191.25
425.846	2049.25
426.068	2284.25
426.291	2302.25
426.513	2262.25
426.735	2239.25
426.958	2358.25
427.18	2546.25
427.402	2310.25
427.625	2431.25
427.847	2428.25
428.069	2231.25
428.292	2191.25
428.514	2090.25
428.736	2074.25
428.958	2153.25
429.181	2131.25
429.403	2463.25
429.625	3028.25
429.847	2606.25
430.069	2191.25
430.292	2392.25
430.514	2522.25
430.736	2306.25
430.958	2388.25
431.18	2316.25
431.402	2147.25
431.624	2103.25
431.846	2104.25
432.068	2070.25
432.29	2106.25
432.512	2112.25
432.734	2183.25
432.956	2250.25
433.178	2345.25
433.4	2305.25
433.622	2290.25
433.844	2178.25
434.066	2100.25
434.287	2083.25
434.509	2127.25
434.731	2292.25
434.953	2458.25
435.175	2391.25
435.397	2220.25
435.618	2259.25
435.84	2262.25
436.062	2198.25
436.284	2283.25
436.505	2220.25
436.727	2342.25
436.949	2226.25
437.17	2134.25
437.392	2156.25
437.614	2190.25
437.835	2105.25
438.057	2213.25
438.278	2326.25
438.5	2163.25
438.721	2084.25
438.943	2134.25
439.165	2108.25
439.386	2047.25
439.608	2079.25
439.829	2131.25
440.05	2108.25
440.272	2082.25
440.493	2063.25
440.715	2110.25
440.936	2243.25
441.158	2492.25
441.379	2414.25
441.6	2335.25
441.822	2296.25
442.043	2314.25
442.264	2226.25
442.486	2121.25
442.707	2092.25
442.928	2117.25
443.149	2197.25
443.371	2307.25
443.592	2396.25
443.813	2335.25
444.034	2335.25
444.255	2338.25
444.476	2371.25
444.698	2403.25
444.919	2387.25
445.14	2468.25
445.361	2483.25
445.582	2473.25
445.803	2414.25
446.024	2304.25
446.245	2475.25
446.466	2341.25
446.687	2247.25
446.908	2220.25
447.129	2160.25
447.35	2182.25
447.571	2194.25
447.792	2102.25
448.013	2069.25
448.234	2117.25
448.455	2223.25
448.675	2214.25
448.896	2037.25
449.117	2015.25
449.338	2077.25
449.559	2175.25
449.779	2304.25
450	2494.25
450.221	2713.25
450.442	2625.25
450.662	2345.25
450.883	2030.25
451.104	1942.25
451.324	2039.25
451.545	2135.25
451.766	2095.25
451.986	1950.25
452.207	1965.25
452.428	1892.25
452.648	1899.25
452.869	1954.25
453.089	2051.25
453.31	2127.25
453.53	2131.25
453.751	2046.25
453.971	1950.25
454.192	1974.25
454.412	2090.25
454.633	2014.25
454.853	2002.25
455.073	1854.25
455.294	1849.25
455.514	1863.25
455.734	1888.25
455.955	1898.25
456.175	1885.25
456.395	1887.25
456.616	1991.25
456.836	2040.25
457.056	1995.25
457.276	1956.25
457.497	1908.25
457.717	1801.25
457.937	1879.25
458.157	1942.25
458.377	1890.25
458.598	1895.25
458.818	1861.25
459.038	2021.25
459.258	2171.25
459.478	2130.25
459.698	2071.25
459.918	2133.25
460.138	2237.25
460.358	2259.25
460.578	2246.25
460.798	2354.25
461.018	2522.25
461.238	2409.25
461.458	2267.25
461.678	2295.25
461.898	2239.25
462.118	2230.25
462.338	2301.25
462.558	2288.25
462.777	2243.25
462.997	2346.25
463.217	2554.25
463.437	2530.25
463.657	2306.25
463.876	2283.25
464.096	2268.25
464.316	2296.25
464.536	2372.25
464.755	2390.25
464.975	2449.25
465.195	2302.25
465.414	2425.25
465.634	2404.25
465.854	2312.25
466.073	2451.25
466.293	2340.25
466.512	2090.25
466.732	2086.25
466.951	2178.25
467.171	2132.25
467.391	2054.25
467.61	2026.25
467.829	2074.25
468.049	2211.25
468.268	2462.25
468.488	2332.25
468.707	2174.25
468.927	2122.25
469.146	2116.25
469.365	2074.25
469.585	2136.25
469.804	2078.25
470.023	2070.25
470.243	2163.25
470.462	2086.25
470.681	1999.25
470.901	2050.25
471.12	2050.25
471.339	2053.25
471.558	2039.25
471.777	1996.25
471.997	2039.25
472.216	2054.25
472.435	1973.25
472.654	1998.25
472.873	2074.25
473.092	2265.25
473.311	2144.25
473.53	1996.25
473.749	1959.25
473.968	2062.25
474.187	2156.25
474.406	2281.25
474.625	2186.25
474.844	2115.25
475.063	2091.25
475.282	2163.25
475.501	2107.25
475.72	2082.25
475.939	2193.25
476.158	2163.25
476.377	2102.25
476.596	2110.25
476.814	2183.25
477.033	2218.25
477.252	2294.25
477.471	2369.25
477.69	2220.25
477.908	2188.25
478.127	2340.25
478.346	2519.25
478.564	2526.25
478.783	2472.25
479.002	2539.25
479.22	2516.25
479.439	2547.25
479.658	2935.25
479.876	2914.25
480.095	2525.25
480.313	2468.25
480.532	2293.25
480.751	2375.25
480.969	2440.25
481.188	2379.25
481.406	2360.25
481.624	2295.25
481.843	2331.25
482.061	2350.25
482.28	2428.25
482.498	2438.25
482.717	2416.25
482.935	2356.25
483.153	2334.25
483.372	2347.25
483.59	2332.25
483.808	2304.25
484.027	2359.25
484.245	2556.25
484.463	2941.25
484.681	3327.25
484.9	2611.25
485.118	2429.25
485.336	2336.25
485.554	2463.25
485.772	2592.25
485.99	2530.25
486.209	2501.25
486.427	2490.25
486.645	2487.25
486.863	2459.25
487.081	2547.25
487.299	2604.25
