Data from WStandard_LampEnergy5.5LIBS07252019.E.O._I.C._HRD10591_16-06-55-920.txt Node
Date: Thu Jul 25 16:06:55 EDT 2019
User: cochatt
Spectrometer: HR+D1059
Trigger mode: 1
Integration Time (sec): 1.000000E-1
Scans to average: 1
Electric dark correction enabled: true
Nonlinearity correction enabled: false
Boxcar width: 0
XAxis mode: Wavelengths
Number of Pixels in Spectrum: 2048
>>>>>Begin Spectral Data<<<<<
223.165	-23.12
223.4	-23.12
223.635	-23.12
223.869	-24.12
224.104	-23.12
224.338	-14.12
224.573	-12.12
224.808	-3.12
225.042	-6.12
225.277	-14.12
225.511	8.88
225.746	-6.12
225.98	6.88
226.215	22.88
226.449	17.88
226.683	8.88
226.918	31.88
227.152	28.88
227.387	23.88
227.621	51.88
227.856	52.88
228.09	48.88
228.324	53.88
228.559	54.88
228.793	136.88
229.027	367.88
229.262	361.88
229.496	387.88
229.73	394.88
229.964	444.88
230.199	456.88
230.433	472.88
230.667	490.88
230.901	530.88
231.136	499.88
231.37	476.88
231.604	453.88
231.838	479.88
232.072	469.88
232.306	449.88
232.541	474.88
232.775	549.88
233.009	601.88
233.243	589.88
233.477	522.88
233.711	547.88
233.945	564.88
234.179	536.88
234.413	578.88
234.647	666.88
234.881	612.88
235.115	534.88
235.349	543.88
235.583	582.88
235.817	565.88
236.051	538.88
236.285	545.88
236.519	598.88
236.753	684.88
236.987	679.88
237.221	679.88
237.455	750.88
237.689	731.88
237.922	695.88
238.156	651.88
238.39	693.88
238.624	695.88
238.858	741.88
239.091	769.88
239.325	805.88
239.559	918.88
239.793	934.88
240.027	1060.88
240.26	1010.88
240.494	759.88
240.728	722.88
240.961	709.88
241.195	734.88
241.429	826.88
241.662	820.88
241.896	784.88
242.13	790.88
242.363	842.88
242.597	912.88
242.83	870.88
243.064	891.88
243.298	957.88
243.531	915.88
243.765	944.88
243.998	938.88
244.232	804.88
244.465	757.88
244.699	786.88
244.932	895.88
245.166	1056.88
245.399	968.88
245.633	878.88
245.866	886.88
246.099	933.88
246.333	949.88
246.566	935.88
246.8	1041.88
247.033	1176.88
247.266	1076.88
247.5	1077.88
247.733	1065.88
247.966	1110.88
248.2	1236.88
248.433	1193.88
248.666	1225.88
248.899	1325.88
249.133	1508.88
249.366	1760.88
249.599	1429.88
249.832	1263.88
250.066	1304.88
250.299	1294.88
250.532	1211.88
250.765	1063.88
250.998	1151.88
251.231	1197.88
251.465	1231.88
251.698	1197.88
251.931	1205.88
252.164	1187.88
252.397	1254.88
252.63	1252.88
252.863	1091.88
253.096	1090.88
253.329	1164.88
253.562	1160.88
253.795	1276.88
254.028	1286.88
254.261	1179.88
254.494	1160.88
254.727	1119.88
254.96	1146.88
255.193	1233.88
255.426	1415.88
255.659	1585.88
255.892	1663.88
256.124	1385.88
256.357	1321.88
256.59	1436.88
256.823	1407.88
257.056	1398.88
257.289	1719.88
257.521	1904.88
257.754	1706.88
257.987	1595.88
258.22	1798.88
258.452	1735.88
258.685	1425.88
258.918	1363.88
259.151	1383.88
259.383	1320.88
259.616	1194.88
259.849	1231.88
260.081	1407.88
260.314	1545.88
260.547	1707.88
260.779	1721.88
261.012	1601.88
261.244	1452.88
261.477	1367.88
261.71	1424.88
261.942	1419.88
262.175	1359.88
262.407	1484.88
262.64	1356.88
262.872	1289.88
263.105	1210.88
263.337	1245.88
263.57	1279.88
263.802	1301.88
264.035	1220.88
264.267	1154.88
264.499	1146.88
264.732	1202.88
264.964	1287.88
265.197	1341.88
265.429	1370.88
265.661	1575.88
265.894	1733.88
266.126	1827.88
266.358	1562.88
266.591	1632.88
266.823	1799.88
267.055	1643.88
267.287	1568.88
267.52	1583.88
267.752	1513.88
267.984	1525.88
268.216	1602.88
268.448	1693.88
268.681	1621.88
268.913	1541.88
269.145	1404.88
269.377	1379.88
269.609	1504.88
269.841	1725.88
270.073	2036.88
270.306	2264.88
270.538	2394.88
270.77	2053.88
271.002	1724.88
271.234	1622.88
271.466	1661.88
271.698	1791.88
271.93	2223.88
272.162	2252.88
272.394	2003.88
272.626	1917.88
272.858	1703.88
273.09	1456.88
273.322	1459.88
273.553	1339.88
273.785	1375.88
274.017	1421.88
274.249	1565.88
274.481	1587.88
274.713	1426.88
274.945	1401.88
275.176	1399.88
275.408	1379.88
275.64	1360.88
275.872	1355.88
276.104	1443.88
276.335	1668.88
276.567	1883.88
276.799	1883.88
277.031	1682.88
277.262	1582.88
277.494	1639.88
277.726	1867.88
277.957	1817.88
278.189	1691.88
278.421	1538.88
278.652	1482.88
278.884	1446.88
279.115	1494.88
279.347	1506.88
279.579	1485.88
279.81	1442.88
280.042	1604.88
280.273	1765.88
280.505	1774.88
280.736	1803.88
280.968	1698.88
281.199	1451.88
281.431	1409.88
281.662	1454.88
281.894	1431.88
282.125	1466.88
282.356	1523.88
282.588	1513.88
282.819	1519.88
283.051	1633.88
283.282	1807.88
283.513	1735.88
283.745	1514.88
283.976	1378.88
284.207	1401.88
284.439	1457.88
284.67	1468.88
284.901	1504.88
285.132	1522.88
285.364	1493.88
285.595	1549.88
285.826	1508.88
286.057	1491.88
286.288	1477.88
286.52	1542.88
286.751	1662.88
286.982	1699.88
287.213	1587.88
287.444	1457.88
287.675	1449.88
287.906	1525.88
288.138	1625.88
288.369	1592.88
288.6	1492.88
288.831	1459.88
289.062	1457.88
289.293	1512.88
289.524	1494.88
289.755	1586.88
289.986	1573.88
290.217	1462.88
290.448	1415.88
290.679	1478.88
290.91	1544.88
291.141	1574.88
291.371	1651.88
291.602	1599.88
291.833	1591.88
292.064	1657.88
292.295	1629.88
292.526	1644.88
292.757	1715.88
292.987	1625.88
293.218	1504.88
293.449	1650.88
293.68	1873.88
293.91	2037.88
294.141	1867.88
294.372	1769.88
294.603	1743.88
294.833	1883.88
295.064	1806.88
295.295	1646.88
295.525	1620.88
295.756	1483.88
295.987	1388.88
296.217	1457.88
296.448	1463.88
296.679	1458.88
296.909	1487.88
297.14	1463.88
297.37	1513.88
297.601	1588.88
297.831	1698.88
298.062	1768.88
298.292	1581.88
298.523	1492.88
298.753	1521.88
298.984	1546.88
299.214	1516.88
299.445	1591.88
299.675	1635.88
299.905	1612.88
300.136	1565.88
300.366	1512.88
300.597	1448.88
300.827	1454.88
301.057	1541.88
301.288	1599.88
301.518	1647.88
301.748	1646.88
301.979	1731.88
302.209	1701.88
302.439	1819.88
302.669	1937.88
302.9	1826.88
303.13	1639.88
303.36	1610.88
303.59	1706.88
303.82	1607.88
304.051	1597.88
304.281	1636.88
304.511	1607.88
304.741	1733.88
304.971	1883.88
305.201	2057.88
305.431	1926.88
305.661	1603.88
305.891	1405.88
306.121	1409.88
306.352	1485.88
306.582	1584.88
306.812	1697.88
307.042	1826.88
307.272	1813.88
307.502	1816.88
307.731	1996.88
307.961	2141.88
308.191	1992.88
308.421	1671.88
308.651	1577.88
308.881	1590.88
309.111	1576.88
309.341	1550.88
309.571	1563.88
309.8	1589.88
310.03	1540.88
310.26	1547.88
310.49	1538.88
310.72	1563.88
310.949	1662.88
311.179	1702.88
311.409	1634.88
311.639	1619.88
311.868	1563.88
312.098	1578.88
312.328	1599.88
312.557	1572.88
312.787	1582.88
313.017	1636.88
313.246	1641.88
313.476	1639.88
313.706	1712.88
313.935	1645.88
314.165	1676.88
314.394	1707.88
314.624	1803.88
314.853	1895.88
315.083	2008.88
315.312	2020.88
315.542	1939.88
315.771	1713.88
316.001	1656.88
316.23	1780.88
316.46	1819.88
316.689	1759.88
316.919	1687.88
317.148	1587.88
317.377	1571.88
317.607	1736.88
317.836	1946.88
318.065	2018.88
318.295	1940.88
318.524	1863.88
318.753	1783.88
318.983	1780.88
319.212	1721.88
319.441	1707.88
319.67	1698.88
319.9	1728.88
320.129	1787.88
320.358	1843.88
320.587	1919.88
320.816	1917.88
321.046	1896.88
321.275	1812.88
321.504	1761.88
321.733	1927.88
321.962	1881.88
322.191	1719.88
322.42	1720.88
322.649	1722.88
322.878	1719.88
323.108	1702.88
323.337	1760.88
323.566	1767.88
323.795	1763.88
324.024	1759.88
324.253	1724.88
324.482	1775.88
324.71	1698.88
324.939	1613.88
325.168	1631.88
325.397	1688.88
325.626	1798.88
325.855	1788.88
326.084	1697.88
326.313	1724.88
326.542	1732.88
326.77	1802.88
326.999	1825.88
327.228	1719.88
327.457	1603.88
327.686	1615.88
327.914	1654.88
328.143	1707.88
328.372	1693.88
328.6	1694.88
328.829	1689.88
329.058	1668.88
329.287	1668.88
329.515	1714.88
329.744	1726.88
329.972	1801.88
330.201	1896.88
330.43	1868.88
330.658	1814.88
330.887	1836.88
331.115	1784.88
331.344	1853.88
331.572	1782.88
331.801	1780.88
332.03	1797.88
332.258	1824.88
332.486	1852.88
332.715	1849.88
332.943	1848.88
333.172	1768.88
333.4	1826.88
333.629	1850.88
333.857	1938.88
334.085	2136.88
334.314	2363.88
334.542	2711.88
334.771	2489.88
334.999	2193.88
335.227	2032.88
335.455	1935.88
335.684	1919.88
335.912	1980.88
336.14	2071.88
336.369	1965.88
336.597	1799.88
336.825	1847.88
337.053	1878.88
337.281	1959.88
337.51	2067.88
337.738	2170.88
337.966	2080.88
338.194	1880.88
338.422	1800.88
338.65	1793.88
338.878	1801.88
339.106	1744.88
339.334	1719.88
339.562	1689.88
339.79	1716.88
340.018	1864.88
340.246	1909.88
340.474	1931.88
340.702	1872.88
340.93	1869.88
341.158	1872.88
341.386	1826.88
341.614	1823.88
341.842	1783.88
342.07	1786.88
342.298	1791.88
342.526	1803.88
342.754	1782.88
342.981	1770.88
343.209	1775.88
343.437	1791.88
343.665	1784.88
343.893	1834.88
344.12	1886.88
344.348	1917.88
344.576	1892.88
344.804	1809.88
345.031	1777.88
345.259	1783.88
345.487	1760.88
345.714	1656.88
345.942	1606.88
346.17	1635.88
346.397	1689.88
346.625	1739.88
346.853	1569.88
347.08	1571.88
347.308	1617.88
347.535	1620.88
347.763	1720.88
347.99	1711.88
348.218	1611.88
348.445	1653.88
348.673	1683.88
348.9	1668.88
349.128	1743.88
349.355	1871.88
349.583	1757.88
349.81	1671.88
350.037	1555.88
350.265	1572.88
350.492	1573.88
350.72	1605.88
350.947	1660.88
351.174	1721.88
351.402	1621.88
351.629	1558.88
351.856	1528.88
352.083	1507.88
352.311	1521.88
352.538	1592.88
352.765	1688.88
352.992	1720.88
353.22	1615.88
353.447	1591.88
353.674	1649.88
353.901	1676.88
354.128	1614.88
354.355	1597.88
354.583	1622.88
354.81	1728.88
355.037	1679.88
355.264	1703.88
355.491	1659.88
355.718	1667.88
355.945	1647.88
356.172	1625.88
356.399	1598.88
356.626	1616.88
356.853	1608.88
357.08	1753.88
357.307	1974.88
357.534	2003.88
357.761	1757.88
357.988	1579.88
358.215	1565.88
358.441	1570.88
358.668	1553.88
358.895	1608.88
359.122	1667.88
359.349	1878.88
359.576	1897.88
359.802	1642.88
360.029	1603.88
360.256	1576.88
360.483	1561.88
360.709	1658.88
360.936	1685.88
361.163	1734.88
361.39	1900.88
361.616	2084.88
361.843	1988.88
362.07	1881.88
362.296	1685.88
362.523	1616.88
362.749	1588.88
362.976	1655.88
363.203	1679.88
363.429	1599.88
363.656	1583.88
363.882	1632.88
364.109	1791.88
364.335	1969.88
364.562	1863.88
364.788	1751.88
365.015	1657.88
365.241	1617.88
365.468	1620.88
365.694	1709.88
365.92	1818.88
366.147	1722.88
366.373	1605.88
366.599	1589.88
366.826	1536.88
367.052	1608.88
367.278	1605.88
367.505	1651.88
367.731	1647.88
367.957	1667.88
368.184	1709.88
368.41	1822.88
368.636	1828.88
368.862	1884.88
369.089	1844.88
369.315	1787.88
369.541	1717.88
369.767	1630.88
369.993	1596.88
370.219	1607.88
370.445	1637.88
370.672	1747.88
370.898	1857.88
371.124	1834.88
371.35	1730.88
371.576	1743.88
371.802	1863.88
372.028	1776.88
372.254	1714.88
372.48	1651.88
372.706	1639.88
372.932	1638.88
373.158	1655.88
373.384	1676.88
373.61	1756.88
373.835	1836.88
374.061	1738.88
374.287	1727.88
374.513	1743.88
374.739	1714.88
374.965	1719.88
375.191	1766.88
375.416	1720.88
375.642	1764.88
375.868	1881.88
376.094	1923.88
376.319	1861.88
376.545	1679.88
376.771	1743.88
376.997	1797.88
377.222	1837.88
377.448	1749.88
377.674	1783.88
377.899	1771.88
378.125	1875.88
378.35	1858.88
378.576	1711.88
378.802	1655.88
379.027	1613.88
379.253	1669.88
379.478	1681.88
379.704	1715.88
379.929	1714.88
380.155	1685.88
380.38	1744.88
380.606	1759.88
380.831	1700.88
381.057	1803.88
381.282	1851.88
381.507	1753.88
381.733	1839.88
381.958	2005.88
382.184	1775.88
382.409	1721.88
382.634	1803.88
382.86	1803.88
383.085	1768.88
383.31	1803.88
383.535	1992.88
383.761	2073.88
383.986	1996.88
384.211	1945.88
384.436	1913.88
384.662	1990.88
384.887	2069.88
385.112	1983.88
385.337	1975.88
385.562	1957.88
385.787	1969.88
386.013	2008.88
386.238	1987.88
386.463	1970.88
386.688	2100.88
386.913	2216.88
387.138	2173.88
387.363	2019.88
387.588	1963.88
387.813	1973.88
388.038	1997.88
388.263	2111.88
388.488	2079.88
388.713	1860.88
388.938	1875.88
389.163	1931.88
389.387	1954.88
389.612	1899.88
389.837	1963.88
390.062	1971.88
390.287	1976.88
390.512	1925.88
390.736	1875.88
390.961	1877.88
391.186	1826.88
391.411	1859.88
391.636	1895.88
391.86	1913.88
392.085	1900.88
392.31	1899.88
392.534	1997.88
392.759	1984.88
392.984	1944.88
393.208	1976.88
393.433	2039.88
393.658	2113.88
393.882	2141.88
394.107	1980.88
394.331	1946.88
394.556	1904.88
394.78	1926.88
395.005	2003.88
395.229	2067.88
395.454	2270.88
395.678	2275.88
395.903	2105.88
396.127	2039.88
396.352	2055.88
396.576	2177.88
396.801	2141.88
397.025	2212.88
397.249	2179.88
397.474	2098.88
397.698	2065.88
397.922	2119.88
398.147	2237.88
398.371	2344.88
398.595	2370.88
398.82	2189.88
399.044	2302.88
399.268	2335.88
399.492	2514.88
399.717	2558.88
399.941	2595.88
400.165	2556.88
400.389	2483.88
400.613	2433.88
400.837	2678.88
401.062	3099.88
401.286	2729.88
401.51	2361.88
401.734	2526.88
401.958	2495.88
402.182	2323.88
402.406	2252.88
402.63	2150.88
402.854	2215.88
403.078	2218.88
403.302	2266.88
403.526	2269.88
403.75	2367.88
403.974	2316.88
404.198	2352.88
404.422	2407.88
404.645	2486.88
404.869	2511.88
405.093	2313.88
405.317	2226.88
405.541	2299.88
405.765	2334.88
405.988	2314.88
406.212	2351.88
406.436	2386.88
406.66	2487.88
406.883	2509.88
407.107	2796.88
407.331	3073.88
407.555	3233.88
407.778	3021.88
408.002	2502.88
408.226	2402.88
408.449	2441.88
408.673	2386.88
408.896	2377.88
409.12	2414.88
409.344	2385.88
409.567	2288.88
409.791	2315.88
410.014	2414.88
410.238	2454.88
410.461	2592.88
410.685	2372.88
410.908	2222.88
411.132	2330.88
411.355	2263.88
411.578	2263.88
411.802	2256.88
412.025	2331.88
412.249	2267.88
412.472	2215.88
412.695	2160.88
412.919	2179.88
413.142	2185.88
413.365	2218.88
413.589	2277.88
413.812	2354.88
414.035	2451.88
414.258	2239.88
414.482	2201.88
414.705	2193.88
414.928	2199.88
415.151	2231.88
415.374	2177.88
415.597	2263.88
415.821	2232.88
416.044	2296.88
416.267	2393.88
416.49	2146.88
416.713	2045.88
416.936	2150.88
417.159	2233.88
417.382	2286.88
417.605	2165.88
417.828	2207.88
418.051	2244.88
418.274	2213.88
418.497	2119.88
418.72	2132.88
418.943	2118.88
419.166	2274.88
419.389	2331.88
419.611	2247.88
419.834	2124.88
420.057	2200.88
420.28	2155.88
420.503	2121.88
420.726	2208.88
420.948	2172.88
421.171	2095.88
421.394	2132.88
421.617	2205.88
421.839	2199.88
422.062	2166.88
422.285	2117.88
422.507	2089.88
422.73	2100.88
422.953	2065.88
423.175	2061.88
423.398	2081.88
423.621	2117.88
423.843	2109.88
424.066	2166.88
424.288	2231.88
424.511	2280.88
424.733	2248.88
424.956	2036.88
425.178	2037.88
425.401	2065.88
425.623	2079.88
425.846	2066.88
426.068	2162.88
426.291	2217.88
426.513	2187.88
426.735	2171.88
426.958	2255.88
427.18	2426.88
427.402	2260.88
427.625	2315.88
427.847	2340.88
428.069	2172.88
428.292	2116.88
428.514	2035.88
428.736	2044.88
428.958	2057.88
429.181	2088.88
429.403	2347.88
429.625	2921.88
429.847	2584.88
430.069	2163.88
430.292	2337.88
430.514	2440.88
430.736	2227.88
430.958	2386.88
431.18	2247.88
431.402	2077.88
431.624	2027.88
431.846	2017.88
432.068	1988.88
432.29	2097.88
432.512	2109.88
432.734	2128.88
432.956	2146.88
433.178	2244.88
433.4	2214.88
433.622	2237.88
433.844	2054.88
434.066	1997.88
434.287	2103.88
434.509	2090.88
434.731	2234.88
434.953	2353.88
435.175	2291.88
435.397	2153.88
435.618	2164.88
435.84	2186.88
436.062	2166.88
436.284	2154.88
436.505	2158.88
436.727	2219.88
436.949	2166.88
437.17	2101.88
437.392	2067.88
437.614	2093.88
437.835	2052.88
438.057	2153.88
438.278	2245.88
438.5	2077.88
438.721	2012.88
438.943	2043.88
439.165	2032.88
439.386	1982.88
439.608	2019.88
439.829	2065.88
440.05	2066.88
440.272	2039.88
440.493	2012.88
440.715	2039.88
440.936	2207.88
441.158	2429.88
441.379	2364.88
441.6	2285.88
441.822	2216.88
442.043	2174.88
442.264	2196.88
442.486	2059.88
442.707	2042.88
442.928	2012.88
443.149	2064.88
443.371	2252.88
443.592	2315.88
443.813	2254.88
444.034	2225.88
444.255	2287.88
444.476	2335.88
444.698	2334.88
444.919	2311.88
445.14	2389.88
445.361	2387.88
445.582	2477.88
445.803	2323.88
446.024	2251.88
446.245	2327.88
446.466	2266.88
446.687	2122.88
446.908	2155.88
447.129	2103.88
447.35	2143.88
447.571	2136.88
447.792	2040.88
448.013	2010.88
448.234	2020.88
448.455	2198.88
448.675	2183.88
448.896	1995.88
449.117	1977.88
449.338	2052.88
449.559	2121.88
449.779	2244.88
450	2428.88
450.221	2630.88
450.442	2503.88
450.662	2228.88
450.883	1966.88
451.104	1918.88
451.324	1957.88
451.545	2060.88
451.766	2016.88
451.986	1912.88
452.207	1886.88
452.428	1832.88
452.648	1810.88
452.869	1862.88
453.089	2074.88
453.31	2039.88
453.53	2086.88
453.751	1975.88
453.971	1852.88
454.192	1911.88
454.412	2063.88
454.633	2004.88
454.853	1962.88
455.073	1804.88
455.294	1772.88
455.514	1788.88
455.734	1800.88
455.955	1880.88
456.175	1848.88
456.395	1839.88
456.616	1894.88
456.836	1912.88
457.056	1875.88
457.276	1871.88
457.497	1853.88
457.717	1776.88
457.937	1811.88
458.157	1844.88
458.377	1868.88
458.598	1842.88
458.818	1866.88
459.038	1977.88
459.258	2112.88
459.478	2106.88
459.698	2068.88
459.918	2050.88
460.138	2154.88
460.358	2183.88
460.578	2179.88
460.798	2329.88
461.018	2403.88
461.238	2308.88
461.458	2186.88
461.678	2198.88
461.898	2169.88
462.118	2117.88
462.338	2191.88
462.558	2189.88
462.777	2237.88
462.997	2336.88
463.217	2465.88
463.437	2398.88
463.657	2251.88
463.876	2204.88
464.096	2179.88
464.316	2211.88
464.536	2273.88
464.755	2281.88
464.975	2273.88
465.195	2186.88
465.414	2335.88
465.634	2327.88
465.854	2220.88
466.073	2372.88
466.293	2305.88
466.512	2057.88
466.732	2021.88
466.951	2069.88
467.171	2102.88
467.391	1997.88
467.61	1970.88
467.829	1971.88
468.049	2123.88
468.268	2425.88
468.488	2271.88
468.707	2144.88
468.927	2113.88
469.146	2018.88
469.365	1995.88
469.585	2009.88
469.804	1979.88
470.023	2025.88
470.243	2088.88
470.462	2044.88
470.681	1959.88
470.901	2022.88
471.12	1990.88
471.339	2007.88
471.558	1957.88
471.777	1902.88
471.997	1955.88
472.216	1934.88
472.435	1906.88
472.654	1989.88
472.873	2060.88
473.092	2185.88
473.311	2061.88
473.53	1958.88
473.749	1915.88
473.968	1995.88
474.187	2114.88
474.406	2204.88
474.625	2084.88
474.844	2014.88
475.063	2055.88
475.282	2097.88
475.501	2044.88
475.72	2041.88
475.939	2227.88
476.158	2132.88
476.377	1993.88
476.596	2040.88
476.814	2116.88
477.033	2091.88
477.252	2223.88
477.471	2260.88
477.69	2125.88
477.908	2128.88
478.127	2237.88
478.346	2389.88
478.564	2428.88
478.783	2392.88
479.002	2489.88
479.22	2412.88
479.439	2538.88
479.658	2777.88
479.876	2835.88
480.095	2449.88
480.313	2349.88
480.532	2188.88
480.751	2275.88
480.969	2348.88
481.188	2321.88
481.406	2293.88
481.624	2231.88
481.843	2224.88
482.061	2287.88
482.28	2315.88
482.498	2380.88
482.717	2323.88
482.935	2228.88
483.153	2264.88
483.372	2255.88
483.59	2221.88
483.808	2277.88
484.027	2305.88
484.245	2479.88
484.463	2775.88
484.681	3265.88
484.9	2530.88
485.118	2285.88
485.336	2276.88
485.554	2329.88
485.772	2479.88
485.99	2396.88
486.209	2438.88
486.427	2382.88
486.645	2401.88
486.863	2367.88
487.081	2457.88
487.299	2520.88
