Data from WStandard_LampEnergy8_LIBS07252019.E.O._I.C._HRD10591_15-58-59-929.txt Node
Date: Thu Jul 25 15:58:59 EDT 2019
User: cochatt
Spectrometer: HR+D1059
Trigger mode: 1
Integration Time (sec): 1.000000E-1
Scans to average: 1
Electric dark correction enabled: true
Nonlinearity correction enabled: false
Boxcar width: 0
XAxis mode: Wavelengths
Number of Pixels in Spectrum: 2048
>>>>>Begin Spectral Data<<<<<
223.165	-10.12
223.4	-10.12
223.635	-10.12
223.869	-26.12
224.104	-10.12
224.338	-13.12
224.573	-27.12
224.808	-14.12
225.042	-2.12
225.277	-0.12
225.511	9.88
225.746	-3.12
225.98	9.88
226.215	9.88
226.449	22.88
226.683	10.88
226.918	28.88
227.152	13.88
227.387	26.88
227.621	34.88
227.856	22.88
228.09	35.88
228.324	48.88
228.559	53.88
228.793	85.88
229.027	196.88
229.262	201.88
229.496	207.88
229.73	215.88
229.964	252.88
230.199	250.88
230.433	256.88
230.667	285.88
230.901	297.88
231.136	282.88
231.37	264.88
231.604	244.88
231.838	266.88
232.072	265.88
232.306	262.88
232.541	264.88
232.775	311.88
233.009	335.88
233.243	303.88
233.477	293.88
233.711	287.88
233.945	322.88
234.179	305.88
234.413	313.88
234.647	335.88
234.881	314.88
235.115	282.88
235.349	309.88
235.583	292.88
235.817	303.88
236.051	284.88
236.285	316.88
236.519	312.88
236.753	368.88
236.987	343.88
237.221	329.88
237.455	370.88
237.689	353.88
237.922	357.88
238.156	334.88
238.39	355.88
238.624	372.88
238.858	380.88
239.091	413.88
239.325	433.88
239.559	468.88
239.793	465.88
240.027	514.88
240.26	492.88
240.494	394.88
240.728	369.88
240.961	388.88
241.195	396.88
241.429	422.88
241.662	422.88
241.896	408.88
242.13	412.88
242.363	442.88
242.597	468.88
242.83	469.88
243.064	462.88
243.298	484.88
243.531	469.88
243.765	454.88
243.998	463.88
244.232	436.88
244.465	389.88
244.699	429.88
244.932	471.88
245.166	516.88
245.399	512.88
245.633	465.88
245.866	457.88
246.099	479.88
246.333	466.88
246.566	522.88
246.8	553.88
247.033	592.88
247.266	539.88
247.5	553.88
247.733	552.88
247.966	576.88
248.2	614.88
248.433	621.88
248.666	660.88
248.899	681.88
249.133	781.88
249.366	819.88
249.599	704.88
249.832	609.88
250.066	632.88
250.299	644.88
250.532	578.88
250.765	550.88
250.998	556.88
251.231	593.88
251.465	610.88
251.698	594.88
251.931	577.88
252.164	608.88
252.397	609.88
252.63	617.88
252.863	575.88
253.096	561.88
253.329	614.88
253.562	615.88
253.795	621.88
254.028	634.88
254.261	577.88
254.494	581.88
254.727	570.88
254.96	602.88
255.193	618.88
255.426	730.88
255.659	806.88
255.892	809.88
256.124	691.88
256.357	657.88
256.59	746.88
256.823	707.88
257.056	741.88
257.289	863.88
257.521	896.88
257.754	836.88
257.987	793.88
258.22	838.88
258.452	817.88
258.685	687.88
258.918	686.88
259.151	673.88
259.383	641.88
259.616	589.88
259.849	634.88
260.081	715.88
260.314	773.88
260.547	829.88
260.779	812.88
261.012	757.88
261.244	704.88
261.477	683.88
261.71	695.88
261.942	690.88
262.175	695.88
262.407	714.88
262.64	677.88
262.872	633.88
263.105	613.88
263.337	624.88
263.57	644.88
263.802	631.88
264.035	606.88
264.267	574.88
264.499	577.88
264.732	610.88
264.964	664.88
265.197	657.88
265.429	740.88
265.661	786.88
265.894	870.88
266.126	871.88
266.358	813.88
266.591	808.88
266.823	875.88
267.055	796.88
267.287	770.88
267.52	772.88
267.752	745.88
267.984	755.88
268.216	806.88
268.448	815.88
268.681	775.88
268.913	753.88
269.145	692.88
269.377	693.88
269.609	802.88
269.841	896.88
270.073	1005.88
270.306	1123.88
270.538	1155.88
270.77	973.88
271.002	817.88
271.234	820.88
271.466	842.88
271.698	954.88
271.93	1092.88
272.162	1052.88
272.394	970.88
272.626	903.88
272.858	825.88
273.09	704.88
273.322	712.88
273.553	676.88
273.785	662.88
274.017	727.88
274.249	774.88
274.481	786.88
274.713	724.88
274.945	704.88
275.176	708.88
275.408	697.88
275.64	672.88
275.872	690.88
276.104	764.88
276.335	856.88
276.567	944.88
276.799	918.88
277.031	836.88
277.262	816.88
277.494	884.88
277.726	944.88
277.957	882.88
278.189	838.88
278.421	782.88
278.652	778.88
278.884	736.88
279.115	736.88
279.347	738.88
279.579	727.88
279.81	758.88
280.042	817.88
280.273	882.88
280.505	876.88
280.736	898.88
280.968	821.88
281.199	762.88
281.431	709.88
281.662	713.88
281.894	709.88
282.125	737.88
282.356	758.88
282.588	808.88
282.819	793.88
283.051	862.88
283.282	904.88
283.513	853.88
283.745	788.88
283.976	715.88
284.207	755.88
284.439	734.88
284.67	756.88
284.901	796.88
285.132	806.88
285.364	758.88
285.595	753.88
285.826	761.88
286.057	751.88
286.288	784.88
286.52	821.88
286.751	834.88
286.982	858.88
287.213	833.88
287.444	740.88
287.675	737.88
287.906	800.88
288.138	817.88
288.369	822.88
288.6	793.88
288.831	748.88
289.062	778.88
289.293	793.88
289.524	772.88
289.755	787.88
289.986	771.88
290.217	724.88
290.448	762.88
290.679	790.88
290.91	776.88
291.141	820.88
291.371	811.88
291.602	827.88
291.833	819.88
292.064	850.88
292.295	842.88
292.526	847.88
292.757	865.88
292.987	846.88
293.218	828.88
293.449	906.88
293.68	993.88
293.91	1028.88
294.141	955.88
294.372	909.88
294.603	928.88
294.833	956.88
295.064	929.88
295.295	830.88
295.525	797.88
295.756	770.88
295.987	744.88
296.217	743.88
296.448	798.88
296.679	793.88
296.909	754.88
297.14	777.88
297.37	793.88
297.601	863.88
297.831	898.88
298.062	886.88
298.292	854.88
298.523	785.88
298.753	800.88
298.984	804.88
299.214	832.88
299.445	801.88
299.675	854.88
299.905	873.88
300.136	828.88
300.366	804.88
300.597	770.88
300.827	752.88
301.057	821.88
301.288	848.88
301.518	855.88
301.748	855.88
301.979	927.88
302.209	932.88
302.439	982.88
302.669	1028.88
302.9	930.88
303.13	829.88
303.36	869.88
303.59	892.88
303.82	869.88
304.051	878.88
304.281	852.88
304.511	887.88
304.741	962.88
304.971	1038.88
305.201	1044.88
305.431	960.88
305.661	820.88
305.891	734.88
306.121	788.88
306.352	794.88
306.582	853.88
306.812	934.88
307.042	991.88
307.272	960.88
307.502	1030.88
307.731	1061.88
307.961	1114.88
308.191	976.88
308.421	901.88
308.651	856.88
308.881	861.88
309.111	868.88
309.341	839.88
309.571	852.88
309.8	848.88
310.03	849.88
310.26	816.88
310.49	840.88
310.72	873.88
310.949	882.88
311.179	896.88
311.409	864.88
311.639	873.88
311.868	868.88
312.098	855.88
312.328	860.88
312.557	841.88
312.787	892.88
313.017	870.88
313.246	869.88
313.476	878.88
313.706	890.88
313.935	913.88
314.165	885.88
314.394	942.88
314.624	993.88
314.853	1036.88
315.083	1072.88
315.312	1073.88
315.542	1011.88
315.771	897.88
316.001	949.88
316.23	964.88
316.46	971.88
316.689	946.88
316.919	894.88
317.148	841.88
317.377	882.88
317.607	967.88
317.836	1088.88
318.065	1089.88
318.295	1056.88
318.524	1005.88
318.753	1000.88
318.983	981.88
319.212	947.88
319.441	916.88
319.67	920.88
319.9	966.88
320.129	1000.88
320.358	1046.88
320.587	1074.88
320.816	1029.88
321.046	1021.88
321.275	974.88
321.504	983.88
321.733	1069.88
321.962	1000.88
322.191	941.88
322.42	947.88
322.649	944.88
322.878	959.88
323.108	952.88
323.337	1002.88
323.566	966.88
323.795	993.88
324.024	964.88
324.253	960.88
324.482	946.88
324.71	919.88
324.939	857.88
325.168	898.88
325.397	914.88
325.626	983.88
325.855	964.88
326.084	950.88
326.313	943.88
326.542	948.88
326.77	981.88
326.999	971.88
327.228	918.88
327.457	871.88
327.686	892.88
327.914	918.88
328.143	926.88
328.372	925.88
328.6	965.88
328.829	910.88
329.058	908.88
329.287	917.88
329.515	918.88
329.744	960.88
329.972	1032.88
330.201	1094.88
330.43	1026.88
330.658	978.88
330.887	978.88
331.115	1009.88
331.344	1002.88
331.572	980.88
331.801	982.88
332.03	989.88
332.258	1016.88
332.486	1028.88
332.715	1005.88
332.943	993.88
333.172	988.88
333.4	1028.88
333.629	1044.88
333.857	1125.88
334.085	1209.88
334.314	1428.88
334.542	1448.88
334.771	1347.88
334.999	1136.88
335.227	1102.88
335.455	1049.88
335.684	1076.88
335.912	1084.88
336.14	1103.88
336.369	1087.88
336.597	1020.88
336.825	1014.88
337.053	1032.88
337.281	1105.88
337.51	1170.88
337.738	1168.88
337.966	1105.88
338.194	1038.88
338.422	1020.88
338.65	990.88
338.878	969.88
339.106	962.88
339.334	948.88
339.562	946.88
339.79	983.88
340.018	1043.88
340.246	1046.88
340.474	1070.88
340.702	1029.88
340.93	1028.88
341.158	1017.88
341.386	1015.88
341.614	996.88
341.842	1017.88
342.07	980.88
342.298	1014.88
342.526	1010.88
342.754	986.88
342.981	983.88
343.209	994.88
343.437	981.88
343.665	991.88
343.893	1006.88
344.12	1061.88
344.348	1032.88
344.576	995.88
344.804	1010.88
345.031	1002.88
345.259	994.88
345.487	948.88
345.714	914.88
345.942	882.88
346.17	948.88
346.397	989.88
346.625	969.88
346.853	897.88
347.08	906.88
347.308	906.88
347.535	934.88
347.763	945.88
347.99	919.88
348.218	935.88
348.445	918.88
348.673	958.88
348.9	973.88
349.128	986.88
349.355	1022.88
349.583	980.88
349.81	948.88
350.037	842.88
350.265	856.88
350.492	889.88
350.72	910.88
350.947	966.88
351.174	945.88
351.402	900.88
351.629	864.88
351.856	882.88
352.083	865.88
352.311	889.88
352.538	910.88
352.765	946.88
352.992	948.88
353.22	932.88
353.447	904.88
353.674	911.88
353.901	934.88
354.128	912.88
354.355	920.88
354.583	960.88
354.81	999.88
355.037	952.88
355.264	975.88
355.491	935.88
355.718	931.88
355.945	923.88
356.172	896.88
356.399	918.88
356.626	890.88
356.853	946.88
357.08	1046.88
357.307	1125.88
357.534	1087.88
357.761	969.88
357.988	902.88
358.215	868.88
358.441	892.88
358.668	867.88
358.895	924.88
359.122	1017.88
359.349	1064.88
359.576	1023.88
359.802	926.88
360.029	929.88
360.256	886.88
360.483	922.88
360.709	964.88
360.936	989.88
361.163	1044.88
361.39	1105.88
361.616	1189.88
361.843	1164.88
362.07	1076.88
362.296	925.88
362.523	936.88
362.749	932.88
362.976	950.88
363.203	946.88
363.429	899.88
363.656	927.88
363.882	957.88
364.109	1046.88
364.335	1120.88
364.562	1046.88
364.788	1010.88
365.015	931.88
365.241	898.88
365.468	916.88
365.694	990.88
365.92	1001.88
366.147	961.88
366.373	924.88
366.599	889.88
366.826	918.88
367.052	924.88
367.278	913.88
367.505	950.88
367.731	988.88
367.957	973.88
368.184	992.88
368.41	1061.88
368.636	1076.88
368.862	1057.88
369.089	1080.88
369.315	1040.88
369.541	1005.88
369.767	947.88
369.993	936.88
370.219	955.88
370.445	993.88
370.672	1053.88
370.898	1072.88
371.124	1049.88
371.35	983.88
371.576	1080.88
371.802	1089.88
372.028	1014.88
372.254	970.88
372.48	965.88
372.706	962.88
372.932	922.88
373.158	970.88
373.384	995.88
373.61	1019.88
373.835	1078.88
374.061	1011.88
374.287	988.88
374.513	1004.88
374.739	993.88
374.965	993.88
375.191	1026.88
375.416	997.88
375.642	1049.88
375.868	1109.88
376.094	1141.88
376.319	1053.88
376.545	994.88
376.771	1046.88
376.997	1074.88
377.222	1054.88
377.448	1030.88
377.674	1074.88
377.899	1049.88
378.125	1091.88
378.35	1095.88
378.576	1003.88
378.802	966.88
379.027	957.88
379.253	986.88
379.478	1014.88
379.704	974.88
379.929	983.88
380.155	1018.88
380.38	984.88
380.606	1021.88
380.831	1026.88
381.057	1076.88
381.282	1068.88
381.507	1064.88
381.733	1132.88
381.958	1134.88
382.184	1044.88
382.409	1014.88
382.634	1037.88
382.86	1072.88
383.085	1089.88
383.31	1083.88
383.535	1199.88
383.761	1207.88
383.986	1180.88
384.211	1150.88
384.436	1137.88
384.662	1180.88
384.887	1194.88
385.112	1120.88
385.337	1145.88
385.562	1110.88
385.787	1136.88
386.013	1144.88
386.238	1150.88
386.463	1185.88
386.688	1264.88
386.913	1283.88
387.138	1257.88
387.363	1188.88
387.588	1175.88
387.813	1162.88
388.038	1186.88
388.263	1244.88
388.488	1178.88
388.713	1095.88
388.938	1104.88
389.163	1085.88
389.387	1127.88
389.612	1135.88
389.837	1160.88
390.062	1163.88
390.287	1161.88
390.512	1147.88
390.736	1106.88
390.961	1122.88
391.186	1077.88
391.411	1073.88
391.636	1116.88
391.86	1158.88
392.085	1132.88
392.31	1125.88
392.534	1136.88
392.759	1128.88
392.984	1128.88
393.208	1160.88
393.433	1169.88
393.658	1233.88
393.882	1226.88
394.107	1137.88
394.331	1163.88
394.556	1160.88
394.78	1142.88
395.005	1202.88
395.229	1217.88
395.454	1365.88
395.678	1307.88
395.903	1214.88
396.127	1196.88
396.352	1236.88
396.576	1282.88
396.801	1250.88
397.025	1237.88
397.249	1249.88
397.474	1217.88
397.698	1203.88
397.922	1288.88
398.147	1337.88
398.371	1364.88
398.595	1369.88
398.82	1335.88
399.044	1375.88
399.268	1418.88
399.492	1486.88
399.717	1500.88
399.941	1493.88
400.165	1472.88
400.389	1455.88
400.613	1478.88
400.837	1702.88
401.062	1838.88
401.286	1563.88
401.51	1438.88
401.734	1472.88
401.958	1429.88
402.182	1356.88
402.406	1278.88
402.63	1299.88
402.854	1315.88
403.078	1336.88
403.302	1340.88
403.526	1389.88
403.75	1359.88
403.974	1385.88
404.198	1342.88
404.422	1424.88
404.645	1476.88
404.869	1434.88
405.093	1371.88
405.317	1318.88
405.541	1340.88
405.765	1360.88
405.988	1390.88
406.212	1384.88
406.436	1418.88
406.66	1485.88
406.883	1504.88
407.107	1695.88
407.331	1853.88
407.555	1908.88
407.778	1676.88
408.002	1445.88
408.226	1452.88
408.449	1427.88
408.673	1396.88
408.896	1398.88
409.12	1437.88
409.344	1400.88
409.567	1393.88
409.791	1376.88
410.014	1404.88
410.238	1495.88
410.461	1559.88
410.685	1432.88
410.908	1355.88
411.132	1389.88
411.355	1324.88
411.578	1330.88
411.802	1379.88
412.025	1351.88
412.249	1319.88
412.472	1307.88
412.695	1340.88
412.919	1320.88
413.142	1316.88
413.365	1314.88
413.589	1359.88
413.812	1414.88
414.035	1481.88
414.258	1338.88
414.482	1324.88
414.705	1326.88
414.928	1302.88
415.151	1292.88
415.374	1311.88
415.597	1338.88
415.821	1332.88
416.044	1324.88
416.267	1369.88
416.49	1251.88
416.713	1290.88
416.936	1334.88
417.159	1410.88
417.382	1379.88
417.605	1328.88
417.828	1342.88
418.051	1332.88
418.274	1304.88
418.497	1300.88
418.72	1295.88
418.943	1284.88
419.166	1367.88
419.389	1389.88
419.611	1311.88
419.834	1322.88
420.057	1324.88
420.28	1304.88
420.503	1304.88
420.726	1316.88
420.948	1308.88
421.171	1277.88
421.394	1290.88
421.617	1322.88
421.839	1341.88
422.062	1310.88
422.285	1273.88
422.507	1276.88
422.73	1250.88
422.953	1196.88
423.175	1242.88
423.398	1291.88
423.621	1292.88
423.843	1294.88
424.066	1325.88
424.288	1346.88
424.511	1397.88
424.733	1370.88
424.956	1250.88
425.178	1243.88
425.401	1260.88
425.623	1294.88
425.846	1265.88
426.068	1374.88
426.291	1360.88
426.513	1348.88
426.735	1334.88
426.958	1471.88
427.18	1518.88
427.402	1364.88
427.625	1413.88
427.847	1400.88
428.069	1284.88
428.292	1290.88
428.514	1253.88
428.736	1230.88
428.958	1259.88
429.181	1279.88
429.403	1510.88
429.625	1772.88
429.847	1519.88
430.069	1314.88
430.292	1426.88
430.514	1430.88
430.736	1376.88
430.958	1404.88
431.18	1304.88
431.402	1246.88
431.624	1221.88
431.846	1206.88
432.068	1135.88
432.29	1152.88
432.512	1178.88
432.734	1242.88
432.956	1303.88
433.178	1343.88
433.4	1340.88
433.622	1311.88
433.844	1286.88
434.066	1214.88
434.287	1196.88
434.509	1222.88
434.731	1294.88
434.953	1381.88
435.175	1361.88
435.397	1286.88
435.618	1274.88
435.84	1281.88
436.062	1226.88
436.284	1276.88
436.505	1287.88
436.727	1320.88
436.949	1276.88
437.17	1278.88
437.392	1226.88
437.614	1219.88
437.835	1189.88
438.057	1228.88
438.278	1294.88
438.5	1226.88
438.721	1239.88
438.943	1267.88
439.165	1219.88
439.386	1204.88
439.608	1260.88
439.829	1241.88
440.05	1282.88
440.272	1275.88
440.493	1212.88
440.715	1280.88
440.936	1372.88
441.158	1463.88
441.379	1422.88
441.6	1389.88
441.822	1355.88
442.043	1345.88
442.264	1326.88
442.486	1258.88
442.707	1280.88
442.928	1300.88
443.149	1292.88
443.371	1354.88
443.592	1374.88
443.813	1363.88
444.034	1376.88
444.255	1384.88
444.476	1394.88
444.698	1396.88
444.919	1429.88
445.14	1491.88
445.361	1450.88
445.582	1476.88
445.803	1404.88
446.024	1387.88
446.245	1406.88
446.466	1370.88
446.687	1313.88
446.908	1347.88
447.129	1334.88
447.35	1295.88
447.571	1300.88
447.792	1260.88
448.013	1226.88
448.234	1238.88
448.455	1334.88
448.675	1330.88
448.896	1196.88
449.117	1233.88
449.338	1208.88
449.559	1288.88
449.779	1381.88
450	1414.88
450.221	1505.88
450.442	1445.88
450.662	1310.88
450.883	1190.88
451.104	1167.88
451.324	1175.88
451.545	1228.88
451.766	1224.88
451.986	1141.88
452.207	1129.88
452.428	1140.88
452.648	1096.88
452.869	1119.88
453.089	1141.88
453.31	1159.88
453.53	1158.88
453.751	1114.88
453.971	1072.88
454.192	1080.88
454.412	1172.88
454.633	1154.88
454.853	1145.88
455.073	1060.88
455.294	1070.88
455.514	1076.88
455.734	1077.88
455.955	1118.88
456.175	1093.88
456.395	1050.88
456.616	1115.88
456.836	1106.88
457.056	1122.88
457.276	1091.88
457.497	1043.88
457.717	1001.88
457.937	1044.88
458.157	1058.88
458.377	1046.88
458.598	1021.88
458.818	1062.88
459.038	1114.88
459.258	1127.88
459.478	1153.88
459.698	1122.88
459.918	1159.88
460.138	1218.88
460.358	1241.88
460.578	1260.88
460.798	1304.88
461.018	1354.88
461.238	1308.88
461.458	1261.88
461.678	1233.88
461.898	1237.88
462.118	1206.88
462.338	1260.88
462.558	1262.88
462.777	1250.88
462.997	1328.88
463.217	1373.88
463.437	1357.88
463.657	1290.88
463.876	1264.88
464.096	1250.88
464.316	1256.88
464.536	1308.88
464.755	1309.88
464.975	1314.88
465.195	1257.88
465.414	1321.88
465.634	1298.88
465.854	1328.88
466.073	1400.88
466.293	1353.88
466.512	1216.88
466.732	1206.88
466.951	1247.88
467.171	1251.88
467.391	1182.88
467.61	1170.88
467.829	1207.88
468.049	1367.88
468.268	1457.88
468.488	1332.88
468.707	1260.88
468.927	1253.88
469.146	1223.88
469.365	1229.88
469.585	1264.88
469.804	1238.88
470.023	1265.88
470.243	1249.88
470.462	1233.88
470.681	1207.88
470.901	1249.88
471.12	1224.88
471.339	1264.88
471.558	1252.88
471.777	1187.88
471.997	1240.88
472.216	1175.88
472.435	1118.88
472.654	1146.88
472.873	1196.88
473.092	1260.88
473.311	1182.88
473.53	1160.88
473.749	1137.88
473.968	1183.88
474.187	1235.88
474.406	1235.88
474.625	1228.88
474.844	1240.88
475.063	1230.88
475.282	1289.88
475.501	1201.88
475.72	1189.88
475.939	1295.88
476.158	1264.88
476.377	1220.88
476.596	1248.88
476.814	1220.88
477.033	1232.88
477.252	1296.88
477.471	1278.88
477.69	1298.88
477.908	1299.88
478.127	1362.88
478.346	1414.88
478.564	1420.88
478.783	1408.88
479.002	1463.88
479.22	1445.88
479.439	1471.88
479.658	1586.88
479.876	1527.88
480.095	1365.88
480.313	1353.88
480.532	1283.88
480.751	1263.88
480.969	1340.88
481.188	1274.88
481.406	1249.88
481.624	1222.88
481.843	1258.88
482.061	1275.88
482.28	1319.88
482.498	1383.88
482.717	1333.88
482.935	1281.88
483.153	1363.88
483.372	1369.88
483.59	1404.88
483.808	1342.88
484.027	1342.88
484.245	1449.88
484.463	1784.88
484.681	1901.88
484.9	1504.88
485.118	1406.88
485.336	1348.88
485.554	1361.88
485.772	1408.88
485.99	1360.88
486.209	1386.88
486.427	1399.88
486.645	1426.88
486.863	1417.88
487.081	1463.88
487.299	1478.88
487.517	1456.88
487.735	1496.88
487.953	1513.88
488.171	1507.88
488.389	1461.88
488.607	1429.88
488.825	1600.88
489.043	1566.88
489.261	1412.88
489.479	1480.88
489.696	1526.88
489.914	1493.88
490.132	1419.88
490.35	1462.88
490.568	1540.88
490.786	1519.88
491.003	1494.88
491.221	1546.88
491.439	1593.88
491.657	1576.88
491.874	1650.88
492.092	1664.88
492.31	1690.88
492.527	1661.88
492.745	1602.88
492.963	1602.88
493.18	1648.88
493.398	1745.88
