Data from WStandard_LampEnergy8_LIBS07252019.E.O._I.C._HRD10591_15-59-43-929.txt Node
Date: Thu Jul 25 15:59:43 EDT 2019
User: cochatt
Spectrometer: HR+D1059
Trigger mode: 1
Integration Time (sec): 1.000000E-1
Scans to average: 1
Electric dark correction enabled: true
Nonlinearity correction enabled: false
Boxcar width: 0
XAxis mode: Wavelengths
Number of Pixels in Spectrum: 2048
>>>>>Begin Spectral Data<<<<<
223.165	-10.06
223.4	-10.06
223.635	-10.06
223.869	-11.06
224.104	-18.06
224.338	-8.06
224.573	-13.06
224.808	-4.06
225.042	-15.06
225.277	-13.06
225.511	-19.06
225.746	-2.06
225.98	4.94
226.215	6.94
226.449	19.94
226.683	25.94
226.918	20.94
227.152	34.94
227.387	42.94
227.621	33.94
227.856	54.94
228.09	55.94
228.324	55.94
228.559	53.94
228.793	109.94
229.027	195.94
229.262	198.94
229.496	212.94
229.73	215.94
229.964	239.94
230.199	252.94
230.433	250.94
230.667	273.94
230.901	269.94
231.136	260.94
231.37	266.94
231.604	270.94
231.838	275.94
232.072	276.94
232.306	267.94
232.541	272.94
232.775	291.94
233.009	329.94
233.243	308.94
233.477	302.94
233.711	295.94
233.945	309.94
234.179	304.94
234.413	333.94
234.647	308.94
234.881	314.94
235.115	295.94
235.349	309.94
235.583	304.94
235.817	314.94
236.051	270.94
236.285	307.94
236.519	320.94
236.753	339.94
236.987	357.94
237.221	359.94
237.455	360.94
237.689	370.94
237.922	349.94
238.156	341.94
238.39	364.94
238.624	367.94
238.858	382.94
239.091	412.94
239.325	412.94
239.559	465.94
239.793	486.94
240.027	500.94
240.26	482.94
240.494	376.94
240.728	374.94
240.961	382.94
241.195	378.94
241.429	405.94
241.662	414.94
241.896	391.94
242.13	397.94
242.363	425.94
242.597	463.94
242.83	432.94
243.064	442.94
243.298	478.94
243.531	449.94
243.765	431.94
243.998	454.94
244.232	399.94
244.465	414.94
244.699	401.94
244.932	466.94
245.166	502.94
245.399	473.94
245.633	448.94
245.866	453.94
246.099	467.94
246.333	468.94
246.566	476.94
246.8	538.94
247.033	566.94
247.266	489.94
247.5	524.94
247.733	526.94
247.966	537.94
248.2	576.94
248.433	576.94
248.666	606.94
248.899	635.94
249.133	742.94
249.366	794.94
249.599	650.94
249.832	591.94
250.066	625.94
250.299	608.94
250.532	580.94
250.765	514.94
250.998	571.94
251.231	566.94
251.465	597.94
251.698	578.94
251.931	598.94
252.164	567.94
252.397	610.94
252.63	584.94
252.863	542.94
253.096	550.94
253.329	538.94
253.562	568.94
253.795	632.94
254.028	599.94
254.261	565.94
254.494	545.94
254.727	550.94
254.96	582.94
255.193	622.94
255.426	700.94
255.659	779.94
255.892	739.94
256.124	638.94
256.357	642.94
256.59	690.94
256.823	656.94
257.056	697.94
257.289	842.94
257.521	896.94
257.754	804.94
257.987	772.94
258.22	829.94
258.452	790.94
258.685	656.94
258.918	648.94
259.151	644.94
259.383	622.94
259.616	555.94
259.849	627.94
260.081	651.94
260.314	731.94
260.547	788.94
260.779	793.94
261.012	727.94
261.244	684.94
261.477	670.94
261.71	665.94
261.942	695.94
262.175	655.94
262.407	711.94
262.64	658.94
262.872	632.94
263.105	590.94
263.337	610.94
263.57	636.94
263.802	631.94
264.035	594.94
264.267	573.94
264.499	556.94
264.732	600.94
264.964	621.94
265.197	651.94
265.429	697.94
265.661	759.94
265.894	847.94
266.126	846.94
266.358	759.94
266.591	772.94
266.823	830.94
267.055	787.94
267.287	761.94
267.52	746.94
267.752	749.94
267.984	750.94
268.216	773.94
268.448	792.94
268.681	785.94
268.913	698.94
269.145	671.94
269.377	695.94
269.609	728.94
269.841	870.94
270.073	971.94
270.306	1084.94
270.538	1101.94
270.77	943.94
271.002	835.94
271.234	790.94
271.466	775.94
271.698	930.94
271.93	1032.94
272.162	1026.94
272.394	933.94
272.626	904.94
272.858	808.94
273.09	685.94
273.322	670.94
273.553	664.94
273.785	661.94
274.017	711.94
274.249	730.94
274.481	746.94
274.713	703.94
274.945	671.94
275.176	690.94
275.408	662.94
275.64	662.94
275.872	652.94
276.104	729.94
276.335	813.94
276.567	911.94
276.799	894.94
277.031	811.94
277.262	807.94
277.494	828.94
277.726	910.94
277.957	850.94
278.189	808.94
278.421	766.94
278.652	742.94
278.884	708.94
279.115	718.94
279.347	739.94
279.579	731.94
279.81	712.94
280.042	805.94
280.273	859.94
280.505	867.94
280.736	863.94
280.968	782.94
281.199	764.94
281.431	707.94
281.662	702.94
281.894	710.94
282.125	739.94
282.356	765.94
282.588	766.94
282.819	783.94
283.051	847.94
283.282	859.94
283.513	849.94
283.745	727.94
283.976	701.94
284.207	725.94
284.439	718.94
284.67	743.94
284.901	774.94
285.132	793.94
285.364	791.94
285.595	755.94
285.826	752.94
286.057	757.94
286.288	746.94
286.52	771.94
286.751	810.94
286.982	825.94
287.213	778.94
287.444	730.94
287.675	726.94
287.906	744.94
288.138	829.94
288.369	798.94
288.6	741.94
288.831	725.94
289.062	758.94
289.293	777.94
289.524	752.94
289.755	806.94
289.986	787.94
290.217	730.94
290.448	730.94
290.679	782.94
290.91	784.94
291.141	799.94
291.371	813.94
291.602	831.94
291.833	811.94
292.064	838.94
292.295	815.94
292.526	801.94
292.757	836.94
292.987	796.94
293.218	790.94
293.449	843.94
293.68	950.94
293.91	986.94
294.141	914.94
294.372	899.94
294.603	930.94
294.833	953.94
295.064	909.94
295.295	817.94
295.525	782.94
295.756	754.94
295.987	717.94
296.217	712.94
296.448	780.94
296.679	779.94
296.909	750.94
297.14	759.94
297.37	802.94
297.601	828.94
297.831	862.94
298.062	882.94
298.292	826.94
298.523	775.94
298.753	802.94
298.984	799.94
299.214	774.94
299.445	834.94
299.675	851.94
299.905	823.94
300.136	807.94
300.366	791.94
300.597	736.94
300.827	794.94
301.057	814.94
301.288	837.94
301.518	837.94
301.748	874.94
301.979	890.94
302.209	950.94
302.439	969.94
302.669	999.94
302.9	910.94
303.13	860.94
303.36	867.94
303.59	851.94
303.82	843.94
304.051	836.94
304.281	862.94
304.511	891.94
304.741	948.94
304.971	1000.94
305.201	1067.94
305.431	911.94
305.661	807.94
305.891	745.94
306.121	762.94
306.352	804.94
306.582	850.94
306.812	906.94
307.042	936.94
307.272	926.94
307.502	986.94
307.731	1048.94
307.961	1030.94
308.191	973.94
308.421	876.94
308.651	851.94
308.881	852.94
309.111	798.94
309.341	831.94
309.571	804.94
309.8	810.94
310.03	826.94
310.26	805.94
310.49	837.94
310.72	845.94
310.949	858.94
311.179	863.94
311.409	871.94
311.639	851.94
311.868	843.94
312.098	840.94
312.328	846.94
312.557	829.94
312.787	877.94
313.017	879.94
313.246	886.94
313.476	868.94
313.706	879.94
313.935	884.94
314.165	893.94
314.394	911.94
314.624	968.94
314.853	1036.94
315.083	1057.94
315.312	1063.94
315.542	988.94
315.771	887.94
316.001	902.94
316.23	950.94
316.46	935.94
316.689	911.94
316.919	902.94
317.148	854.94
317.377	883.94
317.607	939.94
317.836	1037.94
318.065	1078.94
318.295	1058.94
318.524	978.94
318.753	958.94
318.983	952.94
319.212	949.94
319.441	876.94
319.67	912.94
319.9	907.94
320.129	982.94
320.358	994.94
320.587	997.94
320.816	1037.94
321.046	983.94
321.275	970.94
321.504	972.94
321.733	1035.94
321.962	992.94
322.191	915.94
322.42	924.94
322.649	932.94
322.878	914.94
323.108	942.94
323.337	986.94
323.566	971.94
323.795	954.94
324.024	930.94
324.253	922.94
324.482	938.94
324.71	904.94
324.939	886.94
325.168	879.94
325.397	936.94
325.626	958.94
325.855	954.94
326.084	908.94
326.313	927.94
326.542	933.94
326.77	954.94
326.999	956.94
327.228	902.94
327.457	865.94
327.686	872.94
327.914	895.94
328.143	914.94
328.372	918.94
328.6	922.94
328.829	917.94
329.058	914.94
329.287	918.94
329.515	947.94
329.744	980.94
329.972	989.94
330.201	1019.94
330.43	1007.94
330.658	978.94
330.887	962.94
331.115	983.94
331.344	977.94
331.572	954.94
331.801	962.94
332.03	959.94
332.258	975.94
332.486	985.94
332.715	992.94
332.943	1022.94
333.172	982.94
333.4	1010.94
333.629	1012.94
333.857	1082.94
334.085	1168.94
334.314	1351.94
334.542	1424.94
334.771	1300.94
334.999	1127.94
335.227	1111.94
335.455	1066.94
335.684	1058.94
335.912	1068.94
336.14	1099.94
336.369	1027.94
336.597	980.94
336.825	1002.94
337.053	1036.94
337.281	1117.94
337.51	1137.94
337.738	1154.94
337.966	1053.94
338.194	1007.94
338.422	985.94
338.65	932.94
338.878	947.94
339.106	944.94
339.334	928.94
339.562	927.94
339.79	950.94
340.018	1034.94
340.246	1036.94
340.474	1026.94
340.702	1006.94
340.93	1030.94
341.158	1012.94
341.386	966.94
341.614	989.94
341.842	957.94
342.07	962.94
342.298	1007.94
342.526	968.94
342.754	981.94
342.981	960.94
343.209	990.94
343.437	955.94
343.665	1004.94
343.893	995.94
344.12	1039.94
344.348	1065.94
344.576	1010.94
344.804	962.94
345.031	958.94
345.259	973.94
345.487	943.94
345.714	910.94
345.942	902.94
346.17	895.94
346.397	912.94
346.625	916.94
346.853	861.94
347.08	869.94
347.308	911.94
347.535	906.94
347.763	950.94
347.99	929.94
348.218	904.94
348.445	902.94
348.673	939.94
348.9	957.94
349.128	976.94
349.355	1005.94
349.583	969.94
349.81	932.94
350.037	852.94
350.265	858.94
350.492	874.94
350.72	923.94
350.947	935.94
351.174	962.94
351.402	873.94
351.629	848.94
351.856	836.94
352.083	876.94
352.311	886.94
352.538	882.94
352.765	940.94
352.992	967.94
353.22	912.94
353.447	897.94
353.674	898.94
353.901	912.94
354.128	900.94
354.355	919.94
354.583	933.94
354.81	945.94
355.037	943.94
355.264	925.94
355.491	918.94
355.718	934.94
355.945	895.94
356.172	886.94
356.399	907.94
356.626	904.94
356.853	950.94
357.08	1037.94
357.307	1079.94
357.534	1065.94
357.761	925.94
357.988	882.94
358.215	824.94
358.441	898.94
358.668	888.94
358.895	903.94
359.122	958.94
359.349	1025.94
359.576	980.94
359.802	924.94
360.029	899.94
360.256	883.94
360.483	925.94
360.709	929.94
360.936	958.94
361.163	1002.94
361.39	1076.94
361.616	1162.94
361.843	1135.94
362.07	1032.94
362.296	928.94
362.523	895.94
362.749	905.94
362.976	950.94
363.203	956.94
363.429	930.94
363.656	895.94
363.882	980.94
364.109	1056.94
364.335	1096.94
364.562	1030.94
364.788	958.94
365.015	934.94
365.241	905.94
365.468	952.94
365.694	964.94
365.92	976.94
366.147	950.94
366.373	895.94
366.599	902.94
366.826	915.94
367.052	920.94
367.278	920.94
367.505	947.94
367.731	936.94
367.957	950.94
368.184	1011.94
368.41	1070.94
368.636	1114.94
368.862	1063.94
369.089	1019.94
369.315	1006.94
369.541	973.94
369.767	947.94
369.993	924.94
370.219	926.94
370.445	955.94
370.672	1039.94
370.898	1087.94
371.124	1038.94
371.35	1004.94
371.576	1004.94
371.802	1026.94
372.028	985.94
372.254	959.94
372.48	944.94
372.706	963.94
372.932	919.94
373.158	948.94
373.384	976.94
373.61	1011.94
373.835	1031.94
374.061	962.94
374.287	1002.94
374.513	994.94
374.739	979.94
374.965	965.94
375.191	991.94
375.416	986.94
375.642	1024.94
375.868	1087.94
376.094	1118.94
376.319	1055.94
376.545	1000.94
376.771	1041.94
376.997	1084.94
377.222	1043.94
377.448	1032.94
377.674	1034.94
377.899	1045.94
378.125	1104.94
378.35	1096.94
378.576	962.94
378.802	948.94
379.027	974.94
379.253	960.94
379.478	976.94
379.704	957.94
379.929	973.94
380.155	985.94
380.38	990.94
380.606	992.94
380.831	997.94
381.057	1080.94
381.282	1074.94
381.507	1042.94
381.733	1128.94
381.958	1136.94
382.184	1056.94
382.409	1006.94
382.634	1011.94
382.86	1025.94
383.085	1061.94
383.31	1078.94
383.535	1155.94
383.761	1215.94
383.986	1154.94
384.211	1096.94
384.436	1114.94
384.662	1185.94
384.887	1204.94
385.112	1160.94
385.337	1113.94
385.562	1108.94
385.787	1104.94
386.013	1149.94
386.238	1151.94
386.463	1161.94
386.688	1252.94
386.913	1294.94
387.138	1242.94
387.363	1165.94
387.588	1147.94
387.813	1184.94
388.038	1179.94
388.263	1198.94
388.488	1150.94
388.713	1103.94
388.938	1109.94
389.163	1101.94
389.387	1128.94
389.612	1098.94
389.837	1134.94
390.062	1137.94
390.287	1140.94
390.512	1154.94
390.736	1115.94
390.961	1104.94
391.186	1065.94
391.411	1103.94
391.636	1118.94
391.86	1128.94
392.085	1114.94
392.31	1103.94
392.534	1126.94
392.759	1125.94
392.984	1137.94
393.208	1171.94
393.433	1161.94
393.658	1230.94
393.882	1194.94
394.107	1120.94
394.331	1172.94
394.556	1127.94
394.78	1180.94
395.005	1215.94
395.229	1238.94
395.454	1294.94
395.678	1280.94
395.903	1248.94
396.127	1227.94
396.352	1218.94
396.576	1253.94
396.801	1244.94
397.025	1238.94
397.249	1211.94
397.474	1221.94
397.698	1200.94
397.922	1242.94
398.147	1334.94
398.371	1322.94
398.595	1318.94
398.82	1298.94
399.044	1327.94
399.268	1388.94
399.492	1465.94
399.717	1468.94
399.941	1494.94
400.165	1446.94
400.389	1445.94
400.613	1473.94
400.837	1655.94
401.062	1805.94
401.286	1526.94
401.51	1434.94
401.734	1437.94
401.958	1429.94
402.182	1344.94
402.406	1293.94
402.63	1278.94
402.854	1263.94
403.078	1309.94
403.302	1294.94
403.526	1324.94
403.75	1318.94
403.974	1370.94
404.198	1334.94
404.422	1420.94
404.645	1526.94
404.869	1438.94
405.093	1327.94
405.317	1308.94
405.541	1348.94
405.765	1366.94
405.988	1348.94
406.212	1366.94
406.436	1380.94
406.66	1432.94
406.883	1448.94
407.107	1656.94
407.331	1803.94
407.555	1907.94
407.778	1710.94
408.002	1412.94
408.226	1406.94
408.449	1444.94
408.673	1386.94
408.896	1373.94
409.12	1404.94
409.344	1370.94
409.567	1319.94
409.791	1389.94
410.014	1397.94
410.238	1503.94
410.461	1532.94
410.685	1390.94
410.908	1346.94
411.132	1363.94
411.355	1325.94
411.578	1332.94
411.802	1364.94
412.025	1353.94
412.249	1300.94
412.472	1288.94
412.695	1301.94
412.919	1290.94
413.142	1298.94
413.365	1309.94
413.589	1363.94
413.812	1414.94
414.035	1410.94
414.258	1343.94
414.482	1294.94
414.705	1298.94
414.928	1288.94
415.151	1278.94
415.374	1287.94
415.597	1314.94
415.821	1320.94
416.044	1333.94
416.267	1352.94
416.49	1288.94
416.713	1266.94
416.936	1339.94
417.159	1357.94
417.382	1357.94
417.605	1293.94
417.828	1303.94
418.051	1310.94
418.274	1316.94
418.497	1298.94
418.72	1313.94
418.943	1266.94
419.166	1310.94
419.389	1382.94
419.611	1328.94
419.834	1284.94
420.057	1321.94
420.28	1294.94
420.503	1282.94
420.726	1341.94
420.948	1272.94
421.171	1251.94
421.394	1284.94
421.617	1307.94
421.839	1328.94
422.062	1308.94
422.285	1317.94
422.507	1295.94
422.73	1250.94
422.953	1239.94
423.175	1193.94
423.398	1272.94
423.621	1288.94
423.843	1293.94
424.066	1305.94
424.288	1388.94
424.511	1410.94
424.733	1352.94
424.956	1256.94
425.178	1237.94
425.401	1258.94
425.623	1269.94
425.846	1238.94
426.068	1306.94
426.291	1325.94
426.513	1327.94
426.735	1350.94
426.958	1448.94
427.18	1470.94
427.402	1360.94
427.625	1422.94
427.847	1375.94
428.069	1292.94
428.292	1237.94
428.514	1226.94
428.736	1222.94
428.958	1211.94
429.181	1255.94
429.403	1440.94
429.625	1754.94
429.847	1474.94
430.069	1290.94
430.292	1440.94
430.514	1455.94
430.736	1338.94
430.958	1380.94
431.18	1282.94
431.402	1231.94
431.624	1215.94
431.846	1175.94
432.068	1140.94
432.29	1171.94
432.512	1195.94
432.734	1268.94
432.956	1263.94
433.178	1303.94
433.4	1327.94
433.622	1297.94
433.844	1242.94
434.066	1224.94
434.287	1178.94
434.509	1218.94
434.731	1274.94
434.953	1379.94
435.175	1334.94
435.397	1287.94
435.618	1278.94
435.84	1251.94
436.062	1257.94
436.284	1258.94
436.505	1276.94
436.727	1294.94
436.949	1279.94
437.17	1243.94
437.392	1222.94
437.614	1213.94
437.835	1178.94
438.057	1199.94
438.278	1248.94
438.5	1210.94
438.721	1208.94
438.943	1260.94
439.165	1223.94
439.386	1226.94
439.608	1257.94
439.829	1254.94
440.05	1230.94
440.272	1244.94
440.493	1216.94
440.715	1264.94
440.936	1349.94
441.158	1428.94
441.379	1383.94
441.6	1386.94
441.822	1350.94
442.043	1332.94
442.264	1308.94
442.486	1271.94
442.707	1259.94
442.928	1245.94
443.149	1288.94
443.371	1342.94
443.592	1412.94
443.813	1384.94
444.034	1353.94
444.255	1380.94
444.476	1391.94
444.698	1435.94
444.919	1395.94
445.14	1506.94
445.361	1487.94
445.582	1464.94
445.803	1398.94
446.024	1390.94
446.245	1395.94
446.466	1376.94
446.687	1332.94
446.908	1357.94
447.129	1286.94
447.35	1275.94
447.571	1282.94
447.792	1250.94
448.013	1222.94
448.234	1265.94
448.455	1343.94
448.675	1297.94
448.896	1183.94
449.117	1189.94
449.338	1232.94
449.559	1275.94
449.779	1321.94
450	1377.94
450.221	1428.94
450.442	1428.94
450.662	1285.94
450.883	1190.94
451.104	1183.94
451.324	1191.94
451.545	1164.94
451.766	1158.94
451.986	1122.94
452.207	1140.94
452.428	1108.94
452.648	1086.94
452.869	1091.94
453.089	1124.94
453.31	1120.94
453.53	1186.94
453.751	1145.94
453.971	1090.94
454.192	1063.94
454.412	1112.94
454.633	1158.94
454.853	1106.94
455.073	1043.94
455.294	1038.94
455.514	1067.94
455.734	1086.94
455.955	1065.94
456.175	1084.94
456.395	1063.94
456.616	1048.94
456.836	1067.94
457.056	1076.94
457.276	1086.94
457.497	1049.94
457.717	1028.94
457.937	1030.94
458.157	1067.94
458.377	1036.94
458.598	1000.94
458.818	1036.94
459.038	1102.94
459.258	1112.94
459.478	1119.94
459.698	1121.94
459.918	1147.94
460.138	1214.94
460.358	1215.94
460.578	1228.94
460.798	1302.94
461.018	1347.94
461.238	1314.94
461.458	1272.94
461.678	1235.94
461.898	1238.94
462.118	1199.94
462.338	1255.94
462.558	1263.94
462.777	1273.94
462.997	1315.94
463.217	1356.94
463.437	1314.94
463.657	1283.94
463.876	1270.94
464.096	1252.94
464.316	1244.94
464.536	1318.94
464.755	1313.94
464.975	1303.94
465.195	1223.94
465.414	1312.94
465.634	1272.94
465.854	1293.94
466.073	1417.94
466.293	1330.94
466.512	1195.94
466.732	1218.94
466.951	1210.94
467.171	1219.94
467.391	1225.94
467.61	1196.94
467.829	1237.94
468.049	1322.94
468.268	1448.94
468.488	1347.94
468.707	1248.94
468.927	1232.94
469.146	1182.94
469.365	1205.94
469.585	1249.94
469.804	1220.94
470.023	1218.94
470.243	1231.94
470.462	1237.94
470.681	1192.94
470.901	1224.94
471.12	1208.94
471.339	1221.94
471.558	1175.94
471.777	1170.94
471.997	1198.94
472.216	1174.94
472.435	1154.94
472.654	1148.94
472.873	1182.94
473.092	1197.94
473.311	1183.94
473.53	1125.94
473.749	1161.94
473.968	1165.94
474.187	1218.94
474.406	1228.94
474.625	1214.94
474.844	1216.94
475.063	1204.94
475.282	1222.94
475.501	1192.94
475.72	1206.94
475.939	1283.94
476.158	1240.94
476.377	1199.94
476.596	1193.94
476.814	1218.94
477.033	1208.94
477.252	1256.94
477.471	1303.94
477.69	1266.94
477.908	1293.94
478.127	1328.94
478.346	1410.94
478.564	1418.94
478.783	1407.94
479.002	1420.94
479.22	1431.94
479.439	1450.94
479.658	1564.94
479.876	1487.94
480.095	1366.94
480.313	1350.94
480.532	1336.94
480.751	1319.94
480.969	1310.94
481.188	1266.94
481.406	1226.94
481.624	1219.94
481.843	1227.94
482.061	1254.94
482.28	1320.94
482.498	1338.94
482.717	1331.94
482.935	1296.94
483.153	1370.94
483.372	1386.94
483.59	1345.94
483.808	1355.94
484.027	1365.94
484.245	1400.94
484.463	1706.94
484.681	1877.94
484.9	1469.94
485.118	1388.94
485.336	1371.94
485.554	1353.94
485.772	1360.94
485.99	1394.94
486.209	1398.94
486.427	1352.94
486.645	1396.94
486.863	1407.94
487.081	1447.94
487.299	1472.94
487.517	1439.94
487.735	1468.94
487.953	1472.94
488.171	1503.94
488.389	1452.94
488.607	1444.94
488.825	1601.94
489.043	1538.94
489.261	1394.94
489.479	1437.94
489.696	1478.94
489.914	1414.94
490.132	1402.94
490.35	1424.94
490.568	1524.94
490.786	1522.94
491.003	1494.94
491.221	1562.94
491.439	1617.94
491.657	1598.94
491.874	1584.94
492.092	1674.94
492.31	1684.94
492.527	1655.94
492.745	1583.94
492.963	1566.94
493.18	1613.94
493.398	1709.94
493.615	1676.94
493.833	1611.94
