Data from WStandard_LampEnergy8_LIBS07252019.E.O._I.C._HRD10591_16-00-12-930.txt Node
Date: Thu Jul 25 16:00:12 EDT 2019
User: cochatt
Spectrometer: HR+D1059
Trigger mode: 1
Integration Time (sec): 1.000000E-1
Scans to average: 1
Electric dark correction enabled: true
Nonlinearity correction enabled: false
Boxcar width: 0
XAxis mode: Wavelengths
Number of Pixels in Spectrum: 2048
>>>>>Begin Spectral Data<<<<<
223.165	-14.88
223.4	-14.88
223.635	-14.88
223.869	-10.88
224.104	-14.88
224.338	-10.88
224.573	-12.88
224.808	-26.88
225.042	-4.88
225.277	5.12
225.511	-1.88
225.746	8.12
225.98	16.12
226.215	7.12
226.449	14.12
226.683	11.12
226.918	16.12
227.152	20.12
227.387	42.12
227.621	37.12
227.856	35.12
228.09	43.12
228.324	47.12
228.559	42.12
228.793	87.12
229.027	204.12
229.262	202.12
229.496	213.12
229.73	198.12
229.964	240.12
230.199	260.12
230.433	267.12
230.667	286.12
230.901	266.12
231.136	274.12
231.37	252.12
231.604	250.12
231.838	270.12
232.072	261.12
232.306	265.12
232.541	268.12
232.775	299.12
233.009	326.12
233.243	308.12
233.477	282.12
233.711	296.12
233.945	301.12
234.179	306.12
234.413	331.12
234.647	335.12
234.881	318.12
235.115	287.12
235.349	292.12
235.583	298.12
235.817	300.12
236.051	293.12
236.285	306.12
236.519	320.12
236.753	328.12
236.987	352.12
237.221	359.12
237.455	363.12
237.689	367.12
237.922	346.12
238.156	334.12
238.39	331.12
238.624	372.12
238.858	384.12
239.091	379.12
239.325	410.12
239.559	440.12
239.793	479.12
240.027	502.12
240.26	490.12
240.494	362.12
240.728	373.12
240.961	372.12
241.195	394.12
241.429	394.12
241.662	402.12
241.896	383.12
242.13	393.12
242.363	446.12
242.597	460.12
242.83	442.12
243.064	449.12
243.298	466.12
243.531	445.12
243.765	454.12
243.998	433.12
244.232	402.12
244.465	411.12
244.699	399.12
244.932	426.12
245.166	486.12
245.399	491.12
245.633	453.12
245.866	462.12
246.099	471.12
246.333	483.12
246.566	496.12
246.8	535.12
247.033	564.12
247.266	546.12
247.5	498.12
247.733	551.12
247.966	548.12
248.2	611.12
248.433	580.12
248.666	595.12
248.899	647.12
249.133	736.12
249.366	784.12
249.599	662.12
249.832	610.12
250.066	574.12
250.299	624.12
250.532	575.12
250.765	535.12
250.998	552.12
251.231	565.12
251.465	593.12
251.698	564.12
251.931	585.12
252.164	590.12
252.397	607.12
252.63	608.12
252.863	545.12
253.096	532.12
253.329	585.12
253.562	562.12
253.795	600.12
254.028	590.12
254.261	558.12
254.494	568.12
254.727	545.12
254.96	558.12
255.193	601.12
255.426	712.12
255.659	772.12
255.892	779.12
256.124	682.12
256.357	645.12
256.59	688.12
256.823	674.12
257.056	694.12
257.289	810.12
257.521	871.12
257.754	792.12
257.987	780.12
258.22	822.12
258.452	808.12
258.685	680.12
258.918	679.12
259.151	666.12
259.383	611.12
259.616	583.12
259.849	615.12
260.081	691.12
260.314	773.12
260.547	825.12
260.779	817.12
261.012	734.12
261.244	670.12
261.477	650.12
261.71	653.12
261.942	668.12
262.175	660.12
262.407	683.12
262.64	658.12
262.872	648.12
263.105	612.12
263.337	616.12
263.57	624.12
263.802	618.12
264.035	581.12
264.267	583.12
264.499	545.12
264.732	612.12
264.964	655.12
265.197	658.12
265.429	673.12
265.661	763.12
265.894	818.12
266.126	840.12
266.358	778.12
266.591	815.12
266.823	849.12
267.055	789.12
267.287	760.12
267.52	729.12
267.752	741.12
267.984	771.12
268.216	820.12
268.448	816.12
268.681	752.12
268.913	699.12
269.145	694.12
269.377	683.12
269.609	736.12
269.841	863.12
270.073	995.12
270.306	1080.12
270.538	1101.12
270.77	932.12
271.002	851.12
271.234	821.12
271.466	812.12
271.698	900.12
271.93	1054.12
272.162	999.12
272.394	926.12
272.626	891.12
272.858	792.12
273.09	686.12
273.322	688.12
273.553	671.12
273.785	691.12
274.017	718.12
274.249	744.12
274.481	744.12
274.713	690.12
274.945	692.12
275.176	719.12
275.408	677.12
275.64	690.12
275.872	666.12
276.104	734.12
276.335	824.12
276.567	921.12
276.799	904.12
277.031	818.12
277.262	822.12
277.494	815.12
277.726	892.12
277.957	892.12
278.189	806.12
278.421	752.12
278.652	729.12
278.884	737.12
279.115	730.12
279.347	735.12
279.579	708.12
279.81	738.12
280.042	803.12
280.273	862.12
280.505	853.12
280.736	872.12
280.968	803.12
281.199	761.12
281.431	703.12
281.662	699.12
281.894	722.12
282.125	728.12
282.356	750.12
282.588	776.12
282.819	790.12
283.051	834.12
283.282	874.12
283.513	855.12
283.745	721.12
283.976	719.12
284.207	709.12
284.439	732.12
284.67	754.12
284.901	753.12
285.132	776.12
285.364	777.12
285.595	771.12
285.826	759.12
286.057	723.12
286.288	764.12
286.52	771.12
286.751	820.12
286.982	845.12
287.213	757.12
287.444	733.12
287.675	751.12
287.906	779.12
288.138	830.12
288.369	789.12
288.6	728.12
288.831	716.12
289.062	725.12
289.293	745.12
289.524	779.12
289.755	792.12
289.986	792.12
290.217	707.12
290.448	727.12
290.679	768.12
290.91	775.12
291.141	791.12
291.371	818.12
291.602	789.12
291.833	809.12
292.064	827.12
292.295	827.12
292.526	816.12
292.757	861.12
292.987	792.12
293.218	804.12
293.449	875.12
293.68	954.12
293.91	995.12
294.141	932.12
294.372	916.12
294.603	973.12
294.833	967.12
295.064	895.12
295.295	804.12
295.525	789.12
295.756	723.12
295.987	704.12
296.217	754.12
296.448	745.12
296.679	778.12
296.909	772.12
297.14	747.12
297.37	792.12
297.601	831.12
297.831	877.12
298.062	878.12
298.292	803.12
298.523	788.12
298.753	786.12
298.984	766.12
299.214	792.12
299.445	820.12
299.675	830.12
299.905	822.12
300.136	779.12
300.366	762.12
300.597	761.12
300.827	779.12
301.057	800.12
301.288	851.12
301.518	822.12
301.748	870.12
301.979	892.12
302.209	926.12
302.439	972.12
302.669	988.12
302.9	918.12
303.13	858.12
303.36	857.12
303.59	853.12
303.82	846.12
304.051	849.12
304.281	849.12
304.511	869.12
304.741	947.12
304.971	1020.12
305.201	1080.12
305.431	950.12
305.661	822.12
305.891	755.12
306.121	786.12
306.352	802.12
306.582	867.12
306.812	901.12
307.042	908.12
307.272	937.12
307.502	1003.12
307.731	1038.12
307.961	1067.12
308.191	974.12
308.421	854.12
308.651	849.12
308.881	858.12
309.111	819.12
309.341	822.12
309.571	850.12
309.8	828.12
310.03	793.12
310.26	827.12
310.49	820.12
310.72	864.12
310.949	920.12
311.179	886.12
311.409	842.12
311.639	845.12
311.868	833.12
312.098	817.12
312.328	867.12
312.557	847.12
312.787	859.12
313.017	847.12
313.246	858.12
313.476	860.12
313.706	865.12
313.935	857.12
314.165	881.12
314.394	914.12
314.624	958.12
314.853	1032.12
315.083	1052.12
315.312	1068.12
315.542	972.12
315.771	927.12
316.001	899.12
316.23	928.12
316.46	934.12
316.689	950.12
316.919	881.12
317.148	864.12
317.377	888.12
317.607	969.12
317.836	1059.12
318.065	1038.12
318.295	999.12
318.524	955.12
318.753	954.12
318.983	936.12
319.212	939.12
319.441	888.12
319.67	901.12
319.9	932.12
320.129	987.12
320.358	995.12
320.587	1052.12
320.816	1046.12
321.046	1016.12
321.275	945.12
321.504	978.12
321.733	1041.12
321.962	1016.12
322.191	926.12
322.42	910.12
322.649	894.12
322.878	904.12
323.108	936.12
323.337	943.12
323.566	935.12
323.795	956.12
324.024	918.12
324.253	942.12
324.482	929.12
324.71	905.12
324.939	872.12
325.168	904.12
325.397	922.12
325.626	935.12
325.855	928.12
326.084	942.12
326.313	949.12
326.542	954.12
326.77	969.12
326.999	991.12
327.228	924.12
327.457	844.12
327.686	857.12
327.914	890.12
328.143	916.12
328.372	918.12
328.6	906.12
328.829	901.12
329.058	871.12
329.287	926.12
329.515	917.12
329.744	931.12
329.972	983.12
330.201	1028.12
330.43	1007.12
330.658	962.12
330.887	987.12
331.115	985.12
331.344	977.12
331.572	970.12
331.801	975.12
332.03	991.12
332.258	958.12
332.486	987.12
332.715	1003.12
332.943	993.12
333.172	997.12
333.4	1012.12
333.629	1031.12
333.857	1109.12
334.085	1215.12
334.314	1386.12
334.542	1383.12
334.771	1286.12
334.999	1138.12
335.227	1091.12
335.455	1076.12
335.684	1063.12
335.912	1072.12
336.14	1137.12
336.369	1037.12
336.597	982.12
336.825	1002.12
337.053	1028.12
337.281	1060.12
337.51	1152.12
337.738	1131.12
337.966	1094.12
338.194	997.12
338.422	987.12
338.65	971.12
338.878	949.12
339.106	955.12
339.334	935.12
339.562	915.12
339.79	972.12
340.018	990.12
340.246	1047.12
340.474	1031.12
340.702	968.12
340.93	1001.12
341.158	993.12
341.386	975.12
341.614	960.12
341.842	995.12
342.07	970.12
342.298	1009.12
342.526	998.12
342.754	978.12
342.981	956.12
343.209	965.12
343.437	932.12
343.665	980.12
343.893	980.12
344.12	1056.12
344.348	1059.12
344.576	1011.12
344.804	978.12
345.031	983.12
345.259	951.12
345.487	967.12
345.714	917.12
345.942	887.12
346.17	927.12
346.397	903.12
346.625	906.12
346.853	857.12
347.08	869.12
347.308	893.12
347.535	894.12
347.763	915.12
347.99	916.12
348.218	872.12
348.445	892.12
348.673	940.12
348.9	930.12
349.128	967.12
349.355	986.12
349.583	967.12
349.81	916.12
350.037	875.12
350.265	848.12
350.492	880.12
350.72	906.12
350.947	930.12
351.174	949.12
351.402	897.12
351.629	846.12
351.856	856.12
352.083	838.12
352.311	878.12
352.538	894.12
352.765	924.12
352.992	962.12
353.22	894.12
353.447	874.12
353.674	886.12
353.901	942.12
354.128	891.12
354.355	898.12
354.583	941.12
354.81	968.12
355.037	949.12
355.264	938.12
355.491	932.12
355.718	927.12
355.945	894.12
356.172	870.12
356.399	884.12
356.626	872.12
356.853	940.12
357.08	1012.12
357.307	1094.12
357.534	1067.12
357.761	952.12
357.988	892.12
358.215	851.12
358.441	856.12
358.668	891.12
358.895	918.12
359.122	982.12
359.349	1037.12
359.576	1006.12
359.802	903.12
360.029	884.12
360.256	879.12
360.483	930.12
360.709	950.12
360.936	973.12
361.163	990.12
361.39	1072.12
361.616	1156.12
361.843	1156.12
362.07	1060.12
362.296	938.12
362.523	933.12
362.749	931.12
362.976	956.12
363.203	956.12
363.429	903.12
363.656	909.12
363.882	939.12
364.109	1035.12
364.335	1090.12
364.562	1010.12
364.788	942.12
365.015	906.12
365.241	891.12
365.468	919.12
365.694	979.12
365.92	985.12
366.147	985.12
366.373	865.12
366.599	876.12
366.826	882.12
367.052	869.12
367.278	883.12
367.505	922.12
367.731	959.12
367.957	951.12
368.184	952.12
368.41	995.12
368.636	1059.12
368.862	1051.12
369.089	1034.12
369.315	983.12
369.541	950.12
369.767	944.12
369.993	914.12
370.219	946.12
370.445	970.12
370.672	1039.12
370.898	1036.12
371.124	1034.12
371.35	1014.12
371.576	1018.12
371.802	1058.12
372.028	969.12
372.254	963.12
372.48	935.12
372.706	911.12
372.932	939.12
373.158	952.12
373.384	972.12
373.61	982.12
373.835	1032.12
374.061	992.12
374.287	979.12
374.513	983.12
374.739	939.12
374.965	1027.12
375.191	999.12
375.416	1001.12
375.642	1010.12
375.868	1062.12
376.094	1066.12
376.319	1049.12
376.545	1010.12
376.771	999.12
376.997	1060.12
377.222	1027.12
377.448	1035.12
377.674	1027.12
377.899	1018.12
378.125	1080.12
378.35	1053.12
378.576	1008.12
378.802	956.12
379.027	946.12
379.253	973.12
379.478	990.12
379.704	983.12
379.929	974.12
380.155	970.12
380.38	988.12
380.606	1002.12
380.831	1006.12
381.057	1067.12
381.282	1055.12
381.507	1049.12
381.733	1104.12
381.958	1129.12
382.184	1059.12
382.409	994.12
382.634	1017.12
382.86	1014.12
383.085	1053.12
383.31	1074.12
383.535	1179.12
383.761	1218.12
383.986	1166.12
384.211	1116.12
384.436	1120.12
384.662	1180.12
384.887	1149.12
385.112	1121.12
385.337	1111.12
385.562	1140.12
385.787	1122.12
386.013	1152.12
386.238	1136.12
386.463	1165.12
386.688	1209.12
386.913	1269.12
387.138	1239.12
387.363	1154.12
387.588	1142.12
387.813	1157.12
388.038	1204.12
388.263	1216.12
388.488	1148.12
388.713	1102.12
388.938	1082.12
389.163	1113.12
389.387	1108.12
389.612	1107.12
389.837	1130.12
390.062	1150.12
390.287	1160.12
390.512	1119.12
390.736	1094.12
390.961	1072.12
391.186	1109.12
391.411	1083.12
391.636	1125.12
391.86	1136.12
392.085	1110.12
392.31	1101.12
392.534	1125.12
392.759	1138.12
392.984	1156.12
393.208	1146.12
393.433	1179.12
393.658	1225.12
393.882	1215.12
394.107	1131.12
394.331	1135.12
394.556	1128.12
394.78	1156.12
395.005	1222.12
395.229	1243.12
395.454	1289.12
395.678	1275.12
395.903	1183.12
396.127	1183.12
396.352	1191.12
396.576	1254.12
396.801	1232.12
397.025	1216.12
397.249	1238.12
397.474	1215.12
397.698	1206.12
397.922	1238.12
398.147	1328.12
398.371	1354.12
398.595	1308.12
398.82	1274.12
399.044	1296.12
399.268	1369.12
399.492	1432.12
399.717	1484.12
399.941	1488.12
400.165	1472.12
400.389	1427.12
400.613	1410.12
400.837	1650.12
401.062	1764.12
401.286	1510.12
401.51	1437.12
401.734	1467.12
401.958	1369.12
402.182	1346.12
402.406	1295.12
402.63	1288.12
402.854	1302.12
403.078	1274.12
403.302	1322.12
403.526	1346.12
403.75	1314.12
403.974	1348.12
404.198	1357.12
404.422	1434.12
404.645	1470.12
404.869	1415.12
405.093	1340.12
405.317	1311.12
405.541	1344.12
405.765	1358.12
405.988	1344.12
406.212	1353.12
406.436	1372.12
406.66	1460.12
406.883	1481.12
407.107	1672.12
407.331	1786.12
407.555	1914.12
407.778	1646.12
408.002	1437.12
408.226	1394.12
408.449	1400.12
408.673	1401.12
408.896	1364.12
409.12	1376.12
409.344	1368.12
409.567	1335.12
409.791	1336.12
410.014	1379.12
410.238	1445.12
410.461	1510.12
410.685	1379.12
410.908	1294.12
411.132	1351.12
411.355	1356.12
411.578	1313.12
411.802	1360.12
412.025	1353.12
412.249	1329.12
412.472	1308.12
412.695	1330.12
412.919	1298.12
413.142	1314.12
413.365	1302.12
413.589	1327.12
413.812	1398.12
414.035	1403.12
414.258	1347.12
414.482	1290.12
414.705	1296.12
414.928	1340.12
415.151	1272.12
415.374	1294.12
415.597	1310.12
415.821	1367.12
416.044	1349.12
416.267	1330.12
416.49	1291.12
416.713	1280.12
416.936	1307.12
417.159	1351.12
417.382	1370.12
417.605	1318.12
417.828	1289.12
418.051	1327.12
418.274	1310.12
418.497	1272.12
418.72	1296.12
418.943	1275.12
419.166	1319.12
419.389	1369.12
419.611	1282.12
419.834	1273.12
420.057	1305.12
420.28	1275.12
420.503	1282.12
420.726	1310.12
420.948	1290.12
421.171	1253.12
421.394	1286.12
421.617	1324.12
421.839	1322.12
422.062	1296.12
422.285	1307.12
422.507	1253.12
422.73	1264.12
422.953	1213.12
423.175	1214.12
423.398	1248.12
423.621	1251.12
423.843	1277.12
424.066	1351.12
424.288	1386.12
424.511	1381.12
424.733	1355.12
424.956	1255.12
425.178	1274.12
425.401	1266.12
425.623	1294.12
425.846	1250.12
426.068	1326.12
426.291	1330.12
426.513	1304.12
426.735	1317.12
426.958	1439.12
427.18	1468.12
427.402	1330.12
427.625	1401.12
427.847	1362.12
428.069	1256.12
428.292	1242.12
428.514	1232.12
428.736	1243.12
428.958	1239.12
429.181	1274.12
429.403	1444.12
429.625	1696.12
429.847	1432.12
430.069	1278.12
430.292	1413.12
430.514	1468.12
430.736	1336.12
430.958	1362.12
431.18	1279.12
431.402	1214.12
431.624	1177.12
431.846	1144.12
432.068	1115.12
432.29	1147.12
432.512	1164.12
432.734	1252.12
432.956	1264.12
433.178	1328.12
433.4	1336.12
433.622	1306.12
433.844	1266.12
434.066	1205.12
434.287	1185.12
434.509	1222.12
434.731	1303.12
434.953	1350.12
435.175	1346.12
435.397	1296.12
435.618	1249.12
435.84	1237.12
436.062	1206.12
436.284	1264.12
436.505	1281.12
436.727	1310.12
436.949	1254.12
437.17	1226.12
437.392	1222.12
437.614	1178.12
437.835	1183.12
438.057	1188.12
438.278	1236.12
438.5	1225.12
438.721	1210.12
438.943	1198.12
439.165	1238.12
439.386	1240.12
439.608	1238.12
439.829	1224.12
440.05	1280.12
440.272	1240.12
440.493	1239.12
440.715	1258.12
440.936	1331.12
441.158	1436.12
441.379	1374.12
441.6	1366.12
441.822	1355.12
442.043	1344.12
442.264	1314.12
442.486	1243.12
442.707	1273.12
442.928	1291.12
443.149	1299.12
443.371	1370.12
443.592	1327.12
443.813	1339.12
444.034	1333.12
444.255	1339.12
444.476	1349.12
444.698	1360.12
444.919	1399.12
445.14	1458.12
445.361	1460.12
445.582	1454.12
445.803	1425.12
446.024	1340.12
446.245	1385.12
446.466	1364.12
446.687	1330.12
446.908	1312.12
447.129	1278.12
447.35	1302.12
447.571	1285.12
447.792	1257.12
448.013	1193.12
448.234	1267.12
448.455	1298.12
448.675	1313.12
448.896	1212.12
449.117	1194.12
449.338	1216.12
449.559	1269.12
449.779	1322.12
450	1412.12
450.221	1464.12
450.442	1400.12
450.662	1223.12
450.883	1173.12
451.104	1162.12
451.324	1183.12
451.545	1215.12
451.766	1170.12
451.986	1123.12
452.207	1127.12
452.428	1096.12
452.648	1070.12
452.869	1090.12
453.089	1137.12
453.31	1137.12
453.53	1155.12
453.751	1101.12
453.971	1095.12
454.192	1065.12
454.412	1128.12
454.633	1131.12
454.853	1106.12
455.073	1052.12
455.294	1046.12
455.514	1076.12
455.734	1092.12
455.955	1079.12
456.175	1076.12
456.395	1067.12
456.616	1096.12
456.836	1078.12
457.056	1056.12
457.276	1078.12
457.497	1040.12
457.717	1024.12
457.937	1061.12
458.157	1065.12
458.377	1050.12
458.598	1038.12
458.818	1026.12
459.038	1124.12
459.258	1141.12
459.478	1146.12
459.698	1074.12
459.918	1170.12
460.138	1203.12
460.358	1234.12
460.578	1232.12
460.798	1280.12
461.018	1347.12
461.238	1303.12
461.458	1264.12
461.678	1248.12
461.898	1210.12
462.118	1199.12
462.338	1242.12
462.558	1280.12
462.777	1258.12
462.997	1301.12
463.217	1366.12
463.437	1286.12
463.657	1304.12
463.876	1262.12
464.096	1240.12
464.316	1261.12
464.536	1283.12
464.755	1276.12
464.975	1268.12
465.195	1248.12
465.414	1283.12
465.634	1298.12
465.854	1236.12
466.073	1339.12
466.293	1334.12
466.512	1217.12
466.732	1195.12
466.951	1259.12
467.171	1203.12
467.391	1178.12
467.61	1176.12
467.829	1219.12
468.049	1298.12
468.268	1444.12
468.488	1303.12
468.707	1261.12
468.927	1237.12
469.146	1220.12
469.365	1192.12
469.585	1208.12
469.804	1210.12
470.023	1213.12
470.243	1227.12
470.462	1238.12
470.681	1204.12
470.901	1203.12
471.12	1198.12
471.339	1219.12
471.558	1179.12
471.777	1163.12
471.997	1185.12
472.216	1152.12
472.435	1097.12
472.654	1106.12
472.873	1148.12
473.092	1236.12
473.311	1196.12
473.53	1106.12
473.749	1145.12
473.968	1176.12
474.187	1219.12
474.406	1228.12
474.625	1200.12
474.844	1178.12
475.063	1183.12
475.282	1219.12
475.501	1178.12
475.72	1178.12
475.939	1267.12
476.158	1243.12
476.377	1203.12
476.596	1219.12
476.814	1197.12
477.033	1192.12
477.252	1239.12
477.471	1302.12
477.69	1249.12
477.908	1262.12
478.127	1332.12
478.346	1426.12
478.564	1400.12
478.783	1392.12
479.002	1379.12
479.22	1409.12
479.439	1439.12
479.658	1566.12
479.876	1517.12
480.095	1356.12
480.313	1352.12
480.532	1290.12
480.751	1293.12
480.969	1302.12
481.188	1270.12
481.406	1250.12
481.624	1209.12
481.843	1241.12
482.061	1319.12
482.28	1357.12
482.498	1330.12
482.717	1312.12
482.935	1270.12
483.153	1372.12
483.372	1340.12
483.59	1352.12
483.808	1337.12
484.027	1343.12
484.245	1443.12
484.463	1728.12
484.681	1848.12
484.9	1448.12
485.118	1383.12
485.336	1299.12
485.554	1360.12
485.772	1399.12
485.99	1370.12
486.209	1360.12
486.427	1376.12
486.645	1369.12
486.863	1407.12
487.081	1460.12
487.299	1485.12
487.517	1462.12
487.735	1463.12
487.953	1491.12
488.171	1466.12
488.389	1450.12
488.607	1456.12
488.825	1612.12
489.043	1512.12
489.261	1405.12
489.479	1488.12
489.696	1464.12
489.914	1463.12
490.132	1427.12
490.35	1481.12
490.568	1522.12
490.786	1491.12
491.003	1455.12
491.221	1538.12
491.439	1604.12
491.657	1578.12
491.874	1618.12
492.092	1675.12
492.31	1698.12
492.527	1628.12
492.745	1642.12
492.963	1613.12
493.18	1595.12
493.398	1669.12
493.615	1699.12
493.833	1614.12
