Data from WStandard_LampEnergy5.5LIBS07252019.E.O._I.C._HRD10591_16-06-52-920.txt Node
Date: Thu Jul 25 16:06:52 EDT 2019
User: cochatt
Spectrometer: HR+D1059
Trigger mode: 1
Integration Time (sec): 1.000000E-1
Scans to average: 1
Electric dark correction enabled: true
Nonlinearity correction enabled: false
Boxcar width: 0
XAxis mode: Wavelengths
Number of Pixels in Spectrum: 2048
>>>>>Begin Spectral Data<<<<<
223.165	-13.44
223.4	-13.44
223.635	-13.44
223.869	-15.44
224.104	-27.44
224.338	-12.44
224.573	-14.44
224.808	-10.44
225.042	-4.44
225.277	-6.44
225.511	-8.44
225.746	4.56
225.98	-8.44
226.215	23.56
226.449	5.56
226.683	25.56
226.918	25.56
227.152	36.56
227.387	42.56
227.621	47.56
227.856	30.56
228.09	51.56
228.324	48.56
228.559	64.56
228.793	146.56
229.027	369.56
229.262	372.56
229.496	397.56
229.73	394.56
229.964	468.56
230.199	474.56
230.433	470.56
230.667	510.56
230.901	552.56
231.136	481.56
231.37	492.56
231.604	469.56
231.838	481.56
232.072	476.56
232.306	461.56
232.541	488.56
232.775	556.56
233.009	618.56
233.243	596.56
233.477	514.56
233.711	544.56
233.945	584.56
234.179	571.56
234.413	602.56
234.647	680.56
234.881	604.56
235.115	561.56
235.349	587.56
235.583	569.56
235.817	563.56
236.051	552.56
236.285	582.56
236.519	618.56
236.753	686.56
236.987	713.56
237.221	695.56
237.455	745.56
237.689	731.56
237.922	693.56
238.156	674.56
238.39	683.56
238.624	732.56
238.858	778.56
239.091	807.56
239.325	843.56
239.559	926.56
239.793	991.56
240.027	1086.56
240.26	1068.56
240.494	767.56
240.728	737.56
240.961	761.56
241.195	748.56
241.429	841.56
241.662	860.56
241.896	751.56
242.13	761.56
242.363	870.56
242.597	928.56
242.83	921.56
243.064	909.56
243.298	1027.56
243.531	967.56
243.765	947.56
243.998	937.56
244.232	822.56
244.465	794.56
244.699	834.56
244.932	928.56
245.166	1072.56
245.399	985.56
245.633	924.56
245.866	899.56
246.099	979.56
246.333	936.56
246.566	1003.56
246.8	1091.56
247.033	1192.56
247.266	1127.56
247.5	1090.56
247.733	1076.56
247.966	1148.56
248.2	1284.56
248.433	1201.56
248.666	1263.56
248.899	1333.56
249.133	1583.56
249.366	1829.56
249.599	1496.56
249.832	1269.56
250.066	1311.56
250.299	1360.56
250.532	1207.56
250.765	1103.56
250.998	1180.56
251.231	1238.56
251.465	1293.56
251.698	1197.56
251.931	1225.56
252.164	1253.56
252.397	1290.56
252.63	1279.56
252.863	1146.56
253.096	1098.56
253.329	1153.56
253.562	1211.56
253.795	1351.56
254.028	1279.56
254.261	1236.56
254.494	1201.56
254.727	1098.56
254.96	1156.56
255.193	1299.56
255.426	1467.56
255.659	1703.56
255.892	1711.56
256.124	1393.56
256.357	1354.56
256.59	1461.56
256.823	1475.56
257.056	1434.56
257.289	1783.56
257.521	1941.56
257.754	1738.56
257.987	1639.56
258.22	1850.56
258.452	1740.56
258.685	1434.56
258.918	1399.56
259.151	1422.56
259.383	1393.56
259.616	1200.56
259.849	1301.56
260.081	1417.56
260.314	1597.56
260.547	1764.56
260.779	1804.56
261.012	1598.56
261.244	1420.56
261.477	1411.56
261.71	1477.56
261.942	1457.56
262.175	1407.56
262.407	1486.56
262.64	1383.56
262.872	1317.56
263.105	1267.56
263.337	1292.56
263.57	1282.56
263.802	1323.56
264.035	1287.56
264.267	1159.56
264.499	1152.56
264.732	1228.56
264.964	1326.56
265.197	1405.56
265.429	1439.56
265.661	1626.56
265.894	1804.56
266.126	1876.56
266.358	1615.56
266.591	1714.56
266.823	1858.56
267.055	1658.56
267.287	1638.56
267.52	1622.56
267.752	1564.56
267.984	1572.56
268.216	1636.56
268.448	1700.56
268.681	1685.56
268.913	1549.56
269.145	1443.56
269.377	1416.56
269.609	1568.56
269.841	1802.56
270.073	2121.56
270.306	2341.56
270.538	2524.56
270.77	2099.56
271.002	1779.56
271.234	1669.56
271.466	1645.56
271.698	1879.56
271.93	2310.56
272.162	2299.56
272.394	2034.56
272.626	1956.56
272.858	1706.56
273.09	1475.56
273.322	1485.56
273.553	1390.56
273.785	1423.56
274.017	1484.56
274.249	1590.56
274.481	1619.56
274.713	1457.56
274.945	1395.56
275.176	1441.56
275.408	1405.56
275.64	1457.56
275.872	1388.56
276.104	1468.56
276.335	1704.56
276.567	1898.56
276.799	1939.56
277.031	1718.56
277.262	1634.56
277.494	1683.56
277.726	1884.56
277.957	1891.56
278.189	1698.56
278.421	1559.56
278.652	1534.56
278.884	1522.56
279.115	1555.56
279.347	1557.56
279.579	1490.56
279.81	1475.56
280.042	1664.56
280.273	1792.56
280.505	1824.56
280.736	1844.56
280.968	1742.56
281.199	1567.56
281.431	1473.56
281.662	1455.56
281.894	1467.56
282.125	1516.56
282.356	1569.56
282.588	1629.56
282.819	1558.56
283.051	1654.56
283.282	1803.56
283.513	1781.56
283.745	1563.56
283.976	1449.56
284.207	1462.56
284.439	1470.56
284.67	1507.56
284.901	1531.56
285.132	1579.56
285.364	1588.56
285.595	1569.56
285.826	1538.56
286.057	1520.56
286.288	1527.56
286.52	1547.56
286.751	1709.56
286.982	1785.56
287.213	1633.56
287.444	1500.56
287.675	1491.56
287.906	1528.56
288.138	1663.56
288.369	1644.56
288.6	1538.56
288.831	1484.56
289.062	1528.56
289.293	1522.56
289.524	1541.56
289.755	1576.56
289.986	1623.56
290.217	1433.56
290.448	1479.56
290.679	1581.56
290.91	1539.56
291.141	1596.56
291.371	1652.56
291.602	1649.56
291.833	1596.56
292.064	1667.56
292.295	1643.56
292.526	1678.56
292.757	1783.56
292.987	1669.56
293.218	1594.56
293.449	1691.56
293.68	1929.56
293.91	2138.56
294.141	1959.56
294.372	1804.56
294.603	1835.56
294.833	1963.56
295.064	1835.56
295.295	1727.56
295.525	1651.56
295.756	1507.56
295.987	1395.56
296.217	1475.56
296.448	1489.56
296.679	1515.56
296.909	1544.56
297.14	1515.56
297.37	1505.56
297.601	1645.56
297.831	1736.56
298.062	1772.56
298.292	1620.56
298.523	1533.56
298.753	1539.56
298.984	1558.56
299.214	1534.56
299.445	1577.56
299.675	1606.56
299.905	1628.56
300.136	1589.56
300.366	1562.56
300.597	1482.56
300.827	1449.56
301.057	1559.56
301.288	1659.56
301.518	1640.56
301.748	1685.56
301.979	1758.56
302.209	1800.56
302.439	1919.56
302.669	1998.56
302.9	1880.56
303.13	1648.56
303.36	1670.56
303.59	1677.56
303.82	1665.56
304.051	1705.56
304.281	1655.56
304.511	1675.56
304.741	1722.56
304.971	1940.56
305.201	2144.56
305.431	1991.56
305.661	1631.56
305.891	1461.56
306.121	1466.56
306.352	1505.56
306.582	1611.56
306.812	1688.56
307.042	1864.56
307.272	1818.56
307.502	1873.56
307.731	2013.56
307.961	2193.56
308.191	1994.56
308.421	1737.56
308.651	1607.56
308.881	1591.56
309.111	1604.56
309.341	1555.56
309.571	1596.56
309.8	1653.56
310.03	1570.56
310.26	1565.56
310.49	1538.56
310.72	1606.56
310.949	1695.56
311.179	1722.56
311.409	1677.56
311.639	1640.56
311.868	1625.56
312.098	1623.56
312.328	1616.56
312.557	1572.56
312.787	1631.56
313.017	1681.56
313.246	1656.56
313.476	1671.56
313.706	1692.56
313.935	1742.56
314.165	1687.56
314.394	1745.56
314.624	1874.56
314.853	1983.56
315.083	2006.56
315.312	2109.56
315.542	1963.56
315.771	1726.56
316.001	1690.56
316.23	1833.56
316.46	1815.56
316.689	1781.56
316.919	1689.56
317.148	1650.56
317.377	1635.56
317.607	1775.56
317.836	2007.56
318.065	2069.56
318.295	1992.56
318.524	1941.56
318.753	1788.56
318.983	1815.56
319.212	1797.56
319.441	1721.56
319.67	1684.56
319.9	1759.56
320.129	1862.56
320.358	1873.56
320.587	2008.56
320.816	1976.56
321.046	1899.56
321.275	1775.56
321.504	1817.56
321.733	1991.56
321.962	1919.56
322.191	1766.56
322.42	1748.56
322.649	1739.56
322.878	1733.56
323.108	1753.56
323.337	1799.56
323.566	1781.56
323.795	1817.56
324.024	1850.56
324.253	1766.56
324.482	1800.56
324.71	1756.56
324.939	1663.56
325.168	1675.56
325.397	1744.56
325.626	1797.56
325.855	1810.56
326.084	1746.56
326.313	1713.56
326.542	1772.56
326.77	1827.56
326.999	1868.56
327.228	1779.56
327.457	1695.56
327.686	1649.56
327.914	1695.56
328.143	1761.56
328.372	1759.56
328.6	1760.56
328.829	1740.56
329.058	1691.56
329.287	1734.56
329.515	1718.56
329.744	1765.56
329.972	1870.56
330.201	1975.56
330.43	1890.56
330.658	1842.56
330.887	1857.56
331.115	1859.56
331.344	1840.56
331.572	1809.56
331.801	1810.56
332.03	1845.56
332.258	1852.56
332.486	1821.56
332.715	1859.56
332.943	1873.56
333.172	1825.56
333.4	1836.56
333.629	1885.56
333.857	2039.56
334.085	2172.56
334.314	2507.56
334.542	2791.56
334.771	2557.56
334.999	2249.56
335.227	2114.56
335.455	1985.56
335.684	1952.56
335.912	2027.56
336.14	2101.56
336.369	2045.56
336.597	1881.56
336.825	1832.56
337.053	1912.56
337.281	2060.56
337.51	2156.56
337.738	2240.56
337.966	2151.56
338.194	1914.56
338.422	1862.56
338.65	1803.56
338.878	1802.56
339.106	1772.56
339.334	1764.56
339.562	1738.56
339.79	1723.56
340.018	1886.56
340.246	1905.56
340.474	1941.56
340.702	1893.56
340.93	1942.56
341.158	1891.56
341.386	1881.56
341.614	1867.56
341.842	1815.56
342.07	1845.56
342.298	1863.56
342.526	1864.56
342.754	1810.56
342.981	1776.56
343.209	1807.56
343.437	1792.56
343.665	1811.56
343.893	1836.56
344.12	1931.56
344.348	1963.56
344.576	1881.56
344.804	1810.56
345.031	1879.56
345.259	1843.56
345.487	1791.56
345.714	1693.56
345.942	1679.56
346.17	1684.56
346.397	1698.56
346.625	1779.56
346.853	1674.56
347.08	1636.56
347.308	1667.56
347.535	1679.56
347.763	1765.56
347.99	1727.56
348.218	1657.56
348.445	1657.56
348.673	1674.56
348.9	1721.56
349.128	1793.56
349.355	1853.56
349.583	1820.56
349.81	1720.56
350.037	1585.56
350.265	1599.56
350.492	1595.56
350.72	1651.56
350.947	1705.56
351.174	1752.56
351.402	1627.56
351.629	1586.56
351.856	1560.56
352.083	1540.56
352.311	1587.56
352.538	1617.56
352.765	1693.56
352.992	1738.56
353.22	1689.56
353.447	1615.56
353.674	1634.56
353.901	1698.56
354.128	1609.56
354.355	1623.56
354.583	1688.56
354.81	1721.56
355.037	1744.56
355.264	1749.56
355.491	1691.56
355.718	1703.56
355.945	1663.56
356.172	1660.56
356.399	1631.56
356.626	1612.56
356.853	1661.56
357.08	1794.56
357.307	1983.56
357.534	2010.56
357.761	1807.56
357.988	1612.56
358.215	1569.56
358.441	1601.56
358.668	1606.56
358.895	1633.56
359.122	1682.56
359.349	1906.56
359.576	1869.56
359.802	1663.56
360.029	1605.56
360.256	1592.56
360.483	1640.56
360.709	1688.56
360.936	1729.56
361.163	1795.56
361.39	1953.56
361.616	2124.56
361.843	2046.56
362.07	1981.56
362.296	1667.56
362.523	1632.56
362.749	1623.56
362.976	1669.56
363.203	1721.56
363.429	1654.56
363.656	1606.56
363.882	1672.56
364.109	1861.56
364.335	2012.56
364.562	1870.56
364.788	1773.56
365.015	1703.56
365.241	1617.56
365.468	1655.56
365.694	1732.56
365.92	1851.56
366.147	1741.56
366.373	1627.56
366.599	1574.56
366.826	1620.56
367.052	1587.56
367.278	1655.56
367.505	1680.56
367.731	1671.56
367.957	1688.56
368.184	1728.56
368.41	1869.56
368.636	1865.56
368.862	1843.56
369.089	1885.56
369.315	1832.56
369.541	1752.56
369.767	1731.56
369.993	1642.56
370.219	1620.56
370.445	1653.56
370.672	1796.56
370.898	1839.56
371.124	1827.56
371.35	1731.56
371.576	1774.56
371.802	1848.56
372.028	1777.56
372.254	1713.56
372.48	1665.56
372.706	1645.56
372.932	1679.56
373.158	1671.56
373.384	1713.56
373.61	1763.56
373.835	1925.56
374.061	1748.56
374.287	1719.56
374.513	1715.56
374.739	1744.56
374.965	1745.56
375.191	1773.56
375.416	1814.56
375.642	1795.56
375.868	1868.56
376.094	2017.56
376.319	1875.56
376.545	1765.56
376.771	1743.56
376.997	1907.56
377.222	1814.56
377.448	1801.56
377.674	1845.56
377.899	1795.56
378.125	1873.56
378.35	1883.56
378.576	1778.56
378.802	1721.56
379.027	1707.56
379.253	1723.56
379.478	1752.56
379.704	1725.56
379.929	1722.56
380.155	1708.56
380.38	1735.56
380.606	1775.56
380.831	1759.56
381.057	1816.56
381.282	1860.56
381.507	1832.56
381.733	1892.56
381.958	1992.56
382.184	1823.56
382.409	1816.56
382.634	1847.56
382.86	1881.56
383.085	1792.56
383.31	1881.56
383.535	1992.56
383.761	2091.56
383.986	2040.56
384.211	1994.56
384.436	1923.56
384.662	2023.56
384.887	2118.56
385.112	2035.56
385.337	2035.56
385.562	2001.56
385.787	1983.56
386.013	2055.56
386.238	2062.56
386.463	2007.56
386.688	2124.56
386.913	2274.56
387.138	2254.56
387.363	2037.56
387.588	2084.56
387.813	2042.56
388.038	2069.56
388.263	2108.56
388.488	2068.56
388.713	1903.56
388.938	1888.56
389.163	1898.56
389.387	1952.56
389.612	1946.56
389.837	2002.56
390.062	2016.56
390.287	2021.56
390.512	1977.56
390.736	1952.56
390.961	1937.56
391.186	1868.56
391.411	1912.56
391.636	1951.56
391.86	1949.56
392.085	1940.56
392.31	1959.56
392.534	2008.56
392.759	2004.56
392.984	1958.56
393.208	1996.56
393.433	2082.56
393.658	2197.56
393.882	2124.56
394.107	2053.56
394.331	1964.56
394.556	1956.56
394.78	1968.56
395.005	2047.56
395.229	2125.56
395.454	2309.56
395.678	2329.56
395.903	2165.56
396.127	2070.56
396.352	2133.56
396.576	2190.56
396.801	2213.56
397.025	2160.56
397.249	2168.56
397.474	2109.56
397.698	2129.56
397.922	2157.56
398.147	2255.56
398.371	2316.56
398.595	2388.56
398.82	2260.56
399.044	2349.56
399.268	2395.56
399.492	2582.56
399.717	2628.56
399.941	2672.56
400.165	2660.56
400.389	2577.56
400.613	2485.56
400.837	2758.56
401.062	3211.56
401.286	2799.56
401.51	2443.56
401.734	2611.56
401.958	2516.56
402.182	2367.56
402.406	2267.56
402.63	2247.56
402.854	2268.56
403.078	2293.56
403.302	2333.56
403.526	2348.56
403.75	2331.56
403.974	2399.56
404.198	2373.56
404.422	2412.56
404.645	2507.56
404.869	2526.56
405.093	2319.56
405.317	2274.56
405.541	2404.56
405.765	2365.56
405.988	2328.56
406.212	2369.56
406.436	2491.56
406.66	2530.56
406.883	2538.56
407.107	2802.56
407.331	3107.56
407.555	3327.56
407.778	3073.56
408.002	2559.56
408.226	2470.56
408.449	2484.56
408.673	2421.56
408.896	2403.56
409.12	2461.56
409.344	2393.56
409.567	2401.56
409.791	2367.56
410.014	2441.56
410.238	2544.56
410.461	2709.56
410.685	2437.56
410.908	2278.56
411.132	2357.56
411.355	2335.56
411.578	2357.56
411.802	2291.56
412.025	2350.56
412.249	2310.56
412.472	2249.56
412.695	2240.56
412.919	2203.56
413.142	2245.56
413.365	2274.56
413.589	2333.56
413.812	2399.56
414.035	2502.56
414.258	2329.56
414.482	2250.56
414.705	2276.56
414.928	2188.56
415.151	2279.56
415.374	2251.56
415.597	2279.56
415.821	2303.56
416.044	2407.56
416.267	2363.56
416.49	2186.56
416.713	2140.56
416.936	2253.56
417.159	2308.56
417.382	2363.56
417.605	2168.56
417.828	2274.56
418.051	2381.56
418.274	2261.56
418.497	2187.56
418.72	2223.56
418.943	2166.56
419.166	2325.56
419.389	2407.56
419.611	2311.56
419.834	2241.56
420.057	2235.56
420.28	2172.56
420.503	2187.56
420.726	2237.56
420.948	2240.56
421.171	2148.56
421.394	2205.56
421.617	2223.56
421.839	2274.56
422.062	2242.56
422.285	2154.56
422.507	2148.56
422.73	2136.56
422.953	2071.56
423.175	2089.56
423.398	2145.56
423.621	2123.56
423.843	2198.56
424.066	2237.56
424.288	2316.56
424.511	2313.56
424.733	2245.56
424.956	2008.56
425.178	2075.56
425.401	2131.56
425.623	2080.56
425.846	2071.56
426.068	2211.56
426.291	2227.56
426.513	2187.56
426.735	2244.56
426.958	2360.56
427.18	2501.56
427.402	2281.56
427.625	2336.56
427.847	2423.56
428.069	2262.56
428.292	2150.56
428.514	2061.56
428.736	2038.56
428.958	2107.56
429.181	2170.56
429.403	2401.56
429.625	2965.56
429.847	2611.56
430.069	2179.56
430.292	2379.56
430.514	2496.56
430.736	2265.56
430.958	2391.56
431.18	2342.56
431.402	2085.56
431.624	2092.56
431.846	2072.56
432.068	2022.56
432.29	2081.56
432.512	2110.56
432.734	2162.56
432.956	2199.56
433.178	2323.56
433.4	2270.56
433.622	2289.56
433.844	2175.56
434.066	2092.56
434.287	2061.56
434.509	2148.56
434.731	2251.56
434.953	2408.56
435.175	2363.56
435.397	2227.56
435.618	2276.56
435.84	2241.56
436.062	2189.56
436.284	2218.56
436.505	2239.56
436.727	2264.56
436.949	2173.56
437.17	2170.56
437.392	2117.56
437.614	2135.56
437.835	2066.56
438.057	2199.56
438.278	2340.56
438.5	2149.56
438.721	2134.56
438.943	2119.56
439.165	2107.56
439.386	2056.56
439.608	2088.56
439.829	2093.56
440.05	2147.56
440.272	2076.56
440.493	2044.56
440.715	2123.56
440.936	2223.56
441.158	2483.56
441.379	2388.56
441.6	2362.56
441.822	2306.56
442.043	2241.56
442.264	2243.56
442.486	2123.56
442.707	2066.56
442.928	2085.56
443.149	2151.56
443.371	2323.56
443.592	2379.56
443.813	2315.56
444.034	2327.56
444.255	2304.56
444.476	2352.56
444.698	2406.56
444.919	2401.56
445.14	2516.56
445.361	2437.56
445.582	2545.56
445.803	2401.56
446.024	2261.56
446.245	2410.56
446.466	2298.56
446.687	2243.56
446.908	2203.56
447.129	2123.56
447.35	2196.56
447.571	2183.56
447.792	2058.56
448.013	2057.56
448.234	2093.56
448.455	2211.56
448.675	2270.56
448.896	2020.56
449.117	1989.56
449.338	2075.56
449.559	2192.56
449.779	2278.56
450	2505.56
450.221	2686.56
450.442	2572.56
450.662	2303.56
450.883	2061.56
451.104	2007.56
451.324	2018.56
451.545	2132.56
451.766	2031.56
451.986	1949.56
452.207	2000.56
452.428	1913.56
452.648	1899.56
452.869	1896.56
453.089	2053.56
453.31	2080.56
453.53	2148.56
453.751	2040.56
453.971	1882.56
454.192	1980.56
454.412	2107.56
454.633	2046.56
454.853	1968.56
455.073	1801.56
455.294	1839.56
455.514	1811.56
455.734	1836.56
455.955	1908.56
456.175	1861.56
456.395	1899.56
456.616	1935.56
456.836	1979.56
457.056	1921.56
457.276	1934.56
457.497	1856.56
457.717	1827.56
457.937	1881.56
458.157	1927.56
458.377	1821.56
458.598	1836.56
458.818	1894.56
459.038	2019.56
459.258	2141.56
459.478	2095.56
459.698	2057.56
459.918	2111.56
460.138	2181.56
460.358	2246.56
460.578	2228.56
460.798	2406.56
461.018	2501.56
461.238	2311.56
461.458	2216.56
461.678	2253.56
461.898	2232.56
462.118	2146.56
462.338	2247.56
462.558	2206.56
462.777	2231.56
462.997	2347.56
463.217	2530.56
463.437	2471.56
463.657	2345.56
463.876	2254.56
464.096	2257.56
464.316	2220.56
464.536	2324.56
464.755	2401.56
464.975	2399.56
465.195	2289.56
465.414	2387.56
465.634	2380.56
465.854	2279.56
466.073	2388.56
466.293	2361.56
466.512	2097.56
466.732	2071.56
466.951	2170.56
467.171	2125.56
467.391	2045.56
467.61	2001.56
467.829	2033.56
468.049	2202.56
468.268	2460.56
468.488	2317.56
468.707	2172.56
468.927	2081.56
469.146	2011.56
469.365	1977.56
469.585	2071.56
469.804	2017.56
470.023	2054.56
470.243	2081.56
470.462	2055.56
470.681	1994.56
470.901	2044.56
471.12	2042.56
471.339	2010.56
471.558	1983.56
471.777	1960.56
471.997	2016.56
472.216	2021.56
472.435	1967.56
472.654	1986.56
472.873	2082.56
473.092	2267.56
473.311	2142.56
473.53	1994.56
473.749	1978.56
473.968	2039.56
474.187	2161.56
474.406	2261.56
474.625	2121.56
474.844	2075.56
475.063	2074.56
475.282	2179.56
475.501	2081.56
475.72	2052.56
475.939	2212.56
476.158	2139.56
476.377	2075.56
476.596	2124.56
476.814	2171.56
477.033	2182.56
477.252	2286.56
477.471	2332.56
477.69	2215.56
477.908	2173.56
478.127	2302.56
478.346	2511.56
478.564	2475.56
478.783	2447.56
479.002	2524.56
479.22	2430.56
479.439	2579.56
479.658	2889.56
479.876	2854.56
480.095	2500.56
480.313	2367.56
480.532	2285.56
480.751	2266.56
480.969	2408.56
481.188	2311.56
481.406	2312.56
481.624	2223.56
481.843	2257.56
482.061	2370.56
482.28	2351.56
482.498	2420.56
482.717	2392.56
482.935	2311.56
483.153	2283.56
483.372	2277.56
483.59	2231.56
483.808	2256.56
484.027	2339.56
484.245	2541.56
484.463	2858.56
484.681	3331.56
484.9	2577.56
485.118	2353.56
485.336	2336.56
485.554	2395.56
485.772	2491.56
485.99	2501.56
486.209	2516.56
486.427	2438.56
486.645	2465.56
486.863	2382.56
487.081	2491.56
487.299	2544.56
