Data from WStandard_LampEnergy5.5LIBS07252019.E.O._I.C._HRD10591_16-08-53-920.txt Node
Date: Thu Jul 25 16:08:53 EDT 2019
User: cochatt
Spectrometer: HR+D1059
Trigger mode: 1
Integration Time (sec): 1.000000E-1
Scans to average: 1
Electric dark correction enabled: true
Nonlinearity correction enabled: false
Boxcar width: 0
XAxis mode: Wavelengths
Number of Pixels in Spectrum: 2048
>>>>>Begin Spectral Data<<<<<
223.165	-10.44
223.4	-10.44
223.635	-10.44
223.869	-24.44
224.104	-24.44
224.338	-14.44
224.573	-22.44
224.808	10.56
225.042	-13.44
225.277	-11.44
225.511	10.56
225.746	7.56
225.98	5.56
226.215	7.56
226.449	16.56
226.683	21.56
226.918	13.56
227.152	27.56
227.387	36.56
227.621	33.56
227.856	51.56
228.09	47.56
228.324	55.56
228.559	59.56
228.793	149.56
229.027	352.56
229.262	356.56
229.496	380.56
229.73	381.56
229.964	426.56
230.199	416.56
230.433	459.56
230.667	482.56
230.901	533.56
231.136	487.56
231.37	449.56
231.604	440.56
231.838	442.56
232.072	465.56
232.306	451.56
232.541	463.56
232.775	532.56
233.009	606.56
233.243	563.56
233.477	525.56
233.711	541.56
233.945	562.56
234.179	557.56
234.413	574.56
234.647	621.56
234.881	576.56
235.115	534.56
235.349	568.56
235.583	550.56
235.817	556.56
236.051	531.56
236.285	545.56
236.519	571.56
236.753	634.56
236.987	655.56
237.221	657.56
237.455	730.56
237.689	698.56
237.922	688.56
238.156	634.56
238.39	651.56
238.624	686.56
238.858	718.56
239.091	724.56
239.325	783.56
239.559	913.56
239.793	925.56
240.027	1039.56
240.26	1036.56
240.494	768.56
240.728	695.56
240.961	708.56
241.195	732.56
241.429	819.56
241.662	809.56
241.896	732.56
242.13	747.56
242.363	843.56
242.597	893.56
242.83	842.56
243.064	868.56
243.298	917.56
243.531	906.56
243.765	909.56
243.998	899.56
244.232	786.56
244.465	750.56
244.699	792.56
244.932	883.56
245.166	1050.56
245.399	948.56
245.633	878.56
245.866	872.56
246.099	903.56
246.333	917.56
246.566	946.56
246.8	1013.56
247.033	1164.56
247.266	1044.56
247.5	1064.56
247.733	1049.56
247.966	1106.56
248.2	1242.56
248.433	1176.56
248.666	1188.56
248.899	1316.56
249.133	1514.56
249.366	1732.56
249.599	1407.56
249.832	1228.56
250.066	1245.56
250.299	1244.56
250.532	1205.56
250.765	1037.56
250.998	1147.56
251.231	1177.56
251.465	1192.56
251.698	1149.56
251.931	1132.56
252.164	1182.56
252.397	1249.56
252.63	1236.56
252.863	1101.56
253.096	1067.56
253.329	1126.56
253.562	1136.56
253.795	1276.56
254.028	1248.56
254.261	1132.56
254.494	1174.56
254.727	1120.56
254.96	1112.56
255.193	1235.56
255.426	1412.56
255.659	1616.56
255.892	1657.56
256.124	1364.56
256.357	1299.56
256.59	1389.56
256.823	1388.56
257.056	1401.56
257.289	1635.56
257.521	1885.56
257.754	1653.56
257.987	1564.56
258.22	1773.56
258.452	1698.56
258.685	1381.56
258.918	1359.56
259.151	1358.56
259.383	1272.56
259.616	1145.56
259.849	1209.56
260.081	1349.56
260.314	1555.56
260.547	1682.56
260.779	1677.56
261.012	1554.56
261.244	1438.56
261.477	1344.56
261.71	1410.56
261.942	1382.56
262.175	1331.56
262.407	1418.56
262.64	1350.56
262.872	1276.56
263.105	1220.56
263.337	1243.56
263.57	1272.56
263.802	1272.56
264.035	1193.56
264.267	1126.56
264.499	1121.56
264.732	1192.56
264.964	1288.56
265.197	1346.56
265.429	1357.56
265.661	1545.56
265.894	1713.56
266.126	1809.56
266.358	1594.56
266.591	1633.56
266.823	1751.56
267.055	1590.56
267.287	1560.56
267.52	1538.56
267.752	1536.56
267.984	1539.56
268.216	1608.56
268.448	1633.56
268.681	1631.56
268.913	1495.56
269.145	1394.56
269.377	1401.56
269.609	1496.56
269.841	1751.56
270.073	1996.56
270.306	2211.56
270.538	2379.56
270.77	1998.56
271.002	1671.56
271.234	1623.56
271.466	1596.56
271.698	1796.56
271.93	2160.56
272.162	2182.56
272.394	1935.56
272.626	1879.56
272.858	1648.56
273.09	1439.56
273.322	1441.56
273.553	1358.56
273.785	1357.56
274.017	1410.56
274.249	1566.56
274.481	1563.56
274.713	1408.56
274.945	1368.56
275.176	1387.56
275.408	1393.56
275.64	1350.56
275.872	1318.56
276.104	1402.56
276.335	1618.56
276.567	1851.56
276.799	1849.56
277.031	1671.56
277.262	1606.56
277.494	1664.56
277.726	1815.56
277.957	1764.56
278.189	1654.56
278.421	1506.56
278.652	1492.56
278.884	1468.56
279.115	1445.56
279.347	1514.56
279.579	1453.56
279.81	1440.56
280.042	1620.56
280.273	1743.56
280.505	1745.56
280.736	1801.56
280.968	1728.56
281.199	1483.56
281.431	1437.56
281.662	1451.56
281.894	1408.56
282.125	1462.56
282.356	1538.56
282.588	1527.56
282.819	1508.56
283.051	1638.56
283.282	1747.56
283.513	1768.56
283.745	1540.56
283.976	1385.56
284.207	1426.56
284.439	1456.56
284.67	1490.56
284.901	1505.56
285.132	1540.56
285.364	1497.56
285.595	1522.56
285.826	1492.56
286.057	1485.56
286.288	1464.56
286.52	1556.56
286.751	1677.56
286.982	1709.56
287.213	1586.56
287.444	1435.56
287.675	1438.56
287.906	1517.56
288.138	1626.56
288.369	1605.56
288.6	1461.56
288.831	1452.56
289.062	1452.56
289.293	1468.56
289.524	1491.56
289.755	1546.56
289.986	1550.56
290.217	1450.56
290.448	1432.56
290.679	1512.56
290.91	1528.56
291.141	1565.56
291.371	1600.56
291.602	1587.56
291.833	1613.56
292.064	1620.56
292.295	1565.56
292.526	1638.56
292.757	1754.56
292.987	1604.56
293.218	1536.56
293.449	1635.56
293.68	1868.56
293.91	1996.56
294.141	1872.56
294.372	1748.56
294.603	1793.56
294.833	1918.56
295.064	1800.56
295.295	1638.56
295.525	1619.56
295.756	1484.56
295.987	1392.56
296.217	1437.56
296.448	1468.56
296.679	1495.56
296.909	1503.56
297.14	1476.56
297.37	1482.56
297.601	1538.56
297.831	1690.56
298.062	1726.56
298.292	1594.56
298.523	1506.56
298.753	1498.56
298.984	1554.56
299.214	1511.56
299.445	1576.56
299.675	1619.56
299.905	1629.56
300.136	1582.56
300.366	1528.56
300.597	1488.56
300.827	1467.56
301.057	1535.56
301.288	1643.56
301.518	1593.56
301.748	1606.56
301.979	1699.56
302.209	1720.56
302.439	1804.56
302.669	1916.56
302.9	1807.56
303.13	1627.56
303.36	1621.56
303.59	1649.56
303.82	1622.56
304.051	1622.56
304.281	1628.56
304.511	1638.56
304.741	1712.56
304.971	1901.56
305.201	2038.56
305.431	1910.56
305.661	1592.56
305.891	1468.56
306.121	1463.56
306.352	1469.56
306.582	1596.56
306.812	1665.56
307.042	1800.56
307.272	1777.56
307.502	1805.56
307.731	1922.56
307.961	2156.56
308.191	1968.56
308.421	1726.56
308.651	1582.56
308.881	1566.56
309.111	1559.56
309.341	1520.56
309.571	1556.56
309.8	1624.56
310.03	1568.56
310.26	1547.56
310.49	1556.56
310.72	1550.56
310.949	1651.56
311.179	1688.56
311.409	1643.56
311.639	1641.56
311.868	1595.56
312.098	1587.56
312.328	1584.56
312.557	1549.56
312.787	1617.56
313.017	1649.56
313.246	1629.56
313.476	1622.56
313.706	1691.56
313.935	1685.56
314.165	1669.56
314.394	1750.56
314.624	1856.56
314.853	1900.56
315.083	1938.56
315.312	2034.56
315.542	1898.56
315.771	1692.56
316.001	1692.56
316.23	1798.56
316.46	1787.56
316.689	1714.56
316.919	1660.56
317.148	1626.56
317.377	1662.56
317.607	1742.56
317.836	1926.56
318.065	2024.56
318.295	1910.56
318.524	1833.56
318.753	1765.56
318.983	1789.56
319.212	1745.56
319.441	1693.56
319.67	1660.56
319.9	1714.56
320.129	1802.56
320.358	1911.56
320.587	1924.56
320.816	1906.56
321.046	1832.56
321.275	1752.56
321.504	1777.56
321.733	1936.56
321.962	1909.56
322.191	1724.56
322.42	1720.56
322.649	1753.56
322.878	1682.56
323.108	1717.56
323.337	1748.56
323.566	1770.56
323.795	1794.56
324.024	1759.56
324.253	1732.56
324.482	1770.56
324.71	1693.56
324.939	1629.56
325.168	1644.56
325.397	1683.56
325.626	1761.56
325.855	1806.56
326.084	1705.56
326.313	1686.56
326.542	1706.56
326.77	1784.56
326.999	1831.56
327.228	1762.56
327.457	1641.56
327.686	1597.56
327.914	1671.56
328.143	1727.56
328.372	1741.56
328.6	1731.56
328.829	1701.56
329.058	1678.56
329.287	1692.56
329.515	1696.56
329.744	1714.56
329.972	1842.56
330.201	1884.56
330.43	1853.56
330.658	1854.56
330.887	1821.56
331.115	1794.56
331.344	1863.56
331.572	1814.56
331.801	1840.56
332.03	1788.56
332.258	1800.56
332.486	1817.56
332.715	1846.56
332.943	1872.56
333.172	1808.56
333.4	1836.56
333.629	1889.56
333.857	1978.56
334.085	2144.56
334.314	2373.56
334.542	2651.56
334.771	2436.56
334.999	2186.56
335.227	2110.56
335.455	1953.56
335.684	1957.56
335.912	1979.56
336.14	2033.56
336.369	2000.56
336.597	1896.56
336.825	1880.56
337.053	1923.56
337.281	1968.56
337.51	2078.56
337.738	2136.56
337.966	2096.56
338.194	1897.56
338.422	1826.56
338.65	1784.56
338.878	1780.56
339.106	1755.56
339.334	1752.56
339.562	1691.56
339.79	1732.56
340.018	1844.56
340.246	1880.56
340.474	1914.56
340.702	1847.56
340.93	1875.56
341.158	1849.56
341.386	1821.56
341.614	1835.56
341.842	1781.56
342.07	1770.56
342.298	1838.56
342.526	1820.56
342.754	1783.56
342.981	1756.56
343.209	1764.56
343.437	1748.56
343.665	1801.56
343.893	1827.56
344.12	1897.56
344.348	1917.56
344.576	1853.56
344.804	1803.56
345.031	1794.56
345.259	1817.56
345.487	1755.56
345.714	1718.56
345.942	1606.56
346.17	1632.56
346.397	1667.56
346.625	1712.56
346.853	1636.56
347.08	1588.56
347.308	1581.56
347.535	1651.56
347.763	1713.56
347.99	1635.56
348.218	1648.56
348.445	1610.56
348.673	1648.56
348.9	1708.56
349.128	1729.56
349.355	1830.56
349.583	1772.56
349.81	1669.56
350.037	1564.56
350.265	1559.56
350.492	1588.56
350.72	1635.56
350.947	1683.56
351.174	1692.56
351.402	1627.56
351.629	1577.56
351.856	1537.56
352.083	1521.56
352.311	1541.56
352.538	1588.56
352.765	1664.56
352.992	1740.56
353.22	1634.56
353.447	1610.56
353.674	1620.56
353.901	1649.56
354.128	1613.56
354.355	1602.56
354.583	1641.56
354.81	1689.56
355.037	1678.56
355.264	1681.56
355.491	1676.56
355.718	1666.56
355.945	1648.56
356.172	1609.56
356.399	1608.56
356.626	1601.56
356.853	1659.56
357.08	1771.56
357.307	1977.56
357.534	1959.56
357.761	1748.56
357.988	1603.56
358.215	1569.56
358.441	1585.56
358.668	1599.56
358.895	1592.56
359.122	1722.56
359.349	1846.56
359.576	1821.56
359.802	1666.56
360.029	1578.56
360.256	1577.56
360.483	1595.56
360.709	1624.56
360.936	1702.56
361.163	1766.56
361.39	1885.56
361.616	2088.56
361.843	2021.56
362.07	1894.56
362.296	1686.56
362.523	1596.56
362.749	1612.56
362.976	1662.56
363.203	1669.56
363.429	1632.56
363.656	1534.56
363.882	1645.56
364.109	1784.56
364.335	1928.56
364.562	1826.56
364.788	1752.56
365.015	1716.56
365.241	1594.56
365.468	1652.56
365.694	1739.56
365.92	1770.56
366.147	1727.56
366.373	1676.56
366.599	1575.56
366.826	1612.56
367.052	1573.56
367.278	1649.56
367.505	1644.56
367.731	1701.56
367.957	1688.56
368.184	1740.56
368.41	1829.56
368.636	1829.56
368.862	1844.56
369.089	1877.56
369.315	1796.56
369.541	1735.56
369.767	1662.56
369.993	1573.56
370.219	1632.56
370.445	1649.56
370.672	1750.56
370.898	1858.56
371.124	1844.56
371.35	1715.56
371.576	1793.56
371.802	1849.56
372.028	1799.56
372.254	1725.56
372.48	1673.56
372.706	1673.56
372.932	1685.56
373.158	1652.56
373.384	1690.56
373.61	1737.56
373.835	1826.56
374.061	1722.56
374.287	1710.56
374.513	1750.56
374.739	1751.56
374.965	1757.56
375.191	1747.56
375.416	1819.56
375.642	1773.56
375.868	1872.56
376.094	1929.56
376.319	1861.56
376.545	1747.56
376.771	1763.56
376.997	1859.56
377.222	1810.56
377.448	1764.56
377.674	1824.56
377.899	1797.56
378.125	1873.56
378.35	1884.56
378.576	1740.56
378.802	1684.56
379.027	1715.56
379.253	1694.56
379.478	1704.56
379.704	1709.56
379.929	1715.56
380.155	1722.56
380.38	1738.56
380.606	1741.56
380.831	1708.56
381.057	1792.56
381.282	1840.56
381.507	1794.56
381.733	1879.56
381.958	2013.56
382.184	1836.56
382.409	1768.56
382.634	1835.56
382.86	1792.56
383.085	1769.56
383.31	1829.56
383.535	1970.56
383.761	2139.56
383.986	1985.56
384.211	1950.56
384.436	1937.56
384.662	2024.56
384.887	2076.56
385.112	1990.56
385.337	1994.56
385.562	1965.56
385.787	1973.56
386.013	2030.56
386.238	2049.56
386.463	1965.56
386.688	2109.56
386.913	2210.56
387.138	2211.56
387.363	2025.56
387.588	1985.56
387.813	1977.56
388.038	2019.56
388.263	2091.56
388.488	2071.56
388.713	1913.56
388.938	1870.56
389.163	1873.56
389.387	1919.56
389.612	1938.56
389.837	1979.56
390.062	2034.56
390.287	1956.56
390.512	1989.56
390.736	1956.56
390.961	1865.56
391.186	1898.56
391.411	1866.56
391.636	1912.56
391.86	2003.56
392.085	1981.56
392.31	1927.56
392.534	1964.56
392.759	1978.56
392.984	1968.56
393.208	1992.56
393.433	2049.56
393.658	2087.56
393.882	2126.56
394.107	2002.56
394.331	1984.56
394.556	1984.56
394.78	2002.56
395.005	2060.56
395.229	2172.56
395.454	2288.56
395.678	2258.56
395.903	2160.56
396.127	2100.56
396.352	2098.56
396.576	2191.56
396.801	2130.56
397.025	2096.56
397.249	2144.56
397.474	2134.56
397.698	2128.56
397.922	2227.56
398.147	2247.56
398.371	2335.56
398.595	2316.56
398.82	2290.56
399.044	2298.56
399.268	2362.56
399.492	2535.56
399.717	2657.56
399.941	2687.56
400.165	2620.56
400.389	2574.56
400.613	2510.56
400.837	2729.56
401.062	3188.56
401.286	2708.56
401.51	2484.56
401.734	2572.56
401.958	2499.56
402.182	2316.56
402.406	2274.56
402.63	2244.56
402.854	2264.56
403.078	2281.56
403.302	2364.56
403.526	2398.56
403.75	2372.56
403.974	2370.56
404.198	2348.56
404.422	2388.56
404.645	2531.56
404.869	2528.56
405.093	2304.56
405.317	2294.56
405.541	2357.56
405.765	2376.56
405.988	2319.56
406.212	2438.56
406.436	2498.56
406.66	2492.56
406.883	2554.56
407.107	2824.56
407.331	3066.56
407.555	3294.56
407.778	3101.56
408.002	2552.56
408.226	2473.56
408.449	2520.56
408.673	2393.56
408.896	2412.56
409.12	2441.56
409.344	2402.56
409.567	2332.56
409.791	2408.56
410.014	2437.56
410.238	2525.56
410.461	2696.56
410.685	2404.56
410.908	2269.56
411.132	2326.56
411.355	2317.56
411.578	2304.56
411.802	2297.56
412.025	2341.56
412.249	2331.56
412.472	2193.56
412.695	2213.56
412.919	2226.56
413.142	2196.56
413.365	2256.56
413.589	2324.56
413.812	2385.56
414.035	2484.56
414.258	2296.56
414.482	2284.56
414.705	2248.56
414.928	2216.56
415.151	2252.56
415.374	2268.56
415.597	2254.56
415.821	2289.56
416.044	2376.56
416.267	2403.56
416.49	2152.56
416.713	2149.56
416.936	2220.56
417.159	2324.56
417.382	2356.56
417.605	2188.56
417.828	2297.56
418.051	2300.56
418.274	2249.56
418.497	2176.56
418.72	2184.56
418.943	2166.56
419.166	2326.56
419.389	2412.56
419.611	2249.56
419.834	2213.56
420.057	2256.56
420.28	2164.56
420.503	2174.56
420.726	2232.56
420.948	2209.56
421.171	2099.56
421.394	2165.56
421.617	2214.56
421.839	2163.56
422.062	2198.56
422.285	2103.56
422.507	2156.56
422.73	2135.56
422.953	2056.56
423.175	2048.56
423.398	2146.56
423.621	2155.56
423.843	2157.56
424.066	2210.56
424.288	2241.56
424.511	2330.56
424.733	2274.56
424.956	2039.56
425.178	2018.56
425.401	2068.56
425.623	2111.56
425.846	2084.56
426.068	2196.56
426.291	2279.56
426.513	2161.56
426.735	2206.56
426.958	2290.56
427.18	2463.56
427.402	2246.56
427.625	2360.56
427.847	2330.56
428.069	2180.56
428.292	2120.56
428.514	2085.56
428.736	2027.56
428.958	2098.56
429.181	2110.56
429.403	2342.56
429.625	2897.56
429.847	2574.56
430.069	2172.56
430.292	2339.56
430.514	2491.56
430.736	2256.56
430.958	2345.56
431.18	2254.56
431.402	2135.56
431.624	2086.56
431.846	2121.56
432.068	2074.56
432.29	2100.56
432.512	2108.56
432.734	2136.56
432.956	2171.56
433.178	2263.56
433.4	2277.56
433.622	2209.56
433.844	2109.56
434.066	2029.56
434.287	2077.56
434.509	2184.56
434.731	2260.56
434.953	2387.56
435.175	2396.56
435.397	2217.56
435.618	2216.56
435.84	2234.56
436.062	2215.56
436.284	2181.56
436.505	2196.56
436.727	2284.56
436.949	2174.56
437.17	2118.56
437.392	2114.56
437.614	2140.56
437.835	2041.56
438.057	2195.56
438.278	2248.56
438.5	2114.56
438.721	2058.56
438.943	2090.56
439.165	2102.56
439.386	2004.56
439.608	2036.56
439.829	2105.56
440.05	2096.56
440.272	2043.56
440.493	2022.56
440.715	2089.56
440.936	2205.56
441.158	2445.56
441.379	2382.56
441.6	2337.56
441.822	2235.56
442.043	2248.56
442.264	2221.56
442.486	2050.56
442.707	2043.56
442.928	2084.56
443.149	2167.56
443.371	2232.56
443.592	2339.56
443.813	2300.56
444.034	2281.56
444.255	2286.56
444.476	2298.56
444.698	2368.56
444.919	2397.56
445.14	2423.56
445.361	2427.56
445.582	2488.56
445.803	2353.56
446.024	2292.56
446.245	2376.56
446.466	2317.56
446.687	2162.56
446.908	2189.56
447.129	2104.56
447.35	2166.56
447.571	2142.56
447.792	2087.56
448.013	2011.56
448.234	2070.56
448.455	2166.56
448.675	2149.56
448.896	1998.56
449.117	1962.56
449.338	2050.56
449.559	2114.56
449.779	2240.56
450	2440.56
450.221	2668.56
450.442	2538.56
450.662	2274.56
450.883	1986.56
451.104	1952.56
451.324	1971.56
451.545	2073.56
451.766	2040.56
451.986	1946.56
452.207	1950.56
452.428	1888.56
452.648	1838.56
452.869	1909.56
453.089	2018.56
453.31	2044.56
453.53	2131.56
453.751	1978.56
453.971	1900.56
454.192	1952.56
454.412	2067.56
454.633	1989.56
454.853	1936.56
455.073	1820.56
455.294	1800.56
455.514	1778.56
455.734	1821.56
455.955	1857.56
456.175	1863.56
456.395	1882.56
456.616	1898.56
456.836	1960.56
457.056	1896.56
457.276	1965.56
457.497	1860.56
457.717	1811.56
457.937	1861.56
458.157	1898.56
458.377	1877.56
458.598	1870.56
458.818	1877.56
459.038	1992.56
459.258	2102.56
459.478	2107.56
459.698	2092.56
459.918	2090.56
460.138	2148.56
460.358	2201.56
460.578	2245.56
460.798	2341.56
461.018	2448.56
461.238	2334.56
461.458	2206.56
461.678	2219.56
461.898	2211.56
462.118	2128.56
462.338	2205.56
462.558	2240.56
462.777	2240.56
462.997	2362.56
463.217	2498.56
463.437	2483.56
463.657	2272.56
463.876	2252.56
464.096	2251.56
464.316	2218.56
464.536	2328.56
464.755	2352.56
464.975	2364.56
465.195	2284.56
465.414	2355.56
465.634	2384.56
465.854	2202.56
466.073	2303.56
466.293	2316.56
466.512	2040.56
466.732	2020.56
466.951	2107.56
467.171	2080.56
467.391	2011.56
467.61	1995.56
467.829	2014.56
468.049	2121.56
468.268	2409.56
468.488	2269.56
468.707	2133.56
468.927	2067.56
469.146	2018.56
469.365	2018.56
469.585	2064.56
469.804	1985.56
470.023	2007.56
470.243	2056.56
470.462	2015.56
470.681	2032.56
470.901	2007.56
471.12	2044.56
471.339	2025.56
471.558	1989.56
471.777	1913.56
471.997	2021.56
472.216	2000.56
472.435	1904.56
472.654	1996.56
472.873	2089.56
473.092	2168.56
473.311	2089.56
473.53	1965.56
473.749	1956.56
473.968	2001.56
474.187	2120.56
474.406	2213.56
474.625	2096.56
474.844	2032.56
475.063	2050.56
475.282	2120.56
475.501	2082.56
475.72	2041.56
475.939	2202.56
476.158	2144.56
476.377	2052.56
476.596	2066.56
476.814	2102.56
477.033	2188.56
477.252	2264.56
477.471	2272.56
477.69	2162.56
477.908	2122.56
478.127	2251.56
478.346	2420.56
478.564	2492.56
478.783	2442.56
479.002	2500.56
479.22	2496.56
479.439	2497.56
479.658	2830.56
479.876	2854.56
480.095	2489.56
480.313	2368.56
480.532	2260.56
480.751	2340.56
480.969	2397.56
481.188	2333.56
481.406	2288.56
481.624	2256.56
481.843	2274.56
482.061	2313.56
482.28	2361.56
482.498	2412.56
482.717	2324.56
482.935	2283.56
483.153	2277.56
483.372	2256.56
483.59	2294.56
483.808	2317.56
484.027	2368.56
484.245	2458.56
484.463	2814.56
484.681	3282.56
484.9	2526.56
485.118	2343.56
485.336	2295.56
485.554	2376.56
485.772	2486.56
485.99	2474.56
486.209	2433.56
486.427	2472.56
486.645	2497.56
486.863	2442.56
487.081	2461.56
487.299	2556.56
