Data from WStandard_LampEnergy10_LIBS07252019.E.O._I.C._HRD10591_15-55-35-928.txt Node
Date: Thu Jul 25 15:55:35 EDT 2019
User: cochatt
Spectrometer: HR+D1059
Trigger mode: 1
Integration Time (sec): 1.000000E-1
Scans to average: 1
Electric dark correction enabled: true
Nonlinearity correction enabled: false
Boxcar width: 0
XAxis mode: Wavelengths
Number of Pixels in Spectrum: 2048
>>>>>Begin Spectral Data<<<<<
223.165	-21.25
223.4	-21.25
223.635	-21.25
223.869	-23.25
224.104	-24.25
224.338	-7.25
224.573	-13.25
224.808	-14.25
225.042	-6.25
225.277	1.75
225.511	-3.25
225.746	6.75
225.98	7.75
226.215	22.75
226.449	10.75
226.683	14.75
226.918	29.75
227.152	18.75
227.387	19.75
227.621	39.75
227.856	38.75
228.09	29.75
228.324	40.75
228.559	41.75
228.793	75.75
229.027	131.75
229.262	131.75
229.496	134.75
229.73	154.75
229.964	153.75
230.199	167.75
230.433	187.75
230.667	179.75
230.901	189.75
231.136	172.75
231.37	156.75
231.604	174.75
231.838	178.75
232.072	157.75
232.306	166.75
232.541	173.75
232.775	199.75
233.009	202.75
233.243	208.75
233.477	196.75
233.711	181.75
233.945	196.75
234.179	185.75
234.413	187.75
234.647	208.75
234.881	183.75
235.115	188.75
235.349	191.75
235.583	194.75
235.817	203.75
236.051	190.75
236.285	181.75
236.519	191.75
236.753	201.75
236.987	232.75
237.221	205.75
237.455	215.75
237.689	205.75
237.922	211.75
238.156	197.75
238.39	222.75
238.624	213.75
238.858	238.75
239.091	228.75
239.325	261.75
239.559	282.75
239.793	303.75
240.027	306.75
240.26	286.75
240.494	227.75
240.728	231.75
240.961	218.75
241.195	233.75
241.429	239.75
241.662	255.75
241.896	246.75
242.13	254.75
242.363	266.75
242.597	259.75
242.83	268.75
243.064	275.75
243.298	269.75
243.531	269.75
243.765	277.75
243.998	281.75
244.232	256.75
244.465	247.75
244.699	254.75
244.932	276.75
245.166	303.75
245.399	281.75
245.633	259.75
245.866	278.75
246.099	293.75
246.333	272.75
246.566	287.75
246.8	324.75
247.033	332.75
247.266	311.75
247.5	290.75
247.733	316.75
247.966	324.75
248.2	339.75
248.433	350.75
248.666	333.75
248.899	374.75
249.133	406.75
249.366	453.75
249.599	387.75
249.832	350.75
250.066	341.75
250.299	351.75
250.532	329.75
250.765	316.75
250.998	331.75
251.231	331.75
251.465	353.75
251.698	327.75
251.931	345.75
252.164	334.75
252.397	357.75
252.63	349.75
252.863	320.75
253.096	337.75
253.329	332.75
253.562	337.75
253.795	343.75
254.028	327.75
254.261	306.75
254.494	325.75
254.727	333.75
254.96	329.75
255.193	367.75
255.426	411.75
255.659	440.75
255.892	425.75
256.124	401.75
256.357	371.75
256.59	380.75
256.823	407.75
257.056	426.75
257.289	472.75
257.521	517.75
257.754	441.75
257.987	429.75
258.22	439.75
258.452	440.75
258.685	391.75
258.918	366.75
259.151	366.75
259.383	370.75
259.616	344.75
259.849	338.75
260.081	401.75
260.314	452.75
260.547	471.75
260.779	469.75
261.012	425.75
261.244	369.75
261.477	400.75
261.71	389.75
261.942	378.75
262.175	387.75
262.407	401.75
262.64	369.75
262.872	360.75
263.105	351.75
263.337	359.75
263.57	365.75
263.802	369.75
264.035	328.75
264.267	325.75
264.499	337.75
264.732	357.75
264.964	389.75
265.197	397.75
265.429	401.75
265.661	451.75
265.894	459.75
266.126	487.75
266.358	455.75
266.591	463.75
266.823	458.75
267.055	443.75
267.287	422.75
267.52	421.75
267.752	434.75
267.984	444.75
268.216	449.75
268.448	467.75
268.681	463.75
268.913	441.75
269.145	408.75
269.377	413.75
269.609	415.75
269.841	490.75
270.073	576.75
270.306	594.75
270.538	600.75
270.77	532.75
271.002	471.75
271.234	434.75
271.466	463.75
271.698	515.75
271.93	581.75
272.162	573.75
272.394	511.75
272.626	484.75
272.858	465.75
273.09	385.75
273.322	388.75
273.553	373.75
273.785	395.75
274.017	396.75
274.249	433.75
274.481	429.75
274.713	393.75
274.945	408.75
275.176	414.75
275.408	384.75
275.64	375.75
275.872	391.75
276.104	434.75
276.335	478.75
276.567	509.75
276.799	505.75
277.031	464.75
277.262	456.75
277.494	470.75
277.726	479.75
277.957	500.75
278.189	443.75
278.421	429.75
278.652	425.75
278.884	411.75
279.115	432.75
279.347	434.75
279.579	407.75
279.81	434.75
280.042	467.75
280.273	504.75
280.505	497.75
280.736	500.75
280.968	451.75
281.199	419.75
281.431	426.75
281.662	426.75
281.894	410.75
282.125	431.75
282.356	436.75
282.588	421.75
282.819	450.75
283.051	476.75
283.282	485.75
283.513	474.75
283.745	458.75
283.976	417.75
284.207	410.75
284.439	426.75
284.67	432.75
284.901	439.75
285.132	465.75
285.364	456.75
285.595	438.75
285.826	450.75
286.057	432.75
286.288	436.75
286.52	456.75
286.751	500.75
286.982	482.75
287.213	441.75
287.444	431.75
287.675	430.75
287.906	455.75
288.138	475.75
288.369	467.75
288.6	444.75
288.831	421.75
289.062	431.75
289.293	458.75
289.524	445.75
289.755	449.75
289.986	460.75
290.217	450.75
290.448	417.75
290.679	445.75
290.91	464.75
291.141	463.75
291.371	453.75
291.602	477.75
291.833	463.75
292.064	465.75
292.295	462.75
292.526	498.75
292.757	493.75
292.987	475.75
293.218	468.75
293.449	533.75
293.68	546.75
293.91	576.75
294.141	529.75
294.372	522.75
294.603	544.75
294.833	561.75
295.064	533.75
295.295	479.75
295.525	467.75
295.756	459.75
295.987	438.75
296.217	449.75
296.448	451.75
296.679	443.75
296.909	482.75
297.14	457.75
297.37	448.75
297.601	478.75
297.831	489.75
298.062	488.75
298.292	490.75
298.523	483.75
298.753	474.75
298.984	481.75
299.214	502.75
299.445	479.75
299.675	472.75
299.905	501.75
300.136	462.75
300.366	443.75
300.597	443.75
300.827	456.75
301.057	473.75
301.288	505.75
301.518	488.75
301.748	517.75
301.979	553.75
302.209	562.75
302.439	574.75
302.669	564.75
302.9	544.75
303.13	494.75
303.36	509.75
303.59	505.75
303.82	503.75
304.051	499.75
304.281	496.75
304.511	539.75
304.741	570.75
304.971	610.75
305.201	598.75
305.431	523.75
305.661	471.75
305.891	452.75
306.121	430.75
306.352	466.75
306.582	512.75
306.812	519.75
307.042	547.75
307.272	537.75
307.502	576.75
307.731	637.75
307.961	584.75
308.191	554.75
308.421	501.75
308.651	491.75
308.881	473.75
309.111	474.75
309.341	482.75
309.571	486.75
309.8	474.75
310.03	480.75
310.26	513.75
310.49	480.75
310.72	496.75
310.949	526.75
311.179	526.75
311.409	538.75
311.639	508.75
311.868	481.75
312.098	487.75
312.328	487.75
312.557	507.75
312.787	498.75
313.017	521.75
313.246	522.75
313.476	504.75
313.706	506.75
313.935	516.75
314.165	521.75
314.394	548.75
314.624	571.75
314.853	618.75
315.083	603.75
315.312	597.75
315.542	583.75
315.771	544.75
316.001	551.75
316.23	566.75
316.46	522.75
316.689	537.75
316.919	518.75
317.148	519.75
317.377	542.75
317.607	579.75
317.836	607.75
318.065	630.75
318.295	599.75
318.524	555.75
318.753	547.75
318.983	554.75
319.212	550.75
319.441	534.75
319.67	537.75
319.9	549.75
320.129	591.75
320.358	612.75
320.587	598.75
320.816	585.75
321.046	572.75
321.275	587.75
321.504	585.75
321.733	624.75
321.962	585.75
322.191	561.75
322.42	550.75
322.649	527.75
322.878	520.75
323.108	575.75
323.337	561.75
323.566	569.75
323.795	560.75
324.024	555.75
324.253	551.75
324.482	538.75
324.71	523.75
324.939	529.75
325.168	546.75
325.397	576.75
325.626	560.75
325.855	558.75
326.084	539.75
326.313	577.75
326.542	559.75
326.77	546.75
326.999	559.75
327.228	543.75
327.457	514.75
327.686	522.75
327.914	547.75
328.143	552.75
328.372	583.75
328.6	557.75
328.829	549.75
329.058	543.75
329.287	541.75
329.515	541.75
329.744	564.75
329.972	597.75
330.201	609.75
330.43	591.75
330.658	591.75
330.887	598.75
331.115	597.75
331.344	618.75
331.572	606.75
331.801	587.75
332.03	577.75
332.258	572.75
332.486	595.75
332.715	598.75
332.943	599.75
333.172	588.75
333.4	591.75
333.629	613.75
333.857	681.75
334.085	726.75
334.314	813.75
334.542	813.75
334.771	720.75
334.999	677.75
335.227	659.75
335.455	640.75
335.684	633.75
335.912	646.75
336.14	619.75
336.369	618.75
336.597	593.75
336.825	594.75
337.053	623.75
337.281	649.75
337.51	685.75
337.738	663.75
337.966	631.75
338.194	575.75
338.422	593.75
338.65	578.75
338.878	571.75
339.106	581.75
339.334	558.75
339.562	540.75
339.79	576.75
340.018	601.75
340.246	616.75
340.474	623.75
340.702	606.75
340.93	608.75
341.158	632.75
341.386	595.75
341.614	599.75
341.842	583.75
342.07	602.75
342.298	576.75
342.526	599.75
342.754	597.75
342.981	595.75
343.209	597.75
343.437	580.75
343.665	587.75
343.893	598.75
344.12	607.75
344.348	605.75
344.576	595.75
344.804	575.75
345.031	574.75
345.259	582.75
345.487	541.75
345.714	531.75
345.942	552.75
346.17	559.75
346.397	561.75
346.625	576.75
346.853	555.75
347.08	527.75
347.308	566.75
347.535	543.75
347.763	553.75
347.99	570.75
348.218	559.75
348.445	538.75
348.673	566.75
348.9	585.75
349.128	591.75
349.355	580.75
349.583	574.75
349.81	521.75
350.037	520.75
350.265	511.75
350.492	547.75
350.72	560.75
350.947	567.75
351.174	582.75
351.402	533.75
351.629	515.75
351.856	521.75
352.083	496.75
352.311	512.75
352.538	558.75
352.765	557.75
352.992	585.75
353.22	529.75
353.447	545.75
353.674	567.75
353.901	567.75
354.128	546.75
354.355	554.75
354.583	563.75
354.81	590.75
355.037	557.75
355.264	571.75
355.491	576.75
355.718	561.75
355.945	527.75
356.172	531.75
356.399	534.75
356.626	543.75
356.853	590.75
357.08	613.75
357.307	675.75
357.534	629.75
357.761	570.75
357.988	521.75
358.215	518.75
358.441	524.75
358.668	544.75
358.895	576.75
359.122	579.75
359.349	619.75
359.576	586.75
359.802	581.75
360.029	545.75
360.256	530.75
360.483	550.75
360.709	575.75
360.936	607.75
361.163	613.75
361.39	668.75
361.616	699.75
361.843	680.75
362.07	647.75
362.296	572.75
362.523	540.75
362.749	575.75
362.976	559.75
363.203	562.75
363.429	565.75
363.656	557.75
363.882	574.75
364.109	655.75
364.335	649.75
364.562	611.75
364.788	596.75
365.015	563.75
365.241	584.75
365.468	577.75
365.694	612.75
365.92	607.75
366.147	560.75
366.373	564.75
366.599	544.75
366.826	563.75
367.052	548.75
367.278	560.75
367.505	583.75
367.731	597.75
367.957	603.75
368.184	631.75
368.41	638.75
368.636	669.75
368.862	664.75
369.089	665.75
369.315	626.75
369.541	581.75
369.767	600.75
369.993	581.75
370.219	579.75
370.445	592.75
370.672	630.75
370.898	663.75
371.124	632.75
371.35	618.75
371.576	628.75
371.802	655.75
372.028	637.75
372.254	599.75
372.48	583.75
372.706	578.75
372.932	598.75
373.158	599.75
373.384	617.75
373.61	619.75
373.835	654.75
374.061	615.75
374.287	629.75
374.513	625.75
374.739	628.75
374.965	608.75
375.191	619.75
375.416	625.75
375.642	643.75
375.868	711.75
376.094	709.75
376.319	649.75
376.545	625.75
376.771	658.75
376.997	682.75
377.222	682.75
377.448	637.75
377.674	653.75
377.899	654.75
378.125	716.75
378.35	696.75
378.576	629.75
378.802	620.75
379.027	602.75
379.253	641.75
379.478	631.75
379.704	617.75
379.929	633.75
380.155	653.75
380.38	630.75
380.606	658.75
380.831	663.75
381.057	694.75
381.282	689.75
381.507	683.75
381.733	731.75
381.958	737.75
382.184	673.75
382.409	707.75
382.634	676.75
382.86	655.75
383.085	652.75
383.31	697.75
383.535	747.75
383.761	765.75
383.986	742.75
384.211	723.75
384.436	736.75
384.662	737.75
384.887	758.75
385.112	707.75
385.337	715.75
385.562	711.75
385.787	692.75
386.013	755.75
386.238	765.75
386.463	757.75
386.688	823.75
386.913	835.75
387.138	815.75
387.363	776.75
387.588	749.75
387.813	754.75
388.038	796.75
388.263	769.75
388.488	758.75
388.713	713.75
388.938	711.75
389.163	681.75
389.387	732.75
389.612	745.75
389.837	744.75
390.062	745.75
390.287	754.75
390.512	733.75
390.736	741.75
390.961	749.75
391.186	696.75
391.411	721.75
391.636	754.75
391.86	723.75
392.085	723.75
392.31	738.75
392.534	727.75
392.759	768.75
392.984	736.75
393.208	777.75
393.433	803.75
393.658	823.75
393.882	815.75
394.107	782.75
394.331	740.75
394.556	749.75
394.78	775.75
395.005	815.75
395.229	825.75
395.454	846.75
395.678	840.75
395.903	819.75
396.127	801.75
396.352	795.75
396.576	834.75
396.801	833.75
397.025	814.75
397.249	831.75
397.474	815.75
397.698	825.75
397.922	841.75
398.147	874.75
398.371	902.75
398.595	874.75
398.82	831.75
399.044	859.75
399.268	930.75
399.492	925.75
399.717	968.75
399.941	973.75
400.165	955.75
400.389	929.75
400.613	974.75
400.837	1093.75
401.062	1185.75
401.286	999.75
401.51	977.75
401.734	981.75
401.958	937.75
402.182	882.75
402.406	870.75
402.63	857.75
402.854	864.75
403.078	871.75
403.302	883.75
403.526	893.75
403.75	898.75
403.974	943.75
404.198	940.75
404.422	972.75
404.645	992.75
404.869	942.75
405.093	928.75
405.317	872.75
405.541	888.75
405.765	929.75
405.988	919.75
406.212	925.75
406.436	930.75
406.66	969.75
406.883	1027.75
407.107	1105.75
407.331	1198.75
407.555	1266.75
407.778	1100.75
408.002	978.75
408.226	946.75
408.449	959.75
408.673	902.75
408.896	926.75
409.12	929.75
409.344	944.75
409.567	899.75
409.791	935.75
410.014	948.75
410.238	1000.75
410.461	1014.75
410.685	931.75
410.908	893.75
411.132	953.75
411.355	933.75
411.578	911.75
411.802	926.75
412.025	952.75
412.249	909.75
412.472	888.75
412.695	919.75
412.919	892.75
413.142	915.75
413.365	932.75
413.589	946.75
413.812	977.75
414.035	975.75
414.258	908.75
414.482	931.75
414.705	892.75
414.928	918.75
415.151	920.75
415.374	899.75
415.597	923.75
415.821	925.75
416.044	924.75
416.267	937.75
416.49	895.75
416.713	902.75
416.936	932.75
417.159	962.75
417.382	931.75
417.605	897.75
417.828	918.75
418.051	923.75
418.274	926.75
418.497	922.75
418.72	927.75
418.943	902.75
419.166	938.75
419.389	964.75
419.611	937.75
419.834	927.75
420.057	947.75
420.28	907.75
420.503	910.75
420.726	941.75
420.948	935.75
421.171	910.75
421.394	935.75
421.617	964.75
421.839	958.75
422.062	957.75
422.285	929.75
422.507	887.75
422.73	881.75
422.953	865.75
423.175	872.75
423.398	904.75
423.621	884.75
423.843	922.75
424.066	918.75
424.288	990.75
424.511	1022.75
424.733	970.75
424.956	941.75
425.178	917.75
425.401	908.75
425.623	921.75
425.846	911.75
426.068	938.75
426.291	949.75
426.513	931.75
426.735	943.75
426.958	1038.75
427.18	1066.75
427.402	995.75
427.625	1009.75
427.847	982.75
428.069	895.75
428.292	930.75
428.514	892.75
428.736	872.75
428.958	922.75
429.181	888.75
429.403	1053.75
429.625	1199.75
429.847	1039.75
430.069	929.75
430.292	1039.75
430.514	999.75
430.736	973.75
430.958	972.75
431.18	905.75
431.402	893.75
431.624	848.75
431.846	785.75
432.068	736.75
432.29	730.75
432.512	805.75
432.734	855.75
432.956	918.75
433.178	949.75
433.4	963.75
433.622	929.75
433.844	905.75
434.066	842.75
434.287	768.75
434.509	763.75
434.731	797.75
434.953	905.75
435.175	926.75
435.397	891.75
435.618	863.75
435.84	840.75
436.062	816.75
436.284	893.75
436.505	915.75
436.727	933.75
436.949	896.75
437.17	909.75
437.392	872.75
437.614	835.75
437.835	785.75
438.057	797.75
438.278	845.75
438.5	846.75
438.721	885.75
438.943	909.75
439.165	898.75
439.386	920.75
439.608	925.75
439.829	925.75
440.05	933.75
440.272	915.75
440.493	938.75
440.715	977.75
440.936	1011.75
441.158	1050.75
441.379	1045.75
441.6	1037.75
441.822	993.75
442.043	971.75
442.264	975.75
442.486	904.75
442.707	910.75
442.928	899.75
443.149	948.75
443.371	984.75
443.592	1015.75
443.813	1024.75
444.034	1025.75
444.255	999.75
444.476	1007.75
444.698	1009.75
444.919	1031.75
445.14	1111.75
445.361	1075.75
445.582	1055.75
445.803	1043.75
446.024	1011.75
446.245	1066.75
446.466	1049.75
446.687	995.75
446.908	1020.75
447.129	992.75
447.35	1007.75
447.571	976.75
447.792	957.75
448.013	941.75
448.234	954.75
448.455	998.75
448.675	949.75
448.896	930.75
449.117	899.75
449.338	915.75
449.559	946.75
449.779	981.75
450	991.75
450.221	1043.75
450.442	1008.75
450.662	925.75
450.883	877.75
451.104	871.75
451.324	874.75
451.545	874.75
451.766	854.75
451.986	814.75
452.207	812.75
452.428	783.75
452.648	760.75
452.869	794.75
453.089	755.75
453.31	776.75
453.53	748.75
453.751	734.75
453.971	683.75
454.192	704.75
454.412	758.75
454.633	767.75
454.853	787.75
455.073	765.75
455.294	750.75
455.514	772.75
455.734	791.75
455.955	746.75
456.175	732.75
456.395	714.75
456.616	754.75
456.836	742.75
457.056	736.75
457.276	722.75
457.497	673.75
457.717	676.75
457.937	697.75
458.157	713.75
458.377	693.75
458.598	654.75
458.818	651.75
459.038	701.75
459.258	694.75
459.478	697.75
459.698	689.75
459.918	723.75
460.138	778.75
460.358	838.75
460.578	840.75
460.798	842.75
461.018	882.75
461.238	856.75
461.458	835.75
461.678	825.75
461.898	837.75
462.118	834.75
462.338	836.75
462.558	821.75
462.777	848.75
462.997	835.75
463.217	881.75
463.437	859.75
463.657	845.75
463.876	815.75
464.096	806.75
464.316	837.75
464.536	863.75
464.755	863.75
464.975	882.75
465.195	857.75
465.414	879.75
465.634	859.75
465.854	877.75
466.073	930.75
466.293	905.75
466.512	848.75
466.732	864.75
466.951	898.75
467.171	895.75
467.391	857.75
467.61	871.75
467.829	870.75
468.049	979.75
468.268	1027.75
468.488	964.75
468.707	941.75
468.927	870.75
469.146	888.75
469.365	905.75
469.585	920.75
469.804	924.75
470.023	912.75
470.243	960.75
470.462	909.75
470.681	903.75
470.901	887.75
471.12	903.75
471.339	928.75
471.558	908.75
471.777	902.75
471.997	851.75
472.216	849.75
472.435	768.75
472.654	764.75
472.873	743.75
473.092	827.75
473.311	799.75
473.53	825.75
473.749	818.75
473.968	867.75
474.187	812.75
474.406	826.75
474.625	832.75
474.844	866.75
475.063	891.75
475.282	855.75
475.501	804.75
475.72	840.75
475.939	890.75
476.158	889.75
476.377	863.75
476.596	806.75
476.814	822.75
477.033	791.75
477.252	802.75
477.471	899.75
477.69	925.75
477.908	936.75
478.127	975.75
478.346	1010.75
478.564	976.75
478.783	996.75
479.002	993.75
479.22	988.75
479.439	1018.75
479.658	1045.75
479.876	933.75
480.095	903.75
480.313	877.75
480.532	859.75
480.751	840.75
480.969	796.75
481.188	800.75
481.406	785.75
481.624	778.75
481.843	763.75
482.061	793.75
482.28	875.75
482.498	901.75
482.717	834.75
482.935	894.75
483.153	947.75
483.372	1020.75
483.59	1007.75
483.808	938.75
484.027	936.75
484.245	997.75
484.463	1199.75
484.681	1262.75
484.9	986.75
485.118	917.75
485.336	924.75
485.554	915.75
485.772	886.75
485.99	852.75
486.209	886.75
486.427	909.75
486.645	911.75
486.863	984.75
487.081	1043.75
487.299	1016.75
487.517	987.75
487.735	1095.75
487.953	1169.75
488.171	1178.75
488.389	1114.75
488.607	1057.75
488.825	1153.75
489.043	1064.75
489.261	977.75
489.479	1033.75
489.696	1047.75
489.914	991.75
490.132	1018.75
490.35	1069.75
490.568	1145.75
490.786	1175.75
491.003	1236.75
491.221	1241.75
491.439	1286.75
491.657	1295.75
491.874	1317.75
492.092	1398.75
492.31	1484.75
492.527	1437.75
492.745	1324.75
492.963	1313.75
493.18	1281.75
493.398	1314.75
493.615	1345.75
493.833	1264.75
494.05	1226.75
494.268	1239.75
494.485	1219.75
494.703	1197.75
494.92	1209.75
495.138	1229.75
495.355	1249.75
495.573	1245.75
495.79	1284.75
496.008	1248.75
496.225	1190.75
496.442	1230.75
496.66	1224.75
496.877	1195.75
497.094	1245.75
497.312	1237.75
497.529	1181.75
497.746	1178.75
497.963	1233.75
498.181	1318.75
498.398	1295.75
498.615	1211.75
498.832	1123.75
499.049	1142.75
499.267	1181.75
499.484	1221.75
499.701	1316.75
499.918	1385.75
500.135	1480.75
500.352	1575.75
500.569	1549.75
