Data from WStandard_LampEnergy8_LIBS07252019.E.O._I.C._HRD10591_16-00-47-929.txt Node
Date: Thu Jul 25 16:00:47 EDT 2019
User: cochatt
Spectrometer: HR+D1059
Trigger mode: 1
Integration Time (sec): 1.000000E-1
Scans to average: 1
Electric dark correction enabled: true
Nonlinearity correction enabled: false
Boxcar width: 0
XAxis mode: Wavelengths
Number of Pixels in Spectrum: 2048
>>>>>Begin Spectral Data<<<<<
223.165	-20.69
223.4	-20.69
223.635	-20.69
223.869	-30.69
224.104	-17.69
224.338	-6.69
224.573	-13.69
224.808	-13.69
225.042	-5.69
225.277	-7.69
225.511	-0.69
225.746	-0.69
225.98	17.31
226.215	12.31
226.449	11.31
226.683	19.31
226.918	20.31
227.152	37.31
227.387	37.31
227.621	29.31
227.856	47.31
228.09	53.31
228.324	58.31
228.559	57.31
228.793	95.31
229.027	185.31
229.262	194.31
229.496	205.31
229.73	207.31
229.964	234.31
230.199	251.31
230.433	251.31
230.667	259.31
230.901	280.31
231.136	273.31
231.37	249.31
231.604	256.31
231.838	260.31
232.072	240.31
232.306	250.31
232.541	272.31
232.775	289.31
233.009	313.31
233.243	287.31
233.477	275.31
233.711	292.31
233.945	292.31
234.179	299.31
234.413	317.31
234.647	311.31
234.881	308.31
235.115	286.31
235.349	267.31
235.583	296.31
235.817	295.31
236.051	280.31
236.285	281.31
236.519	298.31
236.753	325.31
236.987	350.31
237.221	343.31
237.455	369.31
237.689	347.31
237.922	337.31
238.156	324.31
238.39	335.31
238.624	355.31
238.858	354.31
239.091	397.31
239.325	395.31
239.559	452.31
239.793	461.31
240.027	478.31
240.26	479.31
240.494	355.31
240.728	342.31
240.961	363.31
241.195	375.31
241.429	384.31
241.662	389.31
241.896	379.31
242.13	370.31
242.363	421.31
242.597	427.31
242.83	414.31
243.064	450.31
243.298	443.31
243.531	435.31
243.765	436.31
243.998	430.31
244.232	379.31
244.465	383.31
244.699	397.31
244.932	447.31
245.166	487.31
245.399	475.31
245.633	437.31
245.866	424.31
246.099	453.31
246.333	451.31
246.566	476.31
246.8	494.31
247.033	537.31
247.266	504.31
247.5	479.31
247.733	513.31
247.966	525.31
248.2	576.31
248.433	555.31
248.666	574.31
248.899	634.31
249.133	700.31
249.366	786.31
249.599	642.31
249.832	568.31
250.066	578.31
250.299	597.31
250.532	551.31
250.765	510.31
250.998	553.31
251.231	573.31
251.465	573.31
251.698	543.31
251.931	583.31
252.164	555.31
252.397	580.31
252.63	583.31
252.863	519.31
253.096	508.31
253.329	534.31
253.562	550.31
253.795	568.31
254.028	582.31
254.261	542.31
254.494	520.31
254.727	535.31
254.96	556.31
255.193	598.31
255.426	676.31
255.659	735.31
255.892	738.31
256.124	632.31
256.357	611.31
256.59	677.31
256.823	647.31
257.056	683.31
257.289	800.31
257.521	834.31
257.754	761.31
257.987	745.31
258.22	791.31
258.452	755.31
258.685	648.31
258.918	635.31
259.151	645.31
259.383	637.31
259.616	547.31
259.849	596.31
260.081	683.31
260.314	730.31
260.547	798.31
260.779	769.31
261.012	703.31
261.244	636.31
261.477	646.31
261.71	651.31
261.942	661.31
262.175	645.31
262.407	684.31
262.64	631.31
262.872	606.31
263.105	609.31
263.337	611.31
263.57	608.31
263.802	596.31
264.035	586.31
264.267	555.31
264.499	531.31
264.732	565.31
264.964	618.31
265.197	627.31
265.429	664.31
265.661	751.31
265.894	797.31
266.126	815.31
266.358	751.31
266.591	749.31
266.823	811.31
267.055	760.31
267.287	748.31
267.52	732.31
267.752	717.31
267.984	713.31
268.216	757.31
268.448	738.31
268.681	743.31
268.913	656.31
269.145	650.31
269.377	653.31
269.609	760.31
269.841	831.31
270.073	944.31
270.306	1027.31
270.538	1035.31
270.77	927.31
271.002	799.31
271.234	767.31
271.466	771.31
271.698	886.31
271.93	1014.31
272.162	998.31
272.394	917.31
272.626	844.31
272.858	797.31
273.09	687.31
273.322	661.31
273.553	640.31
273.785	651.31
274.017	686.31
274.249	728.31
274.481	705.31
274.713	673.31
274.945	646.31
275.176	673.31
275.408	669.31
275.64	671.31
275.872	637.31
276.104	709.31
276.335	808.31
276.567	867.31
276.799	861.31
277.031	804.31
277.262	766.31
277.494	760.31
277.726	855.31
277.957	830.31
278.189	772.31
278.421	692.31
278.652	704.31
278.884	700.31
279.115	706.31
279.347	723.31
279.579	725.31
279.81	715.31
280.042	785.31
280.273	821.31
280.505	836.31
280.736	840.31
280.968	783.31
281.199	731.31
281.431	690.31
281.662	675.31
281.894	730.31
282.125	712.31
282.356	750.31
282.588	732.31
282.819	728.31
283.051	777.31
283.282	836.31
283.513	804.31
283.745	705.31
283.976	671.31
284.207	700.31
284.439	716.31
284.67	709.31
284.901	753.31
285.132	744.31
285.364	740.31
285.595	733.31
285.826	733.31
286.057	724.31
286.288	735.31
286.52	773.31
286.751	806.31
286.982	817.31
287.213	739.31
287.444	710.31
287.675	712.31
287.906	762.31
288.138	801.31
288.369	765.31
288.6	734.31
288.831	687.31
289.062	703.31
289.293	717.31
289.524	732.31
289.755	736.31
289.986	757.31
290.217	709.31
290.448	721.31
290.679	721.31
290.91	760.31
291.141	797.31
291.371	806.31
291.602	806.31
291.833	776.31
292.064	820.31
292.295	798.31
292.526	802.31
292.757	834.31
292.987	795.31
293.218	761.31
293.449	836.31
293.68	939.31
293.91	971.31
294.141	924.31
294.372	865.31
294.603	919.31
294.833	948.31
295.064	867.31
295.295	787.31
295.525	767.31
295.756	711.31
295.987	699.31
296.217	744.31
296.448	720.31
296.679	748.31
296.909	730.31
297.14	721.31
297.37	769.31
297.601	798.31
297.831	863.31
298.062	869.31
298.292	791.31
298.523	759.31
298.753	742.31
298.984	751.31
299.214	767.31
299.445	815.31
299.675	823.31
299.905	802.31
300.136	785.31
300.366	744.31
300.597	766.31
300.827	748.31
301.057	778.31
301.288	823.31
301.518	808.31
301.748	847.31
301.979	914.31
302.209	906.31
302.439	941.31
302.669	929.31
302.9	906.31
303.13	835.31
303.36	847.31
303.59	836.31
303.82	819.31
304.051	806.31
304.281	851.31
304.511	849.31
304.741	935.31
304.971	971.31
305.201	1015.31
305.431	929.31
305.661	771.31
305.891	765.31
306.121	740.31
306.352	772.31
306.582	802.31
306.812	872.31
307.042	921.31
307.272	919.31
307.502	964.31
307.731	992.31
307.961	1037.31
308.191	965.31
308.421	859.31
308.651	821.31
308.881	815.31
309.111	810.31
309.341	805.31
309.571	808.31
309.8	814.31
310.03	806.31
310.26	783.31
310.49	784.31
310.72	804.31
310.949	850.31
311.179	841.31
311.409	839.31
311.639	833.31
311.868	828.31
312.098	819.31
312.328	799.31
312.557	819.31
312.787	823.31
313.017	882.31
313.246	831.31
313.476	841.31
313.706	852.31
313.935	855.31
314.165	869.31
314.394	892.31
314.624	928.31
314.853	959.31
315.083	1009.31
315.312	987.31
315.542	957.31
315.771	880.31
316.001	864.31
316.23	935.31
316.46	941.31
316.689	886.31
316.919	872.31
317.148	821.31
317.377	850.31
317.607	923.31
317.836	1005.31
318.065	1029.31
318.295	992.31
318.524	935.31
318.753	937.31
318.983	920.31
319.212	904.31
319.441	899.31
319.67	876.31
319.9	915.31
320.129	943.31
320.358	977.31
320.587	990.31
320.816	1002.31
321.046	959.31
321.275	905.31
321.504	947.31
321.733	1019.31
321.962	949.31
322.191	905.31
322.42	902.31
322.649	886.31
322.878	900.31
323.108	900.31
323.337	923.31
323.566	951.31
323.795	898.31
324.024	913.31
324.253	905.31
324.482	884.31
324.71	881.31
324.939	844.31
325.168	880.31
325.397	898.31
325.626	925.31
325.855	921.31
326.084	900.31
326.313	930.31
326.542	911.31
326.77	936.31
326.999	948.31
327.228	887.31
327.457	868.31
327.686	867.31
327.914	864.31
328.143	915.31
328.372	910.31
328.6	898.31
328.829	896.31
329.058	878.31
329.287	875.31
329.515	929.31
329.744	941.31
329.972	977.31
330.201	1009.31
330.43	975.31
330.658	952.31
330.887	958.31
331.115	965.31
331.344	945.31
331.572	952.31
331.801	942.31
332.03	923.31
332.258	978.31
332.486	949.31
332.715	963.31
332.943	983.31
333.172	979.31
333.4	968.31
333.629	972.31
333.857	1079.31
334.085	1177.31
334.314	1327.31
334.542	1374.31
334.771	1271.31
334.999	1108.31
335.227	1065.31
335.455	1021.31
335.684	1048.31
335.912	1053.31
336.14	1064.31
336.369	1017.31
336.597	1008.31
336.825	986.31
337.053	1017.31
337.281	1069.31
337.51	1098.31
337.738	1131.31
337.966	1078.31
338.194	1002.31
338.422	969.31
338.65	943.31
338.878	925.31
339.106	949.31
339.334	906.31
339.562	929.31
339.79	907.31
340.018	977.31
340.246	984.31
340.474	1000.31
340.702	989.31
340.93	979.31
341.158	966.31
341.386	957.31
341.614	950.31
341.842	953.31
342.07	957.31
342.298	969.31
342.526	938.31
342.754	930.31
342.981	941.31
343.209	935.31
343.437	931.31
343.665	959.31
343.893	1005.31
344.12	1001.31
344.348	1028.31
344.576	997.31
344.804	936.31
345.031	951.31
345.259	961.31
345.487	934.31
345.714	904.31
345.942	866.31
346.17	875.31
346.397	911.31
346.625	918.31
346.853	888.31
347.08	817.31
347.308	867.31
347.535	879.31
347.763	883.31
347.99	904.31
348.218	884.31
348.445	900.31
348.673	893.31
348.9	924.31
349.128	946.31
349.355	971.31
349.583	939.31
349.81	876.31
350.037	840.31
350.265	877.31
350.492	870.31
350.72	868.31
350.947	912.31
351.174	911.31
351.402	872.31
351.629	855.31
351.856	834.31
352.083	838.31
352.311	853.31
352.538	888.31
352.765	909.31
352.992	920.31
353.22	884.31
353.447	859.31
353.674	902.31
353.901	917.31
354.128	868.31
354.355	870.31
354.583	912.31
354.81	941.31
355.037	934.31
355.264	925.31
355.491	915.31
355.718	897.31
355.945	893.31
356.172	878.31
356.399	846.31
356.626	888.31
356.853	893.31
357.08	999.31
357.307	1075.31
357.534	1025.31
357.761	914.31
357.988	875.31
358.215	835.31
358.441	870.31
358.668	839.31
358.895	891.31
359.122	939.31
359.349	1030.31
359.576	978.31
359.802	901.31
360.029	848.31
360.256	865.31
360.483	879.31
360.709	928.31
360.936	921.31
361.163	992.31
361.39	1064.31
361.616	1101.31
361.843	1105.31
362.07	1037.31
362.296	907.31
362.523	888.31
362.749	903.31
362.976	910.31
363.203	908.31
363.429	881.31
363.656	879.31
363.882	937.31
364.109	1030.31
364.335	1057.31
364.562	985.31
364.788	953.31
365.015	917.31
365.241	899.31
365.468	899.31
365.694	950.31
365.92	952.31
366.147	904.31
366.373	877.31
366.599	896.31
366.826	897.31
367.052	894.31
367.278	926.31
367.505	908.31
367.731	926.31
367.957	929.31
368.184	1004.31
368.41	1014.31
368.636	990.31
368.862	1016.31
369.089	1033.31
369.315	964.31
369.541	945.31
369.767	935.31
369.993	903.31
370.219	903.31
370.445	941.31
370.672	991.31
370.898	1058.31
371.124	993.31
371.35	963.31
371.576	996.31
371.802	1027.31
372.028	966.31
372.254	919.31
372.48	929.31
372.706	940.31
372.932	919.31
373.158	943.31
373.384	944.31
373.61	966.31
373.835	1000.31
374.061	946.31
374.287	991.31
374.513	983.31
374.739	966.31
374.965	975.31
375.191	951.31
375.416	995.31
375.642	978.31
375.868	1065.31
376.094	1069.31
376.319	1017.31
376.545	964.31
376.771	1005.31
376.997	1063.31
377.222	1027.31
377.448	1019.31
377.674	1014.31
377.899	1024.31
378.125	1069.31
378.35	1043.31
378.576	968.31
378.802	941.31
379.027	945.31
379.253	945.31
379.478	956.31
379.704	983.31
379.929	950.31
380.155	962.31
380.38	955.31
380.606	987.31
380.831	978.31
381.057	1086.31
381.282	1044.31
381.507	1020.31
381.733	1081.31
381.958	1093.31
382.184	997.31
382.409	981.31
382.634	1017.31
382.86	1036.31
383.085	1018.31
383.31	1091.31
383.535	1147.31
383.761	1171.31
383.986	1112.31
384.211	1098.31
384.436	1089.31
384.662	1139.31
384.887	1153.31
385.112	1119.31
385.337	1150.31
385.562	1120.31
385.787	1091.31
386.013	1145.31
386.238	1131.31
386.463	1159.31
386.688	1216.31
386.913	1271.31
387.138	1227.31
387.363	1119.31
387.588	1112.31
387.813	1125.31
388.038	1122.31
388.263	1167.31
388.488	1123.31
388.713	1073.31
388.938	1068.31
389.163	1094.31
389.387	1076.31
389.612	1069.31
389.837	1133.31
390.062	1111.31
390.287	1142.31
390.512	1069.31
390.736	1114.31
390.961	1115.31
391.186	1070.31
391.411	1100.31
391.636	1108.31
391.86	1123.31
392.085	1107.31
392.31	1060.31
392.534	1118.31
392.759	1099.31
392.984	1119.31
393.208	1121.31
393.433	1155.31
393.658	1194.31
393.882	1188.31
394.107	1132.31
394.331	1105.31
394.556	1101.31
394.78	1136.31
395.005	1192.31
395.229	1215.31
395.454	1283.31
395.678	1249.31
395.903	1180.31
396.127	1159.31
396.352	1189.31
396.576	1240.31
396.801	1240.31
397.025	1214.31
397.249	1214.31
397.474	1181.31
397.698	1201.31
397.922	1232.31
398.147	1309.31
398.371	1339.31
398.595	1280.31
398.82	1262.31
399.044	1281.31
399.268	1373.31
399.492	1435.31
399.717	1448.31
399.941	1454.31
400.165	1447.31
400.389	1392.31
400.613	1440.31
400.837	1590.31
401.062	1781.31
401.286	1485.31
401.51	1388.31
401.734	1408.31
401.958	1375.31
402.182	1318.31
402.406	1247.31
402.63	1281.31
402.854	1270.31
403.078	1292.31
403.302	1280.31
403.526	1311.31
403.75	1327.31
403.974	1326.31
404.198	1369.31
404.422	1411.31
404.645	1455.31
404.869	1404.31
405.093	1325.31
405.317	1281.31
405.541	1295.31
405.765	1336.31
405.988	1291.31
406.212	1349.31
406.436	1350.31
406.66	1422.31
406.883	1448.31
407.107	1632.31
407.331	1751.31
407.555	1875.31
407.778	1644.31
408.002	1429.31
408.226	1413.31
408.449	1371.31
408.673	1343.31
408.896	1348.31
409.12	1377.31
409.344	1327.31
409.567	1325.31
409.791	1337.31
410.014	1354.31
410.238	1438.31
410.461	1497.31
410.685	1319.31
410.908	1290.31
411.132	1315.31
411.355	1311.31
411.578	1317.31
411.802	1318.31
412.025	1337.31
412.249	1297.31
412.472	1266.31
412.695	1256.31
412.919	1276.31
413.142	1272.31
413.365	1285.31
413.589	1349.31
413.812	1390.31
414.035	1400.31
414.258	1321.31
414.482	1263.31
414.705	1278.31
414.928	1295.31
415.151	1284.31
415.374	1295.31
415.597	1300.31
415.821	1301.31
416.044	1324.31
416.267	1324.31
416.49	1245.31
416.713	1251.31
416.936	1281.31
417.159	1344.31
417.382	1325.31
417.605	1267.31
417.828	1292.31
418.051	1317.31
418.274	1279.31
418.497	1287.31
418.72	1238.31
418.943	1268.31
419.166	1277.31
419.389	1354.31
419.611	1281.31
419.834	1226.31
420.057	1283.31
420.28	1280.31
420.503	1272.31
420.726	1268.31
420.948	1284.31
421.171	1225.31
421.394	1252.31
421.617	1330.31
421.839	1318.31
422.062	1303.31
422.285	1255.31
422.507	1251.31
422.73	1213.31
422.953	1202.31
423.175	1207.31
423.398	1245.31
423.621	1256.31
423.843	1277.31
424.066	1272.31
424.288	1353.31
424.511	1372.31
424.733	1351.31
424.956	1210.31
425.178	1175.31
425.401	1232.31
425.623	1267.31
425.846	1252.31
426.068	1282.31
426.291	1336.31
426.513	1286.31
426.735	1317.31
426.958	1375.31
427.18	1453.31
427.402	1323.31
427.625	1387.31
427.847	1349.31
428.069	1255.31
428.292	1235.31
428.514	1216.31
428.736	1197.31
428.958	1198.31
429.181	1241.31
429.403	1442.31
429.625	1699.31
429.847	1460.31
430.069	1259.31
430.292	1392.31
430.514	1383.31
430.736	1297.31
430.958	1353.31
431.18	1289.31
431.402	1204.31
431.624	1181.31
431.846	1151.31
432.068	1115.31
432.29	1159.31
432.512	1175.31
432.734	1253.31
432.956	1265.31
433.178	1292.31
433.4	1293.31
433.622	1308.31
433.844	1247.31
434.066	1216.31
434.287	1151.31
434.509	1173.31
434.731	1240.31
434.953	1310.31
435.175	1323.31
435.397	1261.31
435.618	1236.31
435.84	1211.31
436.062	1225.31
436.284	1211.31
436.505	1243.31
436.727	1241.31
436.949	1239.31
437.17	1183.31
437.392	1196.31
437.614	1207.31
437.835	1149.31
438.057	1201.31
438.278	1251.31
438.5	1188.31
438.721	1200.31
438.943	1197.31
439.165	1205.31
439.386	1180.31
439.608	1247.31
439.829	1221.31
440.05	1240.31
440.272	1199.31
440.493	1235.31
440.715	1203.31
440.936	1312.31
441.158	1427.31
441.379	1367.31
441.6	1344.31
441.822	1341.31
442.043	1306.31
442.264	1288.31
442.486	1254.31
442.707	1236.31
442.928	1204.31
443.149	1293.31
443.371	1342.31
443.592	1343.31
443.813	1303.31
444.034	1323.31
444.255	1316.31
444.476	1353.31
444.698	1355.31
444.919	1365.31
445.14	1411.31
445.361	1405.31
445.582	1428.31
445.803	1336.31
446.024	1328.31
446.245	1368.31
446.466	1350.31
446.687	1283.31
446.908	1316.31
447.129	1259.31
447.35	1282.31
447.571	1236.31
447.792	1181.31
448.013	1193.31
448.234	1231.31
448.455	1281.31
448.675	1296.31
448.896	1186.31
449.117	1175.31
449.338	1155.31
449.559	1246.31
449.779	1299.31
450	1377.31
450.221	1455.31
450.442	1395.31
450.662	1266.31
450.883	1193.31
451.104	1118.31
451.324	1178.31
451.545	1213.31
451.766	1166.31
451.986	1119.31
452.207	1108.31
452.428	1063.31
452.648	1079.31
452.869	1088.31
453.089	1121.31
453.31	1142.31
453.53	1121.31
453.751	1071.31
453.971	1030.31
454.192	1043.31
454.412	1099.31
454.633	1115.31
454.853	1095.31
455.073	1032.31
455.294	1067.31
455.514	1039.31
455.734	1039.31
455.955	1037.31
456.175	1061.31
456.395	1018.31
456.616	1083.31
456.836	1059.31
457.056	1068.31
457.276	1041.31
457.497	1053.31
457.717	998.31
457.937	1007.31
458.157	1013.31
458.377	1004.31
458.598	1008.31
458.818	1006.31
459.038	1076.31
459.258	1135.31
459.478	1108.31
459.698	1083.31
459.918	1101.31
460.138	1162.31
460.358	1197.31
460.578	1203.31
460.798	1259.31
461.018	1292.31
461.238	1287.31
461.458	1243.31
461.678	1213.31
461.898	1190.31
462.118	1194.31
462.338	1203.31
462.558	1232.31
462.777	1234.31
462.997	1279.31
463.217	1335.31
463.437	1307.31
463.657	1239.31
463.876	1222.31
464.096	1229.31
464.316	1224.31
464.536	1290.31
464.755	1264.31
464.975	1256.31
465.195	1275.31
465.414	1289.31
465.634	1256.31
465.854	1233.31
466.073	1351.31
466.293	1302.31
466.512	1189.31
466.732	1177.31
466.951	1196.31
467.171	1217.31
467.391	1159.31
467.61	1159.31
467.829	1191.31
468.049	1289.31
468.268	1398.31
468.488	1277.31
468.707	1199.31
468.927	1193.31
469.146	1162.31
469.365	1182.31
469.585	1215.31
469.804	1147.31
470.023	1211.31
470.243	1189.31
470.462	1196.31
470.681	1197.31
470.901	1199.31
471.12	1212.31
471.339	1228.31
471.558	1165.31
471.777	1182.31
471.997	1177.31
472.216	1160.31
472.435	1100.31
472.654	1093.31
472.873	1144.31
473.092	1191.31
473.311	1162.31
473.53	1120.31
473.749	1113.31
473.968	1161.31
474.187	1187.31
474.406	1240.31
474.625	1196.31
474.844	1179.31
475.063	1167.31
475.282	1216.31
475.501	1191.31
475.72	1201.31
475.939	1261.31
476.158	1200.31
476.377	1167.31
476.596	1170.31
476.814	1185.31
477.033	1210.31
477.252	1241.31
477.471	1283.31
477.69	1233.31
477.908	1259.31
478.127	1299.31
478.346	1402.31
478.564	1375.31
478.783	1375.31
479.002	1388.31
479.22	1378.31
479.439	1423.31
479.658	1536.31
479.876	1452.31
480.095	1395.31
480.313	1288.31
480.532	1281.31
480.751	1288.31
480.969	1281.31
481.188	1233.31
481.406	1203.31
481.624	1223.31
481.843	1227.31
482.061	1254.31
482.28	1269.31
482.498	1336.31
482.717	1280.31
482.935	1263.31
483.153	1317.31
483.372	1373.31
483.59	1349.31
483.808	1344.31
484.027	1337.31
484.245	1415.31
484.463	1659.31
484.681	1819.31
484.9	1448.31
485.118	1329.31
485.336	1316.31
485.554	1315.31
485.772	1371.31
485.99	1337.31
486.209	1387.31
486.427	1341.31
486.645	1385.31
486.863	1395.31
487.081	1406.31
487.299	1415.31
487.517	1386.31
487.735	1413.31
487.953	1478.31
488.171	1455.31
488.389	1461.31
488.607	1459.31
488.825	1554.31
489.043	1499.31
489.261	1379.31
489.479	1410.31
489.696	1427.31
489.914	1408.31
490.132	1399.31
490.35	1431.31
490.568	1512.31
490.786	1455.31
491.003	1427.31
491.221	1512.31
491.439	1517.31
491.657	1550.31
491.874	1629.31
492.092	1615.31
492.31	1650.31
492.527	1643.31
492.745	1579.31
492.963	1556.31
493.18	1567.31
493.398	1642.31
493.615	1665.31
493.833	1573.31
494.05	1533.31
494.268	1516.31
