Data from WStandard_LampEnergy8_LIBS07252019.E.O._I.C._HRD10591_15-58-17-929.txt Node
Date: Thu Jul 25 15:58:17 EDT 2019
User: cochatt
Spectrometer: HR+D1059
Trigger mode: 1
Integration Time (sec): 1.000000E-1
Scans to average: 1
Electric dark correction enabled: true
Nonlinearity correction enabled: false
Boxcar width: 0
XAxis mode: Wavelengths
Number of Pixels in Spectrum: 2048
>>>>>Begin Spectral Data<<<<<
223.165	-24.75
223.4	-24.75
223.635	-24.75
223.869	-1.75
224.104	-31.75
224.338	-10.75
224.573	-20.75
224.808	-20.75
225.042	3.25
225.277	6.25
225.511	3.25
225.746	2.25
225.98	2.25
226.215	1.25
226.449	14.25
226.683	22.25
226.918	25.25
227.152	30.25
227.387	25.25
227.621	34.25
227.856	32.25
228.09	34.25
228.324	37.25
228.559	50.25
228.793	87.25
229.027	221.25
229.262	210.25
229.496	222.25
229.73	236.25
229.964	224.25
230.199	252.25
230.433	276.25
230.667	284.25
230.901	275.25
231.136	277.25
231.37	262.25
231.604	267.25
231.838	273.25
232.072	280.25
232.306	235.25
232.541	264.25
232.775	299.25
233.009	333.25
233.243	332.25
233.477	311.25
233.711	274.25
233.945	297.25
234.179	307.25
234.413	316.25
234.647	333.25
234.881	314.25
235.115	302.25
235.349	313.25
235.583	306.25
235.817	307.25
236.051	298.25
236.285	320.25
236.519	334.25
236.753	348.25
236.987	379.25
237.221	346.25
237.455	389.25
237.689	390.25
237.922	353.25
238.156	361.25
238.39	358.25
238.624	379.25
238.858	382.25
239.091	406.25
239.325	422.25
239.559	475.25
239.793	489.25
240.027	508.25
240.26	493.25
240.494	384.25
240.728	379.25
240.961	398.25
241.195	381.25
241.429	426.25
241.662	414.25
241.896	405.25
242.13	415.25
242.363	450.25
242.597	452.25
242.83	453.25
243.064	470.25
243.298	490.25
243.531	469.25
243.765	473.25
243.998	469.25
244.232	410.25
244.465	420.25
244.699	404.25
244.932	471.25
245.166	525.25
245.399	495.25
245.633	471.25
245.866	455.25
246.099	472.25
246.333	498.25
246.566	480.25
246.8	532.25
247.033	564.25
247.266	538.25
247.5	514.25
247.733	559.25
247.966	559.25
248.2	604.25
248.433	600.25
248.666	634.25
248.899	684.25
249.133	768.25
249.366	830.25
249.599	697.25
249.832	608.25
250.066	631.25
250.299	628.25
250.532	617.25
250.765	553.25
250.998	581.25
251.231	608.25
251.465	603.25
251.698	603.25
251.931	598.25
252.164	622.25
252.397	606.25
252.63	634.25
252.863	548.25
253.096	594.25
253.329	586.25
253.562	604.25
253.795	653.25
254.028	644.25
254.261	592.25
254.494	576.25
254.727	550.25
254.96	588.25
255.193	650.25
255.426	710.25
255.659	780.25
255.892	791.25
256.124	686.25
256.357	678.25
256.59	714.25
256.823	711.25
257.056	741.25
257.289	850.25
257.521	928.25
257.754	834.25
257.987	812.25
258.22	839.25
258.452	843.25
258.685	705.25
258.918	678.25
259.151	677.25
259.383	645.25
259.616	584.25
259.849	644.25
260.081	705.25
260.314	779.25
260.547	837.25
260.779	849.25
261.012	798.25
261.244	696.25
261.477	700.25
261.71	695.25
261.942	694.25
262.175	671.25
262.407	721.25
262.64	691.25
262.872	644.25
263.105	641.25
263.337	633.25
263.57	634.25
263.802	657.25
264.035	604.25
264.267	603.25
264.499	576.25
264.732	617.25
264.964	657.25
265.197	681.25
265.429	734.25
265.661	775.25
265.894	850.25
266.126	862.25
266.358	789.25
266.591	811.25
266.823	849.25
267.055	804.25
267.287	800.25
267.52	763.25
267.752	767.25
267.984	789.25
268.216	799.25
268.448	809.25
268.681	796.25
268.913	743.25
269.145	712.25
269.377	706.25
269.609	795.25
269.841	891.25
270.073	1003.25
270.306	1091.25
270.538	1134.25
270.77	994.25
271.002	842.25
271.234	819.25
271.466	862.25
271.698	904.25
271.93	1058.25
272.162	1056.25
272.394	951.25
272.626	907.25
272.858	827.25
273.09	732.25
273.322	724.25
273.553	689.25
273.785	707.25
274.017	736.25
274.249	800.25
274.481	779.25
274.713	732.25
274.945	695.25
275.176	708.25
275.408	716.25
275.64	678.25
275.872	713.25
276.104	763.25
276.335	837.25
276.567	922.25
276.799	914.25
277.031	871.25
277.262	802.25
277.494	846.25
277.726	892.25
277.957	882.25
278.189	805.25
278.421	760.25
278.652	745.25
278.884	745.25
279.115	768.25
279.347	754.25
279.579	732.25
279.81	762.25
280.042	833.25
280.273	895.25
280.505	907.25
280.736	895.25
280.968	846.25
281.199	746.25
281.431	716.25
281.662	727.25
281.894	729.25
282.125	751.25
282.356	771.25
282.588	778.25
282.819	804.25
283.051	857.25
283.282	882.25
283.513	852.25
283.745	759.25
283.976	725.25
284.207	727.25
284.439	736.25
284.67	770.25
284.901	787.25
285.132	790.25
285.364	781.25
285.595	774.25
285.826	777.25
286.057	792.25
286.288	755.25
286.52	830.25
286.751	854.25
286.982	876.25
287.213	800.25
287.444	755.25
287.675	765.25
287.906	802.25
288.138	823.25
288.369	794.25
288.6	771.25
288.831	736.25
289.062	753.25
289.293	771.25
289.524	772.25
289.755	802.25
289.986	804.25
290.217	763.25
290.448	773.25
290.679	778.25
290.91	801.25
291.141	800.25
291.371	848.25
291.602	840.25
291.833	853.25
292.064	865.25
292.295	842.25
292.526	856.25
292.757	859.25
292.987	848.25
293.218	818.25
293.449	880.25
293.68	968.25
293.91	1019.25
294.141	975.25
294.372	933.25
294.603	963.25
294.833	982.25
295.064	907.25
295.295	833.25
295.525	814.25
295.756	768.25
295.987	718.25
296.217	770.25
296.448	785.25
296.679	782.25
296.909	794.25
297.14	792.25
297.37	806.25
297.601	851.25
297.831	887.25
298.062	891.25
298.292	826.25
298.523	798.25
298.753	805.25
298.984	808.25
299.214	855.25
299.445	852.25
299.675	839.25
299.905	845.25
300.136	841.25
300.366	808.25
300.597	806.25
300.827	792.25
301.057	816.25
301.288	880.25
301.518	863.25
301.748	904.25
301.979	944.25
302.209	934.25
302.439	993.25
302.669	1020.25
302.9	942.25
303.13	872.25
303.36	865.25
303.59	880.25
303.82	873.25
304.051	857.25
304.281	871.25
304.511	876.25
304.741	970.25
304.971	1079.25
305.201	1060.25
305.431	964.25
305.661	842.25
305.891	754.25
306.121	759.25
306.352	825.25
306.582	863.25
306.812	905.25
307.042	923.25
307.272	970.25
307.502	1002.25
307.731	1073.25
307.961	1091.25
308.191	1008.25
308.421	900.25
308.651	864.25
308.881	843.25
309.111	857.25
309.341	826.25
309.571	847.25
309.8	834.25
310.03	834.25
310.26	817.25
310.49	833.25
310.72	850.25
310.949	900.25
311.179	898.25
311.409	839.25
311.639	862.25
311.868	835.25
312.098	863.25
312.328	833.25
312.557	848.25
312.787	863.25
313.017	878.25
313.246	892.25
313.476	890.25
313.706	898.25
313.935	904.25
314.165	884.25
314.394	964.25
314.624	996.25
314.853	1039.25
315.083	1058.25
315.312	1060.25
315.542	971.25
315.771	898.25
316.001	921.25
316.23	950.25
316.46	973.25
316.689	935.25
316.919	898.25
317.148	882.25
317.377	914.25
317.607	983.25
317.836	1030.25
318.065	1096.25
318.295	1018.25
318.524	1023.25
318.753	985.25
318.983	956.25
319.212	955.25
319.441	924.25
319.67	911.25
319.9	950.25
320.129	1007.25
320.358	1036.25
320.587	1055.25
320.816	1080.25
321.046	1000.25
321.275	992.25
321.504	993.25
321.733	1037.25
321.962	1019.25
322.191	946.25
322.42	953.25
322.649	916.25
322.878	946.25
323.108	935.25
323.337	990.25
323.566	970.25
323.795	948.25
324.024	973.25
324.253	975.25
324.482	951.25
324.71	900.25
324.939	874.25
325.168	892.25
325.397	923.25
325.626	977.25
325.855	955.25
326.084	942.25
326.313	944.25
326.542	988.25
326.77	972.25
326.999	991.25
327.228	947.25
327.457	870.25
327.686	916.25
327.914	920.25
328.143	935.25
328.372	947.25
328.6	939.25
328.829	944.25
329.058	914.25
329.287	922.25
329.515	960.25
329.744	975.25
329.972	1054.25
330.201	1068.25
330.43	1014.25
330.658	987.25
330.887	999.25
331.115	1024.25
331.344	1014.25
331.572	994.25
331.801	974.25
332.03	1032.25
332.258	984.25
332.486	1021.25
332.715	1008.25
332.943	1034.25
333.172	1015.25
333.4	990.25
333.629	1033.25
333.857	1110.25
334.085	1269.25
334.314	1374.25
334.542	1441.25
334.771	1332.25
334.999	1191.25
335.227	1122.25
335.455	1062.25
335.684	1086.25
335.912	1068.25
336.14	1109.25
336.369	1078.25
336.597	1041.25
336.825	1033.25
337.053	1087.25
337.281	1129.25
337.51	1146.25
337.738	1173.25
337.966	1132.25
338.194	1030.25
338.422	1003.25
338.65	982.25
338.878	983.25
339.106	945.25
339.334	958.25
339.562	978.25
339.79	996.25
340.018	1035.25
340.246	1072.25
340.474	1070.25
340.702	1030.25
340.93	1032.25
341.158	999.25
341.386	1008.25
341.614	1016.25
341.842	1009.25
342.07	1003.25
342.298	1002.25
342.526	979.25
342.754	998.25
342.981	985.25
343.209	994.25
343.437	963.25
343.665	1019.25
343.893	1049.25
344.12	1064.25
344.348	1094.25
344.576	1022.25
344.804	963.25
345.031	994.25
345.259	991.25
345.487	965.25
345.714	921.25
345.942	922.25
346.17	954.25
346.397	926.25
346.625	944.25
346.853	889.25
347.08	907.25
347.308	922.25
347.535	938.25
347.763	949.25
347.99	954.25
348.218	906.25
348.445	929.25
348.673	944.25
348.9	967.25
349.128	989.25
349.355	1034.25
349.583	972.25
349.81	952.25
350.037	871.25
350.265	868.25
350.492	899.25
350.72	915.25
350.947	968.25
351.174	956.25
351.402	909.25
351.629	863.25
351.856	848.25
352.083	855.25
352.311	920.25
352.538	918.25
352.765	976.25
352.992	953.25
353.22	928.25
353.447	916.25
353.674	947.25
353.901	946.25
354.128	931.25
354.355	894.25
354.583	960.25
354.81	966.25
355.037	961.25
355.264	931.25
355.491	938.25
355.718	945.25
355.945	922.25
356.172	904.25
356.399	910.25
356.626	923.25
356.853	955.25
357.08	1070.25
357.307	1116.25
357.534	1059.25
357.761	961.25
357.988	904.25
358.215	911.25
358.441	887.25
358.668	905.25
358.895	944.25
359.122	966.25
359.349	1054.25
359.576	1032.25
359.802	932.25
360.029	898.25
360.256	908.25
360.483	926.25
360.709	945.25
360.936	1007.25
361.163	1031.25
361.39	1100.25
361.616	1162.25
361.843	1172.25
362.07	1047.25
362.296	946.25
362.523	930.25
362.749	939.25
362.976	936.25
363.203	961.25
363.429	913.25
363.656	917.25
363.882	973.25
364.109	1102.25
364.335	1121.25
364.562	1060.25
364.788	998.25
365.015	931.25
365.241	925.25
365.468	943.25
365.694	973.25
365.92	1018.25
366.147	965.25
366.373	916.25
366.599	902.25
366.826	908.25
367.052	921.25
367.278	921.25
367.505	970.25
367.731	939.25
367.957	958.25
368.184	1019.25
368.41	1094.25
368.636	1077.25
368.862	1072.25
369.089	1074.25
369.315	1036.25
369.541	994.25
369.767	975.25
369.993	927.25
370.219	954.25
370.445	982.25
370.672	1021.25
370.898	1102.25
371.124	1040.25
371.35	1026.25
371.576	1059.25
371.802	1030.25
372.028	995.25
372.254	990.25
372.48	945.25
372.706	954.25
372.932	961.25
373.158	978.25
373.384	973.25
373.61	1049.25
373.835	1034.25
374.061	1001.25
374.287	1008.25
374.513	992.25
374.739	1022.25
374.965	1045.25
375.191	1025.25
375.416	1011.25
375.642	1033.25
375.868	1112.25
376.094	1136.25
376.319	1060.25
376.545	1003.25
376.771	1054.25
376.997	1113.25
377.222	1076.25
377.448	1048.25
377.674	1053.25
377.899	1093.25
378.125	1128.25
378.35	1116.25
378.576	984.25
378.802	983.25
379.027	968.25
379.253	971.25
379.478	1001.25
379.704	1021.25
379.929	988.25
380.155	1044.25
380.38	1040.25
380.606	992.25
380.831	1037.25
381.057	1106.25
381.282	1092.25
381.507	1078.25
381.733	1148.25
381.958	1174.25
382.184	1066.25
382.409	1042.25
382.634	1057.25
382.86	1067.25
383.085	1089.25
383.31	1098.25
383.535	1226.25
383.761	1227.25
383.986	1163.25
384.211	1139.25
384.436	1168.25
384.662	1203.25
384.887	1224.25
385.112	1170.25
385.337	1146.25
385.562	1130.25
385.787	1147.25
386.013	1188.25
386.238	1163.25
386.463	1192.25
386.688	1284.25
386.913	1342.25
387.138	1315.25
387.363	1181.25
387.588	1163.25
387.813	1159.25
388.038	1237.25
388.263	1234.25
388.488	1157.25
388.713	1098.25
388.938	1080.25
389.163	1075.25
389.387	1135.25
389.612	1142.25
389.837	1187.25
390.062	1171.25
390.287	1149.25
390.512	1138.25
390.736	1118.25
390.961	1097.25
391.186	1113.25
391.411	1104.25
391.636	1154.25
391.86	1157.25
392.085	1139.25
392.31	1134.25
392.534	1151.25
392.759	1134.25
392.984	1145.25
393.208	1193.25
393.433	1200.25
393.658	1260.25
393.882	1226.25
394.107	1155.25
394.331	1119.25
394.556	1182.25
394.78	1183.25
395.005	1225.25
395.229	1255.25
395.454	1313.25
395.678	1330.25
395.903	1266.25
396.127	1198.25
396.352	1234.25
396.576	1258.25
396.801	1302.25
397.025	1251.25
397.249	1242.25
397.474	1258.25
397.698	1241.25
397.922	1274.25
398.147	1340.25
398.371	1415.25
398.595	1387.25
398.82	1344.25
399.044	1360.25
399.268	1381.25
399.492	1463.25
399.717	1520.25
399.941	1544.25
400.165	1479.25
400.389	1428.25
400.613	1477.25
400.837	1690.25
401.062	1839.25
401.286	1524.25
401.51	1467.25
401.734	1491.25
401.958	1463.25
402.182	1326.25
402.406	1346.25
402.63	1303.25
402.854	1299.25
403.078	1319.25
403.302	1368.25
403.526	1356.25
403.75	1342.25
403.974	1396.25
404.198	1384.25
404.422	1458.25
404.645	1511.25
404.869	1438.25
405.093	1362.25
405.317	1319.25
405.541	1342.25
405.765	1340.25
405.988	1374.25
406.212	1387.25
406.436	1422.25
406.66	1458.25
406.883	1522.25
407.107	1685.25
407.331	1844.25
407.555	1972.25
407.778	1722.25
408.002	1453.25
408.226	1415.25
408.449	1415.25
408.673	1391.25
408.896	1402.25
409.12	1438.25
409.344	1376.25
409.567	1355.25
409.791	1386.25
410.014	1422.25
410.238	1472.25
410.461	1562.25
410.685	1373.25
410.908	1330.25
411.132	1381.25
411.355	1360.25
411.578	1330.25
411.802	1360.25
412.025	1376.25
412.249	1380.25
412.472	1352.25
412.695	1338.25
412.919	1296.25
413.142	1321.25
413.365	1326.25
413.589	1391.25
413.812	1446.25
414.035	1474.25
414.258	1351.25
414.482	1323.25
414.705	1330.25
414.928	1300.25
415.151	1291.25
415.374	1338.25
415.597	1384.25
415.821	1362.25
416.044	1342.25
416.267	1375.25
416.49	1321.25
416.713	1296.25
416.936	1306.25
417.159	1383.25
417.382	1380.25
417.605	1266.25
417.828	1347.25
418.051	1364.25
418.274	1352.25
418.497	1276.25
418.72	1263.25
418.943	1311.25
419.166	1333.25
419.389	1376.25
419.611	1308.25
419.834	1324.25
420.057	1341.25
420.28	1291.25
420.503	1311.25
420.726	1341.25
420.948	1308.25
421.171	1300.25
421.394	1308.25
421.617	1323.25
421.839	1345.25
422.062	1328.25
422.285	1314.25
422.507	1266.25
422.73	1260.25
422.953	1248.25
423.175	1216.25
423.398	1281.25
423.621	1287.25
423.843	1326.25
424.066	1339.25
424.288	1396.25
424.511	1448.25
424.733	1365.25
424.956	1243.25
425.178	1227.25
425.401	1244.25
425.623	1310.25
425.846	1280.25
426.068	1342.25
426.291	1359.25
426.513	1320.25
426.735	1328.25
426.958	1479.25
427.18	1517.25
427.402	1382.25
427.625	1468.25
427.847	1363.25
428.069	1314.25
428.292	1302.25
428.514	1278.25
428.736	1256.25
428.958	1270.25
429.181	1288.25
429.403	1524.25
429.625	1750.25
429.847	1475.25
430.069	1338.25
430.292	1502.25
430.514	1487.25
430.736	1375.25
430.958	1420.25
431.18	1324.25
431.402	1253.25
431.624	1216.25
431.846	1170.25
432.068	1137.25
432.29	1163.25
432.512	1190.25
432.734	1246.25
432.956	1277.25
433.178	1323.25
433.4	1338.25
433.622	1319.25
433.844	1269.25
434.066	1214.25
434.287	1230.25
434.509	1217.25
434.731	1285.25
434.953	1374.25
435.175	1351.25
435.397	1281.25
435.618	1270.25
435.84	1267.25
436.062	1225.25
436.284	1288.25
436.505	1279.25
436.727	1337.25
436.949	1292.25
437.17	1272.25
437.392	1237.25
437.614	1222.25
437.835	1169.25
438.057	1255.25
438.278	1249.25
438.5	1252.25
438.721	1244.25
438.943	1250.25
439.165	1254.25
439.386	1264.25
439.608	1290.25
439.829	1246.25
440.05	1278.25
440.272	1291.25
440.493	1266.25
440.715	1292.25
440.936	1347.25
441.158	1444.25
441.379	1420.25
441.6	1384.25
441.822	1352.25
442.043	1371.25
442.264	1345.25
442.486	1298.25
442.707	1249.25
442.928	1259.25
443.149	1304.25
443.371	1380.25
443.592	1430.25
443.813	1385.25
444.034	1385.25
444.255	1374.25
444.476	1413.25
444.698	1426.25
444.919	1387.25
445.14	1514.25
445.361	1479.25
445.582	1475.25
445.803	1429.25
446.024	1432.25
446.245	1479.25
446.466	1363.25
446.687	1357.25
446.908	1366.25
447.129	1319.25
447.35	1310.25
447.571	1330.25
447.792	1280.25
448.013	1248.25
448.234	1287.25
448.455	1322.25
448.675	1316.25
448.896	1212.25
449.117	1211.25
449.338	1193.25
449.559	1294.25
449.779	1366.25
450	1415.25
450.221	1474.25
450.442	1438.25
450.662	1313.25
450.883	1198.25
451.104	1168.25
451.324	1194.25
451.545	1250.25
451.766	1202.25
451.986	1167.25
452.207	1123.25
452.428	1080.25
452.648	1115.25
452.869	1135.25
453.089	1138.25
453.31	1170.25
453.53	1153.25
453.751	1103.25
453.971	1060.25
454.192	1094.25
454.412	1143.25
454.633	1136.25
454.853	1149.25
455.073	1064.25
455.294	1090.25
455.514	1092.25
455.734	1079.25
455.955	1088.25
456.175	1119.25
456.395	1071.25
456.616	1083.25
456.836	1124.25
457.056	1084.25
457.276	1128.25
457.497	1098.25
457.717	1026.25
457.937	1064.25
458.157	1066.25
458.377	1066.25
458.598	1037.25
458.818	1079.25
459.038	1098.25
459.258	1129.25
459.478	1161.25
459.698	1151.25
459.918	1184.25
460.138	1232.25
460.358	1248.25
460.578	1278.25
460.798	1327.25
461.018	1358.25
461.238	1292.25
461.458	1292.25
461.678	1287.25
461.898	1247.25
462.118	1239.25
462.338	1284.25
462.558	1285.25
462.777	1324.25
462.997	1320.25
463.217	1416.25
463.437	1365.25
463.657	1273.25
463.876	1268.25
464.096	1280.25
464.316	1294.25
464.536	1300.25
464.755	1319.25
464.975	1358.25
465.195	1306.25
465.414	1349.25
465.634	1300.25
465.854	1280.25
466.073	1408.25
466.293	1340.25
466.512	1226.25
466.732	1186.25
466.951	1252.25
467.171	1265.25
467.391	1195.25
467.61	1193.25
467.829	1207.25
468.049	1323.25
468.268	1468.25
468.488	1350.25
468.707	1292.25
468.927	1258.25
469.146	1193.25
469.365	1243.25
469.585	1246.25
469.804	1246.25
470.023	1244.25
470.243	1239.25
470.462	1239.25
470.681	1240.25
470.901	1251.25
471.12	1232.25
471.339	1258.25
471.558	1233.25
471.777	1206.25
471.997	1214.25
472.216	1184.25
472.435	1132.25
472.654	1175.25
472.873	1188.25
473.092	1248.25
473.311	1204.25
473.53	1147.25
473.749	1123.25
473.968	1201.25
474.187	1245.25
474.406	1212.25
474.625	1262.25
474.844	1245.25
475.063	1233.25
475.282	1226.25
475.501	1196.25
475.72	1186.25
475.939	1321.25
476.158	1268.25
476.377	1227.25
476.596	1228.25
476.814	1227.25
477.033	1208.25
477.252	1291.25
477.471	1321.25
477.69	1292.25
477.908	1290.25
478.127	1361.25
478.346	1441.25
478.564	1444.25
478.783	1433.25
479.002	1448.25
479.22	1397.25
479.439	1467.25
479.658	1582.25
479.876	1542.25
480.095	1392.25
480.313	1371.25
480.532	1339.25
480.751	1327.25
480.969	1305.25
481.188	1292.25
481.406	1290.25
481.624	1275.25
481.843	1279.25
482.061	1294.25
482.28	1357.25
482.498	1391.25
482.717	1331.25
482.935	1321.25
483.153	1353.25
483.372	1392.25
483.59	1356.25
483.808	1369.25
484.027	1380.25
484.245	1450.25
484.463	1776.25
484.681	1938.25
484.9	1497.25
485.118	1402.25
485.336	1346.25
485.554	1360.25
485.772	1431.25
485.99	1390.25
486.209	1379.25
486.427	1392.25
486.645	1444.25
486.863	1411.25
487.081	1472.25
487.299	1455.25
487.517	1459.25
487.735	1483.25
487.953	1525.25
488.171	1528.25
488.389	1513.25
488.607	1497.25
488.825	1632.25
489.043	1574.25
489.261	1414.25
489.479	1470.25
489.696	1504.25
489.914	1477.25
490.132	1451.25
490.35	1474.25
490.568	1572.25
490.786	1479.25
491.003	1465.25
491.221	1595.25
491.439	1575.25
491.657	1615.25
491.874	1621.25
492.092	1653.25
492.31	1740.25
492.527	1673.25
492.745	1650.25
492.963	1603.25
493.18	1619.25
493.398	1689.25
