Data from WStandard_LampEnergy5.5LIBS07252019.E.O._I.C._HRD10591_16-09-02-921.txt Node
Date: Thu Jul 25 16:09:02 EDT 2019
User: cochatt
Spectrometer: HR+D1059
Trigger mode: 1
Integration Time (sec): 1.000000E-1
Scans to average: 1
Electric dark correction enabled: true
Nonlinearity correction enabled: false
Boxcar width: 0
XAxis mode: Wavelengths
Number of Pixels in Spectrum: 2048
>>>>>Begin Spectral Data<<<<<
223.165	-12.69
223.4	-12.69
223.635	-12.69
223.869	-13.69
224.104	-20.69
224.338	-11.69
224.573	-18.69
224.808	-17.69
225.042	-0.69
225.277	-9.69
225.511	-1.69
225.746	12.31
225.98	21.31
226.215	9.31
226.449	9.31
226.683	10.31
226.918	15.31
227.152	29.31
227.387	33.31
227.621	45.31
227.856	35.31
228.09	62.31
228.324	55.31
228.559	62.31
228.793	138.31
229.027	363.31
229.262	349.31
229.496	371.31
229.73	391.31
229.964	418.31
230.199	450.31
230.433	454.31
230.667	498.31
230.901	510.31
231.136	471.31
231.37	451.31
231.604	453.31
231.838	475.31
232.072	454.31
232.306	431.31
232.541	472.31
232.775	551.31
233.009	601.31
233.243	570.31
233.477	519.31
233.711	549.31
233.945	545.31
234.179	541.31
234.413	571.31
234.647	612.31
234.881	580.31
235.115	537.31
235.349	515.31
235.583	565.31
235.817	561.31
236.051	519.31
236.285	535.31
236.519	599.31
236.753	619.31
236.987	678.31
237.221	662.31
237.455	714.31
237.689	693.31
237.922	663.31
238.156	639.31
238.39	636.31
238.624	698.31
238.858	726.31
239.091	728.31
239.325	776.31
239.559	890.31
239.793	901.31
240.027	1020.31
240.26	1002.31
240.494	718.31
240.728	710.31
240.961	720.31
241.195	719.31
241.429	795.31
241.662	790.31
241.896	740.31
242.13	743.31
242.363	822.31
242.597	886.31
242.83	841.31
243.064	873.31
243.298	934.31
243.531	893.31
243.765	883.31
243.998	875.31
244.232	783.31
244.465	779.31
244.699	769.31
244.932	854.31
245.166	1029.31
245.399	945.31
245.633	886.31
245.866	888.31
246.099	895.31
246.333	917.31
246.566	951.31
246.8	1027.31
247.033	1134.31
247.266	1059.31
247.5	1005.31
247.733	1020.31
247.966	1077.31
248.2	1188.31
248.433	1148.31
248.666	1144.31
248.899	1238.31
249.133	1477.31
249.366	1704.31
249.599	1390.31
249.832	1219.31
250.066	1239.31
250.299	1279.31
250.532	1169.31
250.765	1058.31
250.998	1111.31
251.231	1161.31
251.465	1206.31
251.698	1121.31
251.931	1125.31
252.164	1160.31
252.397	1195.31
252.63	1210.31
252.863	1087.31
253.096	1069.31
253.329	1110.31
253.562	1186.31
253.795	1242.31
254.028	1229.31
254.261	1167.31
254.494	1112.31
254.727	1055.31
254.96	1117.31
255.193	1215.31
255.426	1380.31
255.659	1589.31
255.892	1627.31
256.124	1336.31
256.357	1295.31
256.59	1378.31
256.823	1369.31
257.056	1352.31
257.289	1661.31
257.521	1800.31
257.754	1629.31
257.987	1523.31
258.22	1686.31
258.452	1665.31
258.685	1410.31
258.918	1308.31
259.151	1369.31
259.383	1279.31
259.616	1111.31
259.849	1185.31
260.081	1346.31
260.314	1514.31
260.547	1638.31
260.779	1661.31
261.012	1573.31
261.244	1410.31
261.477	1308.31
261.71	1382.31
261.942	1380.31
262.175	1347.31
262.407	1424.31
262.64	1344.31
262.872	1252.31
263.105	1221.31
263.337	1231.31
263.57	1278.31
263.802	1287.31
264.035	1207.31
264.267	1093.31
264.499	1109.31
264.732	1208.31
264.964	1270.31
265.197	1301.31
265.429	1347.31
265.661	1555.31
265.894	1674.31
266.126	1739.31
266.358	1525.31
266.591	1594.31
266.823	1772.31
267.055	1572.31
267.287	1533.31
267.52	1511.31
267.752	1485.31
267.984	1494.31
268.216	1574.31
268.448	1617.31
268.681	1576.31
268.913	1457.31
269.145	1418.31
269.377	1369.31
269.609	1453.31
269.841	1717.31
270.073	1945.31
270.306	2175.31
270.538	2414.31
270.77	1986.31
271.002	1702.31
271.234	1614.31
271.466	1593.31
271.698	1723.31
271.93	2153.31
272.162	2169.31
272.394	1929.31
272.626	1869.31
272.858	1679.31
273.09	1386.31
273.322	1451.31
273.553	1325.31
273.785	1360.31
274.017	1366.31
274.249	1534.31
274.481	1589.31
274.713	1378.31
274.945	1385.31
275.176	1405.31
275.408	1382.31
275.64	1366.31
275.872	1294.31
276.104	1407.31
276.335	1612.31
276.567	1852.31
276.799	1855.31
277.031	1627.31
277.262	1531.31
277.494	1629.31
277.726	1812.31
277.957	1758.31
278.189	1610.31
278.421	1501.31
278.652	1449.31
278.884	1460.31
279.115	1437.31
279.347	1505.31
279.579	1428.31
279.81	1395.31
280.042	1570.31
280.273	1739.31
280.505	1696.31
280.736	1764.31
280.968	1655.31
281.199	1474.31
281.431	1401.31
281.662	1400.31
281.894	1416.31
282.125	1465.31
282.356	1503.31
282.588	1529.31
282.819	1501.31
283.051	1622.31
283.282	1791.31
283.513	1761.31
283.745	1517.31
283.976	1390.31
284.207	1405.31
284.439	1449.31
284.67	1431.31
284.901	1517.31
285.132	1538.31
285.364	1475.31
285.595	1518.31
285.826	1506.31
286.057	1448.31
286.288	1481.31
286.52	1521.31
286.751	1654.31
286.982	1730.31
287.213	1585.31
287.444	1439.31
287.675	1424.31
287.906	1514.31
288.138	1636.31
288.369	1585.31
288.6	1510.31
288.831	1445.31
289.062	1446.31
289.293	1480.31
289.524	1504.31
289.755	1539.31
289.986	1569.31
290.217	1411.31
290.448	1468.31
290.679	1489.31
290.91	1510.31
291.141	1556.31
291.371	1539.31
291.602	1578.31
291.833	1532.31
292.064	1583.31
292.295	1567.31
292.526	1632.31
292.757	1682.31
292.987	1594.31
293.218	1522.31
293.449	1625.31
293.68	1842.31
293.91	1966.31
294.141	1825.31
294.372	1729.31
294.603	1807.31
294.833	1945.31
295.064	1799.31
295.295	1581.31
295.525	1549.31
295.756	1455.31
295.987	1397.31
296.217	1413.31
296.448	1468.31
296.679	1492.31
296.909	1536.31
297.14	1477.31
297.37	1492.31
297.601	1565.31
297.831	1670.31
298.062	1715.31
298.292	1545.31
298.523	1497.31
298.753	1522.31
298.984	1540.31
299.214	1524.31
299.445	1559.31
299.675	1588.31
299.905	1616.31
300.136	1578.31
300.366	1542.31
300.597	1452.31
300.827	1481.31
301.057	1535.31
301.288	1630.31
301.518	1609.31
301.748	1624.31
301.979	1713.31
302.209	1746.31
302.439	1803.31
302.669	1890.31
302.9	1827.31
303.13	1624.31
303.36	1615.31
303.59	1662.31
303.82	1648.31
304.051	1592.31
304.281	1630.31
304.511	1641.31
304.741	1701.31
304.971	1879.31
305.201	1992.31
305.431	1904.31
305.661	1551.31
305.891	1427.31
306.121	1426.31
306.352	1480.31
306.582	1551.31
306.812	1667.31
307.042	1825.31
307.272	1806.31
307.502	1867.31
307.731	1947.31
307.961	2087.31
308.191	1910.31
308.421	1690.31
308.651	1652.31
308.881	1560.31
309.111	1597.31
309.341	1537.31
309.571	1561.31
309.8	1558.31
310.03	1568.31
310.26	1554.31
310.49	1508.31
310.72	1555.31
310.949	1637.31
311.179	1650.31
311.409	1643.31
311.639	1617.31
311.868	1560.31
312.098	1622.31
312.328	1610.31
312.557	1557.31
312.787	1610.31
313.017	1638.31
313.246	1632.31
313.476	1601.31
313.706	1671.31
313.935	1638.31
314.165	1662.31
314.394	1719.31
314.624	1795.31
314.853	1876.31
315.083	1980.31
315.312	2039.31
315.542	1877.31
315.771	1677.31
316.001	1630.31
316.23	1756.31
316.46	1746.31
316.689	1725.31
316.919	1662.31
317.148	1628.31
317.377	1643.31
317.607	1754.31
317.836	1899.31
318.065	1996.31
318.295	1950.31
318.524	1833.31
318.753	1778.31
318.983	1737.31
319.212	1708.31
319.441	1706.31
319.67	1662.31
319.9	1711.31
320.129	1749.31
320.358	1871.31
320.587	1915.31
320.816	1929.31
321.046	1911.31
321.275	1757.31
321.504	1770.31
321.733	1939.31
321.962	1892.31
322.191	1683.31
322.42	1761.31
322.649	1692.31
322.878	1708.31
323.108	1724.31
323.337	1749.31
323.566	1762.31
323.795	1716.31
324.024	1762.31
324.253	1728.31
324.482	1742.31
324.71	1738.31
324.939	1617.31
325.168	1626.31
325.397	1695.31
325.626	1745.31
325.855	1750.31
326.084	1689.31
326.313	1706.31
326.542	1741.31
326.77	1803.31
326.999	1809.31
327.228	1739.31
327.457	1628.31
327.686	1619.31
327.914	1683.31
328.143	1754.31
328.372	1701.31
328.6	1719.31
328.829	1672.31
329.058	1681.31
329.287	1631.31
329.515	1734.31
329.744	1748.31
329.972	1820.31
330.201	1903.31
330.43	1863.31
330.658	1784.31
330.887	1763.31
331.115	1820.31
331.344	1833.31
331.572	1808.31
331.801	1773.31
332.03	1801.31
332.258	1821.31
332.486	1821.31
332.715	1843.31
332.943	1871.31
333.172	1797.31
333.4	1801.31
333.629	1874.31
333.857	1996.31
334.085	2129.31
334.314	2439.31
334.542	2663.31
334.771	2493.31
334.999	2149.31
335.227	2077.31
335.455	1991.31
335.684	1944.31
335.912	1989.31
336.14	2027.31
336.369	1993.31
336.597	1899.31
336.825	1829.31
337.053	1875.31
337.281	1987.31
337.51	2023.31
337.738	2167.31
337.966	2052.31
338.194	1876.31
338.422	1831.31
338.65	1777.31
338.878	1771.31
339.106	1748.31
339.334	1727.31
339.562	1685.31
339.79	1743.31
340.018	1862.31
340.246	1900.31
340.474	1928.31
340.702	1861.31
340.93	1891.31
341.158	1839.31
341.386	1826.31
341.614	1800.31
341.842	1795.31
342.07	1762.31
342.298	1807.31
342.526	1800.31
342.754	1779.31
342.981	1756.31
343.209	1811.31
343.437	1784.31
343.665	1794.31
343.893	1857.31
344.12	1886.31
344.348	1913.31
344.576	1841.31
344.804	1785.31
345.031	1815.31
345.259	1793.31
345.487	1759.31
345.714	1675.31
345.942	1697.31
346.17	1653.31
346.397	1714.31
346.625	1725.31
346.853	1677.31
347.08	1587.31
347.308	1601.31
347.535	1661.31
347.763	1703.31
347.99	1657.31
348.218	1646.31
348.445	1637.31
348.673	1652.31
348.9	1725.31
349.128	1746.31
349.355	1835.31
349.583	1798.31
349.81	1700.31
350.037	1558.31
350.265	1546.31
350.492	1585.31
350.72	1618.31
350.947	1667.31
351.174	1718.31
351.402	1679.31
351.629	1580.31
351.856	1549.31
352.083	1554.31
352.311	1569.31
352.538	1621.31
352.765	1673.31
352.992	1736.31
353.22	1638.31
353.447	1605.31
353.674	1645.31
353.901	1667.31
354.128	1615.31
354.355	1585.31
354.583	1710.31
354.81	1718.31
355.037	1721.31
355.264	1719.31
355.491	1663.31
355.718	1643.31
355.945	1671.31
356.172	1622.31
356.399	1595.31
356.626	1582.31
356.853	1647.31
357.08	1773.31
357.307	1927.31
357.534	1957.31
357.761	1729.31
357.988	1610.31
358.215	1580.31
358.441	1587.31
358.668	1577.31
358.895	1588.31
359.122	1684.31
359.349	1877.31
359.576	1829.31
359.802	1650.31
360.029	1605.31
360.256	1577.31
360.483	1639.31
360.709	1659.31
360.936	1729.31
361.163	1751.31
361.39	1901.31
361.616	2035.31
361.843	2053.31
362.07	1939.31
362.296	1663.31
362.523	1627.31
362.749	1630.31
362.976	1657.31
363.203	1705.31
363.429	1677.31
363.656	1603.31
363.882	1626.31
364.109	1813.31
364.335	1945.31
364.562	1829.31
364.788	1731.31
365.015	1671.31
365.241	1585.31
365.468	1616.31
365.694	1723.31
365.92	1775.31
366.147	1721.31
366.373	1588.31
366.599	1589.31
366.826	1603.31
367.052	1615.31
367.278	1583.31
367.505	1667.31
367.731	1700.31
367.957	1675.31
368.184	1718.31
368.41	1784.31
368.636	1834.31
368.862	1845.31
369.089	1842.31
369.315	1774.31
369.541	1738.31
369.767	1711.31
369.993	1664.31
370.219	1630.31
370.445	1713.31
370.672	1788.31
370.898	1840.31
371.124	1860.31
371.35	1726.31
371.576	1759.31
371.802	1871.31
372.028	1753.31
372.254	1690.31
372.48	1702.31
372.706	1642.31
372.932	1665.31
373.158	1672.31
373.384	1700.31
373.61	1750.31
373.835	1849.31
374.061	1756.31
374.287	1748.31
374.513	1730.31
374.739	1773.31
374.965	1740.31
375.191	1789.31
375.416	1793.31
375.642	1781.31
375.868	1896.31
376.094	1933.31
376.319	1853.31
376.545	1742.31
376.771	1778.31
376.997	1863.31
377.222	1806.31
377.448	1786.31
377.674	1813.31
377.899	1814.31
378.125	1896.31
378.35	1905.31
378.576	1758.31
378.802	1701.31
379.027	1666.31
379.253	1709.31
379.478	1788.31
379.704	1739.31
379.929	1692.31
380.155	1662.31
380.38	1754.31
380.606	1773.31
380.831	1718.31
381.057	1793.31
381.282	1853.31
381.507	1758.31
381.733	1881.31
381.958	2001.31
382.184	1830.31
382.409	1801.31
382.634	1837.31
382.86	1763.31
383.085	1813.31
383.31	1866.31
383.535	1945.31
383.761	2081.31
383.986	2002.31
384.211	1965.31
384.436	1932.31
384.662	1983.31
384.887	2091.31
385.112	1962.31
385.337	2020.31
385.562	1981.31
385.787	1982.31
386.013	2059.31
386.238	2018.31
386.463	1999.31
386.688	2167.31
386.913	2291.31
387.138	2230.31
387.363	2053.31
387.588	2014.31
387.813	2021.31
388.038	2082.31
388.263	2150.31
388.488	2083.31
388.713	1963.31
388.938	1874.31
389.163	1885.31
389.387	1967.31
389.612	1910.31
389.837	1998.31
390.062	2013.31
390.287	1993.31
390.512	1987.31
390.736	1951.31
390.961	1934.31
391.186	1863.31
391.411	1903.31
391.636	1997.31
391.86	2005.31
392.085	1969.31
392.31	1991.31
392.534	2012.31
392.759	2053.31
392.984	1973.31
393.208	2013.31
393.433	1995.31
393.658	2106.31
393.882	2115.31
394.107	2038.31
394.331	1997.31
394.556	1927.31
394.78	1993.31
395.005	2020.31
395.229	2092.31
395.454	2244.31
395.678	2288.31
395.903	2209.31
396.127	2100.31
396.352	2095.31
396.576	2157.31
396.801	2184.31
397.025	2215.31
397.249	2122.31
397.474	2146.31
397.698	2105.31
397.922	2173.31
398.147	2295.31
398.371	2362.31
398.595	2404.31
398.82	2261.31
399.044	2337.31
399.268	2441.31
399.492	2541.31
399.717	2661.31
399.941	2683.31
400.165	2660.31
400.389	2577.31
400.613	2525.31
400.837	2746.31
401.062	3217.31
401.286	2770.31
401.51	2457.31
401.734	2571.31
401.958	2492.31
402.182	2373.31
402.406	2293.31
402.63	2257.31
402.854	2269.31
403.078	2342.31
403.302	2349.31
403.526	2357.31
403.75	2359.31
403.974	2379.31
404.198	2360.31
404.422	2424.31
404.645	2518.31
404.869	2525.31
405.093	2351.31
405.317	2319.31
405.541	2372.31
405.765	2437.31
405.988	2357.31
406.212	2436.31
406.436	2485.31
406.66	2508.31
406.883	2509.31
407.107	2796.31
407.331	3007.31
407.555	3350.31
407.778	3093.31
408.002	2555.31
408.226	2427.31
408.449	2479.31
408.673	2418.31
408.896	2402.31
409.12	2454.31
409.344	2387.31
409.567	2313.31
409.791	2359.31
410.014	2385.31
410.238	2513.31
410.461	2613.31
410.685	2404.31
410.908	2311.31
411.132	2340.31
411.355	2355.31
411.578	2272.31
411.802	2341.31
412.025	2391.31
412.249	2290.31
412.472	2221.31
412.695	2231.31
412.919	2199.31
413.142	2222.31
413.365	2278.31
413.589	2289.31
413.812	2357.31
414.035	2467.31
414.258	2289.31
414.482	2233.31
414.705	2273.31
414.928	2249.31
415.151	2238.31
415.374	2305.31
415.597	2277.31
415.821	2300.31
416.044	2373.31
416.267	2399.31
416.49	2195.31
416.713	2155.31
416.936	2231.31
417.159	2280.31
417.382	2329.31
417.605	2206.31
417.828	2235.31
418.051	2315.31
418.274	2215.31
418.497	2170.31
418.72	2173.31
418.943	2166.31
419.166	2305.31
419.389	2384.31
419.611	2290.31
419.834	2216.31
420.057	2254.31
420.28	2152.31
420.503	2144.31
420.726	2202.31
420.948	2202.31
421.171	2127.31
421.394	2190.31
421.617	2262.31
421.839	2229.31
422.062	2188.31
422.285	2132.31
422.507	2111.31
422.73	2112.31
422.953	2079.31
423.175	2121.31
423.398	2141.31
423.621	2215.31
423.843	2172.31
424.066	2189.31
424.288	2276.31
424.511	2298.31
424.733	2286.31
424.956	2097.31
425.178	2056.31
425.401	2102.31
425.623	2111.31
425.846	2109.31
426.068	2217.31
426.291	2230.31
426.513	2205.31
426.735	2232.31
426.958	2387.31
427.18	2485.31
427.402	2248.31
427.625	2292.31
427.847	2368.31
428.069	2200.31
428.292	2113.31
428.514	2110.31
428.736	2027.31
428.958	2069.31
429.181	2108.31
429.403	2397.31
429.625	2949.31
429.847	2611.31
430.069	2164.31
430.292	2323.31
430.514	2424.31
430.736	2299.31
430.958	2413.31
431.18	2252.31
431.402	2105.31
431.624	2049.31
431.846	2085.31
432.068	2071.31
432.29	2130.31
432.512	2086.31
432.734	2143.31
432.956	2184.31
433.178	2282.31
433.4	2221.31
433.622	2229.31
433.844	2130.31
434.066	2051.31
434.287	2084.31
434.509	2162.31
434.731	2211.31
434.953	2385.31
435.175	2330.31
435.397	2214.31
435.618	2202.31
435.84	2227.31
436.062	2151.31
436.284	2207.31
436.505	2254.31
436.727	2221.31
436.949	2169.31
437.17	2105.31
437.392	2107.31
437.614	2146.31
437.835	2019.31
438.057	2168.31
438.278	2292.31
438.5	2127.31
438.721	2060.31
438.943	2109.31
439.165	2128.31
439.386	2052.31
439.608	2039.31
439.829	2083.31
440.05	2046.31
440.272	2035.31
440.493	2058.31
440.715	2108.31
440.936	2220.31
441.158	2441.31
441.379	2400.31
441.6	2292.31
441.822	2260.31
442.043	2256.31
442.264	2172.31
442.486	2097.31
442.707	2090.31
442.928	2089.31
443.149	2139.31
443.371	2253.31
443.592	2334.31
443.813	2310.31
444.034	2296.31
444.255	2274.31
444.476	2305.31
444.698	2373.31
444.919	2346.31
445.14	2437.31
445.361	2412.31
445.582	2494.31
445.803	2378.31
446.024	2293.31
446.245	2406.31
446.466	2262.31
446.687	2153.31
446.908	2204.31
447.129	2098.31
447.35	2146.31
447.571	2156.31
447.792	2021.31
448.013	2018.31
448.234	2100.31
448.455	2168.31
448.675	2171.31
448.896	1998.31
449.117	1989.31
449.338	2058.31
449.559	2134.31
449.779	2210.31
450	2495.31
450.221	2627.31
450.442	2533.31
450.662	2212.31
450.883	2009.31
451.104	1954.31
451.324	1986.31
451.545	2089.31
451.766	2025.31
451.986	1930.31
452.207	1887.31
452.428	1867.31
452.648	1826.31
452.869	1906.31
453.089	2049.31
453.31	2030.31
453.53	2081.31
453.751	2017.31
453.971	1922.31
454.192	1930.31
454.412	2061.31
454.633	1986.31
454.853	1921.31
455.073	1829.31
455.294	1771.31
455.514	1829.31
455.734	1834.31
455.955	1878.31
456.175	1866.31
456.395	1900.31
456.616	1931.31
456.836	1938.31
457.056	1918.31
457.276	1888.31
457.497	1849.31
457.717	1813.31
457.937	1834.31
458.157	1861.31
458.377	1904.31
458.598	1857.31
458.818	1878.31
459.038	1995.31
459.258	2127.31
459.478	2167.31
459.698	2066.31
459.918	2087.31
460.138	2155.31
460.358	2214.31
460.578	2249.31
460.798	2255.31
461.018	2495.31
461.238	2371.31
461.458	2278.31
461.678	2241.31
461.898	2199.31
462.118	2163.31
462.338	2292.31
462.558	2214.31
462.777	2255.31
462.997	2371.31
463.217	2504.31
463.437	2449.31
463.657	2309.31
463.876	2249.31
464.096	2276.31
464.316	2256.31
464.536	2317.31
464.755	2337.31
464.975	2403.31
465.195	2274.31
465.414	2405.31
465.634	2344.31
465.854	2252.31
466.073	2349.31
466.293	2280.31
466.512	2036.31
466.732	2003.31
466.951	2143.31
467.171	2133.31
467.391	2071.31
467.61	1980.31
467.829	1983.31
468.049	2170.31
468.268	2433.31
468.488	2227.31
468.707	2135.31
468.927	2054.31
469.146	2053.31
469.365	2027.31
469.585	2033.31
469.804	1988.31
470.023	1984.31
470.243	2054.31
470.462	2041.31
470.681	1992.31
470.901	2013.31
471.12	2035.31
471.339	2054.31
471.558	1967.31
471.777	1980.31
471.997	2001.31
472.216	2003.31
472.435	1931.31
472.654	1972.31
472.873	2062.31
473.092	2153.31
473.311	2053.31
473.53	1920.31
473.749	1946.31
473.968	2031.31
474.187	2154.31
474.406	2214.31
474.625	2081.31
474.844	2085.31
475.063	2054.31
475.282	2099.31
475.501	2033.31
475.72	2030.31
475.939	2161.31
476.158	2125.31
476.377	2063.31
476.596	2083.31
476.814	2126.31
477.033	2115.31
477.252	2239.31
477.471	2328.31
477.69	2220.31
477.908	2144.31
478.127	2271.31
478.346	2461.31
478.564	2487.31
478.783	2433.31
479.002	2520.31
479.22	2433.31
479.439	2520.31
479.658	2860.31
479.876	2829.31
480.095	2463.31
480.313	2380.31
480.532	2301.31
480.751	2330.31
480.969	2379.31
481.188	2311.31
481.406	2315.31
481.624	2217.31
481.843	2291.31
482.061	2340.31
482.28	2337.31
482.498	2393.31
482.717	2381.31
482.935	2308.31
483.153	2264.31
483.372	2248.31
483.59	2284.31
483.808	2313.31
484.027	2301.31
484.245	2451.31
484.463	2822.31
484.681	3257.31
484.9	2557.31
485.118	2393.31
485.336	2341.31
485.554	2360.31
485.772	2530.31
485.99	2452.31
486.209	2465.31
486.427	2476.31
486.645	2447.31
486.863	2423.31
487.081	2489.31
487.299	2546.31
