Data from WStandard_LampEnergy5.5LIBS07252019.E.O._I.C._HRD10591_16-07-33-919.txt Node
Date: Thu Jul 25 16:07:33 EDT 2019
User: cochatt
Spectrometer: HR+D1059
Trigger mode: 1
Integration Time (sec): 1.000000E-1
Scans to average: 1
Electric dark correction enabled: true
Nonlinearity correction enabled: false
Boxcar width: 0
XAxis mode: Wavelengths
Number of Pixels in Spectrum: 2048
>>>>>Begin Spectral Data<<<<<
223.165	-17.56
223.4	-17.56
223.635	-17.56
223.869	-21.56
224.104	-12.56
224.338	-14.56
224.573	-0.56
224.808	-9.56
225.042	-15.56
225.277	-9.56
225.511	-8.56
225.746	-4.56
225.98	12.44
226.215	15.44
226.449	27.44
226.683	25.44
226.918	10.44
227.152	23.44
227.387	20.44
227.621	40.44
227.856	36.44
228.09	34.44
228.324	61.44
228.559	66.44
228.793	149.44
229.027	363.44
229.262	378.44
229.496	402.44
229.73	411.44
229.964	459.44
230.199	480.44
230.433	471.44
230.667	523.44
230.901	568.44
231.136	506.44
231.37	479.44
231.604	490.44
231.838	476.44
232.072	519.44
232.306	452.44
232.541	488.44
232.775	579.44
233.009	646.44
233.243	587.44
233.477	548.44
233.711	566.44
233.945	588.44
234.179	566.44
234.413	627.44
234.647	640.44
234.881	630.44
235.115	552.44
235.349	586.44
235.583	598.44
235.817	597.44
236.051	560.44
236.285	570.44
236.519	596.44
236.753	701.44
236.987	705.44
237.221	704.44
237.455	772.44
237.689	758.44
237.922	719.44
238.156	686.44
238.39	709.44
238.624	728.44
238.858	774.44
239.091	822.44
239.325	837.44
239.559	953.44
239.793	1015.44
240.027	1111.44
240.26	1068.44
240.494	771.44
240.728	739.44
240.961	737.44
241.195	758.44
241.429	862.44
241.662	860.44
241.896	785.44
242.13	800.44
242.363	884.44
242.597	930.44
242.83	898.44
243.064	939.44
243.298	981.44
243.531	966.44
243.765	966.44
243.998	992.44
244.232	845.44
244.465	814.44
244.699	836.44
244.932	919.44
245.166	1088.44
245.399	1026.44
245.633	934.44
245.866	913.44
246.099	984.44
246.333	978.44
246.566	1008.44
246.8	1096.44
247.033	1222.44
247.266	1127.44
247.5	1131.44
247.733	1104.44
247.966	1173.44
248.2	1296.44
248.433	1210.44
248.666	1259.44
248.899	1407.44
249.133	1582.44
249.366	1843.44
249.599	1482.44
249.832	1282.44
250.066	1355.44
250.299	1347.44
250.532	1235.44
250.765	1135.44
250.998	1192.44
251.231	1246.44
251.465	1291.44
251.698	1202.44
251.931	1206.44
252.164	1256.44
252.397	1334.44
252.63	1306.44
252.863	1134.44
253.096	1122.44
253.329	1205.44
253.562	1254.44
253.795	1371.44
254.028	1306.44
254.261	1232.44
254.494	1239.44
254.727	1145.44
254.96	1226.44
255.193	1314.44
255.426	1471.44
255.659	1684.44
255.892	1798.44
256.124	1417.44
256.357	1374.44
256.59	1476.44
256.823	1476.44
257.056	1462.44
257.289	1771.44
257.521	1992.44
257.754	1760.44
257.987	1659.44
258.22	1848.44
258.452	1884.44
258.685	1460.44
258.918	1435.44
259.151	1462.44
259.383	1409.44
259.616	1210.44
259.849	1310.44
260.081	1449.44
260.314	1637.44
260.547	1771.44
260.779	1792.44
261.012	1680.44
261.244	1509.44
261.477	1399.44
261.71	1503.44
261.942	1491.44
262.175	1435.44
262.407	1498.44
262.64	1428.44
262.872	1337.44
263.105	1280.44
263.337	1381.44
263.57	1324.44
263.802	1366.44
264.035	1266.44
264.267	1207.44
264.499	1151.44
264.732	1246.44
264.964	1377.44
265.197	1396.44
265.429	1436.44
265.661	1648.44
265.894	1827.44
266.126	1886.44
266.358	1649.44
266.591	1728.44
266.823	1891.44
267.055	1726.44
267.287	1676.44
267.52	1660.44
267.752	1627.44
267.984	1594.44
268.216	1691.44
268.448	1734.44
268.681	1683.44
268.913	1616.44
269.145	1488.44
269.377	1443.44
269.609	1587.44
269.841	1834.44
270.073	2145.44
270.306	2345.44
270.538	2589.44
270.77	2145.44
271.002	1802.44
271.234	1715.44
271.466	1690.44
271.698	1926.44
271.93	2274.44
272.162	2322.44
272.394	2059.44
272.626	1988.44
272.858	1780.44
273.09	1502.44
273.322	1536.44
273.553	1423.44
273.785	1416.44
274.017	1503.44
274.249	1659.44
274.481	1643.44
274.713	1482.44
274.945	1444.44
275.176	1462.44
275.408	1436.44
275.64	1448.44
275.872	1420.44
276.104	1507.44
276.335	1735.44
276.567	1939.44
276.799	1982.44
277.031	1784.44
277.262	1672.44
277.494	1725.44
277.726	1936.44
277.957	1972.44
278.189	1783.44
278.421	1611.44
278.652	1528.44
278.884	1516.44
279.115	1520.44
279.347	1573.44
279.579	1532.44
279.81	1503.44
280.042	1710.44
280.273	1858.44
280.505	1840.44
280.736	1907.44
280.968	1796.44
281.199	1554.44
281.431	1475.44
281.662	1480.44
281.894	1494.44
282.125	1568.44
282.356	1626.44
282.588	1665.44
282.819	1586.44
283.051	1737.44
283.282	1872.44
283.513	1843.44
283.745	1560.44
283.976	1475.44
284.207	1470.44
284.439	1513.44
284.67	1564.44
284.901	1569.44
285.132	1657.44
285.364	1581.44
285.595	1605.44
285.826	1593.44
286.057	1563.44
286.288	1534.44
286.52	1617.44
286.751	1754.44
286.982	1804.44
287.213	1682.44
287.444	1530.44
287.675	1531.44
287.906	1586.44
288.138	1746.44
288.369	1698.44
288.6	1612.44
288.831	1519.44
289.062	1524.44
289.293	1560.44
289.524	1585.44
289.755	1630.44
289.986	1633.44
290.217	1472.44
290.448	1510.44
290.679	1594.44
290.91	1597.44
291.141	1646.44
291.371	1682.44
291.602	1651.44
291.833	1669.44
292.064	1724.44
292.295	1682.44
292.526	1672.44
292.757	1803.44
292.987	1728.44
293.218	1644.44
293.449	1717.44
293.68	1962.44
293.91	2138.44
294.141	1928.44
294.372	1852.44
294.603	1935.44
294.833	2005.44
295.064	1890.44
295.295	1718.44
295.525	1684.44
295.756	1588.44
295.987	1488.44
296.217	1523.44
296.448	1552.44
296.679	1549.44
296.909	1556.44
297.14	1530.44
297.37	1572.44
297.601	1654.44
297.831	1832.44
298.062	1818.44
298.292	1640.44
298.523	1589.44
298.753	1589.44
298.984	1627.44
299.214	1577.44
299.445	1612.44
299.675	1682.44
299.905	1633.44
300.136	1626.44
300.366	1590.44
300.597	1559.44
300.827	1547.44
301.057	1565.44
301.288	1659.44
301.518	1677.44
301.748	1720.44
301.979	1839.44
302.209	1831.44
302.439	1969.44
302.669	2070.44
302.9	1905.44
303.13	1714.44
303.36	1702.44
303.59	1745.44
303.82	1726.44
304.051	1704.44
304.281	1708.44
304.511	1740.44
304.741	1810.44
304.971	1979.44
305.201	2206.44
305.431	2012.44
305.661	1683.44
305.891	1507.44
306.121	1488.44
306.352	1541.44
306.582	1658.44
306.812	1761.44
307.042	1896.44
307.272	1897.44
307.502	1873.44
307.731	2098.44
307.961	2263.44
308.191	2097.44
308.421	1761.44
308.651	1660.44
308.881	1646.44
309.111	1648.44
309.341	1588.44
309.571	1676.44
309.8	1643.44
310.03	1681.44
310.26	1624.44
310.49	1616.44
310.72	1683.44
310.949	1724.44
311.179	1768.44
311.409	1698.44
311.639	1686.44
311.868	1628.44
312.098	1698.44
312.328	1666.44
312.557	1654.44
312.787	1642.44
313.017	1725.44
313.246	1732.44
313.476	1662.44
313.706	1759.44
313.935	1730.44
314.165	1724.44
314.394	1790.44
314.624	1880.44
314.853	1986.44
315.083	2075.44
315.312	2120.44
315.542	1970.44
315.771	1787.44
316.001	1769.44
316.23	1899.44
316.46	1850.44
316.689	1877.44
316.919	1761.44
317.148	1656.44
317.377	1710.44
317.607	1802.44
317.836	2062.44
318.065	2114.44
318.295	2059.44
318.524	1955.44
318.753	1901.44
318.983	1836.44
319.212	1778.44
319.441	1784.44
319.67	1784.44
319.9	1824.44
320.129	1897.44
320.358	1982.44
320.587	2034.44
320.816	2042.44
321.046	1983.44
321.275	1844.44
321.504	1873.44
321.733	2062.44
321.962	1989.44
322.191	1822.44
322.42	1814.44
322.649	1784.44
322.878	1749.44
323.108	1810.44
323.337	1875.44
323.566	1862.44
323.795	1848.44
324.024	1878.44
324.253	1823.44
324.482	1867.44
324.71	1774.44
324.939	1666.44
325.168	1718.44
325.397	1743.44
325.626	1859.44
325.855	1869.44
326.084	1790.44
326.313	1788.44
326.542	1813.44
326.77	1880.44
326.999	1912.44
327.228	1810.44
327.457	1720.44
327.686	1643.44
327.914	1728.44
328.143	1790.44
328.372	1804.44
328.6	1785.44
328.829	1787.44
329.058	1762.44
329.287	1772.44
329.515	1820.44
329.744	1843.44
329.972	1885.44
330.201	2006.44
330.43	1941.44
330.658	1921.44
330.887	1887.44
331.115	1897.44
331.344	1950.44
331.572	1869.44
331.801	1852.44
332.03	1879.44
332.258	1892.44
332.486	1896.44
332.715	1956.44
332.943	1945.44
333.172	1838.44
333.4	1895.44
333.629	1954.44
333.857	2067.44
334.085	2253.44
334.314	2552.44
334.542	2864.44
334.771	2589.44
334.999	2284.44
335.227	2190.44
335.455	2017.44
335.684	1996.44
335.912	2058.44
336.14	2151.44
336.369	2039.44
336.597	1925.44
336.825	1904.44
337.053	1952.44
337.281	2099.44
337.51	2190.44
337.738	2308.44
337.966	2161.44
338.194	1970.44
338.422	1886.44
338.65	1902.44
338.878	1869.44
339.106	1816.44
339.334	1800.44
339.562	1760.44
339.79	1799.44
340.018	1918.44
340.246	1992.44
340.474	2000.44
340.702	1972.44
340.93	1958.44
341.158	1972.44
341.386	1859.44
341.614	1905.44
341.842	1907.44
342.07	1847.44
342.298	1893.44
342.526	1864.44
342.754	1847.44
342.981	1863.44
343.209	1850.44
343.437	1850.44
343.665	1847.44
343.893	1928.44
344.12	1987.44
344.348	2030.44
344.576	1956.44
344.804	1852.44
345.031	1844.44
345.259	1890.44
345.487	1806.44
345.714	1729.44
345.942	1738.44
346.17	1728.44
346.397	1763.44
346.625	1808.44
346.853	1715.44
347.08	1656.44
347.308	1708.44
347.535	1738.44
347.763	1808.44
347.99	1739.44
348.218	1673.44
348.445	1700.44
348.673	1713.44
348.9	1739.44
349.128	1833.44
349.355	1938.44
349.583	1865.44
349.81	1778.44
350.037	1659.44
350.265	1644.44
350.492	1658.44
350.72	1714.44
350.947	1748.44
351.174	1800.44
351.402	1716.44
351.629	1657.44
351.856	1626.44
352.083	1587.44
352.311	1609.44
352.538	1643.44
352.765	1718.44
352.992	1759.44
353.22	1716.44
353.447	1666.44
353.674	1702.44
353.901	1754.44
354.128	1668.44
354.355	1649.44
354.583	1728.44
354.81	1768.44
355.037	1754.44
355.264	1753.44
355.491	1710.44
355.718	1742.44
355.945	1739.44
356.172	1688.44
356.399	1654.44
356.626	1674.44
356.853	1696.44
357.08	1835.44
357.307	2074.44
357.534	2106.44
357.761	1799.44
357.988	1669.44
358.215	1588.44
358.441	1639.44
358.668	1626.44
358.895	1654.44
359.122	1731.44
359.349	1938.44
359.576	1989.44
359.802	1677.44
360.029	1625.44
360.256	1610.44
360.483	1684.44
360.709	1710.44
360.936	1784.44
361.163	1819.44
361.39	2000.44
361.616	2148.44
361.843	2111.44
362.07	2030.44
362.296	1729.44
362.523	1674.44
362.749	1674.44
362.976	1721.44
363.203	1798.44
363.429	1672.44
363.656	1633.44
363.882	1695.44
364.109	1914.44
364.335	2085.44
364.562	1937.44
364.788	1781.44
365.015	1744.44
365.241	1664.44
365.468	1681.44
365.694	1792.44
365.92	1865.44
366.147	1780.44
366.373	1710.44
366.599	1640.44
366.826	1649.44
367.052	1633.44
367.278	1698.44
367.505	1766.44
367.731	1735.44
367.957	1718.44
368.184	1781.44
368.41	1921.44
368.636	1876.44
368.862	1899.44
369.089	1925.44
369.315	1872.44
369.541	1799.44
369.767	1748.44
369.993	1720.44
370.219	1689.44
370.445	1743.44
370.672	1817.44
370.898	1945.44
371.124	1926.44
371.35	1810.44
371.576	1820.44
371.802	1936.44
372.028	1831.44
372.254	1767.44
372.48	1755.44
372.706	1737.44
372.932	1750.44
373.158	1732.44
373.384	1763.44
373.61	1824.44
373.835	1909.44
374.061	1837.44
374.287	1780.44
374.513	1816.44
374.739	1828.44
374.965	1820.44
375.191	1865.44
375.416	1838.44
375.642	1846.44
375.868	1936.44
376.094	1982.44
376.319	1906.44
376.545	1815.44
376.771	1832.44
376.997	1952.44
377.222	1926.44
377.448	1860.44
377.674	1868.44
377.899	1859.44
378.125	1977.44
378.35	1953.44
378.576	1820.44
378.802	1735.44
379.027	1722.44
379.253	1765.44
379.478	1805.44
379.704	1809.44
379.929	1786.44
380.155	1782.44
380.38	1788.44
380.606	1830.44
380.831	1838.44
381.057	1914.44
381.282	1931.44
381.507	1887.44
381.733	1946.44
381.958	2073.44
382.184	1894.44
382.409	1852.44
382.634	1874.44
382.86	1855.44
383.085	1865.44
383.31	1914.44
383.535	2061.44
383.761	2218.44
383.986	2107.44
384.211	2032.44
384.436	1978.44
384.662	2086.44
384.887	2206.44
385.112	2050.44
385.337	2051.44
385.562	2098.44
385.787	2051.44
386.013	2100.44
386.238	2115.44
386.463	2078.44
386.688	2168.44
386.913	2358.44
387.138	2344.44
387.363	2143.44
387.588	2137.44
387.813	2088.44
388.038	2067.44
388.263	2233.44
388.488	2132.44
388.713	2022.44
388.938	1982.44
389.163	1987.44
389.387	2041.44
389.612	1997.44
389.837	2062.44
390.062	2116.44
390.287	2057.44
390.512	2027.44
390.736	2012.44
390.961	1987.44
391.186	1911.44
391.411	1951.44
391.636	2024.44
391.86	2006.44
392.085	2038.44
392.31	1996.44
392.534	2053.44
392.759	2073.44
392.984	2020.44
393.208	2040.44
393.433	2122.44
393.658	2196.44
393.882	2236.44
394.107	2133.44
394.331	2006.44
394.556	2023.44
394.78	2064.44
395.005	2139.44
395.229	2201.44
395.454	2358.44
395.678	2382.44
395.903	2224.44
396.127	2149.44
396.352	2166.44
396.576	2228.44
396.801	2272.44
397.025	2238.44
397.249	2183.44
397.474	2224.44
397.698	2204.44
397.922	2266.44
398.147	2354.44
398.371	2422.44
398.595	2487.44
398.82	2332.44
399.044	2379.44
399.268	2474.44
399.492	2684.44
399.717	2759.44
399.941	2747.44
400.165	2704.44
400.389	2595.44
400.613	2616.44
400.837	2866.44
401.062	3303.44
401.286	2901.44
401.51	2573.44
401.734	2692.44
401.958	2611.44
402.182	2446.44
402.406	2305.44
402.63	2306.44
402.854	2315.44
403.078	2317.44
403.302	2408.44
403.526	2425.44
403.75	2454.44
403.974	2451.44
404.198	2461.44
404.422	2523.44
404.645	2596.44
404.869	2583.44
405.093	2436.44
405.317	2356.44
405.541	2422.44
405.765	2473.44
405.988	2454.44
406.212	2505.44
406.436	2556.44
406.66	2639.44
406.883	2630.44
407.107	2913.44
407.331	3242.44
407.555	3447.44
407.778	3227.44
408.002	2634.44
408.226	2574.44
408.449	2532.44
408.673	2476.44
408.896	2480.44
409.12	2532.44
409.344	2509.44
409.567	2412.44
409.791	2480.44
410.014	2528.44
410.238	2597.44
410.461	2745.44
410.685	2487.44
410.908	2312.44
411.132	2472.44
411.355	2469.44
411.578	2379.44
411.802	2403.44
412.025	2420.44
412.249	2362.44
412.472	2287.44
412.695	2278.44
412.919	2274.44
413.142	2268.44
413.365	2360.44
413.589	2373.44
413.812	2454.44
414.035	2592.44
414.258	2342.44
414.482	2372.44
414.705	2370.44
414.928	2318.44
415.151	2275.44
415.374	2300.44
415.597	2393.44
415.821	2328.44
416.044	2466.44
416.267	2483.44
416.49	2261.44
416.713	2212.44
416.936	2300.44
417.159	2436.44
417.382	2389.44
417.605	2269.44
417.828	2357.44
418.051	2399.44
418.274	2329.44
418.497	2231.44
418.72	2216.44
418.943	2198.44
419.166	2398.44
419.389	2476.44
419.611	2323.44
419.834	2288.44
420.057	2299.44
420.28	2219.44
420.503	2233.44
420.726	2314.44
420.948	2260.44
421.171	2216.44
421.394	2291.44
421.617	2350.44
421.839	2303.44
422.062	2302.44
422.285	2199.44
422.507	2235.44
422.73	2175.44
422.953	2138.44
423.175	2174.44
423.398	2186.44
423.621	2215.44
423.843	2245.44
424.066	2292.44
424.288	2371.44
424.511	2383.44
424.733	2326.44
424.956	2123.44
425.178	2162.44
425.401	2128.44
425.623	2158.44
425.846	2170.44
426.068	2280.44
426.291	2370.44
426.513	2257.44
426.735	2308.44
426.958	2399.44
427.18	2584.44
427.402	2394.44
427.625	2446.44
427.847	2471.44
428.069	2287.44
428.292	2177.44
428.514	2120.44
428.736	2146.44
428.958	2155.44
429.181	2168.44
429.403	2425.44
429.625	3078.44
429.847	2692.44
430.069	2217.44
430.292	2467.44
430.514	2550.44
430.736	2350.44
430.958	2481.44
431.18	2304.44
431.402	2167.44
431.624	2168.44
431.846	2150.44
432.068	2117.44
432.29	2154.44
432.512	2166.44
432.734	2235.44
432.956	2219.44
433.178	2396.44
433.4	2309.44
433.622	2320.44
433.844	2201.44
434.066	2166.44
434.287	2154.44
434.509	2244.44
434.731	2324.44
434.953	2527.44
435.175	2420.44
435.397	2290.44
435.618	2328.44
435.84	2310.44
436.062	2239.44
436.284	2239.44
436.505	2307.44
436.727	2325.44
436.949	2266.44
437.17	2178.44
437.392	2182.44
437.614	2178.44
437.835	2118.44
438.057	2265.44
438.278	2372.44
438.5	2196.44
438.721	2174.44
438.943	2176.44
439.165	2146.44
439.386	2066.44
439.608	2112.44
439.829	2157.44
440.05	2170.44
440.272	2121.44
440.493	2102.44
440.715	2129.44
440.936	2272.44
441.158	2520.44
441.379	2449.44
441.6	2399.44
441.822	2342.44
442.043	2278.44
442.264	2278.44
442.486	2155.44
442.707	2182.44
442.928	2129.44
443.149	2194.44
443.371	2391.44
443.592	2427.44
443.813	2406.44
444.034	2342.44
444.255	2352.44
444.476	2427.44
444.698	2421.44
444.919	2451.44
445.14	2501.44
445.361	2524.44
445.582	2600.44
445.803	2535.44
446.024	2377.44
446.245	2492.44
446.466	2358.44
446.687	2232.44
446.908	2245.44
447.129	2185.44
447.35	2183.44
447.571	2264.44
447.792	2091.44
448.013	2122.44
448.234	2133.44
448.455	2269.44
448.675	2282.44
448.896	2091.44
449.117	2047.44
449.338	2107.44
449.559	2177.44
449.779	2335.44
450	2544.44
450.221	2753.44
450.442	2650.44
450.662	2312.44
450.883	2084.44
451.104	2003.44
451.324	2052.44
451.545	2130.44
451.766	2131.44
451.986	2007.44
452.207	2037.44
452.428	1932.44
452.648	1931.44
452.869	1955.44
453.089	2134.44
453.31	2145.44
453.53	2158.44
453.751	2068.44
453.971	1984.44
454.192	2043.44
454.412	2163.44
454.633	2046.44
454.853	2022.44
455.073	1841.44
455.294	1857.44
455.514	1896.44
455.734	1882.44
455.955	1950.44
456.175	1916.44
456.395	1973.44
456.616	1956.44
456.836	2014.44
457.056	1988.44
457.276	2000.44
457.497	1957.44
457.717	1866.44
457.937	1945.44
458.157	1978.44
458.377	1915.44
458.598	1919.44
458.818	1935.44
459.038	2083.44
459.258	2226.44
459.478	2172.44
459.698	2130.44
459.918	2119.44
460.138	2292.44
460.358	2337.44
460.578	2315.44
460.798	2393.44
461.018	2536.44
461.238	2368.44
461.458	2338.44
461.678	2326.44
461.898	2297.44
462.118	2180.44
462.338	2330.44
462.558	2327.44
462.777	2320.44
462.997	2433.44
463.217	2532.44
463.437	2539.44
463.657	2350.44
463.876	2362.44
464.096	2339.44
464.316	2334.44
464.536	2434.44
464.755	2381.44
464.975	2443.44
465.195	2338.44
465.414	2462.44
465.634	2464.44
465.854	2287.44
466.073	2478.44
466.293	2426.44
466.512	2121.44
466.732	2129.44
466.951	2228.44
467.171	2222.44
467.391	2065.44
467.61	2040.44
467.829	2065.44
468.049	2274.44
468.268	2522.44
468.488	2347.44
468.707	2242.44
468.927	2128.44
469.146	2108.44
469.365	2043.44
469.585	2151.44
469.804	2101.44
470.023	2134.44
470.243	2146.44
470.462	2115.44
470.681	2106.44
470.901	2133.44
471.12	2106.44
471.339	2085.44
471.558	2024.44
471.777	2026.44
471.997	2069.44
472.216	2127.44
472.435	2018.44
472.654	2014.44
472.873	2153.44
473.092	2252.44
473.311	2173.44
473.53	2027.44
473.749	2011.44
473.968	2067.44
474.187	2214.44
474.406	2322.44
474.625	2193.44
474.844	2100.44
475.063	2142.44
475.282	2165.44
475.501	2138.44
475.72	2124.44
475.939	2271.44
476.158	2192.44
476.377	2159.44
476.596	2209.44
476.814	2176.44
477.033	2208.44
477.252	2323.44
477.471	2356.44
477.69	2276.44
477.908	2243.44
478.127	2314.44
478.346	2531.44
478.564	2552.44
478.783	2488.44
479.002	2616.44
479.22	2565.44
479.439	2633.44
479.658	3013.44
479.876	2964.44
480.095	2573.44
480.313	2459.44
480.532	2343.44
480.751	2342.44
480.969	2430.44
481.188	2450.44
481.406	2362.44
481.624	2382.44
481.843	2348.44
482.061	2425.44
482.28	2433.44
482.498	2450.44
482.717	2460.44
482.935	2409.44
483.153	2364.44
483.372	2364.44
483.59	2307.44
483.808	2421.44
484.027	2444.44
484.245	2566.44
484.463	2958.44
484.681	3446.44
484.9	2620.44
485.118	2446.44
485.336	2338.44
485.554	2468.44
485.772	2584.44
485.99	2561.44
486.209	2539.44
486.427	2562.44
486.645	2563.44
486.863	2503.44
487.081	2518.44
487.299	2649.44
