Data from WStandard_LampEnergy5.5LIBS07252019.E.O._I.C._HRD10591_16-08-31-920.txt Node
Date: Thu Jul 25 16:08:31 EDT 2019
User: cochatt
Spectrometer: HR+D1059
Trigger mode: 1
Integration Time (sec): 1.000000E-1
Scans to average: 1
Electric dark correction enabled: true
Nonlinearity correction enabled: false
Boxcar width: 0
XAxis mode: Wavelengths
Number of Pixels in Spectrum: 2048
>>>>>Begin Spectral Data<<<<<
223.165	-29.38
223.4	-29.38
223.635	-29.38
223.869	-11.38
224.104	-16.38
224.338	-15.38
224.573	-22.38
224.808	-9.38
225.042	3.62
225.277	-5.38
225.511	-4.38
225.746	8.62
225.98	-2.38
226.215	13.62
226.449	10.62
226.683	19.62
226.918	31.62
227.152	28.62
227.387	29.62
227.621	42.62
227.856	44.62
228.09	59.62
228.324	63.62
228.559	49.62
228.793	155.62
229.027	361.62
229.262	371.62
229.496	379.62
229.73	389.62
229.964	429.62
230.199	451.62
230.433	475.62
230.667	504.62
230.901	543.62
231.136	483.62
231.37	469.62
231.604	471.62
231.838	482.62
232.072	483.62
232.306	433.62
232.541	484.62
232.775	578.62
233.009	586.62
233.243	587.62
233.477	518.62
233.711	544.62
233.945	581.62
234.179	557.62
234.413	593.62
234.647	635.62
234.881	599.62
235.115	545.62
235.349	557.62
235.583	572.62
235.817	567.62
236.051	517.62
236.285	547.62
236.519	569.62
236.753	661.62
236.987	669.62
237.221	671.62
237.455	752.62
237.689	700.62
237.922	669.62
238.156	644.62
238.39	649.62
238.624	692.62
238.858	751.62
239.091	774.62
239.325	796.62
239.559	911.62
239.793	938.62
240.027	1081.62
240.26	1030.62
240.494	756.62
240.728	685.62
240.961	701.62
241.195	726.62
241.429	806.62
241.662	803.62
241.896	739.62
242.13	766.62
242.363	840.62
242.597	935.62
242.83	885.62
243.064	891.62
243.298	936.62
243.531	923.62
243.765	926.62
243.998	918.62
244.232	836.62
244.465	789.62
244.699	785.62
244.932	899.62
245.166	1060.62
245.399	1003.62
245.633	907.62
245.866	880.62
246.099	917.62
246.333	961.62
246.566	966.62
246.8	1029.62
247.033	1173.62
247.266	1042.62
247.5	1064.62
247.733	1047.62
247.966	1088.62
248.2	1246.62
248.433	1195.62
248.666	1213.62
248.899	1296.62
249.133	1516.62
249.366	1735.62
249.599	1403.62
249.832	1261.62
250.066	1264.62
250.299	1305.62
250.532	1203.62
250.765	1033.62
250.998	1135.62
251.231	1207.62
251.465	1235.62
251.698	1194.62
251.931	1188.62
252.164	1234.62
252.397	1295.62
252.63	1209.62
252.863	1087.62
253.096	1083.62
253.329	1134.62
253.562	1189.62
253.795	1264.62
254.028	1262.62
254.261	1155.62
254.494	1179.62
254.727	1111.62
254.96	1128.62
255.193	1243.62
255.426	1433.62
255.659	1608.62
255.892	1689.62
256.124	1342.62
256.357	1335.62
256.59	1426.62
256.823	1418.62
257.056	1388.62
257.289	1688.62
257.521	1931.62
257.754	1697.62
257.987	1582.62
258.22	1760.62
258.452	1748.62
258.685	1387.62
258.918	1351.62
259.151	1382.62
259.383	1303.62
259.616	1181.62
259.849	1207.62
260.081	1368.62
260.314	1521.62
260.547	1727.62
260.779	1701.62
261.012	1632.62
261.244	1429.62
261.477	1349.62
261.71	1431.62
261.942	1422.62
262.175	1358.62
262.407	1435.62
262.64	1374.62
262.872	1306.62
263.105	1229.62
263.337	1261.62
263.57	1284.62
263.802	1313.62
264.035	1188.62
264.267	1139.62
264.499	1121.62
264.732	1193.62
264.964	1294.62
265.197	1325.62
265.429	1406.62
265.661	1577.62
265.894	1759.62
266.126	1803.62
266.358	1578.62
266.591	1648.62
266.823	1804.62
267.055	1604.62
267.287	1575.62
267.52	1579.62
267.752	1554.62
267.984	1554.62
268.216	1623.62
268.448	1593.62
268.681	1627.62
268.913	1503.62
269.145	1415.62
269.377	1368.62
269.609	1468.62
269.841	1696.62
270.073	2016.62
270.306	2249.62
270.538	2438.62
270.77	2021.62
271.002	1725.62
271.234	1661.62
271.466	1607.62
271.698	1812.62
271.93	2175.62
272.162	2183.62
272.394	1999.62
272.626	1918.62
272.858	1674.62
273.09	1434.62
273.322	1438.62
273.553	1379.62
273.785	1395.62
274.017	1443.62
274.249	1561.62
274.481	1549.62
274.713	1432.62
274.945	1397.62
275.176	1398.62
275.408	1392.62
275.64	1353.62
275.872	1350.62
276.104	1422.62
276.335	1642.62
276.567	1851.62
276.799	1918.62
277.031	1711.62
277.262	1595.62
277.494	1619.62
277.726	1836.62
277.957	1840.62
278.189	1685.62
278.421	1509.62
278.652	1475.62
278.884	1436.62
279.115	1437.62
279.347	1498.62
279.579	1461.62
279.81	1443.62
280.042	1596.62
280.273	1773.62
280.505	1759.62
280.736	1779.62
280.968	1679.62
281.199	1482.62
281.431	1443.62
281.662	1424.62
281.894	1432.62
282.125	1500.62
282.356	1539.62
282.588	1581.62
282.819	1522.62
283.051	1651.62
283.282	1768.62
283.513	1749.62
283.745	1545.62
283.976	1403.62
284.207	1408.62
284.439	1449.62
284.67	1476.62
284.901	1502.62
285.132	1525.62
285.364	1514.62
285.595	1593.62
285.826	1518.62
286.057	1503.62
286.288	1493.62
286.52	1551.62
286.751	1656.62
286.982	1697.62
287.213	1587.62
287.444	1451.62
287.675	1452.62
287.906	1516.62
288.138	1624.62
288.369	1559.62
288.6	1507.62
288.831	1462.62
289.062	1441.62
289.293	1476.62
289.524	1496.62
289.755	1550.62
289.986	1578.62
290.217	1447.62
290.448	1462.62
290.679	1533.62
290.91	1518.62
291.141	1580.62
291.371	1615.62
291.602	1585.62
291.833	1605.62
292.064	1669.62
292.295	1581.62
292.526	1630.62
292.757	1691.62
292.987	1656.62
293.218	1495.62
293.449	1638.62
293.68	1885.62
293.91	1966.62
294.141	1894.62
294.372	1725.62
294.603	1797.62
294.833	1912.62
295.064	1835.62
295.295	1653.62
295.525	1590.62
295.756	1497.62
295.987	1444.62
296.217	1451.62
296.448	1498.62
296.679	1474.62
296.909	1531.62
297.14	1455.62
297.37	1491.62
297.601	1581.62
297.831	1707.62
298.062	1732.62
298.292	1556.62
298.523	1517.62
298.753	1504.62
298.984	1525.62
299.214	1539.62
299.445	1589.62
299.675	1620.62
299.905	1605.62
300.136	1563.62
300.366	1530.62
300.597	1477.62
300.827	1484.62
301.057	1544.62
301.288	1593.62
301.518	1579.62
301.748	1651.62
301.979	1711.62
302.209	1738.62
302.439	1856.62
302.669	1959.62
302.9	1830.62
303.13	1651.62
303.36	1639.62
303.59	1641.62
303.82	1631.62
304.051	1612.62
304.281	1648.62
304.511	1648.62
304.741	1717.62
304.971	1897.62
305.201	2076.62
305.431	1923.62
305.661	1597.62
305.891	1453.62
306.121	1436.62
306.352	1483.62
306.582	1571.62
306.812	1647.62
307.042	1796.62
307.272	1813.62
307.502	1803.62
307.731	2001.62
307.961	2163.62
308.191	1999.62
308.421	1741.62
308.651	1621.62
308.881	1555.62
309.111	1557.62
309.341	1563.62
309.571	1552.62
309.8	1601.62
310.03	1541.62
310.26	1518.62
310.49	1504.62
310.72	1584.62
310.949	1641.62
311.179	1719.62
311.409	1697.62
311.639	1668.62
311.868	1560.62
312.098	1577.62
312.328	1602.62
312.557	1567.62
312.787	1599.62
313.017	1665.62
313.246	1627.62
313.476	1611.62
313.706	1670.62
313.935	1676.62
314.165	1647.62
314.394	1720.62
314.624	1795.62
314.853	1907.62
315.083	1971.62
315.312	2011.62
315.542	1935.62
315.771	1696.62
316.001	1687.62
316.23	1791.62
316.46	1803.62
316.689	1741.62
316.919	1655.62
317.148	1636.62
317.377	1614.62
317.607	1750.62
317.836	1943.62
318.065	2023.62
318.295	1915.62
318.524	1886.62
318.753	1789.62
318.983	1771.62
319.212	1755.62
319.441	1717.62
319.67	1657.62
319.9	1736.62
320.129	1789.62
320.358	1874.62
320.587	1911.62
320.816	1892.62
321.046	1845.62
321.275	1758.62
321.504	1767.62
321.733	1901.62
321.962	1891.62
322.191	1735.62
322.42	1756.62
322.649	1693.62
322.878	1713.62
323.108	1688.62
323.337	1782.62
323.566	1788.62
323.795	1823.62
324.024	1787.62
324.253	1723.62
324.482	1750.62
324.71	1728.62
324.939	1629.62
325.168	1650.62
325.397	1733.62
325.626	1770.62
325.855	1760.62
326.084	1743.62
326.313	1711.62
326.542	1743.62
326.77	1763.62
326.999	1825.62
327.228	1750.62
327.457	1613.62
327.686	1615.62
327.914	1650.62
328.143	1731.62
328.372	1720.62
328.6	1736.62
328.829	1722.62
329.058	1677.62
329.287	1676.62
329.515	1736.62
329.744	1752.62
329.972	1832.62
330.201	1902.62
330.43	1871.62
330.658	1812.62
330.887	1836.62
331.115	1869.62
331.344	1819.62
331.572	1769.62
331.801	1805.62
332.03	1772.62
332.258	1811.62
332.486	1856.62
332.715	1855.62
332.943	1855.62
333.172	1822.62
333.4	1841.62
333.629	1868.62
333.857	1952.62
334.085	2175.62
334.314	2429.62
334.542	2693.62
334.771	2465.62
334.999	2167.62
335.227	2096.62
335.455	1945.62
335.684	1945.62
335.912	1983.62
336.14	2053.62
336.369	1970.62
336.597	1890.62
336.825	1851.62
337.053	1901.62
337.281	1996.62
337.51	2063.62
337.738	2155.62
337.966	2091.62
338.194	1908.62
338.422	1815.62
338.65	1811.62
338.878	1770.62
339.106	1785.62
339.334	1726.62
339.562	1699.62
339.79	1705.62
340.018	1836.62
340.246	1940.62
340.474	1927.62
340.702	1877.62
340.93	1881.62
341.158	1835.62
341.386	1795.62
341.614	1791.62
341.842	1795.62
342.07	1796.62
342.298	1805.62
342.526	1821.62
342.754	1804.62
342.981	1814.62
343.209	1801.62
343.437	1741.62
343.665	1813.62
343.893	1898.62
344.12	1928.62
344.348	1954.62
344.576	1837.62
344.804	1769.62
345.031	1802.62
345.259	1823.62
345.487	1738.62
345.714	1648.62
345.942	1661.62
346.17	1661.62
346.397	1711.62
346.625	1731.62
346.853	1630.62
347.08	1597.62
347.308	1627.62
347.535	1659.62
347.763	1709.62
347.99	1697.62
348.218	1656.62
348.445	1645.62
348.673	1679.62
348.9	1710.62
349.128	1687.62
349.355	1809.62
349.583	1766.62
349.81	1726.62
350.037	1592.62
350.265	1557.62
350.492	1591.62
350.72	1603.62
350.947	1685.62
351.174	1726.62
351.402	1655.62
351.629	1574.62
351.856	1547.62
352.083	1557.62
352.311	1561.62
352.538	1607.62
352.765	1663.62
352.992	1735.62
353.22	1663.62
353.447	1589.62
353.674	1605.62
353.901	1684.62
354.128	1584.62
354.355	1597.62
354.583	1678.62
354.81	1744.62
355.037	1695.62
355.264	1709.62
355.491	1671.62
355.718	1695.62
355.945	1663.62
356.172	1640.62
356.399	1599.62
356.626	1600.62
356.853	1645.62
357.08	1789.62
357.307	1915.62
357.534	1993.62
357.761	1750.62
357.988	1626.62
358.215	1557.62
358.441	1594.62
358.668	1549.62
358.895	1584.62
359.122	1694.62
359.349	1831.62
359.576	1871.62
359.802	1647.62
360.029	1586.62
360.256	1587.62
360.483	1591.62
360.709	1639.62
360.936	1690.62
361.163	1721.62
361.39	1921.62
361.616	2073.62
361.843	2005.62
362.07	1956.62
362.296	1676.62
362.523	1621.62
362.749	1613.62
362.976	1669.62
363.203	1677.62
363.429	1663.62
363.656	1624.62
363.882	1605.62
364.109	1843.62
364.335	1974.62
364.562	1826.62
364.788	1734.62
365.015	1683.62
365.241	1596.62
365.468	1670.62
365.694	1679.62
365.92	1803.62
366.147	1728.62
366.373	1593.62
366.599	1628.62
366.826	1588.62
367.052	1589.62
367.278	1653.62
367.505	1644.62
367.731	1669.62
367.957	1699.62
368.184	1751.62
368.41	1809.62
368.636	1840.62
368.862	1833.62
369.089	1916.62
369.315	1773.62
369.541	1735.62
369.767	1708.62
369.993	1641.62
370.219	1619.62
370.445	1693.62
370.672	1767.62
370.898	1852.62
371.124	1875.62
371.35	1734.62
371.576	1750.62
371.802	1859.62
372.028	1736.62
372.254	1699.62
372.48	1667.62
372.706	1657.62
372.932	1615.62
373.158	1671.62
373.384	1695.62
373.61	1708.62
373.835	1851.62
374.061	1733.62
374.287	1728.62
374.513	1729.62
374.739	1758.62
374.965	1764.62
375.191	1791.62
375.416	1764.62
375.642	1773.62
375.868	1914.62
376.094	1891.62
376.319	1845.62
376.545	1720.62
376.771	1757.62
376.997	1881.62
377.222	1829.62
377.448	1806.62
377.674	1815.62
377.899	1786.62
378.125	1865.62
378.35	1892.62
378.576	1749.62
378.802	1678.62
379.027	1695.62
379.253	1672.62
379.478	1717.62
379.704	1723.62
379.929	1716.62
380.155	1726.62
380.38	1757.62
380.606	1712.62
380.831	1741.62
381.057	1823.62
381.282	1836.62
381.507	1791.62
381.733	1878.62
381.958	2035.62
382.184	1831.62
382.409	1766.62
382.634	1821.62
382.86	1814.62
383.085	1768.62
383.31	1848.62
383.535	1980.62
383.761	2079.62
383.986	2011.62
384.211	1907.62
384.436	1939.62
384.662	2024.62
384.887	2142.62
385.112	1982.62
385.337	1973.62
385.562	1979.62
385.787	1955.62
386.013	2031.62
386.238	2009.62
386.463	1993.62
386.688	2103.62
386.913	2263.62
387.138	2248.62
387.363	2047.62
387.588	1992.62
387.813	2026.62
388.038	2020.62
388.263	2106.62
388.488	2026.62
388.713	1899.62
388.938	1872.62
389.163	1879.62
389.387	1948.62
389.612	1931.62
389.837	1981.62
390.062	2048.62
390.287	2026.62
390.512	1974.62
390.736	1924.62
390.961	1892.62
391.186	1900.62
391.411	1894.62
391.636	1949.62
391.86	1992.62
392.085	1947.62
392.31	1943.62
392.534	1957.62
392.759	1992.62
392.984	1987.62
393.208	2002.62
393.433	2075.62
393.658	2097.62
393.882	2109.62
394.107	1996.62
394.331	1935.62
394.556	1962.62
394.78	1954.62
395.005	2045.62
395.229	2112.62
395.454	2281.62
395.678	2270.62
395.903	2187.62
396.127	2107.62
396.352	2128.62
396.576	2149.62
396.801	2125.62
397.025	2144.62
397.249	2195.62
397.474	2104.62
397.698	2087.62
397.922	2167.62
398.147	2257.62
398.371	2301.62
398.595	2362.62
398.82	2297.62
399.044	2308.62
399.268	2422.62
399.492	2513.62
399.717	2667.62
399.941	2680.62
400.165	2635.62
400.389	2531.62
400.613	2501.62
400.837	2713.62
401.062	3109.62
401.286	2689.62
401.51	2462.62
401.734	2571.62
401.958	2507.62
402.182	2334.62
402.406	2302.62
402.63	2202.62
402.854	2232.62
403.078	2286.62
403.302	2315.62
403.526	2338.62
403.75	2348.62
403.974	2371.62
404.198	2394.62
404.422	2382.62
404.645	2555.62
404.869	2507.62
405.093	2310.62
405.317	2217.62
405.541	2327.62
405.765	2346.62
405.988	2397.62
406.212	2439.62
406.436	2471.62
406.66	2487.62
406.883	2538.62
407.107	2848.62
407.331	3045.62
407.555	3270.62
407.778	3063.62
408.002	2543.62
408.226	2465.62
408.449	2461.62
408.673	2419.62
408.896	2408.62
409.12	2441.62
409.344	2397.62
409.567	2295.62
409.791	2355.62
410.014	2397.62
410.238	2518.62
410.461	2695.62
410.685	2445.62
410.908	2270.62
411.132	2357.62
411.355	2321.62
411.578	2270.62
411.802	2288.62
412.025	2320.62
412.249	2291.62
412.472	2226.62
412.695	2210.62
412.919	2238.62
413.142	2249.62
413.365	2257.62
413.589	2281.62
413.812	2416.62
414.035	2471.62
414.258	2245.62
414.482	2238.62
414.705	2259.62
414.928	2195.62
415.151	2218.62
415.374	2254.62
415.597	2260.62
415.821	2321.62
416.044	2399.62
416.267	2366.62
416.49	2167.62
416.713	2155.62
416.936	2237.62
417.159	2319.62
417.382	2317.62
417.605	2211.62
417.828	2263.62
418.051	2309.62
418.274	2225.62
418.497	2163.62
418.72	2169.62
418.943	2170.62
419.166	2313.62
419.389	2419.62
419.611	2300.62
419.834	2228.62
420.057	2237.62
420.28	2175.62
420.503	2126.62
420.726	2175.62
420.948	2176.62
421.171	2151.62
421.394	2151.62
421.617	2269.62
421.839	2211.62
422.062	2158.62
422.285	2123.62
422.507	2141.62
422.73	2086.62
422.953	2059.62
423.175	2071.62
423.398	2141.62
423.621	2126.62
423.843	2136.62
424.066	2171.62
424.288	2283.62
424.511	2309.62
424.733	2256.62
424.956	2057.62
425.178	2032.62
425.401	2068.62
425.623	2119.62
425.846	2099.62
426.068	2191.62
426.291	2223.62
426.513	2165.62
426.735	2213.62
426.958	2306.62
427.18	2492.62
427.402	2265.62
427.625	2351.62
427.847	2306.62
428.069	2173.62
428.292	2102.62
428.514	2037.62
428.736	2040.62
428.958	2083.62
429.181	2084.62
429.403	2341.62
429.625	2942.62
429.847	2556.62
430.069	2156.62
430.292	2329.62
430.514	2476.62
430.736	2245.62
430.958	2312.62
431.18	2253.62
431.402	2039.62
431.624	2064.62
431.846	2072.62
432.068	2010.62
432.29	2104.62
432.512	2092.62
432.734	2079.62
432.956	2156.62
433.178	2247.62
433.4	2237.62
433.622	2253.62
433.844	2166.62
434.066	2056.62
434.287	2071.62
434.509	2144.62
434.731	2287.62
434.953	2405.62
435.175	2328.62
435.397	2225.62
435.618	2218.62
435.84	2197.62
436.062	2164.62
436.284	2197.62
436.505	2211.62
436.727	2245.62
436.949	2173.62
437.17	2105.62
437.392	2097.62
437.614	2113.62
437.835	2044.62
438.057	2164.62
438.278	2330.62
438.5	2122.62
438.721	2064.62
438.943	2118.62
439.165	2103.62
439.386	2017.62
439.608	2015.62
439.829	2041.62
440.05	2093.62
440.272	2048.62
440.493	2029.62
440.715	2096.62
440.936	2177.62
441.158	2405.62
441.379	2401.62
441.6	2308.62
441.822	2286.62
442.043	2244.62
442.264	2215.62
442.486	2101.62
442.707	2024.62
442.928	2086.62
443.149	2137.62
443.371	2279.62
443.592	2351.62
443.813	2288.62
444.034	2238.62
444.255	2231.62
444.476	2322.62
444.698	2360.62
444.919	2312.62
445.14	2437.62
445.361	2432.62
445.582	2449.62
445.803	2348.62
446.024	2245.62
446.245	2373.62
446.466	2255.62
446.687	2200.62
446.908	2143.62
447.129	2097.62
447.35	2175.62
447.571	2139.62
447.792	2069.62
448.013	2012.62
448.234	2097.62
448.455	2177.62
448.675	2184.62
448.896	2017.62
449.117	1925.62
449.338	2024.62
449.559	2116.62
449.779	2239.62
450	2488.62
450.221	2659.62
450.442	2577.62
450.662	2243.62
450.883	2002.62
451.104	1927.62
451.324	1989.62
451.545	2025.62
451.766	2041.62
451.986	1926.62
452.207	1910.62
452.428	1848.62
452.648	1853.62
452.869	1921.62
453.089	2009.62
453.31	2032.62
453.53	2084.62
453.751	2006.62
453.971	1888.62
454.192	1949.62
454.412	2099.62
454.633	1997.62
454.853	1965.62
455.073	1825.62
455.294	1796.62
455.514	1823.62
455.734	1832.62
455.955	1927.62
456.175	1829.62
456.395	1856.62
456.616	1940.62
456.836	1937.62
457.056	1889.62
457.276	1876.62
457.497	1859.62
457.717	1823.62
457.937	1848.62
458.157	1896.62
458.377	1871.62
458.598	1839.62
458.818	1883.62
459.038	1958.62
459.258	2095.62
459.478	2103.62
459.698	2034.62
459.918	2074.62
460.138	2216.62
460.358	2225.62
460.578	2222.62
460.798	2320.62
461.018	2480.62
461.238	2341.62
461.458	2232.62
461.678	2251.62
461.898	2226.62
462.118	2109.62
462.338	2232.62
462.558	2246.62
462.777	2223.62
462.997	2314.62
463.217	2455.62
463.437	2444.62
463.657	2307.62
463.876	2247.62
464.096	2227.62
464.316	2251.62
464.536	2295.62
464.755	2316.62
464.975	2374.62
465.195	2244.62
465.414	2368.62
465.634	2376.62
465.854	2205.62
466.073	2325.62
466.293	2283.62
466.512	2044.62
466.732	2048.62
466.951	2122.62
467.171	2124.62
467.391	2017.62
467.61	1983.62
467.829	1992.62
468.049	2153.62
468.268	2414.62
468.488	2285.62
468.707	2153.62
468.927	2080.62
469.146	2028.62
469.365	1946.62
469.585	2038.62
469.804	2023.62
470.023	2026.62
470.243	2055.62
470.462	2021.62
470.681	1956.62
470.901	1999.62
471.12	2019.62
471.339	2012.62
471.558	1971.62
471.777	1929.62
471.997	1968.62
472.216	1988.62
472.435	1947.62
472.654	1956.62
472.873	2018.62
473.092	2196.62
473.311	2065.62
473.53	1934.62
473.749	1922.62
473.968	1987.62
474.187	2133.62
474.406	2219.62
474.625	2084.62
474.844	2046.62
475.063	2033.62
475.282	2125.62
475.501	2127.62
475.72	2043.62
475.939	2141.62
476.158	2139.62
476.377	2061.62
476.596	2069.62
476.814	2123.62
477.033	2160.62
477.252	2215.62
477.471	2297.62
477.69	2188.62
477.908	2147.62
478.127	2246.62
478.346	2448.62
478.564	2464.62
478.783	2419.62
479.002	2530.62
479.22	2403.62
479.439	2517.62
479.658	2839.62
479.876	2839.62
480.095	2456.62
480.313	2378.62
480.532	2269.62
480.751	2319.62
480.969	2370.62
481.188	2331.62
481.406	2281.62
481.624	2246.62
481.843	2314.62
482.061	2339.62
482.28	2366.62
482.498	2364.62
482.717	2363.62
482.935	2264.62
483.153	2247.62
483.372	2292.62
483.59	2252.62
483.808	2250.62
484.027	2319.62
484.245	2458.62
484.463	2807.62
484.681	3223.62
484.9	2549.62
485.118	2316.62
485.336	2333.62
485.554	2383.62
485.772	2509.62
485.99	2440.62
486.209	2488.62
486.427	2461.62
486.645	2452.62
486.863	2408.62
487.081	2447.62
487.299	2505.62
