Data from WStandard_LampEnergy8_LIBS07252019.E.O._I.C._HRD10591_15-58-27-928.txt Node
Date: Thu Jul 25 15:58:27 EDT 2019
User: cochatt
Spectrometer: HR+D1059
Trigger mode: 1
Integration Time (sec): 1.000000E-1
Scans to average: 1
Electric dark correction enabled: true
Nonlinearity correction enabled: false
Boxcar width: 0
XAxis mode: Wavelengths
Number of Pixels in Spectrum: 2048
>>>>>Begin Spectral Data<<<<<
223.165	-15.69
223.4	-15.69
223.635	-15.69
223.869	-12.69
224.104	-26.69
224.338	-28.69
224.573	-6.69
224.808	-9.69
225.042	-10.69
225.277	0.31
225.511	5.31
225.746	5.31
225.98	16.31
226.215	8.31
226.449	6.31
226.683	19.31
226.918	17.31
227.152	32.31
227.387	22.31
227.621	48.31
227.856	46.31
228.09	49.31
228.324	56.31
228.559	55.31
228.793	104.31
229.027	211.31
229.262	229.31
229.496	214.31
229.73	230.31
229.964	259.31
230.199	267.31
230.433	264.31
230.667	276.31
230.901	296.31
231.136	277.31
231.37	257.31
231.604	259.31
231.838	286.31
232.072	284.31
232.306	269.31
232.541	290.31
232.775	301.31
233.009	343.31
233.243	304.31
233.477	304.31
233.711	316.31
233.945	309.31
234.179	296.31
234.413	329.31
234.647	355.31
234.881	362.31
235.115	320.31
235.349	295.31
235.583	320.31
235.817	295.31
236.051	311.31
236.285	305.31
236.519	309.31
236.753	357.31
236.987	379.31
237.221	338.31
237.455	371.31
237.689	376.31
237.922	356.31
238.156	351.31
238.39	353.31
238.624	366.31
238.858	382.31
239.091	383.31
239.325	415.31
239.559	493.31
239.793	488.31
240.027	506.31
240.26	521.31
240.494	387.31
240.728	384.31
240.961	387.31
241.195	395.31
241.429	423.31
241.662	409.31
241.896	397.31
242.13	400.31
242.363	438.31
242.597	455.31
242.83	451.31
243.064	454.31
243.298	492.31
243.531	494.31
243.765	477.31
243.998	457.31
244.232	419.31
244.465	403.31
244.699	430.31
244.932	455.31
245.166	545.31
245.399	497.31
245.633	441.31
245.866	451.31
246.099	483.31
246.333	493.31
246.566	518.31
246.8	569.31
247.033	581.31
247.266	565.31
247.5	530.31
247.733	552.31
247.966	585.31
248.2	618.31
248.433	594.31
248.666	615.31
248.899	686.31
249.133	777.31
249.366	819.31
249.599	699.31
249.832	654.31
250.066	640.31
250.299	630.31
250.532	580.31
250.765	546.31
250.998	614.31
251.231	598.31
251.465	621.31
251.698	593.31
251.931	585.31
252.164	605.31
252.397	644.31
252.63	621.31
252.863	569.31
253.096	581.31
253.329	567.31
253.562	608.31
253.795	649.31
254.028	612.31
254.261	597.31
254.494	604.31
254.727	564.31
254.96	599.31
255.193	641.31
255.426	726.31
255.659	799.31
255.892	811.31
256.124	679.31
256.357	671.31
256.59	718.31
256.823	723.31
257.056	702.31
257.289	844.31
257.521	891.31
257.754	822.31
257.987	769.31
258.22	853.31
258.452	813.31
258.685	673.31
258.918	681.31
259.151	676.31
259.383	680.31
259.616	593.31
259.849	637.31
260.081	702.31
260.314	787.31
260.547	860.31
260.779	833.31
261.012	772.31
261.244	691.31
261.477	694.31
261.71	711.31
261.942	697.31
262.175	693.31
262.407	718.31
262.64	699.31
262.872	650.31
263.105	617.31
263.337	645.31
263.57	652.31
263.802	637.31
264.035	617.31
264.267	584.31
264.499	588.31
264.732	624.31
264.964	665.31
265.197	697.31
265.429	725.31
265.661	796.31
265.894	873.31
266.126	878.31
266.358	790.31
266.591	825.31
266.823	880.31
267.055	790.31
267.287	799.31
267.52	764.31
267.752	769.31
267.984	808.31
268.216	803.31
268.448	807.31
268.681	796.31
268.913	752.31
269.145	716.31
269.377	717.31
269.609	781.31
269.841	887.31
270.073	1025.31
270.306	1112.31
270.538	1140.31
270.77	963.31
271.002	855.31
271.234	835.31
271.466	827.31
271.698	929.31
271.93	1096.31
272.162	1057.31
272.394	977.31
272.626	879.31
272.858	811.31
273.09	738.31
273.322	718.31
273.553	714.31
273.785	695.31
274.017	732.31
274.249	789.31
274.481	750.31
274.713	740.31
274.945	720.31
275.176	719.31
275.408	689.31
275.64	710.31
275.872	712.31
276.104	744.31
276.335	858.31
276.567	968.31
276.799	921.31
277.031	867.31
277.262	819.31
277.494	854.31
277.726	911.31
277.957	899.31
278.189	839.31
278.421	782.31
278.652	747.31
278.884	739.31
279.115	757.31
279.347	780.31
279.579	746.31
279.81	759.31
280.042	844.31
280.273	908.31
280.505	889.31
280.736	868.31
280.968	844.31
281.199	779.31
281.431	699.31
281.662	726.31
281.894	748.31
282.125	772.31
282.356	749.31
282.588	783.31
282.819	794.31
283.051	842.31
283.282	920.31
283.513	843.31
283.745	767.31
283.976	734.31
284.207	726.31
284.439	746.31
284.67	778.31
284.901	773.31
285.132	779.31
285.364	812.31
285.595	819.31
285.826	791.31
286.057	775.31
286.288	776.31
286.52	805.31
286.751	841.31
286.982	861.31
287.213	808.31
287.444	739.31
287.675	745.31
287.906	786.31
288.138	844.31
288.369	789.31
288.6	756.31
288.831	769.31
289.062	759.31
289.293	788.31
289.524	765.31
289.755	828.31
289.986	812.31
290.217	779.31
290.448	749.31
290.679	781.31
290.91	810.31
291.141	819.31
291.371	850.31
291.602	833.31
291.833	812.31
292.064	825.31
292.295	858.31
292.526	866.31
292.757	910.31
292.987	848.31
293.218	843.31
293.449	913.31
293.68	1017.31
293.91	1017.31
294.141	959.31
294.372	935.31
294.603	973.31
294.833	979.31
295.064	932.31
295.295	843.31
295.525	834.31
295.756	775.31
295.987	746.31
296.217	771.31
296.448	806.31
296.679	776.31
296.909	780.31
297.14	789.31
297.37	817.31
297.601	836.31
297.831	895.31
298.062	889.31
298.292	835.31
298.523	798.31
298.753	810.31
298.984	808.31
299.214	839.31
299.445	839.31
299.675	846.31
299.905	858.31
300.136	833.31
300.366	848.31
300.597	785.31
300.827	799.31
301.057	847.31
301.288	876.31
301.518	876.31
301.748	866.31
301.979	899.31
302.209	984.31
302.439	993.31
302.669	1023.31
302.9	956.31
303.13	879.31
303.36	883.31
303.59	897.31
303.82	863.31
304.051	868.31
304.281	850.31
304.511	885.31
304.741	938.31
304.971	1055.31
305.201	1086.31
305.431	981.31
305.661	827.31
305.891	788.31
306.121	783.31
306.352	843.31
306.582	874.31
306.812	916.31
307.042	940.31
307.272	967.31
307.502	1029.31
307.731	1067.31
307.961	1070.31
308.191	978.31
308.421	890.31
308.651	851.31
308.881	847.31
309.111	880.31
309.341	849.31
309.571	840.31
309.8	862.31
310.03	873.31
310.26	816.31
310.49	862.31
310.72	874.31
310.949	892.31
311.179	901.31
311.409	904.31
311.639	895.31
311.868	853.31
312.098	870.31
312.328	845.31
312.557	852.31
312.787	856.31
313.017	916.31
313.246	906.31
313.476	883.31
313.706	916.31
313.935	897.31
314.165	944.31
314.394	943.31
314.624	1001.31
314.853	1064.31
315.083	1075.31
315.312	1099.31
315.542	1011.31
315.771	953.31
316.001	941.31
316.23	999.31
316.46	968.31
316.689	954.31
316.919	904.31
317.148	870.31
317.377	933.31
317.607	990.31
317.836	1099.31
318.065	1099.31
318.295	1069.31
318.524	1026.31
318.753	954.31
318.983	955.31
319.212	948.31
319.441	921.31
319.67	931.31
319.9	969.31
320.129	992.31
320.358	1100.31
320.587	1038.31
320.816	1047.31
321.046	1034.31
321.275	974.31
321.504	1009.31
321.733	1072.31
321.962	1025.31
322.191	969.31
322.42	951.31
322.649	920.31
322.878	905.31
323.108	956.31
323.337	956.31
323.566	963.31
323.795	974.31
324.024	981.31
324.253	961.31
324.482	950.31
324.71	919.31
324.939	891.31
325.168	926.31
325.397	949.31
325.626	964.31
325.855	973.31
326.084	959.31
326.313	969.31
326.542	968.31
326.77	976.31
326.999	988.31
327.228	931.31
327.457	890.31
327.686	903.31
327.914	932.31
328.143	943.31
328.372	924.31
328.6	957.31
328.829	947.31
329.058	929.31
329.287	909.31
329.515	955.31
329.744	991.31
329.972	1045.31
330.201	1048.31
330.43	1044.31
330.658	997.31
330.887	1014.31
331.115	992.31
331.344	1016.31
331.572	1027.31
331.801	983.31
332.03	986.31
332.258	1021.31
332.486	1016.31
332.715	1016.31
332.943	1042.31
333.172	1002.31
333.4	1017.31
333.629	1053.31
333.857	1136.31
334.085	1248.31
334.314	1359.31
334.542	1438.31
334.771	1315.31
334.999	1170.31
335.227	1129.31
335.455	1045.31
335.684	1065.31
335.912	1084.31
336.14	1148.31
336.369	1069.31
336.597	1029.31
336.825	1017.31
337.053	1060.31
337.281	1148.31
337.51	1166.31
337.738	1205.31
337.966	1135.31
338.194	1026.31
338.422	997.31
338.65	979.31
338.878	979.31
339.106	952.31
339.334	972.31
339.562	959.31
339.79	996.31
340.018	1049.31
340.246	1047.31
340.474	1053.31
340.702	1024.31
340.93	1056.31
341.158	1046.31
341.386	1017.31
341.614	1016.31
341.842	1022.31
342.07	965.31
342.298	983.31
342.526	998.31
342.754	1011.31
342.981	959.31
343.209	977.31
343.437	988.31
343.665	1018.31
343.893	1001.31
344.12	1061.31
344.348	1066.31
344.576	1025.31
344.804	1005.31
345.031	1006.31
345.259	1012.31
345.487	979.31
345.714	929.31
345.942	919.31
346.17	954.31
346.397	956.31
346.625	973.31
346.853	902.31
347.08	908.31
347.308	920.31
347.535	954.31
347.763	949.31
347.99	953.31
348.218	922.31
348.445	965.31
348.673	939.31
348.9	984.31
349.128	1039.31
349.355	1024.31
349.583	961.31
349.81	936.31
350.037	892.31
350.265	879.31
350.492	899.31
350.72	919.31
350.947	974.31
351.174	954.31
351.402	938.31
351.629	883.31
351.856	893.31
352.083	878.31
352.311	913.31
352.538	901.31
352.765	963.31
352.992	963.31
353.22	914.31
353.447	897.31
353.674	943.31
353.901	929.31
354.128	910.31
354.355	929.31
354.583	954.31
354.81	963.31
355.037	968.31
355.264	962.31
355.491	945.31
355.718	950.31
355.945	939.31
356.172	921.31
356.399	915.31
356.626	914.31
356.853	951.31
357.08	1076.31
357.307	1141.31
357.534	1059.31
357.761	971.31
357.988	893.31
358.215	891.31
358.441	903.31
358.668	873.31
358.895	951.31
359.122	997.31
359.349	1061.31
359.576	1039.31
359.802	937.31
360.029	906.31
360.256	913.31
360.483	931.31
360.709	965.31
360.936	990.31
361.163	1087.31
361.39	1136.31
361.616	1180.31
361.843	1149.31
362.07	1090.31
362.296	939.31
362.523	911.31
362.749	948.31
362.976	976.31
363.203	981.31
363.429	949.31
363.656	919.31
363.882	994.31
364.109	1080.31
364.335	1088.31
364.562	1063.31
364.788	995.31
365.015	963.31
365.241	929.31
365.468	963.31
365.694	990.31
365.92	1025.31
366.147	979.31
366.373	918.31
366.599	935.31
366.826	898.31
367.052	935.31
367.278	914.31
367.505	977.31
367.731	972.31
367.957	963.31
368.184	987.31
368.41	1085.31
368.636	1105.31
368.862	1089.31
369.089	1098.31
369.315	1018.31
369.541	989.31
369.767	954.31
369.993	961.31
370.219	933.31
370.445	973.31
370.672	1051.31
370.898	1064.31
371.124	1046.31
371.35	1009.31
371.576	1047.31
371.802	1035.31
372.028	977.31
372.254	971.31
372.48	938.31
372.706	941.31
372.932	980.31
373.158	997.31
373.384	982.31
373.61	1011.31
373.835	1053.31
374.061	1013.31
374.287	983.31
374.513	1023.31
374.739	1011.31
374.965	1037.31
375.191	1024.31
375.416	1007.31
375.642	1016.31
375.868	1104.31
376.094	1135.31
376.319	1056.31
376.545	1013.31
376.771	1051.31
376.997	1103.31
377.222	1110.31
377.448	1075.31
377.674	1052.31
377.899	1059.31
378.125	1130.31
378.35	1104.31
378.576	1010.31
378.802	973.31
379.027	982.31
379.253	1013.31
379.478	1034.31
379.704	1012.31
379.929	1033.31
380.155	1024.31
380.38	1020.31
380.606	1023.31
380.831	1023.31
381.057	1086.31
381.282	1092.31
381.507	1082.31
381.733	1144.31
381.958	1142.31
382.184	1059.31
382.409	1054.31
382.634	1062.31
382.86	1041.31
383.085	1055.31
383.31	1115.31
383.535	1220.31
383.761	1244.31
383.986	1177.31
384.211	1143.31
384.436	1116.31
384.662	1199.31
384.887	1218.31
385.112	1153.31
385.337	1157.31
385.562	1155.31
385.787	1161.31
386.013	1183.31
386.238	1165.31
386.463	1188.31
386.688	1283.31
386.913	1314.31
387.138	1262.31
387.363	1191.31
387.588	1176.31
387.813	1162.31
388.038	1195.31
388.263	1254.31
388.488	1157.31
388.713	1109.31
388.938	1089.31
389.163	1100.31
389.387	1128.31
389.612	1096.31
389.837	1158.31
390.062	1157.31
390.287	1150.31
390.512	1115.31
390.736	1121.31
390.961	1122.31
391.186	1087.31
391.411	1140.31
391.636	1143.31
391.86	1133.31
392.085	1157.31
392.31	1132.31
392.534	1166.31
392.759	1180.31
392.984	1120.31
393.208	1142.31
393.433	1209.31
393.658	1243.31
393.882	1227.31
394.107	1172.31
394.331	1161.31
394.556	1160.31
394.78	1199.31
395.005	1207.31
395.229	1246.31
395.454	1340.31
395.678	1317.31
395.903	1264.31
396.127	1244.31
396.352	1246.31
396.576	1242.31
396.801	1237.31
397.025	1304.31
397.249	1247.31
397.474	1246.31
397.698	1226.31
397.922	1286.31
398.147	1366.31
398.371	1396.31
398.595	1365.31
398.82	1333.31
399.044	1335.31
399.268	1405.31
399.492	1483.31
399.717	1508.31
399.941	1496.31
400.165	1499.31
400.389	1454.31
400.613	1459.31
400.837	1667.31
401.062	1850.31
401.286	1552.31
401.51	1455.31
401.734	1499.31
401.958	1446.31
402.182	1354.31
402.406	1334.31
402.63	1314.31
402.854	1343.31
403.078	1310.31
403.302	1349.31
403.526	1317.31
403.75	1347.31
403.974	1352.31
404.198	1370.31
404.422	1413.31
404.645	1507.31
404.869	1438.31
405.093	1366.31
405.317	1345.31
405.541	1350.31
405.765	1371.31
405.988	1344.31
406.212	1401.31
406.436	1426.31
406.66	1479.31
406.883	1519.31
407.107	1709.31
407.331	1826.31
407.555	1941.31
407.778	1693.31
408.002	1464.31
408.226	1467.31
408.449	1395.31
408.673	1378.31
408.896	1395.31
409.12	1418.31
409.344	1421.31
409.567	1367.31
409.791	1400.31
410.014	1432.31
410.238	1559.31
410.461	1584.31
410.685	1427.31
410.908	1347.31
411.132	1359.31
411.355	1357.31
411.578	1357.31
411.802	1358.31
412.025	1367.31
412.249	1370.31
412.472	1331.31
412.695	1357.31
412.919	1304.31
413.142	1307.31
413.365	1333.31
413.589	1386.31
413.812	1467.31
414.035	1472.31
414.258	1344.31
414.482	1342.31
414.705	1353.31
414.928	1320.31
415.151	1281.31
415.374	1296.31
415.597	1337.31
415.821	1387.31
416.044	1371.31
416.267	1360.31
416.49	1308.31
416.713	1286.31
416.936	1358.31
417.159	1410.31
417.382	1365.31
417.605	1312.31
417.828	1360.31
418.051	1356.31
418.274	1323.31
418.497	1291.31
418.72	1326.31
418.943	1300.31
419.166	1313.31
419.389	1403.31
419.611	1342.31
419.834	1323.31
420.057	1331.31
420.28	1301.31
420.503	1303.31
420.726	1328.31
420.948	1326.31
421.171	1289.31
421.394	1296.31
421.617	1351.31
421.839	1366.31
422.062	1368.31
422.285	1288.31
422.507	1309.31
422.73	1283.31
422.953	1256.31
423.175	1262.31
423.398	1276.31
423.621	1275.31
423.843	1301.31
424.066	1348.31
424.288	1396.31
424.511	1425.31
424.733	1384.31
424.956	1289.31
425.178	1248.31
425.401	1271.31
425.623	1309.31
425.846	1308.31
426.068	1370.31
426.291	1363.31
426.513	1371.31
426.735	1341.31
426.958	1455.31
427.18	1495.31
427.402	1360.31
427.625	1435.31
427.847	1405.31
428.069	1288.31
428.292	1304.31
428.514	1281.31
428.736	1249.31
428.958	1286.31
429.181	1276.31
429.403	1525.31
429.625	1787.31
429.847	1488.31
430.069	1342.31
430.292	1444.31
430.514	1446.31
430.736	1374.31
430.958	1389.31
431.18	1343.31
431.402	1259.31
431.624	1267.31
431.846	1217.31
432.068	1163.31
432.29	1173.31
432.512	1182.31
432.734	1283.31
432.956	1308.31
433.178	1349.31
433.4	1348.31
433.622	1311.31
433.844	1265.31
434.066	1227.31
434.287	1151.31
434.509	1224.31
434.731	1283.31
434.953	1349.31
435.175	1352.31
435.397	1336.31
435.618	1271.31
435.84	1240.31
436.062	1248.31
436.284	1295.31
436.505	1326.31
436.727	1302.31
436.949	1264.31
437.17	1237.31
437.392	1241.31
437.614	1235.31
437.835	1191.31
438.057	1260.31
438.278	1260.31
438.5	1240.31
438.721	1225.31
438.943	1259.31
439.165	1267.31
439.386	1235.31
439.608	1258.31
439.829	1254.31
440.05	1276.31
440.272	1254.31
440.493	1237.31
440.715	1306.31
440.936	1384.31
441.158	1470.31
441.379	1424.31
441.6	1407.31
441.822	1379.31
442.043	1392.31
442.264	1347.31
442.486	1283.31
442.707	1280.31
442.928	1284.31
443.149	1281.31
443.371	1374.31
443.592	1389.31
443.813	1375.31
444.034	1384.31
444.255	1397.31
444.476	1365.31
444.698	1440.31
444.919	1436.31
445.14	1507.31
445.361	1487.31
445.582	1456.31
445.803	1441.31
446.024	1431.31
446.245	1448.31
446.466	1391.31
446.687	1368.31
446.908	1339.31
447.129	1328.31
447.35	1323.31
447.571	1308.31
447.792	1261.31
448.013	1239.31
448.234	1260.31
448.455	1315.31
448.675	1308.31
448.896	1215.31
449.117	1209.31
449.338	1262.31
449.559	1299.31
449.779	1341.31
450	1421.31
450.221	1492.31
450.442	1421.31
450.662	1288.31
450.883	1198.31
451.104	1192.31
451.324	1222.31
451.545	1219.31
451.766	1207.31
451.986	1174.31
452.207	1147.31
452.428	1085.31
452.648	1117.31
452.869	1108.31
453.089	1149.31
453.31	1147.31
453.53	1164.31
453.751	1117.31
453.971	1069.31
454.192	1097.31
454.412	1155.31
454.633	1139.31
454.853	1141.31
455.073	1108.31
455.294	1077.31
455.514	1123.31
455.734	1124.31
455.955	1131.31
456.175	1096.31
456.395	1098.31
456.616	1108.31
456.836	1116.31
457.056	1115.31
457.276	1085.31
457.497	1061.31
457.717	1032.31
457.937	1043.31
458.157	1091.31
458.377	1105.31
458.598	1061.31
458.818	1053.31
459.038	1105.31
459.258	1150.31
459.478	1155.31
459.698	1133.31
459.918	1208.31
460.138	1248.31
460.358	1259.31
460.578	1279.31
460.798	1293.31
461.018	1400.31
461.238	1328.31
461.458	1287.31
461.678	1283.31
461.898	1253.31
462.118	1238.31
462.338	1280.31
462.558	1260.31
462.777	1253.31
462.997	1319.31
463.217	1376.31
463.437	1331.31
463.657	1261.31
463.876	1297.31
464.096	1268.31
464.316	1288.31
464.536	1343.31
464.755	1325.31
464.975	1323.31
465.195	1281.31
465.414	1331.31
465.634	1305.31
465.854	1309.31
466.073	1451.31
466.293	1359.31
466.512	1206.31
466.732	1216.31
466.951	1270.31
467.171	1270.31
467.391	1231.31
467.61	1216.31
467.829	1248.31
468.049	1384.31
468.268	1479.31
468.488	1351.31
468.707	1295.31
468.927	1275.31
469.146	1237.31
469.365	1203.31
469.585	1272.31
469.804	1247.31
470.023	1261.31
470.243	1263.31
470.462	1248.31
470.681	1262.31
470.901	1247.31
471.12	1305.31
471.339	1252.31
471.558	1246.31
471.777	1214.31
471.997	1233.31
472.216	1199.31
472.435	1133.31
472.654	1150.31
472.873	1191.31
473.092	1239.31
473.311	1190.31
473.53	1157.31
473.749	1159.31
473.968	1197.31
474.187	1247.31
474.406	1254.31
474.625	1252.31
474.844	1237.31
475.063	1221.31
475.282	1253.31
475.501	1231.31
475.72	1217.31
475.939	1310.31
476.158	1263.31
476.377	1240.31
476.596	1216.31
476.814	1227.31
477.033	1247.31
477.252	1275.31
477.471	1328.31
477.69	1289.31
477.908	1313.31
478.127	1373.31
478.346	1433.31
478.564	1444.31
478.783	1431.31
479.002	1477.31
479.22	1473.31
479.439	1464.31
479.658	1587.31
479.876	1514.31
480.095	1422.31
480.313	1367.31
480.532	1310.31
480.751	1319.31
480.969	1326.31
481.188	1289.31
481.406	1281.31
481.624	1254.31
481.843	1281.31
482.061	1315.31
482.28	1341.31
482.498	1367.31
482.717	1335.31
482.935	1322.31
483.153	1365.31
483.372	1411.31
483.59	1369.31
483.808	1372.31
484.027	1380.31
484.245	1480.31
484.463	1739.31
484.681	1912.31
484.9	1491.31
485.118	1390.31
485.336	1353.31
485.554	1406.31
485.772	1443.31
485.99	1414.31
486.209	1399.31
486.427	1390.31
486.645	1422.31
486.863	1426.31
487.081	1479.31
487.299	1456.31
487.517	1451.31
487.735	1485.31
487.953	1541.31
488.171	1509.31
488.389	1498.31
488.607	1486.31
488.825	1641.31
489.043	1578.31
489.261	1411.31
489.479	1506.31
489.696	1483.31
489.914	1470.31
490.132	1418.31
490.35	1467.31
490.568	1549.31
490.786	1539.31
491.003	1488.31
491.221	1567.31
491.439	1585.31
491.657	1578.31
491.874	1633.31
492.092	1675.31
492.31	1710.31
492.527	1672.31
492.745	1621.31
492.963	1631.31
493.18	1623.31
