Data from WStandard_LampEnergy8_LIBS07252019.E.O._I.C._HRD10591_16-00-44-930.txt Node
Date: Thu Jul 25 16:00:44 EDT 2019
User: cochatt
Spectrometer: HR+D1059
Trigger mode: 1
Integration Time (sec): 1.000000E-1
Scans to average: 1
Electric dark correction enabled: true
Nonlinearity correction enabled: false
Boxcar width: 0
XAxis mode: Wavelengths
Number of Pixels in Spectrum: 2048
>>>>>Begin Spectral Data<<<<<
223.165	-17.44
223.4	-17.44
223.635	-17.44
223.869	-6.44
224.104	-28.44
224.338	1.56
224.573	-1.44
224.808	-5.44
225.042	-5.44
225.277	-20.44
225.511	-13.44
225.746	5.56
225.98	-2.44
226.215	9.56
226.449	9.56
226.683	23.56
226.918	30.56
227.152	20.56
227.387	23.56
227.621	31.56
227.856	55.56
228.09	32.56
228.324	45.56
228.559	58.56
228.793	82.56
229.027	170.56
229.262	184.56
229.496	217.56
229.73	207.56
229.964	232.56
230.199	261.56
230.433	249.56
230.667	251.56
230.901	285.56
231.136	269.56
231.37	239.56
231.604	245.56
231.838	251.56
232.072	270.56
232.306	264.56
232.541	257.56
232.775	294.56
233.009	308.56
233.243	294.56
233.477	280.56
233.711	304.56
233.945	292.56
234.179	283.56
234.413	301.56
234.647	325.56
234.881	306.56
235.115	278.56
235.349	311.56
235.583	290.56
235.817	275.56
236.051	282.56
236.285	292.56
236.519	322.56
236.753	346.56
236.987	337.56
237.221	319.56
237.455	353.56
237.689	344.56
237.922	336.56
238.156	326.56
238.39	335.56
238.624	345.56
238.858	378.56
239.091	385.56
239.325	416.56
239.559	451.56
239.793	483.56
240.027	488.56
240.26	473.56
240.494	367.56
240.728	360.56
240.961	371.56
241.195	372.56
241.429	406.56
241.662	414.56
241.896	377.56
242.13	371.56
242.363	421.56
242.597	414.56
242.83	451.56
243.064	438.56
243.298	453.56
243.531	430.56
243.765	440.56
243.998	422.56
244.232	400.56
244.465	383.56
244.699	395.56
244.932	465.56
245.166	477.56
245.399	468.56
245.633	446.56
245.866	434.56
246.099	445.56
246.333	486.56
246.566	486.56
246.8	526.56
247.033	537.56
247.266	528.56
247.5	513.56
247.733	517.56
247.966	534.56
248.2	582.56
248.433	561.56
248.666	597.56
248.899	635.56
249.133	717.56
249.366	746.56
249.599	660.56
249.832	589.56
250.066	596.56
250.299	587.56
250.532	572.56
250.765	550.56
250.998	558.56
251.231	557.56
251.465	555.56
251.698	571.56
251.931	573.56
252.164	575.56
252.397	603.56
252.63	585.56
252.863	511.56
253.096	546.56
253.329	557.56
253.562	569.56
253.795	602.56
254.028	561.56
254.261	528.56
254.494	527.56
254.727	532.56
254.96	575.56
255.193	617.56
255.426	673.56
255.659	729.56
255.892	739.56
256.124	618.56
256.357	631.56
256.59	667.56
256.823	660.56
257.056	707.56
257.289	777.56
257.521	839.56
257.754	779.56
257.987	754.56
258.22	816.56
258.452	769.56
258.685	650.56
258.918	641.56
259.151	647.56
259.383	615.56
259.616	553.56
259.849	576.56
260.081	665.56
260.314	765.56
260.547	776.56
260.779	789.56
261.012	754.56
261.244	681.56
261.477	645.56
261.71	642.56
261.942	651.56
262.175	642.56
262.407	685.56
262.64	631.56
262.872	601.56
263.105	581.56
263.337	629.56
263.57	645.56
263.802	601.56
264.035	594.56
264.267	554.56
264.499	537.56
264.732	598.56
264.964	626.56
265.197	667.56
265.429	667.56
265.661	734.56
265.894	829.56
266.126	804.56
266.358	755.56
266.591	812.56
266.823	845.56
267.055	761.56
267.287	743.56
267.52	737.56
267.752	731.56
267.984	746.56
268.216	777.56
268.448	779.56
268.681	746.56
268.913	703.56
269.145	688.56
269.377	687.56
269.609	749.56
269.841	838.56
270.073	957.56
270.306	1031.56
270.538	1098.56
270.77	913.56
271.002	799.56
271.234	779.56
271.466	762.56
271.698	869.56
271.93	1025.56
272.162	990.56
272.394	885.56
272.626	883.56
272.858	752.56
273.09	665.56
273.322	656.56
273.553	635.56
273.785	637.56
274.017	682.56
274.249	743.56
274.481	749.56
274.713	675.56
274.945	669.56
275.176	681.56
275.408	669.56
275.64	643.56
275.872	636.56
276.104	720.56
276.335	790.56
276.567	894.56
276.799	886.56
277.031	809.56
277.262	757.56
277.494	815.56
277.726	882.56
277.957	853.56
278.189	749.56
278.421	732.56
278.652	694.56
278.884	682.56
279.115	696.56
279.347	718.56
279.579	728.56
279.81	725.56
280.042	778.56
280.273	839.56
280.505	867.56
280.736	861.56
280.968	813.56
281.199	725.56
281.431	697.56
281.662	697.56
281.894	722.56
282.125	727.56
282.356	735.56
282.588	754.56
282.819	740.56
283.051	796.56
283.282	851.56
283.513	831.56
283.745	716.56
283.976	687.56
284.207	738.56
284.439	731.56
284.67	721.56
284.901	739.56
285.132	740.56
285.364	728.56
285.595	723.56
285.826	737.56
286.057	715.56
286.288	720.56
286.52	793.56
286.751	840.56
286.982	847.56
287.213	786.56
287.444	713.56
287.675	699.56
287.906	749.56
288.138	789.56
288.369	763.56
288.6	741.56
288.831	713.56
289.062	745.56
289.293	717.56
289.524	734.56
289.755	762.56
289.986	741.56
290.217	701.56
290.448	731.56
290.679	749.56
290.91	753.56
291.141	798.56
291.371	785.56
291.602	811.56
291.833	758.56
292.064	810.56
292.295	810.56
292.526	825.56
292.757	827.56
292.987	786.56
293.218	770.56
293.449	843.56
293.68	950.56
293.91	981.56
294.141	927.56
294.372	874.56
294.603	917.56
294.833	977.56
295.064	854.56
295.295	792.56
295.525	779.56
295.756	721.56
295.987	712.56
296.217	729.56
296.448	759.56
296.679	763.56
296.909	733.56
297.14	753.56
297.37	783.56
297.601	794.56
297.831	849.56
298.062	832.56
298.292	781.56
298.523	745.56
298.753	765.56
298.984	746.56
299.214	805.56
299.445	815.56
299.675	809.56
299.905	826.56
300.136	783.56
300.366	793.56
300.597	733.56
300.827	756.56
301.057	819.56
301.288	809.56
301.518	834.56
301.748	849.56
301.979	885.56
302.209	901.56
302.439	953.56
302.669	959.56
302.9	901.56
303.13	820.56
303.36	837.56
303.59	841.56
303.82	821.56
304.051	828.56
304.281	830.56
304.511	859.56
304.741	927.56
304.971	977.56
305.201	1016.56
305.431	922.56
305.661	760.56
305.891	714.56
306.121	738.56
306.352	777.56
306.582	830.56
306.812	857.56
307.042	920.56
307.272	888.56
307.502	967.56
307.731	1012.56
307.961	1034.56
308.191	966.56
308.421	861.56
308.651	815.56
308.881	819.56
309.111	831.56
309.341	802.56
309.571	799.56
309.8	812.56
310.03	815.56
310.26	785.56
310.49	803.56
310.72	823.56
310.949	820.56
311.179	861.56
311.409	866.56
311.639	824.56
311.868	792.56
312.098	812.56
312.328	801.56
312.557	821.56
312.787	830.56
313.017	853.56
313.246	832.56
313.476	842.56
313.706	866.56
313.935	866.56
314.165	850.56
314.394	913.56
314.624	928.56
314.853	993.56
315.083	1017.56
315.312	1037.56
315.542	934.56
315.771	895.56
316.001	878.56
316.23	940.56
316.46	915.56
316.689	915.56
316.919	895.56
317.148	839.56
317.377	884.56
317.607	917.56
317.836	1040.56
318.065	1018.56
318.295	963.56
318.524	949.56
318.753	913.56
318.983	881.56
319.212	898.56
319.441	878.56
319.67	892.56
319.9	921.56
320.129	981.56
320.358	945.56
320.587	997.56
320.816	1026.56
321.046	961.56
321.275	932.56
321.504	954.56
321.733	1035.56
321.962	954.56
322.191	886.56
322.42	890.56
322.649	893.56
322.878	889.56
323.108	888.56
323.337	892.56
323.566	923.56
323.795	939.56
324.024	897.56
324.253	913.56
324.482	903.56
324.71	893.56
324.939	860.56
325.168	883.56
325.397	909.56
325.626	947.56
325.855	933.56
326.084	887.56
326.313	885.56
326.542	910.56
326.77	948.56
326.999	931.56
327.228	894.56
327.457	869.56
327.686	861.56
327.914	892.56
328.143	917.56
328.372	921.56
328.6	889.56
328.829	878.56
329.058	890.56
329.287	896.56
329.515	905.56
329.744	928.56
329.972	989.56
330.201	1027.56
330.43	965.56
330.658	971.56
330.887	935.56
331.115	943.56
331.344	948.56
331.572	939.56
331.801	937.56
332.03	961.56
332.258	968.56
332.486	971.56
332.715	974.56
332.943	954.56
333.172	954.56
333.4	1014.56
333.629	1018.56
333.857	1083.56
334.085	1184.56
334.314	1314.56
334.542	1366.56
334.771	1256.56
334.999	1117.56
335.227	1058.56
335.455	1011.56
335.684	1027.56
335.912	1069.56
336.14	1059.56
336.369	1031.56
336.597	981.56
336.825	971.56
337.053	1010.56
337.281	1045.56
337.51	1124.56
337.738	1145.56
337.966	1055.56
338.194	972.56
338.422	998.56
338.65	962.56
338.878	939.56
339.106	921.56
339.334	939.56
339.562	889.56
339.79	925.56
340.018	978.56
340.246	1013.56
340.474	993.56
340.702	974.56
340.93	990.56
341.158	959.56
341.386	952.56
341.614	947.56
341.842	939.56
342.07	962.56
342.298	954.56
342.526	954.56
342.754	951.56
342.981	975.56
343.209	933.56
343.437	951.56
343.665	969.56
343.893	1002.56
344.12	1053.56
344.348	1039.56
344.576	996.56
344.804	966.56
345.031	945.56
345.259	949.56
345.487	919.56
345.714	878.56
345.942	858.56
346.17	897.56
346.397	931.56
346.625	891.56
346.853	888.56
347.08	872.56
347.308	869.56
347.535	887.56
347.763	924.56
347.99	915.56
348.218	890.56
348.445	873.56
348.673	897.56
348.9	934.56
349.128	984.56
349.355	952.56
349.583	915.56
349.81	889.56
350.037	849.56
350.265	847.56
350.492	874.56
350.72	877.56
350.947	953.56
351.174	917.56
351.402	863.56
351.629	841.56
351.856	845.56
352.083	849.56
352.311	864.56
352.538	861.56
352.765	914.56
352.992	893.56
353.22	879.56
353.447	859.56
353.674	881.56
353.901	890.56
354.128	858.56
354.355	855.56
354.583	898.56
354.81	933.56
355.037	913.56
355.264	917.56
355.491	901.56
355.718	907.56
355.945	895.56
356.172	856.56
356.399	823.56
356.626	878.56
356.853	917.56
357.08	980.56
357.307	1086.56
357.534	1013.56
357.761	917.56
357.988	855.56
358.215	889.56
358.441	863.56
358.668	866.56
358.895	886.56
359.122	927.56
359.349	995.56
359.576	972.56
359.802	870.56
360.029	868.56
360.256	871.56
360.483	882.56
360.709	941.56
360.936	950.56
361.163	977.56
361.39	1085.56
361.616	1085.56
361.843	1088.56
362.07	1034.56
362.296	918.56
362.523	878.56
362.749	884.56
362.976	880.56
363.203	917.56
363.429	905.56
363.656	856.56
363.882	938.56
364.109	998.56
364.335	1059.56
364.562	997.56
364.788	970.56
365.015	905.56
365.241	895.56
365.468	904.56
365.694	952.56
365.92	967.56
366.147	900.56
366.373	880.56
366.599	861.56
366.826	875.56
367.052	866.56
367.278	894.56
367.505	919.56
367.731	939.56
367.957	916.56
368.184	997.56
368.41	1001.56
368.636	1024.56
368.862	1009.56
369.089	1022.56
369.315	968.56
369.541	953.56
369.767	915.56
369.993	891.56
370.219	915.56
370.445	947.56
370.672	989.56
370.898	1039.56
371.124	1001.56
371.35	944.56
371.576	1000.56
371.802	996.56
372.028	953.56
372.254	931.56
372.48	891.56
372.706	924.56
372.932	921.56
373.158	953.56
373.384	961.56
373.61	971.56
373.835	985.56
374.061	970.56
374.287	925.56
374.513	931.56
374.739	960.56
374.965	988.56
375.191	965.56
375.416	942.56
375.642	979.56
375.868	1053.56
376.094	1079.56
376.319	1003.56
376.545	967.56
376.771	994.56
376.997	1040.56
377.222	1016.56
377.448	1010.56
377.674	984.56
377.899	1032.56
378.125	1062.56
378.35	1058.56
378.576	959.56
378.802	920.56
379.027	914.56
379.253	935.56
379.478	968.56
379.704	925.56
379.929	956.56
380.155	956.56
380.38	946.56
380.606	990.56
380.831	982.56
381.057	1047.56
381.282	1048.56
381.507	1006.56
381.733	1072.56
381.958	1118.56
382.184	1020.56
382.409	1025.56
382.634	1010.56
382.86	999.56
383.085	962.56
383.31	1056.56
383.535	1148.56
383.761	1184.56
383.986	1129.56
384.211	1059.56
384.436	1072.56
384.662	1159.56
384.887	1151.56
385.112	1095.56
385.337	1099.56
385.562	1123.56
385.787	1109.56
386.013	1107.56
386.238	1113.56
386.463	1126.56
386.688	1188.56
386.913	1271.56
387.138	1204.56
387.363	1187.56
387.588	1133.56
387.813	1113.56
388.038	1153.56
388.263	1186.56
388.488	1122.56
388.713	1086.56
388.938	1048.56
389.163	1070.56
389.387	1085.56
389.612	1093.56
389.837	1104.56
390.062	1120.56
390.287	1099.56
390.512	1090.56
390.736	1100.56
390.961	1049.56
391.186	1032.56
391.411	1058.56
391.636	1073.56
391.86	1096.56
392.085	1097.56
392.31	1082.56
392.534	1114.56
392.759	1094.56
392.984	1101.56
393.208	1100.56
393.433	1158.56
393.658	1177.56
393.882	1183.56
394.107	1122.56
394.331	1107.56
394.556	1096.56
394.78	1127.56
395.005	1144.56
395.229	1189.56
395.454	1251.56
395.678	1255.56
395.903	1194.56
396.127	1159.56
396.352	1183.56
396.576	1225.56
396.801	1215.56
397.025	1239.56
397.249	1216.56
397.474	1203.56
397.698	1173.56
397.922	1234.56
398.147	1279.56
398.371	1341.56
398.595	1306.56
398.82	1232.56
399.044	1258.56
399.268	1332.56
399.492	1429.56
399.717	1429.56
399.941	1474.56
400.165	1438.56
400.389	1401.56
400.613	1437.56
400.837	1567.56
401.062	1774.56
401.286	1454.56
401.51	1360.56
401.734	1411.56
401.958	1377.56
402.182	1284.56
402.406	1256.56
402.63	1252.56
402.854	1294.56
403.078	1277.56
403.302	1311.56
403.526	1314.56
403.75	1338.56
403.974	1328.56
404.198	1295.56
404.422	1341.56
404.645	1455.56
404.869	1365.56
405.093	1259.56
405.317	1279.56
405.541	1300.56
405.765	1327.56
405.988	1300.56
406.212	1336.56
406.436	1337.56
406.66	1413.56
406.883	1418.56
407.107	1609.56
407.331	1734.56
407.555	1838.56
407.778	1648.56
408.002	1377.56
408.226	1375.56
408.449	1361.56
408.673	1323.56
408.896	1365.56
409.12	1362.56
409.344	1329.56
409.567	1291.56
409.791	1320.56
410.014	1334.56
410.238	1410.56
410.461	1476.56
410.685	1340.56
410.908	1274.56
411.132	1304.56
411.355	1297.56
411.578	1279.56
411.802	1308.56
412.025	1317.56
412.249	1284.56
412.472	1302.56
412.695	1254.56
412.919	1281.56
413.142	1277.56
413.365	1283.56
413.589	1301.56
413.812	1344.56
414.035	1386.56
414.258	1305.56
414.482	1261.56
414.705	1306.56
414.928	1234.56
415.151	1299.56
415.374	1280.56
415.597	1295.56
415.821	1298.56
416.044	1287.56
416.267	1307.56
416.49	1239.56
416.713	1238.56
416.936	1304.56
417.159	1342.56
417.382	1312.56
417.605	1271.56
417.828	1303.56
418.051	1318.56
418.274	1270.56
418.497	1256.56
418.72	1265.56
418.943	1240.56
419.166	1291.56
419.389	1335.56
419.611	1278.56
419.834	1277.56
420.057	1257.56
420.28	1250.56
420.503	1242.56
420.726	1326.56
420.948	1285.56
421.171	1213.56
421.394	1277.56
421.617	1278.56
421.839	1300.56
422.062	1286.56
422.285	1246.56
422.507	1233.56
422.73	1214.56
422.953	1205.56
423.175	1188.56
423.398	1224.56
423.621	1246.56
423.843	1248.56
424.066	1258.56
424.288	1364.56
424.511	1376.56
424.733	1325.56
424.956	1232.56
425.178	1194.56
425.401	1218.56
425.623	1242.56
425.846	1221.56
426.068	1272.56
426.291	1289.56
426.513	1282.56
426.735	1273.56
426.958	1378.56
427.18	1418.56
427.402	1315.56
427.625	1332.56
427.847	1320.56
428.069	1226.56
428.292	1220.56
428.514	1179.56
428.736	1205.56
428.958	1240.56
429.181	1244.56
429.403	1435.56
429.625	1697.56
429.847	1418.56
430.069	1255.56
430.292	1409.56
430.514	1404.56
430.736	1298.56
430.958	1345.56
431.18	1248.56
431.402	1183.56
431.624	1173.56
431.846	1141.56
432.068	1112.56
432.29	1091.56
432.512	1149.56
432.734	1225.56
432.956	1262.56
433.178	1301.56
433.4	1283.56
433.622	1258.56
433.844	1220.56
434.066	1167.56
434.287	1162.56
434.509	1162.56
434.731	1239.56
434.953	1303.56
435.175	1291.56
435.397	1224.56
435.618	1202.56
435.84	1192.56
436.062	1178.56
436.284	1211.56
436.505	1255.56
436.727	1282.56
436.949	1245.56
437.17	1217.56
437.392	1178.56
437.614	1151.56
437.835	1155.56
438.057	1176.56
438.278	1228.56
438.5	1160.56
438.721	1181.56
438.943	1185.56
439.165	1160.56
439.386	1206.56
439.608	1176.56
439.829	1205.56
440.05	1219.56
440.272	1214.56
440.493	1219.56
440.715	1245.56
440.936	1333.56
441.158	1415.56
441.379	1331.56
441.6	1349.56
441.822	1303.56
442.043	1315.56
442.264	1273.56
442.486	1238.56
442.707	1213.56
442.928	1232.56
443.149	1283.56
443.371	1297.56
443.592	1338.56
443.813	1354.56
444.034	1319.56
444.255	1338.56
444.476	1377.56
444.698	1387.56
444.919	1354.56
445.14	1428.56
445.361	1417.56
445.582	1385.56
445.803	1353.56
446.024	1337.56
446.245	1353.56
446.466	1357.56
446.687	1261.56
446.908	1351.56
447.129	1295.56
447.35	1254.56
447.571	1237.56
447.792	1212.56
448.013	1197.56
448.234	1224.56
448.455	1281.56
448.675	1250.56
448.896	1190.56
449.117	1156.56
449.338	1185.56
449.559	1263.56
449.779	1243.56
450	1357.56
450.221	1439.56
450.442	1391.56
450.662	1214.56
450.883	1126.56
451.104	1136.56
451.324	1152.56
451.545	1165.56
451.766	1163.56
451.986	1097.56
452.207	1105.56
452.428	1098.56
452.648	1073.56
452.869	1043.56
453.089	1123.56
453.31	1112.56
453.53	1153.56
453.751	1070.56
453.971	1024.56
454.192	1053.56
454.412	1117.56
454.633	1114.56
454.853	1096.56
455.073	1021.56
455.294	1019.56
455.514	1017.56
455.734	1049.56
455.955	1058.56
456.175	1038.56
456.395	1054.56
456.616	1028.56
456.836	1074.56
457.056	1047.56
457.276	1049.56
457.497	1018.56
457.717	983.56
457.937	1000.56
458.157	1025.56
458.377	1017.56
458.598	1004.56
458.818	990.56
459.038	1088.56
459.258	1115.56
459.478	1112.56
459.698	1098.56
459.918	1109.56
460.138	1181.56
460.358	1205.56
460.578	1225.56
460.798	1239.56
461.018	1269.56
461.238	1233.56
461.458	1233.56
461.678	1242.56
461.898	1201.56
462.118	1174.56
462.338	1209.56
462.558	1250.56
462.777	1191.56
462.997	1250.56
463.217	1353.56
463.437	1304.56
463.657	1220.56
463.876	1199.56
464.096	1211.56
464.316	1220.56
464.536	1273.56
464.755	1270.56
464.975	1267.56
465.195	1261.56
465.414	1295.56
465.634	1256.56
465.854	1241.56
466.073	1336.56
466.293	1321.56
466.512	1133.56
466.732	1170.56
466.951	1223.56
467.171	1220.56
467.391	1142.56
467.61	1145.56
467.829	1176.56
468.049	1281.56
468.268	1386.56
468.488	1287.56
468.707	1225.56
468.927	1184.56
469.146	1184.56
469.365	1202.56
469.585	1207.56
469.804	1190.56
470.023	1208.56
470.243	1215.56
470.462	1179.56
470.681	1178.56
470.901	1187.56
471.12	1182.56
471.339	1206.56
471.558	1159.56
471.777	1171.56
471.997	1181.56
472.216	1142.56
472.435	1114.56
472.654	1084.56
472.873	1125.56
473.092	1177.56
473.311	1142.56
473.53	1086.56
473.749	1084.56
473.968	1166.56
474.187	1168.56
474.406	1190.56
474.625	1157.56
474.844	1143.56
475.063	1158.56
475.282	1159.56
475.501	1120.56
475.72	1145.56
475.939	1213.56
476.158	1208.56
476.377	1218.56
476.596	1185.56
476.814	1167.56
477.033	1169.56
477.252	1232.56
477.471	1273.56
477.69	1270.56
477.908	1277.56
478.127	1352.56
478.346	1393.56
478.564	1382.56
478.783	1350.56
479.002	1401.56
479.22	1359.56
479.439	1427.56
479.658	1489.56
479.876	1508.56
480.095	1317.56
480.313	1293.56
480.532	1248.56
480.751	1249.56
480.969	1259.56
481.188	1230.56
481.406	1241.56
481.624	1190.56
481.843	1224.56
482.061	1259.56
482.28	1264.56
482.498	1297.56
482.717	1293.56
482.935	1228.56
483.153	1317.56
483.372	1335.56
483.59	1320.56
483.808	1307.56
484.027	1360.56
484.245	1390.56
484.463	1665.56
484.681	1835.56
484.9	1431.56
485.118	1336.56
485.336	1295.56
485.554	1329.56
485.772	1337.56
485.99	1316.56
486.209	1355.56
486.427	1330.56
486.645	1351.56
486.863	1337.56
487.081	1408.56
487.299	1419.56
487.517	1374.56
487.735	1399.56
487.953	1472.56
488.171	1453.56
488.389	1453.56
488.607	1404.56
488.825	1550.56
489.043	1454.56
489.261	1398.56
489.479	1424.56
489.696	1463.56
489.914	1401.56
490.132	1382.56
490.35	1425.56
490.568	1475.56
490.786	1473.56
491.003	1469.56
491.221	1492.56
491.439	1562.56
491.657	1551.56
491.874	1581.56
492.092	1639.56
492.31	1631.56
492.527	1636.56
492.745	1563.56
492.963	1554.56
493.18	1566.56
493.398	1645.56
493.615	1632.56
493.833	1543.56
494.05	1506.56
494.268	1472.56
