Data from WStandard_LampEnergy8_LIBS07252019.E.O._I.C._HRD10591_15-58-39-929.txt Node
Date: Thu Jul 25 15:58:39 EDT 2019
User: cochatt
Spectrometer: HR+D1059
Trigger mode: 1
Integration Time (sec): 1.000000E-1
Scans to average: 1
Electric dark correction enabled: true
Nonlinearity correction enabled: false
Boxcar width: 0
XAxis mode: Wavelengths
Number of Pixels in Spectrum: 2048
>>>>>Begin Spectral Data<<<<<
223.165	-0.38
223.4	-0.38
223.635	-0.38
223.869	-13.38
224.104	-11.38
224.338	-20.38
224.573	-17.38
224.808	-14.38
225.042	-8.38
225.277	-12.38
225.511	-5.38
225.746	3.62
225.98	15.62
226.215	3.62
226.449	31.62
226.683	8.62
226.918	17.62
227.152	22.62
227.387	36.62
227.621	41.62
227.856	42.62
228.09	31.62
228.324	47.62
228.559	52.62
228.793	89.62
229.027	177.62
229.262	215.62
229.496	214.62
229.73	217.62
229.964	244.62
230.199	249.62
230.433	255.62
230.667	266.62
230.901	293.62
231.136	279.62
231.37	264.62
231.604	269.62
231.838	259.62
232.072	258.62
232.306	263.62
232.541	270.62
232.775	325.62
233.009	325.62
233.243	304.62
233.477	293.62
233.711	303.62
233.945	298.62
234.179	312.62
234.413	307.62
234.647	341.62
234.881	296.62
235.115	285.62
235.349	307.62
235.583	314.62
235.817	308.62
236.051	292.62
236.285	319.62
236.519	329.62
236.753	356.62
236.987	347.62
237.221	353.62
237.455	381.62
237.689	373.62
237.922	376.62
238.156	334.62
238.39	349.62
238.624	381.62
238.858	384.62
239.091	383.62
239.325	403.62
239.559	485.62
239.793	487.62
240.027	529.62
240.26	498.62
240.494	386.62
240.728	375.62
240.961	373.62
241.195	395.62
241.429	421.62
241.662	414.62
241.896	394.62
242.13	402.62
242.363	437.62
242.597	462.62
242.83	450.62
243.064	453.62
243.298	488.62
243.531	474.62
243.765	471.62
243.998	462.62
244.232	404.62
244.465	401.62
244.699	406.62
244.932	447.62
245.166	498.62
245.399	490.62
245.633	458.62
245.866	463.62
246.099	499.62
246.333	489.62
246.566	507.62
246.8	553.62
247.033	587.62
247.266	550.62
247.5	538.62
247.733	534.62
247.966	554.62
248.2	591.62
248.433	581.62
248.666	626.62
248.899	663.62
249.133	753.62
249.366	799.62
249.599	688.62
249.832	611.62
250.066	614.62
250.299	609.62
250.532	578.62
250.765	553.62
250.998	572.62
251.231	577.62
251.465	604.62
251.698	583.62
251.931	586.62
252.164	601.62
252.397	596.62
252.63	609.62
252.863	581.62
253.096	557.62
253.329	581.62
253.562	582.62
253.795	633.62
254.028	611.62
254.261	578.62
254.494	574.62
254.727	559.62
254.96	587.62
255.193	646.62
255.426	717.62
255.659	792.62
255.892	787.62
256.124	671.62
256.357	651.62
256.59	691.62
256.823	697.62
257.056	711.62
257.289	825.62
257.521	871.62
257.754	809.62
257.987	804.62
258.22	834.62
258.452	794.62
258.685	673.62
258.918	677.62
259.151	690.62
259.383	628.62
259.616	573.62
259.849	623.62
260.081	694.62
260.314	781.62
260.547	826.62
260.779	819.62
261.012	767.62
261.244	675.62
261.477	659.62
261.71	681.62
261.942	700.62
262.175	681.62
262.407	697.62
262.64	666.62
262.872	633.62
263.105	647.62
263.337	623.62
263.57	633.62
263.802	637.62
264.035	605.62
264.267	581.62
264.499	579.62
264.732	603.62
264.964	643.62
265.197	688.62
265.429	714.62
265.661	784.62
265.894	870.62
266.126	888.62
266.358	785.62
266.591	794.62
266.823	856.62
267.055	783.62
267.287	786.62
267.52	785.62
267.752	729.62
267.984	769.62
268.216	781.62
268.448	831.62
268.681	813.62
268.913	773.62
269.145	697.62
269.377	705.62
269.609	800.62
269.841	853.62
270.073	991.62
270.306	1106.62
270.538	1078.62
270.77	934.62
271.002	844.62
271.234	785.62
271.466	825.62
271.698	946.62
271.93	1057.62
272.162	1060.62
272.394	952.62
272.626	893.62
272.858	794.62
273.09	701.62
273.322	716.62
273.553	637.62
273.785	698.62
274.017	710.62
274.249	774.62
274.481	771.62
274.713	699.62
274.945	698.62
275.176	713.62
275.408	691.62
275.64	679.62
275.872	679.62
276.104	756.62
276.335	859.62
276.567	918.62
276.799	900.62
277.031	845.62
277.262	831.62
277.494	834.62
277.726	897.62
277.957	898.62
278.189	812.62
278.421	759.62
278.652	749.62
278.884	736.62
279.115	738.62
279.347	742.62
279.579	726.62
279.81	756.62
280.042	803.62
280.273	897.62
280.505	904.62
280.736	885.62
280.968	791.62
281.199	734.62
281.431	714.62
281.662	716.62
281.894	718.62
282.125	763.62
282.356	784.62
282.588	779.62
282.819	767.62
283.051	832.62
283.282	912.62
283.513	825.62
283.745	766.62
283.976	696.62
284.207	732.62
284.439	741.62
284.67	753.62
284.901	777.62
285.132	788.62
285.364	802.62
285.595	777.62
285.826	740.62
286.057	751.62
286.288	778.62
286.52	792.62
286.751	852.62
286.982	829.62
287.213	762.62
287.444	741.62
287.675	749.62
287.906	799.62
288.138	843.62
288.369	822.62
288.6	779.62
288.831	746.62
289.062	742.62
289.293	754.62
289.524	760.62
289.755	803.62
289.986	759.62
290.217	755.62
290.448	772.62
290.679	794.62
290.91	809.62
291.141	806.62
291.371	834.62
291.602	829.62
291.833	824.62
292.064	831.62
292.295	833.62
292.526	850.62
292.757	857.62
292.987	813.62
293.218	801.62
293.449	857.62
293.68	980.62
293.91	1019.62
294.141	945.62
294.372	914.62
294.603	951.62
294.833	978.62
295.064	927.62
295.295	861.62
295.525	819.62
295.756	779.62
295.987	743.62
296.217	763.62
296.448	773.62
296.679	776.62
296.909	778.62
297.14	766.62
297.37	816.62
297.601	851.62
297.831	888.62
298.062	893.62
298.292	809.62
298.523	783.62
298.753	809.62
298.984	820.62
299.214	819.62
299.445	816.62
299.675	834.62
299.905	839.62
300.136	801.62
300.366	817.62
300.597	771.62
300.827	781.62
301.057	815.62
301.288	853.62
301.518	861.62
301.748	888.62
301.979	927.62
302.209	929.62
302.439	1006.62
302.669	1011.62
302.9	943.62
303.13	865.62
303.36	869.62
303.59	871.62
303.82	848.62
304.051	846.62
304.281	872.62
304.511	867.62
304.741	939.62
304.971	1042.62
305.201	1066.62
305.431	934.62
305.661	830.62
305.891	768.62
306.121	750.62
306.352	802.62
306.582	841.62
306.812	900.62
307.042	969.62
307.272	970.62
307.502	960.62
307.731	1043.62
307.961	1070.62
308.191	987.62
308.421	885.62
308.651	854.62
308.881	847.62
309.111	854.62
309.341	836.62
309.571	847.62
309.8	849.62
310.03	858.62
310.26	816.62
310.49	831.62
310.72	856.62
310.949	904.62
311.179	874.62
311.409	855.62
311.639	846.62
311.868	842.62
312.098	842.62
312.328	849.62
312.557	840.62
312.787	873.62
313.017	866.62
313.246	872.62
313.476	885.62
313.706	907.62
313.935	880.62
314.165	903.62
314.394	953.62
314.624	962.62
314.853	1051.62
315.083	1072.62
315.312	1049.62
315.542	982.62
315.771	898.62
316.001	923.62
316.23	931.62
316.46	954.62
316.689	919.62
316.919	907.62
317.148	891.62
317.377	892.62
317.607	970.62
317.836	1069.62
318.065	1084.62
318.295	1051.62
318.524	984.62
318.753	954.62
318.983	925.62
319.212	934.62
319.441	925.62
319.67	919.62
319.9	945.62
320.129	1002.62
320.358	1009.62
320.587	1020.62
320.816	1042.62
321.046	1001.62
321.275	973.62
321.504	988.62
321.733	1030.62
321.962	985.62
322.191	925.62
322.42	930.62
322.649	924.62
322.878	909.62
323.108	923.62
323.337	938.62
323.566	963.62
323.795	960.62
324.024	951.62
324.253	976.62
324.482	945.62
324.71	907.62
324.939	880.62
325.168	899.62
325.397	939.62
325.626	966.62
325.855	945.62
326.084	896.62
326.313	946.62
326.542	952.62
326.77	979.62
326.999	981.62
327.228	902.62
327.457	885.62
327.686	886.62
327.914	942.62
328.143	965.62
328.372	955.62
328.6	919.62
328.829	921.62
329.058	913.62
329.287	909.62
329.515	951.62
329.744	978.62
329.972	1040.62
330.201	1049.62
330.43	1015.62
330.658	978.62
330.887	992.62
331.115	984.62
331.344	1007.62
331.572	983.62
331.801	998.62
332.03	1001.62
332.258	991.62
332.486	994.62
332.715	1002.62
332.943	1020.62
333.172	996.62
333.4	1011.62
333.629	1035.62
333.857	1093.62
334.085	1225.62
334.314	1376.62
334.542	1429.62
334.771	1337.62
334.999	1145.62
335.227	1125.62
335.455	1043.62
335.684	1066.62
335.912	1098.62
336.14	1107.62
336.369	1059.62
336.597	1005.62
336.825	994.62
337.053	1045.62
337.281	1102.62
337.51	1190.62
337.738	1160.62
337.966	1105.62
338.194	1032.62
338.422	995.62
338.65	989.62
338.878	969.62
339.106	963.62
339.334	938.62
339.562	916.62
339.79	980.62
340.018	1028.62
340.246	1059.62
340.474	1055.62
340.702	1039.62
340.93	1039.62
341.158	1023.62
341.386	986.62
341.614	998.62
341.842	1004.62
342.07	975.62
342.298	1005.62
342.526	996.62
342.754	980.62
342.981	993.62
343.209	957.62
343.437	954.62
343.665	966.62
343.893	1005.62
344.12	1036.62
344.348	1042.62
344.576	1001.62
344.804	982.62
345.031	1000.62
345.259	993.62
345.487	963.62
345.714	899.62
345.942	920.62
346.17	904.62
346.397	934.62
346.625	954.62
346.853	906.62
347.08	881.62
347.308	907.62
347.535	931.62
347.763	979.62
347.99	947.62
348.218	916.62
348.445	901.62
348.673	931.62
348.9	947.62
349.128	994.62
349.355	1009.62
349.583	965.62
349.81	929.62
350.037	877.62
350.265	873.62
350.492	876.62
350.72	912.62
350.947	971.62
351.174	943.62
351.402	926.62
351.629	882.62
351.856	856.62
352.083	874.62
352.311	879.62
352.538	945.62
352.765	943.62
352.992	961.62
353.22	929.62
353.447	886.62
353.674	931.62
353.901	938.62
354.128	877.62
354.355	930.62
354.583	936.62
354.81	984.62
355.037	951.62
355.264	941.62
355.491	955.62
355.718	952.62
355.945	905.62
356.172	917.62
356.399	910.62
356.626	907.62
356.853	962.62
357.08	1027.62
357.307	1129.62
357.534	1088.62
357.761	943.62
357.988	888.62
358.215	871.62
358.441	905.62
358.668	890.62
358.895	904.62
359.122	956.62
359.349	1039.62
359.576	997.62
359.802	927.62
360.029	893.62
360.256	905.62
360.483	911.62
360.709	965.62
360.936	990.62
361.163	1015.62
361.39	1096.62
361.616	1146.62
361.843	1130.62
362.07	1042.62
362.296	935.62
362.523	914.62
362.749	911.62
362.976	972.62
363.203	957.62
363.429	938.62
363.656	913.62
363.882	967.62
364.109	1060.62
364.335	1089.62
364.562	1065.62
364.788	993.62
365.015	915.62
365.241	905.62
365.468	947.62
365.694	975.62
365.92	993.62
366.147	966.62
366.373	911.62
366.599	937.62
366.826	932.62
367.052	912.62
367.278	899.62
367.505	929.62
367.731	942.62
367.957	937.62
368.184	1008.62
368.41	1021.62
368.636	1058.62
368.862	1075.62
369.089	1066.62
369.315	1003.62
369.541	993.62
369.767	943.62
369.993	911.62
370.219	918.62
370.445	950.62
370.672	1033.62
370.898	1093.62
371.124	1050.62
371.35	988.62
371.576	1015.62
371.802	1045.62
372.028	989.62
372.254	954.62
372.48	937.62
372.706	923.62
372.932	934.62
373.158	964.62
373.384	971.62
373.61	1009.62
373.835	1011.62
374.061	995.62
374.287	1003.62
374.513	992.62
374.739	979.62
374.965	967.62
375.191	1017.62
375.416	1027.62
375.642	1044.62
375.868	1107.62
376.094	1133.62
376.319	1057.62
376.545	1009.62
376.771	1058.62
376.997	1096.62
377.222	1036.62
377.448	1051.62
377.674	1048.62
377.899	1056.62
378.125	1117.62
378.35	1061.62
378.576	992.62
378.802	956.62
379.027	959.62
379.253	1002.62
379.478	1018.62
379.704	997.62
379.929	982.62
380.155	1010.62
380.38	1006.62
380.606	1019.62
380.831	1035.62
381.057	1085.62
381.282	1078.62
381.507	1036.62
381.733	1129.62
381.958	1141.62
382.184	1040.62
382.409	1039.62
382.634	1046.62
382.86	1050.62
383.085	1040.62
383.31	1085.62
383.535	1178.62
383.761	1208.62
383.986	1184.62
384.211	1127.62
384.436	1086.62
384.662	1170.62
384.887	1208.62
385.112	1139.62
385.337	1157.62
385.562	1138.62
385.787	1154.62
386.013	1181.62
386.238	1167.62
386.463	1170.62
386.688	1250.62
386.913	1314.62
387.138	1252.62
387.363	1197.62
387.588	1167.62
387.813	1151.62
388.038	1184.62
388.263	1224.62
388.488	1189.62
388.713	1072.62
388.938	1106.62
389.163	1117.62
389.387	1123.62
389.612	1140.62
389.837	1154.62
390.062	1127.62
390.287	1143.62
390.512	1154.62
390.736	1122.62
390.961	1114.62
391.186	1082.62
391.411	1105.62
391.636	1115.62
391.86	1128.62
392.085	1109.62
392.31	1122.62
392.534	1140.62
392.759	1175.62
392.984	1099.62
393.208	1173.62
393.433	1177.62
393.658	1224.62
393.882	1199.62
394.107	1135.62
394.331	1162.62
394.556	1135.62
394.78	1169.62
395.005	1198.62
395.229	1239.62
395.454	1323.62
395.678	1331.62
395.903	1231.62
396.127	1209.62
396.352	1236.62
396.576	1257.62
396.801	1261.62
397.025	1266.62
397.249	1241.62
397.474	1223.62
397.698	1213.62
397.922	1246.62
398.147	1322.62
398.371	1353.62
398.595	1349.62
398.82	1305.62
399.044	1309.62
399.268	1393.62
399.492	1445.62
399.717	1528.62
399.941	1539.62
400.165	1477.62
400.389	1456.62
400.613	1469.62
400.837	1654.62
401.062	1833.62
401.286	1569.62
401.51	1414.62
401.734	1473.62
401.958	1421.62
402.182	1318.62
402.406	1306.62
402.63	1288.62
402.854	1292.62
403.078	1319.62
403.302	1343.62
403.526	1343.62
403.75	1346.62
403.974	1375.62
404.198	1362.62
404.422	1422.62
404.645	1503.62
404.869	1456.62
405.093	1337.62
405.317	1313.62
405.541	1358.62
405.765	1382.62
405.988	1355.62
406.212	1382.62
406.436	1414.62
406.66	1491.62
406.883	1478.62
407.107	1694.62
407.331	1813.62
407.555	1974.62
407.778	1718.62
408.002	1462.62
408.226	1423.62
408.449	1413.62
408.673	1379.62
408.896	1399.62
409.12	1407.62
409.344	1365.62
409.567	1348.62
409.791	1362.62
410.014	1392.62
410.238	1495.62
410.461	1546.62
410.685	1351.62
410.908	1363.62
411.132	1394.62
411.355	1341.62
411.578	1343.62
411.802	1355.62
412.025	1359.62
412.249	1325.62
412.472	1289.62
412.695	1326.62
412.919	1334.62
413.142	1339.62
413.365	1329.62
413.589	1391.62
413.812	1430.62
414.035	1452.62
414.258	1365.62
414.482	1318.62
414.705	1328.62
414.928	1325.62
415.151	1305.62
415.374	1311.62
415.597	1337.62
415.821	1341.62
416.044	1348.62
416.267	1371.62
416.49	1279.62
416.713	1268.62
416.936	1321.62
417.159	1397.62
417.382	1353.62
417.605	1312.62
417.828	1327.62
418.051	1383.62
418.274	1317.62
418.497	1271.62
418.72	1280.62
418.943	1269.62
419.166	1350.62
419.389	1377.62
419.611	1333.62
419.834	1307.62
420.057	1334.62
420.28	1283.62
420.503	1315.62
420.726	1326.62
420.948	1347.62
421.171	1242.62
421.394	1285.62
421.617	1382.62
421.839	1346.62
422.062	1327.62
422.285	1246.62
422.507	1281.62
422.73	1259.62
422.953	1263.62
423.175	1247.62
423.398	1267.62
423.621	1290.62
423.843	1269.62
424.066	1347.62
424.288	1368.62
424.511	1402.62
424.733	1384.62
424.956	1266.62
425.178	1239.62
425.401	1265.62
425.623	1261.62
425.846	1281.62
426.068	1358.62
426.291	1359.62
426.513	1337.62
426.735	1359.62
426.958	1421.62
427.18	1477.62
427.402	1361.62
427.625	1438.62
427.847	1398.62
428.069	1310.62
428.292	1251.62
428.514	1271.62
428.736	1256.62
428.958	1298.62
429.181	1299.62
429.403	1545.62
429.625	1768.62
429.847	1504.62
430.069	1323.62
430.292	1437.62
430.514	1427.62
430.736	1394.62
430.958	1374.62
431.18	1309.62
431.402	1217.62
431.624	1205.62
431.846	1171.62
432.068	1161.62
432.29	1144.62
432.512	1183.62
432.734	1306.62
432.956	1263.62
433.178	1326.62
433.4	1353.62
433.622	1290.62
433.844	1247.62
434.066	1234.62
434.287	1197.62
434.509	1224.62
434.731	1257.62
434.953	1368.62
435.175	1363.62
435.397	1279.62
435.618	1289.62
435.84	1245.62
436.062	1251.62
436.284	1285.62
436.505	1287.62
436.727	1325.62
436.949	1258.62
437.17	1239.62
437.392	1213.62
437.614	1217.62
437.835	1200.62
438.057	1207.62
438.278	1256.62
438.5	1227.62
438.721	1256.62
438.943	1279.62
439.165	1270.62
439.386	1227.62
439.608	1265.62
439.829	1253.62
440.05	1237.62
440.272	1229.62
440.493	1230.62
440.715	1276.62
440.936	1344.62
441.158	1451.62
441.379	1417.62
441.6	1418.62
441.822	1364.62
442.043	1373.62
442.264	1325.62
442.486	1262.62
442.707	1270.62
442.928	1257.62
443.149	1307.62
443.371	1351.62
443.592	1411.62
443.813	1378.62
444.034	1393.62
444.255	1358.62
444.476	1405.62
444.698	1427.62
444.919	1425.62
445.14	1472.62
445.361	1489.62
445.582	1450.62
445.803	1413.62
446.024	1393.62
446.245	1411.62
446.466	1372.62
446.687	1354.62
446.908	1365.62
447.129	1336.62
447.35	1322.62
447.571	1320.62
447.792	1246.62
448.013	1247.62
448.234	1281.62
448.455	1341.62
448.675	1315.62
448.896	1217.62
449.117	1177.62
449.338	1225.62
449.559	1301.62
449.779	1309.62
450	1423.62
450.221	1479.62
450.442	1417.62
450.662	1286.62
450.883	1209.62
451.104	1192.62
451.324	1198.62
451.545	1184.62
451.766	1195.62
451.986	1164.62
452.207	1135.62
452.428	1114.62
452.648	1093.62
452.869	1115.62
453.089	1147.62
453.31	1152.62
453.53	1152.62
453.751	1127.62
453.971	1065.62
454.192	1115.62
454.412	1159.62
454.633	1157.62
454.853	1093.62
455.073	1066.62
455.294	1086.62
455.514	1095.62
455.734	1084.62
455.955	1110.62
456.175	1050.62
456.395	1066.62
456.616	1084.62
456.836	1108.62
457.056	1098.62
457.276	1069.62
457.497	1049.62
457.717	1007.62
457.937	1033.62
458.157	1067.62
458.377	1051.62
458.598	1018.62
458.818	1038.62
459.038	1103.62
459.258	1152.62
459.478	1137.62
459.698	1133.62
459.918	1181.62
460.138	1254.62
460.358	1271.62
460.578	1268.62
460.798	1327.62
461.018	1376.62
461.238	1325.62
461.458	1280.62
461.678	1256.62
461.898	1242.62
462.118	1185.62
462.338	1263.62
462.558	1262.62
462.777	1249.62
462.997	1334.62
463.217	1382.62
463.437	1341.62
463.657	1288.62
463.876	1254.62
464.096	1262.62
464.316	1251.62
464.536	1315.62
464.755	1305.62
464.975	1309.62
465.195	1295.62
465.414	1291.62
465.634	1336.62
465.854	1314.62
466.073	1376.62
466.293	1349.62
466.512	1215.62
466.732	1222.62
466.951	1272.62
467.171	1261.62
467.391	1192.62
467.61	1191.62
467.829	1223.62
468.049	1337.62
468.268	1470.62
468.488	1357.62
468.707	1260.62
468.927	1267.62
469.146	1202.62
469.365	1257.62
469.585	1246.62
469.804	1238.62
470.023	1254.62
470.243	1253.62
470.462	1246.62
470.681	1241.62
470.901	1256.62
471.12	1248.62
471.339	1243.62
471.558	1214.62
471.777	1222.62
471.997	1214.62
472.216	1198.62
472.435	1133.62
472.654	1129.62
472.873	1175.62
473.092	1214.62
473.311	1195.62
473.53	1134.62
473.749	1144.62
473.968	1187.62
474.187	1222.62
474.406	1247.62
474.625	1186.62
474.844	1246.62
475.063	1241.62
475.282	1224.62
475.501	1175.62
475.72	1206.62
475.939	1285.62
476.158	1261.62
476.377	1214.62
476.596	1180.62
476.814	1198.62
477.033	1221.62
477.252	1307.62
477.471	1309.62
477.69	1299.62
477.908	1291.62
478.127	1349.62
478.346	1429.62
478.564	1431.62
478.783	1388.62
479.002	1461.62
479.22	1413.62
479.439	1465.62
479.658	1577.62
479.876	1538.62
480.095	1387.62
480.313	1343.62
480.532	1302.62
480.751	1322.62
480.969	1318.62
481.188	1268.62
481.406	1257.62
481.624	1252.62
481.843	1282.62
482.061	1300.62
482.28	1325.62
482.498	1355.62
482.717	1343.62
482.935	1303.62
483.153	1337.62
483.372	1428.62
483.59	1382.62
483.808	1361.62
484.027	1372.62
484.245	1440.62
484.463	1751.62
484.681	1913.62
484.9	1458.62
485.118	1377.62
485.336	1354.62
485.554	1371.62
485.772	1392.62
485.99	1358.62
486.209	1374.62
486.427	1379.62
486.645	1408.62
486.863	1415.62
487.081	1442.62
487.299	1487.62
487.517	1458.62
487.735	1478.62
487.953	1458.62
488.171	1482.62
488.389	1473.62
488.607	1446.62
488.825	1599.62
489.043	1572.62
489.261	1413.62
489.479	1492.62
489.696	1482.62
489.914	1451.62
490.132	1442.62
490.35	1456.62
490.568	1527.62
490.786	1533.62
491.003	1477.62
491.221	1515.62
491.439	1584.62
491.657	1585.62
491.874	1664.62
492.092	1658.62
492.31	1711.62
492.527	1684.62
492.745	1631.62
492.963	1598.62
493.18	1653.62
493.398	1717.62
493.615	1727.62
