Data from WStandard_LampEnergy10_LIBS07252019.E.O._I.C._HRD10591_15-54-20-928.txt Node
Date: Thu Jul 25 15:54:20 EDT 2019
User: cochatt
Spectrometer: HR+D1059
Trigger mode: 1
Integration Time (sec): 1.000000E-1
Scans to average: 1
Electric dark correction enabled: true
Nonlinearity correction enabled: false
Boxcar width: 0
XAxis mode: Wavelengths
Number of Pixels in Spectrum: 2048
>>>>>Begin Spectral Data<<<<<
223.165	-23.06
223.4	-23.06
223.635	-23.06
223.869	-10.06
224.104	-26.06
224.338	-20.06
224.573	-4.06
224.808	-16.06
225.042	-10.06
225.277	-5.06
225.511	-10.06
225.746	9.94
225.98	-15.06
226.215	23.94
226.449	10.94
226.683	32.94
226.918	31.94
227.152	29.94
227.387	36.94
227.621	39.94
227.856	40.94
228.09	33.94
228.324	56.94
228.559	48.94
228.793	72.94
229.027	133.94
229.262	135.94
229.496	146.94
229.73	150.94
229.964	180.94
230.199	155.94
230.433	155.94
230.667	167.94
230.901	185.94
231.136	182.94
231.37	169.94
231.604	161.94
231.838	161.94
232.072	172.94
232.306	184.94
232.541	177.94
232.775	197.94
233.009	198.94
233.243	184.94
233.477	176.94
233.711	189.94
233.945	194.94
234.179	204.94
234.413	190.94
234.647	208.94
234.881	214.94
235.115	201.94
235.349	191.94
235.583	211.94
235.817	195.94
236.051	171.94
236.285	201.94
236.519	227.94
236.753	225.94
236.987	241.94
237.221	227.94
237.455	223.94
237.689	225.94
237.922	228.94
238.156	215.94
238.39	223.94
238.624	222.94
238.858	225.94
239.091	230.94
239.325	235.94
239.559	265.94
239.793	307.94
240.027	302.94
240.26	300.94
240.494	248.94
240.728	229.94
240.961	239.94
241.195	233.94
241.429	259.94
241.662	231.94
241.896	249.94
242.13	262.94
242.363	256.94
242.597	268.94
242.83	268.94
243.064	284.94
243.298	290.94
243.531	306.94
243.765	290.94
243.998	292.94
244.232	262.94
244.465	243.94
244.699	237.94
244.932	287.94
245.166	311.94
245.399	293.94
245.633	290.94
245.866	294.94
246.099	286.94
246.333	281.94
246.566	300.94
246.8	323.94
247.033	336.94
247.266	323.94
247.5	302.94
247.733	323.94
247.966	339.94
248.2	350.94
248.433	355.94
248.666	364.94
248.899	380.94
249.133	434.94
249.366	463.94
249.599	390.94
249.832	370.94
250.066	376.94
250.299	371.94
250.532	347.94
250.765	312.94
250.998	320.94
251.231	351.94
251.465	362.94
251.698	345.94
251.931	342.94
252.164	334.94
252.397	368.94
252.63	368.94
252.863	331.94
253.096	304.94
253.329	333.94
253.562	351.94
253.795	345.94
254.028	351.94
254.261	362.94
254.494	321.94
254.727	339.94
254.96	363.94
255.193	361.94
255.426	396.94
255.659	463.94
255.892	466.94
256.124	382.94
256.357	347.94
256.59	410.94
256.823	415.94
257.056	421.94
257.289	482.94
257.521	516.94
257.754	442.94
257.987	436.94
258.22	482.94
258.452	468.94
258.685	400.94
258.918	403.94
259.151	366.94
259.383	375.94
259.616	339.94
259.849	370.94
260.081	402.94
260.314	442.94
260.547	465.94
260.779	480.94
261.012	432.94
261.244	374.94
261.477	388.94
261.71	388.94
261.942	409.94
262.175	391.94
262.407	389.94
262.64	392.94
262.872	370.94
263.105	372.94
263.337	376.94
263.57	381.94
263.802	356.94
264.035	353.94
264.267	323.94
264.499	338.94
264.732	365.94
264.964	372.94
265.197	406.94
265.429	400.94
265.661	446.94
265.894	457.94
266.126	494.94
266.358	462.94
266.591	475.94
266.823	488.94
267.055	432.94
267.287	448.94
267.52	439.94
267.752	434.94
267.984	417.94
268.216	454.94
268.448	475.94
268.681	446.94
268.913	403.94
269.145	422.94
269.377	411.94
269.609	456.94
269.841	497.94
270.073	553.94
270.306	615.94
270.538	615.94
270.77	554.94
271.002	462.94
271.234	466.94
271.466	460.94
271.698	545.94
271.93	606.94
272.162	558.94
272.394	542.94
272.626	514.94
272.858	466.94
273.09	390.94
273.322	411.94
273.553	403.94
273.785	411.94
274.017	396.94
274.249	420.94
274.481	432.94
274.713	428.94
274.945	405.94
275.176	412.94
275.408	402.94
275.64	409.94
275.872	392.94
276.104	445.94
276.335	474.94
276.567	557.94
276.799	524.94
277.031	497.94
277.262	476.94
277.494	483.94
277.726	516.94
277.957	521.94
278.189	467.94
278.421	426.94
278.652	433.94
278.884	443.94
279.115	435.94
279.347	448.94
279.579	427.94
279.81	444.94
280.042	473.94
280.273	528.94
280.505	504.94
280.736	495.94
280.968	468.94
281.199	435.94
281.431	422.94
281.662	411.94
281.894	435.94
282.125	440.94
282.356	455.94
282.588	459.94
282.819	433.94
283.051	484.94
283.282	495.94
283.513	488.94
283.745	429.94
283.976	436.94
284.207	434.94
284.439	440.94
284.67	460.94
284.901	447.94
285.132	443.94
285.364	418.94
285.595	439.94
285.826	434.94
286.057	448.94
286.288	427.94
286.52	465.94
286.751	504.94
286.982	490.94
287.213	447.94
287.444	446.94
287.675	442.94
287.906	472.94
288.138	505.94
288.369	474.94
288.6	460.94
288.831	450.94
289.062	463.94
289.293	466.94
289.524	441.94
289.755	453.94
289.986	453.94
290.217	427.94
290.448	437.94
290.679	464.94
290.91	462.94
291.141	490.94
291.371	503.94
291.602	480.94
291.833	483.94
292.064	490.94
292.295	495.94
292.526	498.94
292.757	521.94
292.987	489.94
293.218	490.94
293.449	526.94
293.68	584.94
293.91	576.94
294.141	560.94
294.372	545.94
294.603	567.94
294.833	569.94
295.064	522.94
295.295	490.94
295.525	460.94
295.756	437.94
295.987	444.94
296.217	442.94
296.448	467.94
296.679	473.94
296.909	458.94
297.14	470.94
297.37	460.94
297.601	487.94
297.831	521.94
298.062	524.94
298.292	482.94
298.523	498.94
298.753	476.94
298.984	483.94
299.214	481.94
299.445	490.94
299.675	498.94
299.905	504.94
300.136	489.94
300.366	464.94
300.597	452.94
300.827	469.94
301.057	480.94
301.288	483.94
301.518	518.94
301.748	506.94
301.979	559.94
302.209	572.94
302.439	580.94
302.669	592.94
302.9	543.94
303.13	498.94
303.36	498.94
303.59	525.94
303.82	512.94
304.051	512.94
304.281	514.94
304.511	534.94
304.741	568.94
304.971	604.94
305.201	619.94
305.431	571.94
305.661	491.94
305.891	466.94
306.121	463.94
306.352	487.94
306.582	510.94
306.812	535.94
307.042	580.94
307.272	586.94
307.502	581.94
307.731	636.94
307.961	635.94
308.191	571.94
308.421	538.94
308.651	500.94
308.881	496.94
309.111	517.94
309.341	482.94
309.571	495.94
309.8	507.94
310.03	484.94
310.26	496.94
310.49	500.94
310.72	507.94
310.949	538.94
311.179	518.94
311.409	511.94
311.639	498.94
311.868	499.94
312.098	516.94
312.328	501.94
312.557	516.94
312.787	522.94
313.017	534.94
313.246	516.94
313.476	530.94
313.706	539.94
313.935	544.94
314.165	562.94
314.394	538.94
314.624	578.94
314.853	634.94
315.083	628.94
315.312	613.94
315.542	570.94
315.771	533.94
316.001	584.94
316.23	562.94
316.46	579.94
316.689	554.94
316.919	533.94
317.148	522.94
317.377	544.94
317.607	584.94
317.836	639.94
318.065	635.94
318.295	622.94
318.524	583.94
318.753	604.94
318.983	558.94
319.212	558.94
319.441	560.94
319.67	551.94
319.9	565.94
320.129	607.94
320.358	606.94
320.587	635.94
320.816	618.94
321.046	613.94
321.275	585.94
321.504	599.94
321.733	616.94
321.962	605.94
322.191	544.94
322.42	562.94
322.649	542.94
322.878	541.94
323.108	561.94
323.337	580.94
323.566	572.94
323.795	572.94
324.024	588.94
324.253	562.94
324.482	566.94
324.71	542.94
324.939	537.94
325.168	566.94
325.397	584.94
325.626	585.94
325.855	564.94
326.084	574.94
326.313	546.94
326.542	577.94
326.77	592.94
326.999	580.94
327.228	550.94
327.457	524.94
327.686	523.94
327.914	549.94
328.143	549.94
328.372	560.94
328.6	567.94
328.829	541.94
329.058	548.94
329.287	544.94
329.515	563.94
329.744	590.94
329.972	611.94
330.201	638.94
330.43	596.94
330.658	570.94
330.887	601.94
331.115	609.94
331.344	623.94
331.572	606.94
331.801	589.94
332.03	585.94
332.258	601.94
332.486	603.94
332.715	603.94
332.943	615.94
333.172	589.94
333.4	617.94
333.629	619.94
333.857	658.94
334.085	727.94
334.314	825.94
334.542	837.94
334.771	770.94
334.999	692.94
335.227	648.94
335.455	652.94
335.684	644.94
335.912	650.94
336.14	668.94
336.369	636.94
336.597	601.94
336.825	597.94
337.053	625.94
337.281	671.94
337.51	708.94
337.738	714.94
337.966	678.94
338.194	587.94
338.422	609.94
338.65	598.94
338.878	608.94
339.106	573.94
339.334	593.94
339.562	579.94
339.79	591.94
340.018	612.94
340.246	607.94
340.474	622.94
340.702	610.94
340.93	608.94
341.158	614.94
341.386	604.94
341.614	603.94
341.842	591.94
342.07	618.94
342.298	610.94
342.526	592.94
342.754	612.94
342.981	587.94
343.209	571.94
343.437	559.94
343.665	602.94
343.893	614.94
344.12	634.94
344.348	649.94
344.576	604.94
344.804	600.94
345.031	597.94
345.259	603.94
345.487	578.94
345.714	570.94
345.942	534.94
346.17	554.94
346.397	578.94
346.625	596.94
346.853	544.94
347.08	538.94
347.308	549.94
347.535	566.94
347.763	594.94
347.99	543.94
348.218	570.94
348.445	561.94
348.673	549.94
348.9	570.94
349.128	614.94
349.355	620.94
349.583	607.94
349.81	572.94
350.037	547.94
350.265	530.94
350.492	551.94
350.72	551.94
350.947	560.94
351.174	579.94
351.402	536.94
351.629	541.94
351.856	538.94
352.083	522.94
352.311	546.94
352.538	551.94
352.765	586.94
352.992	595.94
353.22	570.94
353.447	545.94
353.674	553.94
353.901	553.94
354.128	552.94
354.355	553.94
354.583	595.94
354.81	607.94
355.037	587.94
355.264	597.94
355.491	564.94
355.718	560.94
355.945	562.94
356.172	554.94
356.399	531.94
356.626	532.94
356.853	595.94
357.08	632.94
357.307	680.94
357.534	661.94
357.761	583.94
357.988	539.94
358.215	545.94
358.441	555.94
358.668	561.94
358.895	568.94
359.122	630.94
359.349	652.94
359.576	604.94
359.802	567.94
360.029	532.94
360.256	539.94
360.483	555.94
360.709	582.94
360.936	613.94
361.163	661.94
361.39	670.94
361.616	732.94
361.843	703.94
362.07	650.94
362.296	580.94
362.523	564.94
362.749	582.94
362.976	598.94
363.203	580.94
363.429	566.94
363.656	551.94
363.882	586.94
364.109	655.94
364.335	672.94
364.562	599.94
364.788	599.94
365.015	580.94
365.241	556.94
365.468	606.94
365.694	588.94
365.92	634.94
366.147	604.94
366.373	574.94
366.599	591.94
366.826	566.94
367.052	571.94
367.278	570.94
367.505	586.94
367.731	620.94
367.957	605.94
368.184	646.94
368.41	674.94
368.636	658.94
368.862	698.94
369.089	686.94
369.315	632.94
369.541	618.94
369.767	603.94
369.993	602.94
370.219	582.94
370.445	631.94
370.672	668.94
370.898	656.94
371.124	655.94
371.35	653.94
371.576	672.94
371.802	677.94
372.028	627.94
372.254	609.94
372.48	597.94
372.706	592.94
372.932	587.94
373.158	617.94
373.384	631.94
373.61	641.94
373.835	630.94
374.061	634.94
374.287	637.94
374.513	612.94
374.739	627.94
374.965	634.94
375.191	661.94
375.416	667.94
375.642	675.94
375.868	699.94
376.094	688.94
376.319	672.94
376.545	671.94
376.771	662.94
376.997	710.94
377.222	694.94
377.448	677.94
377.674	638.94
377.899	707.94
378.125	740.94
378.35	720.94
378.576	659.94
378.802	651.94
379.027	620.94
379.253	638.94
379.478	640.94
379.704	637.94
379.929	646.94
380.155	656.94
380.38	661.94
380.606	658.94
380.831	676.94
381.057	705.94
381.282	697.94
381.507	695.94
381.733	755.94
381.958	741.94
382.184	688.94
382.409	689.94
382.634	704.94
382.86	683.94
383.085	685.94
383.31	724.94
383.535	782.94
383.761	803.94
383.986	769.94
384.211	728.94
384.436	734.94
384.662	757.94
384.887	771.94
385.112	740.94
385.337	749.94
385.562	754.94
385.787	738.94
386.013	760.94
386.238	740.94
386.463	778.94
386.688	848.94
386.913	850.94
387.138	817.94
387.363	786.94
387.588	796.94
387.813	779.94
388.038	806.94
388.263	797.94
388.488	775.94
388.713	704.94
388.938	741.94
389.163	727.94
389.387	738.94
389.612	757.94
389.837	786.94
390.062	758.94
390.287	747.94
390.512	757.94
390.736	752.94
390.961	735.94
391.186	730.94
391.411	728.94
391.636	751.94
391.86	787.94
392.085	768.94
392.31	757.94
392.534	744.94
392.759	777.94
392.984	768.94
393.208	802.94
393.433	804.94
393.658	835.94
393.882	816.94
394.107	770.94
394.331	768.94
394.556	787.94
394.78	786.94
395.005	805.94
395.229	853.94
395.454	887.94
395.678	875.94
395.903	856.94
396.127	807.94
396.352	842.94
396.576	857.94
396.801	855.94
397.025	849.94
397.249	837.94
397.474	836.94
397.698	832.94
397.922	838.94
398.147	906.94
398.371	920.94
398.595	924.94
398.82	863.94
399.044	889.94
399.268	934.94
399.492	1001.94
399.717	1014.94
399.941	995.94
400.165	973.94
400.389	962.94
400.613	962.94
400.837	1141.94
401.062	1176.94
401.286	1034.94
401.51	979.94
401.734	976.94
401.958	945.94
402.182	919.94
402.406	900.94
402.63	880.94
402.854	896.94
403.078	912.94
403.302	924.94
403.526	923.94
403.75	926.94
403.974	948.94
404.198	935.94
404.422	960.94
404.645	1012.94
404.869	986.94
405.093	918.94
405.317	915.94
405.541	946.94
405.765	932.94
405.988	935.94
406.212	962.94
406.436	977.94
406.66	1014.94
406.883	1056.94
407.107	1152.94
407.331	1217.94
407.555	1266.94
407.778	1112.94
408.002	964.94
408.226	966.94
408.449	993.94
408.673	934.94
408.896	957.94
409.12	961.94
409.344	961.94
409.567	935.94
409.791	934.94
410.014	960.94
410.238	1029.94
410.461	1057.94
410.685	985.94
410.908	920.94
411.132	955.94
411.355	928.94
411.578	942.94
411.802	914.94
412.025	965.94
412.249	953.94
412.472	933.94
412.695	932.94
412.919	904.94
413.142	900.94
413.365	946.94
413.589	946.94
413.812	988.94
414.035	995.94
414.258	931.94
414.482	899.94
414.705	922.94
414.928	922.94
415.151	905.94
415.374	923.94
415.597	948.94
415.821	954.94
416.044	956.94
416.267	959.94
416.49	943.94
416.713	903.94
416.936	953.94
417.159	992.94
417.382	981.94
417.605	934.94
417.828	936.94
418.051	922.94
418.274	944.94
418.497	967.94
418.72	923.94
418.943	932.94
419.166	974.94
419.389	994.94
419.611	959.94
419.834	970.94
420.057	958.94
420.28	960.94
420.503	951.94
420.726	939.94
420.948	967.94
421.171	951.94
421.394	955.94
421.617	979.94
421.839	1009.94
422.062	982.94
422.285	953.94
422.507	935.94
422.73	889.94
422.953	887.94
423.175	881.94
423.398	916.94
423.621	906.94
423.843	956.94
424.066	988.94
424.288	1042.94
424.511	1047.94
424.733	1018.94
424.956	918.94
425.178	923.94
425.401	926.94
425.623	941.94
425.846	958.94
426.068	1001.94
426.291	957.94
426.513	963.94
426.735	979.94
426.958	1048.94
427.18	1082.94
427.402	1016.94
427.625	1044.94
427.847	1007.94
428.069	930.94
428.292	942.94
428.514	888.94
428.736	940.94
428.958	942.94
429.181	958.94
429.403	1063.94
429.625	1229.94
429.847	1057.94
430.069	980.94
430.292	1074.94
430.514	1037.94
430.736	951.94
430.958	970.94
431.18	943.94
431.402	866.94
431.624	816.94
431.846	808.94
432.068	727.94
432.29	752.94
432.512	788.94
432.734	848.94
432.956	917.94
433.178	942.94
433.4	958.94
433.622	963.94
433.844	904.94
434.066	847.94
434.287	822.94
434.509	779.94
434.731	824.94
434.953	924.94
435.175	924.94
435.397	908.94
435.618	888.94
435.84	857.94
436.062	854.94
436.284	903.94
436.505	965.94
436.727	943.94
436.949	907.94
437.17	906.94
437.392	888.94
437.614	861.94
437.835	824.94
438.057	825.94
438.278	832.94
438.5	875.94
438.721	905.94
438.943	930.94
439.165	922.94
439.386	926.94
439.608	977.94
439.829	985.94
440.05	970.94
440.272	946.94
440.493	939.94
440.715	959.94
440.936	1024.94
441.158	1097.94
441.379	1066.94
441.6	1040.94
441.822	1010.94
442.043	1042.94
442.264	996.94
442.486	966.94
442.707	951.94
442.928	964.94
443.149	962.94
443.371	993.94
443.592	1023.94
443.813	1026.94
444.034	1006.94
444.255	1007.94
444.476	996.94
444.698	1022.94
444.919	1054.94
445.14	1176.94
445.361	1068.94
445.582	1082.94
445.803	1043.94
446.024	1045.94
446.245	1072.94
446.466	1069.94
446.687	1048.94
446.908	1019.94
447.129	1007.94
447.35	1014.94
447.571	1004.94
447.792	955.94
448.013	987.94
448.234	965.94
448.455	972.94
448.675	1011.94
448.896	916.94
449.117	902.94
449.338	908.94
449.559	957.94
449.779	970.94
450	985.94
450.221	1044.94
450.442	1020.94
450.662	940.94
450.883	899.94
451.104	880.94
451.324	880.94
451.545	897.94
451.766	868.94
451.986	836.94
452.207	831.94
452.428	805.94
452.648	788.94
452.869	789.94
453.089	811.94
453.31	788.94
453.53	789.94
453.751	736.94
453.971	720.94
454.192	711.94
454.412	783.94
454.633	793.94
454.853	794.94
455.073	740.94
455.294	766.94
455.514	770.94
455.734	798.94
455.955	753.94
456.175	744.94
456.395	766.94
456.616	734.94
456.836	744.94
457.056	732.94
457.276	738.94
457.497	698.94
457.717	676.94
457.937	705.94
458.157	726.94
458.377	714.94
458.598	698.94
458.818	670.94
459.038	713.94
459.258	742.94
459.478	699.94
459.698	707.94
459.918	754.94
460.138	818.94
460.358	817.94
460.578	831.94
460.798	841.94
461.018	894.94
461.238	880.94
461.458	857.94
461.678	840.94
461.898	812.94
462.118	783.94
462.338	858.94
462.558	844.94
462.777	865.94
462.997	869.94
463.217	903.94
463.437	887.94
463.657	839.94
463.876	828.94
464.096	818.94
464.316	834.94
464.536	869.94
464.755	906.94
464.975	884.94
465.195	862.94
465.414	882.94
465.634	881.94
465.854	914.94
466.073	997.94
466.293	945.94
466.512	863.94
466.732	874.94
466.951	915.94
467.171	889.94
467.391	886.94
467.61	875.94
467.829	930.94
468.049	977.94
468.268	1050.94
468.488	992.94
468.707	937.94
468.927	904.94
469.146	919.94
469.365	921.94
469.585	931.94
469.804	915.94
470.023	946.94
470.243	955.94
470.462	912.94
470.681	935.94
470.901	948.94
471.12	938.94
471.339	960.94
471.558	943.94
471.777	891.94
471.997	895.94
472.216	855.94
472.435	775.94
472.654	777.94
472.873	790.94
473.092	831.94
473.311	855.94
473.53	803.94
473.749	851.94
473.968	857.94
474.187	856.94
474.406	871.94
474.625	855.94
474.844	879.94
475.063	870.94
475.282	873.94
475.501	853.94
475.72	829.94
475.939	926.94
476.158	875.94
476.377	867.94
476.596	887.94
476.814	821.94
477.033	800.94
477.252	858.94
477.471	907.94
477.69	936.94
477.908	934.94
478.127	991.94
478.346	1001.94
478.564	1026.94
478.783	998.94
479.002	1057.94
479.22	1010.94
479.439	1035.94
479.658	1086.94
479.876	987.94
480.095	914.94
480.313	931.94
480.532	891.94
480.751	873.94
480.969	860.94
481.188	803.94
481.406	810.94
481.624	760.94
481.843	804.94
482.061	846.94
482.28	868.94
482.498	891.94
482.717	868.94
482.935	910.94
483.153	1001.94
483.372	1035.94
483.59	1011.94
483.808	975.94
484.027	960.94
484.245	1005.94
484.463	1222.94
484.681	1316.94
484.9	1015.94
485.118	980.94
485.336	946.94
485.554	926.94
485.772	886.94
485.99	865.94
486.209	896.94
486.427	938.94
486.645	967.94
486.863	1006.94
487.081	1046.94
487.299	1018.94
487.517	1009.94
487.735	1127.94
487.953	1199.94
488.171	1192.94
488.389	1136.94
488.607	1105.94
488.825	1136.94
489.043	1047.94
489.261	1036.94
489.479	1055.94
489.696	1057.94
489.914	1065.94
490.132	1064.94
490.35	1094.94
490.568	1171.94
490.786	1187.94
491.003	1237.94
491.221	1242.94
491.439	1320.94
491.657	1295.94
491.874	1353.94
492.092	1462.94
492.31	1499.94
492.527	1476.94
492.745	1375.94
492.963	1317.94
493.18	1296.94
493.398	1347.94
493.615	1353.94
493.833	1254.94
494.05	1266.94
494.268	1223.94
494.485	1246.94
494.703	1248.94
494.92	1238.94
495.138	1241.94
495.355	1265.94
495.573	1288.94
495.79	1268.94
496.008	1284.94
496.225	1227.94
496.442	1246.94
496.66	1245.94
496.877	1269.94
497.094	1248.94
497.312	1236.94
497.529	1192.94
497.746	1213.94
497.963	1280.94
498.181	1338.94
498.398	1290.94
498.615	1230.94
498.832	1162.94
499.049	1180.94
499.267	1217.94
499.484	1258.94
499.701	1362.94
499.918	1386.94
500.135	1501.94
