Data from WStandard_LampEnergy8_LIBS07252019.E.O._I.C._HRD10591_16-00-31-929.txt Node
Date: Thu Jul 25 16:00:31 EDT 2019
User: cochatt
Spectrometer: HR+D1059
Trigger mode: 1
Integration Time (sec): 1.000000E-1
Scans to average: 1
Electric dark correction enabled: true
Nonlinearity correction enabled: false
Boxcar width: 0
XAxis mode: Wavelengths
Number of Pixels in Spectrum: 2048
>>>>>Begin Spectral Data<<<<<
223.165	-16.25
223.4	-16.25
223.635	-16.25
223.869	-20.25
224.104	-13.25
224.338	0.75
224.573	-19.25
224.808	-24.25
225.042	-15.25
225.277	-2.25
225.511	0.75
225.746	12.75
225.98	4.75
226.215	4.75
226.449	14.75
226.683	25.75
226.918	23.75
227.152	22.75
227.387	32.75
227.621	36.75
227.856	39.75
228.09	40.75
228.324	61.75
228.559	53.75
228.793	103.75
229.027	202.75
229.262	199.75
229.496	204.75
229.73	216.75
229.964	219.75
230.199	245.75
230.433	272.75
230.667	261.75
230.901	286.75
231.136	267.75
231.37	246.75
231.604	250.75
231.838	262.75
232.072	267.75
232.306	246.75
232.541	260.75
232.775	292.75
233.009	305.75
233.243	311.75
233.477	284.75
233.711	299.75
233.945	310.75
234.179	291.75
234.413	308.75
234.647	336.75
234.881	311.75
235.115	302.75
235.349	299.75
235.583	293.75
235.817	307.75
236.051	289.75
236.285	312.75
236.519	313.75
236.753	353.75
236.987	339.75
237.221	337.75
237.455	371.75
237.689	365.75
237.922	348.75
238.156	348.75
238.39	327.75
238.624	385.75
238.858	373.75
239.091	379.75
239.325	428.75
239.559	444.75
239.793	460.75
240.027	493.75
240.26	485.75
240.494	376.75
240.728	369.75
240.961	384.75
241.195	384.75
241.429	413.75
241.662	420.75
241.896	391.75
242.13	389.75
242.363	431.75
242.597	459.75
242.83	445.75
243.064	446.75
243.298	477.75
243.531	455.75
243.765	455.75
243.998	447.75
244.232	402.75
244.465	392.75
244.699	421.75
244.932	455.75
245.166	495.75
245.399	473.75
245.633	460.75
245.866	465.75
246.099	468.75
246.333	485.75
246.566	468.75
246.8	520.75
247.033	569.75
247.266	524.75
247.5	485.75
247.733	497.75
247.966	525.75
248.2	589.75
248.433	579.75
248.666	624.75
248.899	650.75
249.133	723.75
249.366	763.75
249.599	641.75
249.832	568.75
250.066	599.75
250.299	603.75
250.532	583.75
250.765	529.75
250.998	567.75
251.231	590.75
251.465	574.75
251.698	552.75
251.931	565.75
252.164	568.75
252.397	615.75
252.63	597.75
252.863	540.75
253.096	536.75
253.329	549.75
253.562	587.75
253.795	596.75
254.028	573.75
254.261	548.75
254.494	556.75
254.727	549.75
254.96	572.75
255.193	647.75
255.426	699.75
255.659	772.75
255.892	769.75
256.124	644.75
256.357	661.75
256.59	680.75
256.823	681.75
257.056	710.75
257.289	796.75
257.521	896.75
257.754	795.75
257.987	742.75
258.22	806.75
258.452	784.75
258.685	657.75
258.918	634.75
259.151	647.75
259.383	623.75
259.616	575.75
259.849	595.75
260.081	675.75
260.314	723.75
260.547	791.75
260.779	823.75
261.012	760.75
261.244	668.75
261.477	657.75
261.71	696.75
261.942	681.75
262.175	661.75
262.407	679.75
262.64	673.75
262.872	639.75
263.105	604.75
263.337	621.75
263.57	607.75
263.802	612.75
264.035	594.75
264.267	570.75
264.499	574.75
264.732	589.75
264.964	625.75
265.197	648.75
265.429	698.75
265.661	757.75
265.894	817.75
266.126	828.75
266.358	775.75
266.591	783.75
266.823	841.75
267.055	760.75
267.287	735.75
267.52	737.75
267.752	721.75
267.984	751.75
268.216	771.75
268.448	764.75
268.681	775.75
268.913	689.75
269.145	681.75
269.377	663.75
269.609	748.75
269.841	860.75
270.073	991.75
270.306	1061.75
270.538	1111.75
270.77	945.75
271.002	821.75
271.234	805.75
271.466	807.75
271.698	872.75
271.93	1013.75
272.162	1004.75
272.394	893.75
272.626	891.75
272.858	796.75
273.09	692.75
273.322	706.75
273.553	653.75
273.785	680.75
274.017	714.75
274.249	751.75
274.481	754.75
274.713	690.75
274.945	693.75
275.176	678.75
275.408	676.75
275.64	676.75
275.872	671.75
276.104	722.75
276.335	826.75
276.567	907.75
276.799	881.75
277.031	808.75
277.262	804.75
277.494	818.75
277.726	903.75
277.957	860.75
278.189	797.75
278.421	728.75
278.652	726.75
278.884	723.75
279.115	736.75
279.347	731.75
279.579	715.75
279.81	719.75
280.042	822.75
280.273	849.75
280.505	859.75
280.736	847.75
280.968	826.75
281.199	726.75
281.431	705.75
281.662	719.75
281.894	713.75
282.125	740.75
282.356	763.75
282.588	771.75
282.819	775.75
283.051	812.75
283.282	889.75
283.513	829.75
283.745	739.75
283.976	688.75
284.207	701.75
284.439	713.75
284.67	735.75
284.901	745.75
285.132	744.75
285.364	745.75
285.595	754.75
285.826	753.75
286.057	729.75
286.288	716.75
286.52	775.75
286.751	822.75
286.982	852.75
287.213	771.75
287.444	721.75
287.675	746.75
287.906	784.75
288.138	803.75
288.369	786.75
288.6	759.75
288.831	711.75
289.062	746.75
289.293	735.75
289.524	777.75
289.755	775.75
289.986	762.75
290.217	734.75
290.448	756.75
290.679	769.75
290.91	790.75
291.141	806.75
291.371	803.75
291.602	802.75
291.833	828.75
292.064	852.75
292.295	827.75
292.526	827.75
292.757	857.75
292.987	820.75
293.218	774.75
293.449	839.75
293.68	922.75
293.91	972.75
294.141	926.75
294.372	900.75
294.603	953.75
294.833	965.75
295.064	888.75
295.295	819.75
295.525	811.75
295.756	771.75
295.987	718.75
296.217	741.75
296.448	759.75
296.679	771.75
296.909	756.75
297.14	739.75
297.37	791.75
297.601	854.75
297.831	864.75
298.062	885.75
298.292	793.75
298.523	771.75
298.753	773.75
298.984	791.75
299.214	799.75
299.445	812.75
299.675	840.75
299.905	797.75
300.136	829.75
300.366	788.75
300.597	752.75
300.827	768.75
301.057	797.75
301.288	820.75
301.518	858.75
301.748	875.75
301.979	904.75
302.209	897.75
302.439	949.75
302.669	977.75
302.9	898.75
303.13	865.75
303.36	843.75
303.59	863.75
303.82	822.75
304.051	858.75
304.281	851.75
304.511	872.75
304.741	898.75
304.971	1026.75
305.201	1019.75
305.431	946.75
305.661	778.75
305.891	767.75
306.121	770.75
306.352	834.75
306.582	844.75
306.812	885.75
307.042	933.75
307.272	934.75
307.502	972.75
307.731	1043.75
307.961	1066.75
308.191	966.75
308.421	879.75
308.651	829.75
308.881	837.75
309.111	825.75
309.341	811.75
309.571	837.75
309.8	828.75
310.03	802.75
310.26	831.75
310.49	838.75
310.72	841.75
310.949	864.75
311.179	848.75
311.409	827.75
311.639	837.75
311.868	834.75
312.098	832.75
312.328	821.75
312.557	825.75
312.787	850.75
313.017	856.75
313.246	856.75
313.476	872.75
313.706	891.75
313.935	909.75
314.165	886.75
314.394	921.75
314.624	975.75
314.853	1047.75
315.083	1074.75
315.312	1046.75
315.542	931.75
315.771	898.75
316.001	914.75
316.23	953.75
316.46	936.75
316.689	875.75
316.919	871.75
317.148	843.75
317.377	872.75
317.607	947.75
317.836	1021.75
318.065	1067.75
318.295	1008.75
318.524	987.75
318.753	946.75
318.983	931.75
319.212	940.75
319.441	932.75
319.67	919.75
319.9	929.75
320.129	955.75
320.358	997.75
320.587	1023.75
320.816	1031.75
321.046	1008.75
321.275	947.75
321.504	984.75
321.733	1066.75
321.962	968.75
322.191	942.75
322.42	935.75
322.649	897.75
322.878	894.75
323.108	937.75
323.337	966.75
323.566	931.75
323.795	952.75
324.024	947.75
324.253	943.75
324.482	902.75
324.71	877.75
324.939	867.75
325.168	885.75
325.397	902.75
325.626	933.75
325.855	929.75
326.084	946.75
326.313	914.75
326.542	941.75
326.77	971.75
326.999	962.75
327.228	907.75
327.457	879.75
327.686	864.75
327.914	902.75
328.143	901.75
328.372	935.75
328.6	926.75
328.829	919.75
329.058	899.75
329.287	901.75
329.515	964.75
329.744	967.75
329.972	1034.75
330.201	1035.75
330.43	1026.75
330.658	964.75
330.887	956.75
331.115	950.75
331.344	995.75
331.572	984.75
331.801	929.75
332.03	963.75
332.258	977.75
332.486	1003.75
332.715	1001.75
332.943	986.75
333.172	965.75
333.4	1017.75
333.629	1023.75
333.857	1097.75
334.085	1212.75
334.314	1361.75
334.542	1403.75
334.771	1245.75
334.999	1158.75
335.227	1119.75
335.455	1062.75
335.684	1045.75
335.912	1058.75
336.14	1074.75
336.369	1031.75
336.597	968.75
336.825	981.75
337.053	1030.75
337.281	1059.75
337.51	1137.75
337.738	1161.75
337.966	1077.75
338.194	1015.75
338.422	971.75
338.65	964.75
338.878	964.75
339.106	931.75
339.334	949.75
339.562	931.75
339.79	959.75
340.018	1009.75
340.246	1038.75
340.474	1047.75
340.702	987.75
340.93	1023.75
341.158	1003.75
341.386	997.75
341.614	992.75
341.842	983.75
342.07	978.75
342.298	998.75
342.526	980.75
342.754	976.75
342.981	946.75
343.209	974.75
343.437	949.75
343.665	1003.75
343.893	1007.75
344.12	1025.75
344.348	1027.75
344.576	1009.75
344.804	981.75
345.031	979.75
345.259	965.75
345.487	922.75
345.714	886.75
345.942	885.75
346.17	898.75
346.397	914.75
346.625	949.75
346.853	887.75
347.08	866.75
347.308	864.75
347.535	927.75
347.763	958.75
347.99	918.75
348.218	892.75
348.445	869.75
348.673	930.75
348.9	964.75
349.128	988.75
349.355	1004.75
349.583	944.75
349.81	919.75
350.037	857.75
350.265	855.75
350.492	889.75
350.72	892.75
350.947	956.75
351.174	936.75
351.402	890.75
351.629	852.75
351.856	857.75
352.083	860.75
352.311	841.75
352.538	895.75
352.765	930.75
352.992	926.75
353.22	897.75
353.447	867.75
353.674	884.75
353.901	937.75
354.128	890.75
354.355	920.75
354.583	939.75
354.81	951.75
355.037	957.75
355.264	929.75
355.491	923.75
355.718	929.75
355.945	927.75
356.172	926.75
356.399	881.75
356.626	897.75
356.853	938.75
357.08	1013.75
357.307	1113.75
357.534	1072.75
357.761	898.75
357.988	900.75
358.215	865.75
358.441	849.75
358.668	877.75
358.895	915.75
359.122	991.75
359.349	1020.75
359.576	1018.75
359.802	929.75
360.029	879.75
360.256	875.75
360.483	902.75
360.709	913.75
360.936	961.75
361.163	981.75
361.39	1106.75
361.616	1165.75
361.843	1120.75
362.07	1046.75
362.296	950.75
362.523	890.75
362.749	902.75
362.976	910.75
363.203	933.75
363.429	899.75
363.656	890.75
363.882	943.75
364.109	1043.75
364.335	1081.75
364.562	1017.75
364.788	959.75
365.015	894.75
365.241	894.75
365.468	905.75
365.694	967.75
365.92	1011.75
366.147	949.75
366.373	907.75
366.599	876.75
366.826	909.75
367.052	907.75
367.278	897.75
367.505	892.75
367.731	951.75
367.957	934.75
368.184	978.75
368.41	1043.75
368.636	1038.75
368.862	1067.75
369.089	1045.75
369.315	1002.75
369.541	974.75
369.767	949.75
369.993	927.75
370.219	909.75
370.445	924.75
370.672	1036.75
370.898	1084.75
371.124	1061.75
371.35	975.75
371.576	985.75
371.802	1015.75
372.028	985.75
372.254	944.75
372.48	927.75
372.706	926.75
372.932	945.75
373.158	951.75
373.384	972.75
373.61	975.75
373.835	1036.75
374.061	995.75
374.287	985.75
374.513	979.75
374.739	995.75
374.965	984.75
375.191	982.75
375.416	1012.75
375.642	1018.75
375.868	1109.75
376.094	1090.75
376.319	1048.75
376.545	976.75
376.771	1023.75
376.997	1085.75
377.222	1057.75
377.448	1011.75
377.674	1041.75
377.899	1042.75
378.125	1103.75
378.35	1069.75
378.576	976.75
378.802	951.75
379.027	941.75
379.253	973.75
379.478	979.75
379.704	974.75
379.929	967.75
380.155	986.75
380.38	986.75
380.606	987.75
380.831	1004.75
381.057	1090.75
381.282	1047.75
381.507	1053.75
381.733	1109.75
381.958	1120.75
382.184	1049.75
382.409	981.75
382.634	1015.75
382.86	1014.75
383.085	1025.75
383.31	1074.75
383.535	1175.75
383.761	1224.75
383.986	1157.75
384.211	1089.75
384.436	1093.75
384.662	1142.75
384.887	1193.75
385.112	1108.75
385.337	1133.75
385.562	1103.75
385.787	1122.75
386.013	1145.75
386.238	1124.75
386.463	1150.75
386.688	1243.75
386.913	1322.75
387.138	1212.75
387.363	1203.75
387.588	1147.75
387.813	1150.75
388.038	1177.75
388.263	1169.75
388.488	1158.75
388.713	1081.75
388.938	1075.75
389.163	1072.75
389.387	1131.75
389.612	1101.75
389.837	1150.75
390.062	1121.75
390.287	1145.75
390.512	1077.75
390.736	1109.75
390.961	1084.75
391.186	1080.75
391.411	1088.75
391.636	1100.75
391.86	1112.75
392.085	1137.75
392.31	1052.75
392.534	1101.75
392.759	1146.75
392.984	1141.75
393.208	1177.75
393.433	1188.75
393.658	1235.75
393.882	1206.75
394.107	1140.75
394.331	1137.75
394.556	1129.75
394.78	1137.75
395.005	1207.75
395.229	1230.75
395.454	1292.75
395.678	1297.75
395.903	1223.75
396.127	1202.75
396.352	1203.75
396.576	1234.75
396.801	1213.75
397.025	1214.75
397.249	1217.75
397.474	1238.75
397.698	1172.75
397.922	1251.75
398.147	1319.75
398.371	1308.75
398.595	1324.75
398.82	1270.75
399.044	1307.75
399.268	1404.75
399.492	1427.75
399.717	1473.75
399.941	1475.75
400.165	1458.75
400.389	1437.75
400.613	1469.75
400.837	1666.75
401.062	1801.75
401.286	1523.75
401.51	1416.75
401.734	1452.75
401.958	1389.75
402.182	1301.75
402.406	1307.75
402.63	1270.75
402.854	1289.75
403.078	1298.75
403.302	1325.75
403.526	1345.75
403.75	1348.75
403.974	1381.75
404.198	1341.75
404.422	1413.75
404.645	1471.75
404.869	1408.75
405.093	1304.75
405.317	1299.75
405.541	1361.75
405.765	1339.75
405.988	1354.75
406.212	1373.75
406.436	1417.75
406.66	1442.75
406.883	1471.75
407.107	1669.75
407.331	1794.75
407.555	1908.75
407.778	1628.75
408.002	1435.75
408.226	1392.75
408.449	1413.75
408.673	1360.75
408.896	1358.75
409.12	1401.75
409.344	1332.75
409.567	1333.75
409.791	1335.75
410.014	1375.75
410.238	1475.75
410.461	1547.75
410.685	1372.75
410.908	1295.75
411.132	1372.75
411.355	1333.75
411.578	1317.75
411.802	1345.75
412.025	1349.75
412.249	1336.75
412.472	1311.75
412.695	1300.75
412.919	1284.75
413.142	1296.75
413.365	1268.75
413.589	1330.75
413.812	1384.75
414.035	1411.75
414.258	1333.75
414.482	1295.75
414.705	1316.75
414.928	1279.75
415.151	1294.75
415.374	1292.75
415.597	1332.75
415.821	1323.75
416.044	1348.75
416.267	1307.75
416.49	1253.75
416.713	1270.75
416.936	1320.75
417.159	1380.75
417.382	1327.75
417.605	1274.75
417.828	1315.75
418.051	1306.75
418.274	1326.75
418.497	1255.75
418.72	1287.75
418.943	1254.75
419.166	1333.75
419.389	1331.75
419.611	1300.75
419.834	1299.75
420.057	1314.75
420.28	1258.75
420.503	1304.75
420.726	1302.75
420.948	1285.75
421.171	1257.75
421.394	1297.75
421.617	1325.75
421.839	1340.75
422.062	1324.75
422.285	1288.75
422.507	1246.75
422.73	1207.75
422.953	1187.75
423.175	1201.75
423.398	1271.75
423.621	1222.75
423.843	1308.75
424.066	1302.75
424.288	1373.75
424.511	1387.75
424.733	1341.75
424.956	1245.75
425.178	1237.75
425.401	1278.75
425.623	1281.75
425.846	1244.75
426.068	1356.75
426.291	1301.75
426.513	1317.75
426.735	1307.75
426.958	1410.75
427.18	1470.75
427.402	1335.75
427.625	1420.75
427.847	1372.75
428.069	1261.75
428.292	1258.75
428.514	1242.75
428.736	1216.75
428.958	1238.75
429.181	1248.75
429.403	1438.75
429.625	1759.75
429.847	1452.75
430.069	1321.75
430.292	1447.75
430.514	1436.75
430.736	1327.75
430.958	1362.75
431.18	1256.75
431.402	1247.75
431.624	1193.75
431.846	1168.75
432.068	1107.75
432.29	1137.75
432.512	1168.75
432.734	1254.75
432.956	1295.75
433.178	1297.75
433.4	1300.75
433.622	1297.75
433.844	1239.75
434.066	1179.75
434.287	1161.75
434.509	1217.75
434.731	1267.75
434.953	1342.75
435.175	1311.75
435.397	1285.75
435.618	1269.75
435.84	1211.75
436.062	1225.75
436.284	1257.75
436.505	1282.75
436.727	1258.75
436.949	1246.75
437.17	1247.75
437.392	1217.75
437.614	1223.75
437.835	1185.75
438.057	1194.75
438.278	1210.75
438.5	1226.75
438.721	1245.75
438.943	1259.75
439.165	1204.75
439.386	1211.75
439.608	1223.75
439.829	1225.75
440.05	1265.75
440.272	1252.75
440.493	1252.75
440.715	1288.75
440.936	1342.75
441.158	1404.75
441.379	1395.75
441.6	1328.75
441.822	1343.75
442.043	1330.75
442.264	1304.75
442.486	1252.75
442.707	1228.75
442.928	1286.75
443.149	1299.75
443.371	1342.75
443.592	1366.75
443.813	1371.75
444.034	1367.75
444.255	1360.75
444.476	1377.75
444.698	1418.75
444.919	1395.75
445.14	1465.75
445.361	1432.75
445.582	1440.75
445.803	1391.75
446.024	1387.75
446.245	1435.75
446.466	1391.75
446.687	1355.75
446.908	1324.75
447.129	1299.75
447.35	1312.75
447.571	1293.75
447.792	1236.75
448.013	1240.75
448.234	1261.75
448.455	1299.75
448.675	1309.75
448.896	1179.75
449.117	1154.75
449.338	1212.75
449.559	1306.75
449.779	1309.75
450	1419.75
450.221	1468.75
450.442	1414.75
450.662	1263.75
450.883	1140.75
451.104	1188.75
451.324	1173.75
451.545	1194.75
451.766	1166.75
451.986	1126.75
452.207	1140.75
452.428	1089.75
452.648	1075.75
452.869	1102.75
453.089	1111.75
453.31	1133.75
453.53	1149.75
453.751	1116.75
453.971	1047.75
454.192	1089.75
454.412	1151.75
454.633	1116.75
454.853	1111.75
455.073	1045.75
455.294	1078.75
455.514	1071.75
455.734	1048.75
455.955	1099.75
456.175	1049.75
456.395	1048.75
456.616	1059.75
456.836	1076.75
457.056	1079.75
457.276	1057.75
457.497	1000.75
457.717	1014.75
457.937	1032.75
458.157	1066.75
458.377	1014.75
458.598	1016.75
458.818	1045.75
459.038	1095.75
459.258	1129.75
459.478	1151.75
459.698	1143.75
459.918	1159.75
460.138	1195.75
460.358	1253.75
460.578	1237.75
460.798	1316.75
461.018	1342.75
461.238	1275.75
461.458	1256.75
461.678	1237.75
461.898	1203.75
462.118	1187.75
462.338	1241.75
462.558	1251.75
462.777	1232.75
462.997	1293.75
463.217	1347.75
463.437	1347.75
463.657	1279.75
463.876	1242.75
464.096	1265.75
464.316	1240.75
464.536	1278.75
464.755	1292.75
464.975	1288.75
465.195	1252.75
465.414	1292.75
465.634	1276.75
465.854	1285.75
466.073	1364.75
466.293	1319.75
466.512	1181.75
466.732	1187.75
466.951	1230.75
467.171	1189.75
467.391	1172.75
467.61	1171.75
467.829	1205.75
468.049	1331.75
468.268	1437.75
468.488	1300.75
468.707	1259.75
468.927	1217.75
469.146	1208.75
469.365	1202.75
469.585	1221.75
469.804	1207.75
470.023	1236.75
470.243	1247.75
470.462	1207.75
470.681	1225.75
470.901	1240.75
471.12	1241.75
471.339	1228.75
471.558	1215.75
471.777	1209.75
471.997	1189.75
472.216	1159.75
472.435	1127.75
472.654	1097.75
472.873	1159.75
473.092	1222.75
473.311	1149.75
473.53	1129.75
473.749	1150.75
473.968	1181.75
474.187	1215.75
474.406	1194.75
474.625	1191.75
474.844	1185.75
475.063	1196.75
475.282	1189.75
475.501	1167.75
475.72	1196.75
475.939	1277.75
476.158	1206.75
476.377	1187.75
476.596	1167.75
476.814	1224.75
477.033	1217.75
477.252	1261.75
477.471	1283.75
477.69	1254.75
477.908	1270.75
478.127	1366.75
478.346	1420.75
478.564	1413.75
478.783	1385.75
479.002	1446.75
479.22	1398.75
479.439	1457.75
479.658	1593.75
479.876	1508.75
480.095	1368.75
480.313	1367.75
480.532	1301.75
480.751	1323.75
480.969	1294.75
481.188	1249.75
481.406	1246.75
481.624	1237.75
481.843	1270.75
482.061	1294.75
482.28	1322.75
482.498	1344.75
482.717	1271.75
482.935	1314.75
483.153	1333.75
483.372	1365.75
483.59	1371.75
483.808	1352.75
484.027	1370.75
484.245	1431.75
484.463	1667.75
484.681	1843.75
484.9	1445.75
485.118	1368.75
485.336	1335.75
485.554	1358.75
485.772	1384.75
485.99	1347.75
486.209	1344.75
486.427	1333.75
486.645	1386.75
486.863	1380.75
487.081	1445.75
487.299	1445.75
487.517	1417.75
487.735	1453.75
487.953	1489.75
488.171	1492.75
488.389	1443.75
488.607	1425.75
488.825	1599.75
489.043	1539.75
489.261	1388.75
489.479	1473.75
489.696	1455.75
489.914	1431.75
490.132	1415.75
490.35	1452.75
490.568	1513.75
490.786	1474.75
491.003	1466.75
491.221	1522.75
491.439	1557.75
491.657	1580.75
491.874	1592.75
492.092	1621.75
492.31	1701.75
492.527	1656.75
492.745	1593.75
492.963	1585.75
493.18	1580.75
493.398	1691.75
493.615	1659.75
493.833	1557.75
