Data from WStandard_LampEnergy10_LIBS07252019.E.O._I.C._HRD10591_15-54-48-928.txt Node
Date: Thu Jul 25 15:54:48 EDT 2019
User: cochatt
Spectrometer: HR+D1059
Trigger mode: 1
Integration Time (sec): 1.000000E-1
Scans to average: 1
Electric dark correction enabled: true
Nonlinearity correction enabled: false
Boxcar width: 0
XAxis mode: Wavelengths
Number of Pixels in Spectrum: 2048
>>>>>Begin Spectral Data<<<<<
223.165	-11.19
223.4	-11.19
223.635	-11.19
223.869	-29.19
224.104	-7.19
224.338	-4.19
224.573	-16.19
224.808	-13.19
225.042	-16.19
225.277	-4.19
225.511	15.81
225.746	15.81
225.98	3.81
226.215	3.81
226.449	1.81
226.683	15.81
226.918	16.81
227.152	27.81
227.387	31.81
227.621	30.81
227.856	48.81
228.09	52.81
228.324	63.81
228.559	51.81
228.793	63.81
229.027	121.81
229.262	150.81
229.496	149.81
229.73	137.81
229.964	159.81
230.199	163.81
230.433	173.81
230.667	174.81
230.901	199.81
231.136	185.81
231.37	168.81
231.604	181.81
231.838	179.81
232.072	174.81
232.306	175.81
232.541	186.81
232.775	199.81
233.009	210.81
233.243	200.81
233.477	196.81
233.711	221.81
233.945	191.81
234.179	194.81
234.413	199.81
234.647	198.81
234.881	206.81
235.115	195.81
235.349	200.81
235.583	211.81
235.817	201.81
236.051	210.81
236.285	197.81
236.519	197.81
236.753	222.81
236.987	230.81
237.221	229.81
237.455	239.81
237.689	234.81
237.922	221.81
238.156	222.81
238.39	246.81
238.624	226.81
238.858	235.81
239.091	243.81
239.325	245.81
239.559	272.81
239.793	276.81
240.027	317.81
240.26	270.81
240.494	228.81
240.728	248.81
240.961	234.81
241.195	245.81
241.429	245.81
241.662	269.81
241.896	251.81
242.13	268.81
242.363	273.81
242.597	285.81
242.83	259.81
243.064	248.81
243.298	279.81
243.531	274.81
243.765	291.81
243.998	287.81
244.232	250.81
244.465	254.81
244.699	269.81
244.932	289.81
245.166	303.81
245.399	283.81
245.633	286.81
245.866	279.81
246.099	285.81
246.333	269.81
246.566	302.81
246.8	303.81
247.033	350.81
247.266	329.81
247.5	292.81
247.733	308.81
247.966	343.81
248.2	355.81
248.433	358.81
248.666	358.81
248.899	384.81
249.133	414.81
249.366	445.81
249.599	381.81
249.832	365.81
250.066	359.81
250.299	349.81
250.532	332.81
250.765	334.81
250.998	323.81
251.231	352.81
251.465	352.81
251.698	341.81
251.931	352.81
252.164	355.81
252.397	350.81
252.63	342.81
252.863	341.81
253.096	310.81
253.329	348.81
253.562	335.81
253.795	376.81
254.028	346.81
254.261	333.81
254.494	336.81
254.727	316.81
254.96	355.81
255.193	374.81
255.426	429.81
255.659	442.81
255.892	437.81
256.124	383.81
256.357	384.81
256.59	402.81
256.823	405.81
257.056	414.81
257.289	464.81
257.521	501.81
257.754	443.81
257.987	450.81
258.22	476.81
258.452	437.81
258.685	382.81
258.918	375.81
259.151	395.81
259.383	375.81
259.616	353.81
259.849	371.81
260.081	403.81
260.314	424.81
260.547	473.81
260.779	459.81
261.012	446.81
261.244	409.81
261.477	384.81
261.71	409.81
261.942	403.81
262.175	375.81
262.407	392.81
262.64	394.81
262.872	389.81
263.105	374.81
263.337	365.81
263.57	375.81
263.802	360.81
264.035	347.81
264.267	345.81
264.499	323.81
264.732	374.81
264.964	383.81
265.197	405.81
265.429	403.81
265.661	440.81
265.894	485.81
266.126	489.81
266.358	454.81
266.591	471.81
266.823	486.81
267.055	442.81
267.287	443.81
267.52	442.81
267.752	434.81
267.984	442.81
268.216	467.81
268.448	462.81
268.681	443.81
268.913	422.81
269.145	429.81
269.377	417.81
269.609	459.81
269.841	510.81
270.073	569.81
270.306	614.81
270.538	620.81
270.77	525.81
271.002	492.81
271.234	460.81
271.466	485.81
271.698	508.81
271.93	601.81
272.162	587.81
272.394	521.81
272.626	492.81
272.858	451.81
273.09	427.81
273.322	399.81
273.553	383.81
273.785	426.81
274.017	421.81
274.249	426.81
274.481	427.81
274.713	407.81
274.945	393.81
275.176	406.81
275.408	416.81
275.64	420.81
275.872	425.81
276.104	465.81
276.335	478.81
276.567	526.81
276.799	520.81
277.031	492.81
277.262	459.81
277.494	484.81
277.726	514.81
277.957	500.81
278.189	465.81
278.421	419.81
278.652	435.81
278.884	430.81
279.115	444.81
279.347	438.81
279.579	431.81
279.81	429.81
280.042	487.81
280.273	495.81
280.505	482.81
280.736	497.81
280.968	458.81
281.199	436.81
281.431	413.81
281.662	432.81
281.894	436.81
282.125	455.81
282.356	445.81
282.588	466.81
282.819	458.81
283.051	478.81
283.282	496.81
283.513	478.81
283.745	424.81
283.976	418.81
284.207	438.81
284.439	429.81
284.67	435.81
284.901	462.81
285.132	460.81
285.364	446.81
285.595	456.81
285.826	429.81
286.057	455.81
286.288	455.81
286.52	472.81
286.751	499.81
286.982	492.81
287.213	463.81
287.444	448.81
287.675	439.81
287.906	470.81
288.138	487.81
288.369	484.81
288.6	455.81
288.831	435.81
289.062	474.81
289.293	457.81
289.524	452.81
289.755	456.81
289.986	457.81
290.217	440.81
290.448	448.81
290.679	460.81
290.91	465.81
291.141	479.81
291.371	499.81
291.602	479.81
291.833	479.81
292.064	494.81
292.295	484.81
292.526	511.81
292.757	523.81
292.987	466.81
293.218	477.81
293.449	532.81
293.68	568.81
293.91	569.81
294.141	532.81
294.372	535.81
294.603	571.81
294.833	551.81
295.064	529.81
295.295	493.81
295.525	458.81
295.756	458.81
295.987	433.81
296.217	441.81
296.448	458.81
296.679	451.81
296.909	461.81
297.14	471.81
297.37	477.81
297.601	482.81
297.831	521.81
298.062	532.81
298.292	480.81
298.523	459.81
298.753	477.81
298.984	489.81
299.214	473.81
299.445	481.81
299.675	519.81
299.905	511.81
300.136	476.81
300.366	467.81
300.597	475.81
300.827	472.81
301.057	488.81
301.288	510.81
301.518	525.81
301.748	523.81
301.979	536.81
302.209	552.81
302.439	560.81
302.669	591.81
302.9	543.81
303.13	493.81
303.36	507.81
303.59	496.81
303.82	509.81
304.051	504.81
304.281	520.81
304.511	527.81
304.741	564.81
304.971	626.81
305.201	608.81
305.431	550.81
305.661	478.81
305.891	430.81
306.121	455.81
306.352	485.81
306.582	525.81
306.812	533.81
307.042	555.81
307.272	573.81
307.502	601.81
307.731	617.81
307.961	646.81
308.191	599.81
308.421	516.81
308.651	499.81
308.881	483.81
309.111	480.81
309.341	499.81
309.571	488.81
309.8	477.81
310.03	495.81
310.26	512.81
310.49	511.81
310.72	503.81
310.949	531.81
311.179	520.81
311.409	519.81
311.639	505.81
311.868	502.81
312.098	541.81
312.328	502.81
312.557	502.81
312.787	529.81
313.017	513.81
313.246	512.81
313.476	517.81
313.706	513.81
313.935	530.81
314.165	545.81
314.394	578.81
314.624	595.81
314.853	591.81
315.083	625.81
315.312	621.81
315.542	589.81
315.771	534.81
316.001	554.81
316.23	577.81
316.46	573.81
316.689	575.81
316.919	515.81
317.148	510.81
317.377	538.81
317.607	597.81
317.836	618.81
318.065	619.81
318.295	616.81
318.524	573.81
318.753	560.81
318.983	565.81
319.212	557.81
319.441	553.81
319.67	549.81
319.9	551.81
320.129	599.81
320.358	606.81
320.587	608.81
320.816	621.81
321.046	598.81
321.275	570.81
321.504	615.81
321.733	622.81
321.962	584.81
322.191	567.81
322.42	549.81
322.649	539.81
322.878	540.81
323.108	571.81
323.337	605.81
323.566	559.81
323.795	549.81
324.024	581.81
324.253	544.81
324.482	547.81
324.71	549.81
324.939	521.81
325.168	546.81
325.397	560.81
325.626	558.81
325.855	573.81
326.084	549.81
326.313	579.81
326.542	569.81
326.77	590.81
326.999	563.81
327.228	505.81
327.457	526.81
327.686	539.81
327.914	557.81
328.143	575.81
328.372	576.81
328.6	553.81
328.829	555.81
329.058	546.81
329.287	549.81
329.515	569.81
329.744	630.81
329.972	608.81
330.201	594.81
330.43	597.81
330.658	580.81
330.887	571.81
331.115	575.81
331.344	599.81
331.572	606.81
331.801	598.81
332.03	599.81
332.258	595.81
332.486	615.81
332.715	600.81
332.943	591.81
333.172	586.81
333.4	617.81
333.629	634.81
333.857	643.81
334.085	756.81
334.314	817.81
334.542	823.81
334.771	759.81
334.999	683.81
335.227	641.81
335.455	645.81
335.684	654.81
335.912	661.81
336.14	627.81
336.369	628.81
336.597	587.81
336.825	613.81
337.053	616.81
337.281	661.81
337.51	686.81
337.738	707.81
337.966	649.81
338.194	600.81
338.422	587.81
338.65	575.81
338.878	567.81
339.106	567.81
339.334	569.81
339.562	576.81
339.79	597.81
340.018	627.81
340.246	632.81
340.474	633.81
340.702	612.81
340.93	633.81
341.158	631.81
341.386	582.81
341.614	605.81
341.842	599.81
342.07	613.81
342.298	583.81
342.526	599.81
342.754	603.81
342.981	583.81
343.209	607.81
343.437	596.81
343.665	591.81
343.893	645.81
344.12	645.81
344.348	617.81
344.576	614.81
344.804	596.81
345.031	574.81
345.259	579.81
345.487	582.81
345.714	565.81
345.942	547.81
346.17	554.81
346.397	580.81
346.625	573.81
346.853	536.81
347.08	540.81
347.308	560.81
347.535	584.81
347.763	571.81
347.99	553.81
348.218	559.81
348.445	571.81
348.673	576.81
348.9	589.81
349.128	618.81
349.355	611.81
349.583	600.81
349.81	549.81
350.037	509.81
350.265	535.81
350.492	525.81
350.72	567.81
350.947	578.81
351.174	561.81
351.402	559.81
351.629	535.81
351.856	500.81
352.083	517.81
352.311	543.81
352.538	550.81
352.765	580.81
352.992	583.81
353.22	553.81
353.447	548.81
353.674	549.81
353.901	557.81
354.128	557.81
354.355	552.81
354.583	574.81
354.81	569.81
355.037	589.81
355.264	563.81
355.491	560.81
355.718	577.81
355.945	554.81
356.172	547.81
356.399	569.81
356.626	561.81
356.853	591.81
357.08	647.81
357.307	673.81
357.534	646.81
357.761	575.81
357.988	536.81
358.215	552.81
358.441	547.81
358.668	539.81
358.895	550.81
359.122	589.81
359.349	649.81
359.576	603.81
359.802	569.81
360.029	575.81
360.256	556.81
360.483	551.81
360.709	574.81
360.936	592.81
361.163	616.81
361.39	667.81
361.616	709.81
361.843	688.81
362.07	649.81
362.296	582.81
362.523	557.81
362.749	555.81
362.976	595.81
363.203	591.81
363.429	560.81
363.656	563.81
363.882	597.81
364.109	664.81
364.335	660.81
364.562	612.81
364.788	575.81
365.015	571.81
365.241	574.81
365.468	576.81
365.694	609.81
365.92	611.81
366.147	559.81
366.373	555.81
366.599	552.81
366.826	554.81
367.052	550.81
367.278	568.81
367.505	593.81
367.731	605.81
367.957	590.81
368.184	633.81
368.41	661.81
368.636	650.81
368.862	669.81
369.089	655.81
369.315	665.81
369.541	605.81
369.767	607.81
369.993	592.81
370.219	580.81
370.445	608.81
370.672	655.81
370.898	695.81
371.124	653.81
371.35	630.81
371.576	643.81
371.802	667.81
372.028	617.81
372.254	617.81
372.48	613.81
372.706	616.81
372.932	586.81
373.158	596.81
373.384	639.81
373.61	631.81
373.835	658.81
374.061	624.81
374.287	630.81
374.513	633.81
374.739	627.81
374.965	625.81
375.191	647.81
375.416	667.81
375.642	651.81
375.868	696.81
376.094	709.81
376.319	661.81
376.545	624.81
376.771	643.81
376.997	681.81
377.222	704.81
377.448	667.81
377.674	691.81
377.899	687.81
378.125	703.81
378.35	711.81
378.576	647.81
378.802	620.81
379.027	645.81
379.253	633.81
379.478	634.81
379.704	638.81
379.929	650.81
380.155	633.81
380.38	643.81
380.606	649.81
380.831	678.81
381.057	686.81
381.282	707.81
381.507	691.81
381.733	724.81
381.958	707.81
382.184	689.81
382.409	665.81
382.634	672.81
382.86	679.81
383.085	675.81
383.31	724.81
383.535	781.81
383.761	782.81
383.986	755.81
384.211	713.81
384.436	751.81
384.662	774.81
384.887	757.81
385.112	716.81
385.337	734.81
385.562	734.81
385.787	739.81
386.013	748.81
386.238	749.81
386.463	757.81
386.688	804.81
386.913	853.81
387.138	837.81
387.363	767.81
387.588	775.81
387.813	745.81
388.038	804.81
388.263	808.81
388.488	760.81
388.713	709.81
388.938	717.81
389.163	724.81
389.387	725.81
389.612	728.81
389.837	742.81
390.062	791.81
390.287	752.81
390.512	751.81
390.736	734.81
390.961	729.81
391.186	718.81
391.411	714.81
391.636	743.81
391.86	747.81
392.085	769.81
392.31	741.81
392.534	769.81
392.759	764.81
392.984	765.81
393.208	761.81
393.433	814.81
393.658	813.81
393.882	810.81
394.107	801.81
394.331	799.81
394.556	743.81
394.78	797.81
395.005	803.81
395.229	853.81
395.454	863.81
395.678	848.81
395.903	835.81
396.127	801.81
396.352	851.81
396.576	832.81
396.801	820.81
397.025	836.81
397.249	852.81
397.474	796.81
397.698	820.81
397.922	881.81
398.147	911.81
398.371	931.81
398.595	888.81
398.82	855.81
399.044	869.81
399.268	931.81
399.492	957.81
399.717	987.81
399.941	972.81
400.165	975.81
400.389	951.81
400.613	965.81
400.837	1120.81
401.062	1149.81
401.286	1009.81
401.51	983.81
401.734	942.81
401.958	927.81
402.182	913.81
402.406	869.81
402.63	899.81
402.854	887.81
403.078	899.81
403.302	896.81
403.526	925.81
403.75	910.81
403.974	943.81
404.198	941.81
404.422	973.81
404.645	1018.81
404.869	967.81
405.093	920.81
405.317	894.81
405.541	935.81
405.765	959.81
405.988	941.81
406.212	940.81
406.436	946.81
406.66	975.81
406.883	1031.81
407.107	1150.81
407.331	1198.81
407.555	1296.81
407.778	1115.81
408.002	986.81
408.226	989.81
408.449	958.81
408.673	936.81
408.896	975.81
409.12	960.81
409.344	925.81
409.567	903.81
409.791	939.81
410.014	987.81
410.238	1026.81
410.461	1044.81
410.685	991.81
410.908	925.81
411.132	963.81
411.355	919.81
411.578	929.81
411.802	928.81
412.025	916.81
412.249	936.81
412.472	900.81
412.695	898.81
412.919	952.81
413.142	905.81
413.365	960.81
413.589	936.81
413.812	1002.81
414.035	985.81
414.258	935.81
414.482	904.81
414.705	911.81
414.928	914.81
415.151	896.81
415.374	919.81
415.597	937.81
415.821	936.81
416.044	974.81
416.267	954.81
416.49	921.81
416.713	904.81
416.936	950.81
417.159	980.81
417.382	960.81
417.605	916.81
417.828	924.81
418.051	962.81
418.274	979.81
418.497	959.81
418.72	912.81
418.943	924.81
419.166	928.81
419.389	985.81
419.611	963.81
419.834	926.81
420.057	935.81
420.28	926.81
420.503	926.81
420.726	954.81
420.948	945.81
421.171	936.81
421.394	938.81
421.617	972.81
421.839	988.81
422.062	976.81
422.285	944.81
422.507	926.81
422.73	909.81
422.953	909.81
423.175	880.81
423.398	935.81
423.621	913.81
423.843	955.81
424.066	988.81
424.288	1025.81
424.511	1025.81
424.733	988.81
424.956	919.81
425.178	917.81
425.401	961.81
425.623	947.81
425.846	944.81
426.068	983.81
426.291	968.81
426.513	948.81
426.735	952.81
426.958	1031.81
427.18	1059.81
427.402	1012.81
427.625	1037.81
427.847	1000.81
428.069	914.81
428.292	902.81
428.514	933.81
428.736	924.81
428.958	919.81
429.181	925.81
429.403	1056.81
429.625	1229.81
429.847	1021.81
430.069	949.81
430.292	1014.81
430.514	1025.81
430.736	1000.81
430.958	962.81
431.18	935.81
431.402	897.81
431.624	865.81
431.846	771.81
432.068	754.81
432.29	741.81
432.512	810.81
432.734	856.81
432.956	916.81
433.178	990.81
433.4	970.81
433.622	952.81
433.844	908.81
434.066	846.81
434.287	810.81
434.509	797.81
434.731	798.81
434.953	895.81
435.175	925.81
435.397	898.81
435.618	874.81
435.84	846.81
436.062	836.81
436.284	889.81
436.505	931.81
436.727	953.81
436.949	917.81
437.17	927.81
437.392	880.81
437.614	860.81
437.835	792.81
438.057	824.81
438.278	849.81
438.5	856.81
438.721	888.81
438.943	928.81
439.165	919.81
439.386	913.81
439.608	935.81
439.829	970.81
440.05	967.81
440.272	959.81
440.493	961.81
440.715	965.81
440.936	1005.81
441.158	1075.81
441.379	1008.81
441.6	1044.81
441.822	1024.81
442.043	1012.81
442.264	981.81
442.486	948.81
442.707	953.81
442.928	932.81
443.149	966.81
443.371	973.81
443.592	1028.81
443.813	1005.81
444.034	994.81
444.255	1005.81
444.476	1012.81
444.698	1043.81
444.919	1009.81
445.14	1185.81
445.361	1107.81
445.582	1089.81
445.803	1038.81
446.024	1038.81
446.245	1052.81
446.466	1060.81
446.687	1041.81
446.908	1037.81
447.129	1010.81
447.35	994.81
447.571	980.81
447.792	963.81
448.013	957.81
448.234	952.81
448.455	988.81
448.675	983.81
448.896	927.81
449.117	905.81
449.338	907.81
449.559	949.81
449.779	973.81
450	1034.81
450.221	1037.81
450.442	1031.81
450.662	952.81
450.883	849.81
451.104	864.81
451.324	874.81
451.545	866.81
451.766	843.81
451.986	815.81
452.207	799.81
452.428	804.81
452.648	755.81
452.869	793.81
453.089	772.81
453.31	792.81
453.53	752.81
453.751	734.81
453.971	724.81
454.192	735.81
454.412	788.81
454.633	784.81
454.853	772.81
455.073	763.81
455.294	799.81
455.514	773.81
455.734	776.81
455.955	753.81
456.175	739.81
456.395	749.81
456.616	741.81
456.836	725.81
457.056	746.81
457.276	749.81
457.497	713.81
457.717	685.81
457.937	715.81
458.157	707.81
458.377	695.81
458.598	681.81
458.818	659.81
459.038	703.81
459.258	684.81
459.478	725.81
459.698	691.81
459.918	743.81
460.138	813.81
460.358	827.81
460.578	831.81
460.798	856.81
461.018	887.81
461.238	865.81
461.458	872.81
461.678	840.81
461.898	825.81
462.118	789.81
462.338	841.81
462.558	853.81
462.777	845.81
462.997	900.81
463.217	905.81
463.437	884.81
463.657	825.81
463.876	825.81
464.096	829.81
464.316	833.81
464.536	856.81
464.755	867.81
464.975	886.81
465.195	850.81
465.414	901.81
465.634	876.81
465.854	895.81
466.073	963.81
466.293	944.81
466.512	872.81
466.732	884.81
466.951	912.81
467.171	889.81
467.391	869.81
467.61	899.81
467.829	905.81
468.049	1007.81
468.268	1058.81
468.488	974.81
468.707	909.81
468.927	905.81
469.146	908.81
469.365	923.81
469.585	932.81
469.804	888.81
470.023	933.81
470.243	937.81
470.462	957.81
470.681	941.81
470.901	923.81
471.12	911.81
471.339	907.81
471.558	924.81
471.777	894.81
471.997	910.81
472.216	855.81
472.435	767.81
472.654	756.81
472.873	801.81
473.092	831.81
473.311	831.81
473.53	836.81
473.749	831.81
473.968	827.81
474.187	844.81
474.406	859.81
474.625	850.81
474.844	864.81
475.063	874.81
475.282	845.81
475.501	839.81
475.72	840.81
475.939	914.81
476.158	875.81
476.377	903.81
476.596	855.81
476.814	821.81
477.033	830.81
477.252	859.81
477.471	890.81
477.69	917.81
477.908	951.81
478.127	990.81
478.346	1036.81
478.564	1018.81
478.783	998.81
479.002	1027.81
479.22	1003.81
479.439	1025.81
479.658	1021.81
479.876	993.81
480.095	926.81
480.313	890.81
480.532	870.81
480.751	870.81
480.969	832.81
481.188	807.81
481.406	790.81
481.624	768.81
481.843	769.81
482.061	844.81
482.28	872.81
482.498	884.81
482.717	833.81
482.935	905.81
483.153	985.81
483.372	1023.81
483.59	1011.81
483.808	996.81
484.027	953.81
484.245	995.81
484.463	1205.81
484.681	1305.81
484.9	1022.81
485.118	979.81
485.336	920.81
485.554	904.81
485.772	901.81
485.99	876.81
486.209	912.81
486.427	909.81
486.645	953.81
486.863	1015.81
487.081	1015.81
487.299	1015.81
487.517	997.81
487.735	1129.81
487.953	1185.81
488.171	1169.81
488.389	1126.81
488.607	1069.81
488.825	1159.81
489.043	1057.81
489.261	971.81
489.479	1026.81
489.696	1068.81
489.914	1049.81
490.132	1036.81
490.35	1115.81
490.568	1187.81
490.786	1205.81
491.003	1172.81
491.221	1241.81
491.439	1262.81
491.657	1354.81
491.874	1387.81
492.092	1455.81
492.31	1471.81
492.527	1475.81
492.745	1368.81
492.963	1311.81
493.18	1338.81
493.398	1327.81
493.615	1364.81
493.833	1259.81
494.05	1214.81
494.268	1206.81
494.485	1231.81
494.703	1256.81
494.92	1208.81
495.138	1210.81
495.355	1222.81
495.573	1300.81
495.79	1305.81
496.008	1310.81
496.225	1232.81
496.442	1238.81
496.66	1248.81
496.877	1197.81
497.094	1227.81
497.312	1213.81
497.529	1196.81
497.746	1184.81
497.963	1240.81
498.181	1276.81
498.398	1274.81
498.615	1207.81
498.832	1147.81
499.049	1161.81
499.267	1141.81
499.484	1240.81
499.701	1358.81
499.918	1377.81
500.135	1474.81
500.352	1571.81
