Data from WStandard_LampEnergy10_LIBS07252019.E.O._I.C._HRD10591_15-53-09-928.txt Node
Date: Thu Jul 25 15:53:09 EDT 2019
User: cochatt
Spectrometer: HR+D1059
Trigger mode: 1
Integration Time (sec): 1.000000E-1
Scans to average: 1
Electric dark correction enabled: true
Nonlinearity correction enabled: false
Boxcar width: 0
XAxis mode: Wavelengths
Number of Pixels in Spectrum: 2048
>>>>>Begin Spectral Data<<<<<
223.165	-10.31
223.4	-10.31
223.635	-10.31
223.869	-32.31
224.104	-34.31
224.338	3.69
224.573	-10.31
224.808	-12.31
225.042	-22.31
225.277	-8.31
225.511	2.69
225.746	4.69
225.98	3.69
226.215	13.69
226.449	22.69
226.683	24.69
226.918	26.69
227.152	27.69
227.387	37.69
227.621	31.69
227.856	52.69
228.09	49.69
228.324	57.69
228.559	67.69
228.793	85.69
229.027	129.69
229.262	135.69
229.496	145.69
229.73	169.69
229.964	168.69
230.199	172.69
230.433	171.69
230.667	187.69
230.901	185.69
231.136	167.69
231.37	162.69
231.604	173.69
231.838	177.69
232.072	171.69
232.306	165.69
232.541	172.69
232.775	188.69
233.009	191.69
233.243	202.69
233.477	185.69
233.711	198.69
233.945	199.69
234.179	197.69
234.413	215.69
234.647	218.69
234.881	216.69
235.115	191.69
235.349	195.69
235.583	213.69
235.817	202.69
236.051	195.69
236.285	207.69
236.519	201.69
236.753	230.69
236.987	223.69
237.221	223.69
237.455	244.69
237.689	221.69
237.922	201.69
238.156	219.69
238.39	213.69
238.624	228.69
238.858	236.69
239.091	271.69
239.325	242.69
239.559	302.69
239.793	287.69
240.027	297.69
240.26	298.69
240.494	250.69
240.728	241.69
240.961	231.69
241.195	228.69
241.429	237.69
241.662	266.69
241.896	238.69
242.13	238.69
242.363	269.69
242.597	257.69
242.83	277.69
243.064	257.69
243.298	296.69
243.531	278.69
243.765	267.69
243.998	284.69
244.232	273.69
244.465	239.69
244.699	247.69
244.932	270.69
245.166	291.69
245.399	289.69
245.633	278.69
245.866	266.69
246.099	299.69
246.333	320.69
246.566	327.69
246.8	326.69
247.033	339.69
247.266	326.69
247.5	331.69
247.733	333.69
247.966	334.69
248.2	357.69
248.433	348.69
248.666	358.69
248.899	397.69
249.133	424.69
249.366	452.69
249.599	410.69
249.832	357.69
250.066	376.69
250.299	366.69
250.532	357.69
250.765	327.69
250.998	355.69
251.231	362.69
251.465	346.69
251.698	336.69
251.931	348.69
252.164	350.69
252.397	358.69
252.63	375.69
252.863	323.69
253.096	332.69
253.329	343.69
253.562	351.69
253.795	354.69
254.028	362.69
254.261	341.69
254.494	336.69
254.727	333.69
254.96	347.69
255.193	364.69
255.426	418.69
255.659	445.69
255.892	452.69
256.124	385.69
256.357	403.69
256.59	394.69
256.823	415.69
257.056	412.69
257.289	465.69
257.521	483.69
257.754	461.69
257.987	454.69
258.22	486.69
258.452	451.69
258.685	409.69
258.918	379.69
259.151	389.69
259.383	381.69
259.616	358.69
259.849	364.69
260.081	410.69
260.314	447.69
260.547	469.69
260.779	476.69
261.012	441.69
261.244	396.69
261.477	396.69
261.71	397.69
261.942	409.69
262.175	388.69
262.407	408.69
262.64	374.69
262.872	374.69
263.105	353.69
263.337	364.69
263.57	380.69
263.802	374.69
264.035	366.69
264.267	336.69
264.499	346.69
264.732	366.69
264.964	381.69
265.197	398.69
265.429	425.69
265.661	458.69
265.894	467.69
266.126	491.69
266.358	466.69
266.591	471.69
266.823	483.69
267.055	439.69
267.287	445.69
267.52	435.69
267.752	458.69
267.984	472.69
268.216	474.69
268.448	476.69
268.681	447.69
268.913	425.69
269.145	400.69
269.377	425.69
269.609	446.69
269.841	513.69
270.073	581.69
270.306	632.69
270.538	615.69
270.77	569.69
271.002	499.69
271.234	459.69
271.466	483.69
271.698	522.69
271.93	609.69
272.162	579.69
272.394	555.69
272.626	524.69
272.858	453.69
273.09	424.69
273.322	392.69
273.553	382.69
273.785	396.69
274.017	434.69
274.249	444.69
274.481	449.69
274.713	416.69
274.945	424.69
275.176	412.69
275.408	423.69
275.64	408.69
275.872	449.69
276.104	455.69
276.335	487.69
276.567	535.69
276.799	500.69
277.031	485.69
277.262	470.69
277.494	492.69
277.726	512.69
277.957	501.69
278.189	463.69
278.421	435.69
278.652	419.69
278.884	438.69
279.115	437.69
279.347	435.69
279.579	428.69
279.81	431.69
280.042	478.69
280.273	526.69
280.505	494.69
280.736	514.69
280.968	475.69
281.199	437.69
281.431	414.69
281.662	428.69
281.894	423.69
282.125	426.69
282.356	475.69
282.588	464.69
282.819	474.69
283.051	491.69
283.282	499.69
283.513	463.69
283.745	450.69
283.976	446.69
284.207	427.69
284.439	431.69
284.67	452.69
284.901	457.69
285.132	444.69
285.364	447.69
285.595	441.69
285.826	467.69
286.057	472.69
286.288	446.69
286.52	471.69
286.751	509.69
286.982	517.69
287.213	466.69
287.444	446.69
287.675	439.69
287.906	453.69
288.138	491.69
288.369	461.69
288.6	461.69
288.831	455.69
289.062	445.69
289.293	457.69
289.524	458.69
289.755	480.69
289.986	466.69
290.217	433.69
290.448	465.69
290.679	464.69
290.91	488.69
291.141	469.69
291.371	475.69
291.602	480.69
291.833	486.69
292.064	479.69
292.295	495.69
292.526	502.69
292.757	515.69
292.987	480.69
293.218	485.69
293.449	521.69
293.68	578.69
293.91	581.69
294.141	552.69
294.372	532.69
294.603	563.69
294.833	547.69
295.064	526.69
295.295	488.69
295.525	481.69
295.756	463.69
295.987	435.69
296.217	450.69
296.448	454.69
296.679	474.69
296.909	462.69
297.14	482.69
297.37	483.69
297.601	514.69
297.831	535.69
298.062	520.69
298.292	486.69
298.523	479.69
298.753	489.69
298.984	476.69
299.214	484.69
299.445	484.69
299.675	514.69
299.905	499.69
300.136	488.69
300.366	467.69
300.597	463.69
300.827	472.69
301.057	509.69
301.288	505.69
301.518	503.69
301.748	533.69
301.979	547.69
302.209	549.69
302.439	595.69
302.669	620.69
302.9	558.69
303.13	502.69
303.36	504.69
303.59	504.69
303.82	509.69
304.051	498.69
304.281	533.69
304.511	539.69
304.741	568.69
304.971	609.69
305.201	632.69
305.431	547.69
305.661	493.69
305.891	457.69
306.121	469.69
306.352	494.69
306.582	513.69
306.812	537.69
307.042	571.69
307.272	597.69
307.502	563.69
307.731	631.69
307.961	625.69
308.191	587.69
308.421	537.69
308.651	483.69
308.881	501.69
309.111	496.69
309.341	502.69
309.571	506.69
309.8	494.69
310.03	488.69
310.26	504.69
310.49	488.69
310.72	526.69
310.949	562.69
311.179	521.69
311.409	529.69
311.639	526.69
311.868	504.69
312.098	505.69
312.328	494.69
312.557	499.69
312.787	524.69
313.017	509.69
313.246	534.69
313.476	510.69
313.706	528.69
313.935	549.69
314.165	547.69
314.394	544.69
314.624	589.69
314.853	629.69
315.083	632.69
315.312	608.69
315.542	597.69
315.771	539.69
316.001	547.69
316.23	574.69
316.46	569.69
316.689	561.69
316.919	535.69
317.148	528.69
317.377	523.69
317.607	573.69
317.836	620.69
318.065	647.69
318.295	588.69
318.524	601.69
318.753	551.69
318.983	556.69
319.212	543.69
319.441	524.69
319.67	542.69
319.9	561.69
320.129	594.69
320.358	599.69
320.587	610.69
320.816	615.69
321.046	612.69
321.275	596.69
321.504	589.69
321.733	627.69
321.962	622.69
322.191	566.69
322.42	574.69
322.649	576.69
322.878	543.69
323.108	556.69
323.337	580.69
323.566	586.69
323.795	566.69
324.024	594.69
324.253	564.69
324.482	563.69
324.71	543.69
324.939	542.69
325.168	550.69
325.397	552.69
325.626	579.69
325.855	571.69
326.084	548.69
326.313	565.69
326.542	565.69
326.77	592.69
326.999	582.69
327.228	559.69
327.457	527.69
327.686	537.69
327.914	549.69
328.143	575.69
328.372	556.69
328.6	571.69
328.829	549.69
329.058	540.69
329.287	550.69
329.515	572.69
329.744	613.69
329.972	605.69
330.201	628.69
330.43	633.69
330.658	625.69
330.887	606.69
331.115	576.69
331.344	613.69
331.572	598.69
331.801	586.69
332.03	590.69
332.258	597.69
332.486	595.69
332.715	600.69
332.943	606.69
333.172	584.69
333.4	613.69
333.629	629.69
333.857	681.69
334.085	739.69
334.314	787.69
334.542	838.69
334.771	768.69
334.999	699.69
335.227	648.69
335.455	610.69
335.684	627.69
335.912	643.69
336.14	652.69
336.369	643.69
336.597	621.69
336.825	621.69
337.053	630.69
337.281	637.69
337.51	684.69
337.738	714.69
337.966	647.69
338.194	609.69
338.422	585.69
338.65	596.69
338.878	585.69
339.106	582.69
339.334	556.69
339.562	583.69
339.79	579.69
340.018	629.69
340.246	649.69
340.474	622.69
340.702	647.69
340.93	623.69
341.158	598.69
341.386	594.69
341.614	605.69
341.842	603.69
342.07	623.69
342.298	596.69
342.526	578.69
342.754	591.69
342.981	614.69
343.209	616.69
343.437	594.69
343.665	604.69
343.893	620.69
344.12	628.69
344.348	641.69
344.576	602.69
344.804	607.69
345.031	610.69
345.259	584.69
345.487	575.69
345.714	523.69
345.942	557.69
346.17	572.69
346.397	584.69
346.625	566.69
346.853	555.69
347.08	536.69
347.308	554.69
347.535	565.69
347.763	603.69
347.99	552.69
348.218	555.69
348.445	557.69
348.673	584.69
348.9	585.69
349.128	634.69
349.355	621.69
349.583	579.69
349.81	559.69
350.037	522.69
350.265	539.69
350.492	558.69
350.72	573.69
350.947	565.69
351.174	590.69
351.402	549.69
351.629	539.69
351.856	525.69
352.083	518.69
352.311	533.69
352.538	564.69
352.765	566.69
352.992	587.69
353.22	566.69
353.447	536.69
353.674	585.69
353.901	578.69
354.128	557.69
354.355	563.69
354.583	592.69
354.81	600.69
355.037	569.69
355.264	578.69
355.491	566.69
355.718	561.69
355.945	558.69
356.172	565.69
356.399	535.69
356.626	555.69
356.853	579.69
357.08	637.69
357.307	675.69
357.534	673.69
357.761	570.69
357.988	555.69
358.215	545.69
358.441	549.69
358.668	530.69
358.895	573.69
359.122	595.69
359.349	649.69
359.576	599.69
359.802	555.69
360.029	541.69
360.256	539.69
360.483	574.69
360.709	583.69
360.936	597.69
361.163	633.69
361.39	690.69
361.616	714.69
361.843	702.69
362.07	641.69
362.296	604.69
362.523	558.69
362.749	561.69
362.976	595.69
363.203	608.69
363.429	547.69
363.656	566.69
363.882	611.69
364.109	667.69
364.335	669.69
364.562	626.69
364.788	585.69
365.015	563.69
365.241	574.69
365.468	594.69
365.694	598.69
365.92	622.69
366.147	591.69
366.373	567.69
366.599	536.69
366.826	555.69
367.052	566.69
367.278	569.69
367.505	585.69
367.731	606.69
367.957	601.69
368.184	627.69
368.41	657.69
368.636	673.69
368.862	687.69
369.089	641.69
369.315	655.69
369.541	630.69
369.767	610.69
369.993	579.69
370.219	596.69
370.445	603.69
370.672	677.69
370.898	653.69
371.124	657.69
371.35	661.69
371.576	640.69
371.802	679.69
372.028	639.69
372.254	605.69
372.48	601.69
372.706	579.69
372.932	619.69
373.158	609.69
373.384	620.69
373.61	634.69
373.835	653.69
374.061	629.69
374.287	637.69
374.513	601.69
374.739	626.69
374.965	647.69
375.191	641.69
375.416	658.69
375.642	673.69
375.868	695.69
376.094	693.69
376.319	653.69
376.545	639.69
376.771	684.69
376.997	688.69
377.222	684.69
377.448	671.69
377.674	659.69
377.899	679.69
378.125	713.69
378.35	693.69
378.576	645.69
378.802	648.69
379.027	637.69
379.253	653.69
379.478	664.69
379.704	635.69
379.929	646.69
380.155	645.69
380.38	664.69
380.606	674.69
380.831	670.69
381.057	706.69
381.282	707.69
381.507	679.69
381.733	744.69
381.958	738.69
382.184	685.69
382.409	693.69
382.634	672.69
382.86	683.69
383.085	685.69
383.31	729.69
383.535	801.69
383.761	800.69
383.986	767.69
384.211	701.69
384.436	782.69
384.662	750.69
384.887	787.69
385.112	717.69
385.337	739.69
385.562	772.69
385.787	725.69
386.013	758.69
386.238	729.69
386.463	740.69
386.688	819.69
386.913	833.69
387.138	830.69
387.363	769.69
387.588	761.69
387.813	755.69
388.038	800.69
388.263	803.69
388.488	788.69
388.713	725.69
388.938	732.69
389.163	738.69
389.387	745.69
389.612	763.69
389.837	742.69
390.062	782.69
390.287	755.69
390.512	721.69
390.736	755.69
390.961	727.69
391.186	720.69
391.411	750.69
391.636	742.69
391.86	758.69
392.085	740.69
392.31	754.69
392.534	746.69
392.759	783.69
392.984	778.69
393.208	787.69
393.433	797.69
393.658	830.69
393.882	800.69
394.107	789.69
394.331	777.69
394.556	771.69
394.78	796.69
395.005	835.69
395.229	821.69
395.454	862.69
395.678	840.69
395.903	831.69
396.127	799.69
396.352	829.69
396.576	837.69
396.801	852.69
397.025	871.69
397.249	843.69
397.474	802.69
397.698	814.69
397.922	856.69
398.147	882.69
398.371	930.69
398.595	889.69
398.82	877.69
399.044	887.69
399.268	923.69
399.492	939.69
399.717	948.69
399.941	1015.69
400.165	994.69
400.389	964.69
400.613	980.69
400.837	1086.69
401.062	1195.69
401.286	1015.69
401.51	981.69
401.734	996.69
401.958	936.69
402.182	942.69
402.406	879.69
402.63	862.69
402.854	901.69
403.078	893.69
403.302	912.69
403.526	922.69
403.75	926.69
403.974	926.69
404.198	938.69
404.422	997.69
404.645	1065.69
404.869	985.69
405.093	919.69
405.317	900.69
405.541	910.69
405.765	928.69
405.988	928.69
406.212	943.69
406.436	954.69
406.66	1014.69
406.883	1035.69
407.107	1149.69
407.331	1221.69
407.555	1299.69
407.778	1130.69
408.002	972.69
408.226	973.69
408.449	961.69
408.673	943.69
408.896	928.69
409.12	926.69
409.344	947.69
409.567	925.69
409.791	940.69
410.014	979.69
410.238	1037.69
410.461	1039.69
410.685	975.69
410.908	955.69
411.132	982.69
411.355	952.69
411.578	946.69
411.802	943.69
412.025	945.69
412.249	931.69
412.472	949.69
412.695	950.69
412.919	914.69
413.142	901.69
413.365	921.69
413.589	985.69
413.812	1017.69
414.035	1006.69
414.258	929.69
414.482	914.69
414.705	920.69
414.928	903.69
415.151	928.69
415.374	918.69
415.597	934.69
415.821	947.69
416.044	960.69
416.267	960.69
416.49	934.69
416.713	930.69
416.936	954.69
417.159	1008.69
417.382	961.69
417.605	942.69
417.828	949.69
418.051	941.69
418.274	959.69
418.497	934.69
418.72	915.69
418.943	948.69
419.166	962.69
419.389	956.69
419.611	961.69
419.834	935.69
420.057	978.69
420.28	960.69
420.503	943.69
420.726	982.69
420.948	967.69
421.171	922.69
421.394	973.69
421.617	987.69
421.839	998.69
422.062	974.69
422.285	934.69
422.507	911.69
422.73	905.69
422.953	889.69
423.175	867.69
423.398	924.69
423.621	959.69
423.843	955.69
424.066	991.69
424.288	1064.69
424.511	1063.69
424.733	1036.69
424.956	915.69
425.178	941.69
425.401	931.69
425.623	949.69
425.846	949.69
426.068	1001.69
426.291	975.69
426.513	947.69
426.735	967.69
426.958	1037.69
427.18	1091.69
427.402	1004.69
427.625	1031.69
427.847	1006.69
428.069	938.69
428.292	938.69
428.514	908.69
428.736	904.69
428.958	934.69
429.181	919.69
429.403	1087.69
429.625	1225.69
429.847	1049.69
430.069	947.69
430.292	1060.69
430.514	1014.69
430.736	981.69
430.958	995.69
431.18	939.69
431.402	874.69
431.624	828.69
431.846	750.69
432.068	725.69
432.29	748.69
432.512	829.69
432.734	889.69
432.956	963.69
433.178	974.69
433.4	975.69
433.622	968.69
433.844	899.69
434.066	868.69
434.287	797.69
434.509	785.69
434.731	842.69
434.953	911.69
435.175	950.69
435.397	928.69
435.618	897.69
435.84	853.69
436.062	830.69
436.284	901.69
436.505	949.69
436.727	994.69
436.949	912.69
437.17	901.69
437.392	877.69
437.614	874.69
437.835	806.69
438.057	803.69
438.278	858.69
438.5	870.69
438.721	903.69
438.943	914.69
439.165	915.69
439.386	942.69
439.608	963.69
439.829	967.69
440.05	947.69
440.272	968.69
440.493	947.69
440.715	968.69
440.936	1040.69
441.158	1054.69
441.379	1022.69
441.6	1079.69
441.822	1042.69
442.043	988.69
442.264	985.69
442.486	982.69
442.707	962.69
442.928	964.69
443.149	1005.69
443.371	1012.69
443.592	1016.69
443.813	1047.69
444.034	1056.69
444.255	1033.69
444.476	1019.69
444.698	1030.69
444.919	1038.69
445.14	1126.69
445.361	1148.69
445.582	1073.69
445.803	1052.69
446.024	1029.69
446.245	1094.69
446.466	1087.69
446.687	1031.69
446.908	1051.69
447.129	1045.69
447.35	1028.69
447.571	997.69
447.792	954.69
448.013	943.69
448.234	975.69
448.455	997.69
448.675	1009.69
448.896	915.69
449.117	926.69
449.338	894.69
449.559	949.69
449.779	961.69
450	1021.69
450.221	1050.69
450.442	1032.69
450.662	957.69
450.883	906.69
451.104	894.69
451.324	889.69
451.545	906.69
451.766	866.69
451.986	838.69
452.207	821.69
452.428	795.69
452.648	805.69
452.869	800.69
453.089	798.69
453.31	782.69
453.53	771.69
453.751	727.69
453.971	707.69
454.192	719.69
454.412	771.69
454.633	769.69
454.853	782.69
455.073	778.69
455.294	773.69
455.514	776.69
455.734	783.69
455.955	786.69
456.175	744.69
456.395	733.69
456.616	743.69
456.836	727.69
457.056	739.69
457.276	706.69
457.497	719.69
457.717	694.69
457.937	695.69
458.157	730.69
458.377	701.69
458.598	679.69
458.818	686.69
459.038	718.69
459.258	689.69
459.478	711.69
459.698	697.69
459.918	755.69
460.138	807.69
460.358	838.69
460.578	829.69
460.798	831.69
461.018	903.69
461.238	867.69
461.458	854.69
461.678	830.69
461.898	825.69
462.118	796.69
462.338	826.69
462.558	826.69
462.777	829.69
462.997	870.69
463.217	911.69
463.437	878.69
463.657	837.69
463.876	855.69
464.096	814.69
464.316	869.69
464.536	863.69
464.755	897.69
464.975	877.69
465.195	846.69
465.414	875.69
465.634	874.69
465.854	886.69
466.073	976.69
466.293	937.69
466.512	877.69
466.732	878.69
466.951	904.69
467.171	899.69
467.391	863.69
467.61	905.69
467.829	917.69
468.049	1001.69
468.268	1068.69
468.488	978.69
468.707	921.69
468.927	922.69
469.146	910.69
469.365	927.69
469.585	922.69
469.804	930.69
470.023	971.69
470.243	974.69
470.462	960.69
470.681	917.69
470.901	899.69
471.12	955.69
471.339	968.69
471.558	931.69
471.777	895.69
471.997	912.69
472.216	857.69
472.435	781.69
472.654	778.69
472.873	786.69
473.092	827.69
473.311	840.69
473.53	822.69
473.749	841.69
473.968	804.69
474.187	853.69
474.406	860.69
474.625	890.69
474.844	864.69
475.063	854.69
475.282	869.69
475.501	859.69
475.72	838.69
475.939	912.69
476.158	883.69
476.377	873.69
476.596	830.69
476.814	837.69
477.033	796.69
477.252	862.69
477.471	926.69
477.69	896.69
477.908	949.69
478.127	976.69
478.346	1032.69
478.564	986.69
478.783	998.69
479.002	1016.69
479.22	1010.69
479.439	1022.69
479.658	1059.69
479.876	1031.69
480.095	919.69
480.313	903.69
480.532	906.69
480.751	858.69
480.969	831.69
481.188	788.69
481.406	799.69
481.624	767.69
481.843	824.69
482.061	833.69
482.28	908.69
482.498	882.69
482.717	891.69
482.935	915.69
483.153	993.69
483.372	1026.69
483.59	1009.69
483.808	1012.69
484.027	933.69
484.245	1007.69
484.463	1244.69
484.681	1307.69
484.9	1053.69
485.118	963.69
485.336	951.69
485.554	916.69
485.772	894.69
485.99	875.69
486.209	909.69
486.427	908.69
486.645	960.69
486.863	993.69
487.081	1045.69
487.299	1021.69
487.517	1004.69
487.735	1122.69
487.953	1205.69
488.171	1200.69
488.389	1143.69
488.607	1110.69
488.825	1139.69
489.043	1069.69
489.261	985.69
489.479	1053.69
489.696	1073.69
489.914	1055.69
490.132	1056.69
490.35	1090.69
490.568	1163.69
490.786	1181.69
491.003	1207.69
491.221	1264.69
491.439	1303.69
491.657	1329.69
491.874	1400.69
492.092	1446.69
492.31	1539.69
492.527	1462.69
492.745	1369.69
492.963	1323.69
493.18	1338.69
493.398	1362.69
493.615	1319.69
493.833	1315.69
494.05	1253.69
494.268	1267.69
494.485	1286.69
494.703	1268.69
494.92	1208.69
495.138	1211.69
495.355	1242.69
495.573	1235.69
495.79	1320.69
496.008	1307.69
496.225	1258.69
496.442	1236.69
496.66	1244.69
496.877	1251.69
497.094	1228.69
497.312	1257.69
497.529	1247.69
497.746	1219.69
497.963	1303.69
498.181	1303.69
498.398	1263.69
498.615	1231.69
498.832	1145.69
499.049	1207.69
499.267	1189.69
499.484	1252.69
499.701	1366.69
499.918	1374.69
500.135	1472.69
