Data from WStandard_LampEnergy5.5LIBS07252019.E.O._I.C._HRD10591_16-08-10-920.txt Node
Date: Thu Jul 25 16:08:10 EDT 2019
User: cochatt
Spectrometer: HR+D1059
Trigger mode: 1
Integration Time (sec): 1.000000E-1
Scans to average: 1
Electric dark correction enabled: true
Nonlinearity correction enabled: false
Boxcar width: 0
XAxis mode: Wavelengths
Number of Pixels in Spectrum: 2048
>>>>>Begin Spectral Data<<<<<
223.165	-11.94
223.4	-11.94
223.635	-11.94
223.869	-26.94
224.104	-13.94
224.338	-17.94
224.573	-0.94
224.808	-14.94
225.042	-22.94
225.277	-6.94
225.511	-2.94
225.746	-5.94
225.98	9.06
226.215	19.06
226.449	26.06
226.683	27.06
226.918	16.06
227.152	28.06
227.387	20.06
227.621	42.06
227.856	44.06
228.09	52.06
228.324	52.06
228.559	39.06
228.793	154.06
229.027	344.06
229.262	389.06
229.496	396.06
229.73	389.06
229.964	443.06
230.199	466.06
230.433	478.06
230.667	500.06
230.901	554.06
231.136	479.06
231.37	465.06
231.604	454.06
231.838	467.06
232.072	443.06
232.306	449.06
232.541	465.06
232.775	537.06
233.009	587.06
233.243	600.06
233.477	533.06
233.711	552.06
233.945	582.06
234.179	561.06
234.413	578.06
234.647	641.06
234.881	599.06
235.115	547.06
235.349	541.06
235.583	543.06
235.817	554.06
236.051	539.06
236.285	546.06
236.519	577.06
236.753	655.06
236.987	691.06
237.221	657.06
237.455	759.06
237.689	730.06
237.922	676.06
238.156	671.06
238.39	667.06
238.624	692.06
238.858	739.06
239.091	789.06
239.325	795.06
239.559	934.06
239.793	949.06
240.027	1058.06
240.26	1037.06
240.494	797.06
240.728	715.06
240.961	725.06
241.195	749.06
241.429	818.06
241.662	838.06
241.896	756.06
242.13	798.06
242.363	855.06
242.597	930.06
242.83	904.06
243.064	915.06
243.298	949.06
243.531	943.06
243.765	953.06
243.998	929.06
244.232	831.06
244.465	796.06
244.699	797.06
244.932	924.06
245.166	1060.06
245.399	997.06
245.633	904.06
245.866	879.06
246.099	941.06
246.333	961.06
246.566	953.06
246.8	1056.06
247.033	1195.06
247.266	1091.06
247.5	1061.06
247.733	1021.06
247.966	1115.06
248.2	1277.06
248.433	1203.06
248.666	1224.06
248.899	1325.06
249.133	1539.06
249.366	1769.06
249.599	1434.06
249.832	1251.06
250.066	1298.06
250.299	1304.06
250.532	1223.06
250.765	1088.06
250.998	1152.06
251.231	1197.06
251.465	1259.06
251.698	1197.06
251.931	1207.06
252.164	1189.06
252.397	1285.06
252.63	1267.06
252.863	1122.06
253.096	1113.06
253.329	1157.06
253.562	1193.06
253.795	1310.06
254.028	1272.06
254.261	1187.06
254.494	1177.06
254.727	1114.06
254.96	1134.06
255.193	1292.06
255.426	1401.06
255.659	1647.06
255.892	1699.06
256.124	1388.06
256.357	1326.06
256.59	1455.06
256.823	1406.06
257.056	1412.06
257.289	1701.06
257.521	1931.06
257.754	1713.06
257.987	1608.06
258.22	1783.06
258.452	1711.06
258.685	1417.06
258.918	1407.06
259.151	1420.06
259.383	1333.06
259.616	1180.06
259.849	1237.06
260.081	1388.06
260.314	1559.06
260.547	1724.06
260.779	1718.06
261.012	1631.06
261.244	1445.06
261.477	1358.06
261.71	1449.06
261.942	1417.06
262.175	1366.06
262.407	1485.06
262.64	1367.06
262.872	1306.06
263.105	1268.06
263.337	1287.06
263.57	1267.06
263.802	1319.06
264.035	1256.06
264.267	1177.06
264.499	1127.06
264.732	1233.06
264.964	1279.06
265.197	1355.06
265.429	1431.06
265.661	1595.06
265.894	1797.06
266.126	1845.06
266.358	1626.06
266.591	1660.06
266.823	1819.06
267.055	1601.06
267.287	1609.06
267.52	1604.06
267.752	1579.06
267.984	1577.06
268.216	1650.06
268.448	1684.06
268.681	1653.06
268.913	1555.06
269.145	1457.06
269.377	1418.06
269.609	1533.06
269.841	1737.06
270.073	2057.06
270.306	2235.06
270.538	2459.06
270.77	2070.06
271.002	1761.06
271.234	1703.06
271.466	1669.06
271.698	1845.06
271.93	2201.06
272.162	2240.06
272.394	1954.06
272.626	1994.06
272.858	1688.06
273.09	1502.06
273.322	1493.06
273.553	1405.06
273.785	1411.06
274.017	1445.06
274.249	1621.06
274.481	1601.06
274.713	1447.06
274.945	1414.06
275.176	1424.06
275.408	1403.06
275.64	1370.06
275.872	1381.06
276.104	1469.06
276.335	1665.06
276.567	1897.06
276.799	1936.06
277.031	1738.06
277.262	1624.06
277.494	1660.06
277.726	1885.06
277.957	1858.06
278.189	1684.06
278.421	1559.06
278.652	1508.06
278.884	1488.06
279.115	1493.06
279.347	1528.06
279.579	1475.06
279.81	1472.06
280.042	1649.06
280.273	1773.06
280.505	1775.06
280.736	1877.06
280.968	1693.06
281.199	1575.06
281.431	1423.06
281.662	1435.06
281.894	1465.06
282.125	1516.06
282.356	1550.06
282.588	1569.06
282.819	1521.06
283.051	1642.06
283.282	1835.06
283.513	1794.06
283.745	1538.06
283.976	1444.06
284.207	1460.06
284.439	1485.06
284.67	1532.06
284.901	1547.06
285.132	1587.06
285.364	1527.06
285.595	1577.06
285.826	1507.06
286.057	1499.06
286.288	1528.06
286.52	1561.06
286.751	1722.06
286.982	1775.06
287.213	1642.06
287.444	1493.06
287.675	1474.06
287.906	1573.06
288.138	1673.06
288.369	1615.06
288.6	1531.06
288.831	1470.06
289.062	1484.06
289.293	1522.06
289.524	1543.06
289.755	1568.06
289.986	1604.06
290.217	1464.06
290.448	1486.06
290.679	1547.06
290.91	1559.06
291.141	1579.06
291.371	1615.06
291.602	1598.06
291.833	1606.06
292.064	1634.06
292.295	1635.06
292.526	1658.06
292.757	1733.06
292.987	1663.06
293.218	1554.06
293.449	1664.06
293.68	1881.06
293.91	2035.06
294.141	1885.06
294.372	1791.06
294.603	1867.06
294.833	1961.06
295.064	1853.06
295.295	1665.06
295.525	1616.06
295.756	1500.06
295.987	1437.06
296.217	1457.06
296.448	1517.06
296.679	1503.06
296.909	1542.06
297.14	1509.06
297.37	1523.06
297.601	1649.06
297.831	1749.06
298.062	1742.06
298.292	1595.06
298.523	1520.06
298.753	1556.06
298.984	1579.06
299.214	1580.06
299.445	1580.06
299.675	1648.06
299.905	1630.06
300.136	1595.06
300.366	1548.06
300.597	1478.06
300.827	1473.06
301.057	1548.06
301.288	1652.06
301.518	1607.06
301.748	1687.06
301.979	1742.06
302.209	1749.06
302.439	1937.06
302.669	1991.06
302.9	1851.06
303.13	1677.06
303.36	1661.06
303.59	1701.06
303.82	1675.06
304.051	1671.06
304.281	1660.06
304.511	1669.06
304.741	1723.06
304.971	1946.06
305.201	2112.06
305.431	1975.06
305.661	1585.06
305.891	1471.06
306.121	1428.06
306.352	1487.06
306.582	1601.06
306.812	1713.06
307.042	1861.06
307.272	1802.06
307.502	1885.06
307.731	2018.06
307.961	2165.06
308.191	2010.06
308.421	1714.06
308.651	1630.06
308.881	1575.06
309.111	1610.06
309.341	1584.06
309.571	1558.06
309.8	1597.06
310.03	1582.06
310.26	1522.06
310.49	1583.06
310.72	1605.06
310.949	1692.06
311.179	1698.06
311.409	1679.06
311.639	1624.06
311.868	1587.06
312.098	1616.06
312.328	1614.06
312.557	1631.06
312.787	1630.06
313.017	1686.06
313.246	1645.06
313.476	1655.06
313.706	1713.06
313.935	1658.06
314.165	1709.06
314.394	1719.06
314.624	1866.06
314.853	1962.06
315.083	1993.06
315.312	2092.06
315.542	1942.06
315.771	1733.06
316.001	1661.06
316.23	1807.06
316.46	1832.06
316.689	1755.06
316.919	1689.06
317.148	1619.06
317.377	1650.06
317.607	1749.06
317.836	2018.06
318.065	2069.06
318.295	1958.06
318.524	1858.06
318.753	1800.06
318.983	1770.06
319.212	1760.06
319.441	1730.06
319.67	1744.06
319.9	1724.06
320.129	1826.06
320.358	1938.06
320.587	1891.06
320.816	1894.06
321.046	1897.06
321.275	1784.06
321.504	1776.06
321.733	1965.06
321.962	1909.06
322.191	1772.06
322.42	1729.06
322.649	1722.06
322.878	1724.06
323.108	1732.06
323.337	1820.06
323.566	1814.06
323.795	1797.06
324.024	1789.06
324.253	1754.06
324.482	1794.06
324.71	1751.06
324.939	1676.06
325.168	1653.06
325.397	1707.06
325.626	1828.06
325.855	1809.06
326.084	1709.06
326.313	1766.06
326.542	1742.06
326.77	1806.06
326.999	1832.06
327.228	1740.06
327.457	1671.06
327.686	1663.06
327.914	1670.06
328.143	1743.06
328.372	1693.06
328.6	1760.06
328.829	1762.06
329.058	1721.06
329.287	1684.06
329.515	1700.06
329.744	1785.06
329.972	1864.06
330.201	1909.06
330.43	1937.06
330.658	1867.06
330.887	1853.06
331.115	1800.06
331.344	1870.06
331.572	1851.06
331.801	1803.06
332.03	1826.06
332.258	1837.06
332.486	1885.06
332.715	1866.06
332.943	1887.06
333.172	1834.06
333.4	1841.06
333.629	1883.06
333.857	2010.06
334.085	2205.06
334.314	2488.06
334.542	2737.06
334.771	2521.06
334.999	2210.06
335.227	2062.06
335.455	1971.06
335.684	1951.06
335.912	1980.06
336.14	2075.06
336.369	2034.06
336.597	1930.06
336.825	1873.06
337.053	1907.06
337.281	2019.06
337.51	2095.06
337.738	2221.06
337.966	2142.06
338.194	1938.06
338.422	1845.06
338.65	1827.06
338.878	1825.06
339.106	1782.06
339.334	1765.06
339.562	1715.06
339.79	1764.06
340.018	1865.06
340.246	1951.06
340.474	1937.06
340.702	1892.06
340.93	1874.06
341.158	1841.06
341.386	1851.06
341.614	1861.06
341.842	1817.06
342.07	1806.06
342.298	1814.06
342.526	1859.06
342.754	1775.06
342.981	1789.06
343.209	1801.06
343.437	1761.06
343.665	1809.06
343.893	1830.06
344.12	1977.06
344.348	1949.06
344.576	1848.06
344.804	1785.06
345.031	1813.06
345.259	1831.06
345.487	1789.06
345.714	1703.06
345.942	1671.06
346.17	1697.06
346.397	1719.06
346.625	1731.06
346.853	1671.06
347.08	1626.06
347.308	1669.06
347.535	1681.06
347.763	1746.06
347.99	1720.06
348.218	1652.06
348.445	1670.06
348.673	1648.06
348.9	1743.06
349.128	1800.06
349.355	1830.06
349.583	1809.06
349.81	1713.06
350.037	1586.06
350.265	1548.06
350.492	1615.06
350.72	1633.06
350.947	1677.06
351.174	1794.06
351.402	1651.06
351.629	1610.06
351.856	1573.06
352.083	1540.06
352.311	1575.06
352.538	1632.06
352.765	1691.06
352.992	1745.06
353.22	1701.06
353.447	1625.06
353.674	1652.06
353.901	1665.06
354.128	1638.06
354.355	1616.06
354.583	1678.06
354.81	1699.06
355.037	1751.06
355.264	1745.06
355.491	1687.06
355.718	1680.06
355.945	1656.06
356.172	1637.06
356.399	1632.06
356.626	1608.06
356.853	1673.06
357.08	1779.06
357.307	1935.06
357.534	2017.06
357.761	1781.06
357.988	1615.06
358.215	1585.06
358.441	1581.06
358.668	1591.06
358.895	1627.06
359.122	1721.06
359.349	1933.06
359.576	1885.06
359.802	1701.06
360.029	1644.06
360.256	1575.06
360.483	1603.06
360.709	1624.06
360.936	1761.06
361.163	1765.06
361.39	1924.06
361.616	2103.06
361.843	2072.06
362.07	1979.06
362.296	1675.06
362.523	1624.06
362.749	1657.06
362.976	1663.06
363.203	1661.06
363.429	1665.06
363.656	1607.06
363.882	1670.06
364.109	1825.06
364.335	2002.06
364.562	1859.06
364.788	1781.06
365.015	1692.06
365.241	1622.06
365.468	1641.06
365.694	1742.06
365.92	1767.06
366.147	1710.06
366.373	1657.06
366.599	1573.06
366.826	1595.06
367.052	1612.06
367.278	1599.06
367.505	1681.06
367.731	1693.06
367.957	1737.06
368.184	1726.06
368.41	1843.06
368.636	1885.06
368.862	1879.06
369.089	1852.06
369.315	1823.06
369.541	1745.06
369.767	1707.06
369.993	1641.06
370.219	1622.06
370.445	1677.06
370.672	1759.06
370.898	1890.06
371.124	1849.06
371.35	1755.06
371.576	1815.06
371.802	1890.06
372.028	1797.06
372.254	1740.06
372.48	1671.06
372.706	1659.06
372.932	1683.06
373.158	1687.06
373.384	1700.06
373.61	1753.06
373.835	1874.06
374.061	1764.06
374.287	1772.06
374.513	1742.06
374.739	1727.06
374.965	1772.06
375.191	1796.06
375.416	1798.06
375.642	1792.06
375.868	1874.06
376.094	1974.06
376.319	1857.06
376.545	1795.06
376.771	1777.06
376.997	1819.06
377.222	1826.06
377.448	1797.06
377.674	1822.06
377.899	1800.06
378.125	1903.06
378.35	1919.06
378.576	1798.06
378.802	1731.06
379.027	1713.06
379.253	1725.06
379.478	1720.06
379.704	1683.06
379.929	1731.06
380.155	1750.06
380.38	1762.06
380.606	1771.06
380.831	1745.06
381.057	1816.06
381.282	1845.06
381.507	1849.06
381.733	1942.06
381.958	2009.06
382.184	1892.06
382.409	1801.06
382.634	1830.06
382.86	1810.06
383.085	1813.06
383.31	1890.06
383.535	2007.06
383.761	2147.06
383.986	2017.06
384.211	1965.06
384.436	1946.06
384.662	2057.06
384.887	2109.06
385.112	2031.06
385.337	2020.06
385.562	1952.06
385.787	2005.06
386.013	2044.06
386.238	2070.06
386.463	2010.06
386.688	2150.06
386.913	2276.06
387.138	2241.06
387.363	2073.06
387.588	2067.06
387.813	2041.06
388.038	2052.06
388.263	2133.06
388.488	2088.06
388.713	1950.06
388.938	1889.06
389.163	1924.06
389.387	1990.06
389.612	1982.06
389.837	1973.06
390.062	2034.06
390.287	2008.06
390.512	1982.06
390.736	1938.06
390.961	1907.06
391.186	1874.06
391.411	1912.06
391.636	1957.06
391.86	2019.06
392.085	2009.06
392.31	1965.06
392.534	1980.06
392.759	1975.06
392.984	1998.06
393.208	2016.06
393.433	2029.06
393.658	2151.06
393.882	2181.06
394.107	2047.06
394.331	2009.06
394.556	1937.06
394.78	2021.06
395.005	2081.06
395.229	2140.06
395.454	2255.06
395.678	2284.06
395.903	2224.06
396.127	2113.06
396.352	2066.06
396.576	2177.06
396.801	2195.06
397.025	2150.06
397.249	2155.06
397.474	2107.06
397.698	2125.06
397.922	2216.06
398.147	2293.06
398.371	2393.06
398.595	2358.06
398.82	2300.06
399.044	2325.06
399.268	2422.06
399.492	2591.06
399.717	2621.06
399.941	2740.06
400.165	2653.06
400.389	2548.06
400.613	2571.06
400.837	2786.06
401.062	3222.06
401.286	2806.06
401.51	2465.06
401.734	2597.06
401.958	2561.06
402.182	2385.06
402.406	2256.06
402.63	2236.06
402.854	2236.06
403.078	2309.06
403.302	2334.06
403.526	2369.06
403.75	2386.06
403.974	2367.06
404.198	2363.06
404.422	2455.06
404.645	2547.06
404.869	2536.06
405.093	2349.06
405.317	2299.06
405.541	2403.06
405.765	2387.06
405.988	2390.06
406.212	2411.06
406.436	2483.06
406.66	2529.06
406.883	2569.06
407.107	2826.06
407.331	3083.06
407.555	3317.06
407.778	3098.06
408.002	2583.06
408.226	2489.06
408.449	2538.06
408.673	2403.06
408.896	2491.06
409.12	2478.06
409.344	2437.06
409.567	2424.06
409.791	2355.06
410.014	2446.06
410.238	2530.06
410.461	2763.06
410.685	2472.06
410.908	2300.06
411.132	2388.06
411.355	2368.06
411.578	2346.06
411.802	2317.06
412.025	2398.06
412.249	2341.06
412.472	2244.06
412.695	2229.06
412.919	2267.06
413.142	2263.06
413.365	2271.06
413.589	2357.06
413.812	2399.06
414.035	2516.06
414.258	2330.06
414.482	2270.06
414.705	2276.06
414.928	2276.06
415.151	2277.06
415.374	2285.06
415.597	2316.06
415.821	2354.06
416.044	2379.06
416.267	2401.06
416.49	2233.06
416.713	2171.06
416.936	2230.06
417.159	2333.06
417.382	2335.06
417.605	2248.06
417.828	2290.06
418.051	2277.06
418.274	2298.06
418.497	2149.06
418.72	2240.06
418.943	2174.06
419.166	2337.06
419.389	2454.06
419.611	2281.06
419.834	2260.06
420.057	2256.06
420.28	2154.06
420.503	2183.06
420.726	2211.06
420.948	2254.06
421.171	2145.06
421.394	2198.06
421.617	2235.06
421.839	2242.06
422.062	2184.06
422.285	2157.06
422.507	2164.06
422.73	2071.06
422.953	2139.06
423.175	2092.06
423.398	2151.06
423.621	2143.06
423.843	2162.06
424.066	2213.06
424.288	2323.06
424.511	2346.06
424.733	2292.06
424.956	2114.06
425.178	2095.06
425.401	2084.06
425.623	2103.06
425.846	2115.06
426.068	2238.06
426.291	2253.06
426.513	2199.06
426.735	2214.06
426.958	2330.06
427.18	2499.06
427.402	2309.06
427.625	2401.06
427.847	2325.06
428.069	2217.06
428.292	2133.06
428.514	2052.06
428.736	2091.06
428.958	2094.06
429.181	2149.06
429.403	2390.06
429.625	2963.06
429.847	2606.06
430.069	2166.06
430.292	2384.06
430.514	2447.06
430.736	2251.06
430.958	2422.06
431.18	2307.06
431.402	2150.06
431.624	2097.06
431.846	2108.06
432.068	2058.06
432.29	2121.06
432.512	2117.06
432.734	2165.06
432.956	2170.06
433.178	2298.06
433.4	2259.06
433.622	2287.06
433.844	2143.06
434.066	2078.06
434.287	2062.06
434.509	2154.06
434.731	2264.06
434.953	2425.06
435.175	2401.06
435.397	2220.06
435.618	2245.06
435.84	2266.06
436.062	2225.06
436.284	2181.06
436.505	2260.06
436.727	2259.06
436.949	2217.06
437.17	2153.06
437.392	2082.06
437.614	2135.06
437.835	2047.06
438.057	2228.06
438.278	2353.06
438.5	2150.06
438.721	2115.06
438.943	2129.06
439.165	2095.06
439.386	2056.06
439.608	2121.06
439.829	2059.06
440.05	2117.06
440.272	2062.06
440.493	2038.06
440.715	2093.06
440.936	2225.06
441.158	2486.06
441.379	2366.06
441.6	2325.06
441.822	2318.06
442.043	2251.06
442.264	2223.06
442.486	2109.06
442.707	2080.06
442.928	2102.06
443.149	2184.06
443.371	2317.06
443.592	2392.06
443.813	2325.06
444.034	2286.06
444.255	2313.06
444.476	2339.06
444.698	2409.06
444.919	2350.06
445.14	2476.06
445.361	2406.06
445.582	2586.06
445.803	2404.06
446.024	2339.06
446.245	2392.06
446.466	2309.06
446.687	2227.06
446.908	2201.06
447.129	2126.06
447.35	2173.06
447.571	2171.06
447.792	2054.06
448.013	2033.06
448.234	2091.06
448.455	2213.06
448.675	2214.06
448.896	2025.06
449.117	1981.06
449.338	2076.06
449.559	2123.06
449.779	2256.06
450	2493.06
450.221	2623.06
450.442	2606.06
450.662	2278.06
450.883	2017.06
451.104	1975.06
451.324	2010.06
451.545	2088.06
451.766	2089.06
451.986	1971.06
452.207	1999.06
452.428	1924.06
452.648	1905.06
452.869	1950.06
453.089	2022.06
453.31	2063.06
453.53	2121.06
453.751	2061.06
453.971	1923.06
454.192	1963.06
454.412	2082.06
454.633	1999.06
454.853	1953.06
455.073	1847.06
455.294	1814.06
455.514	1855.06
455.734	1851.06
455.955	1892.06
456.175	1910.06
456.395	1899.06
456.616	1950.06
456.836	1987.06
457.056	1948.06
457.276	1924.06
457.497	1892.06
457.717	1820.06
457.937	1831.06
458.157	1913.06
458.377	1901.06
458.598	1864.06
458.818	1862.06
459.038	2027.06
459.258	2135.06
459.478	2114.06
459.698	2103.06
459.918	2094.06
460.138	2245.06
460.358	2300.06
460.578	2261.06
460.798	2336.06
461.018	2469.06
461.238	2389.06
461.458	2274.06
461.678	2230.06
461.898	2199.06
462.118	2126.06
462.338	2220.06
462.558	2294.06
462.777	2270.06
462.997	2369.06
463.217	2516.06
463.437	2495.06
463.657	2349.06
463.876	2249.06
464.096	2269.06
464.316	2302.06
464.536	2320.06
464.755	2373.06
464.975	2404.06
465.195	2297.06
465.414	2419.06
465.634	2393.06
465.854	2253.06
466.073	2388.06
466.293	2358.06
466.512	2076.06
466.732	2070.06
466.951	2175.06
467.171	2165.06
467.391	2021.06
467.61	2033.06
467.829	2028.06
468.049	2176.06
468.268	2445.06
468.488	2283.06
468.707	2127.06
468.927	2101.06
469.146	2055.06
469.365	2040.06
469.585	2053.06
469.804	2003.06
470.023	2073.06
470.243	2099.06
470.462	2085.06
470.681	1991.06
470.901	2069.06
471.12	2093.06
471.339	2039.06
471.558	1990.06
471.777	1914.06
471.997	2033.06
472.216	2012.06
472.435	1969.06
472.654	2005.06
472.873	2109.06
473.092	2178.06
473.311	2110.06
473.53	1953.06
473.749	1983.06
473.968	2019.06
474.187	2128.06
474.406	2267.06
474.625	2112.06
474.844	2041.06
475.063	2088.06
475.282	2139.06
475.501	2090.06
475.72	2091.06
475.939	2224.06
476.158	2165.06
476.377	2109.06
476.596	2089.06
476.814	2154.06
477.033	2182.06
477.252	2206.06
477.471	2302.06
477.69	2233.06
477.908	2175.06
478.127	2269.06
478.346	2505.06
478.564	2549.06
478.783	2471.06
479.002	2532.06
479.22	2485.06
479.439	2584.06
479.658	2887.06
479.876	2869.06
480.095	2471.06
480.313	2408.06
480.532	2255.06
480.751	2306.06
480.969	2393.06
481.188	2361.06
481.406	2342.06
481.624	2230.06
481.843	2282.06
482.061	2375.06
482.28	2390.06
482.498	2444.06
482.717	2411.06
482.935	2313.06
483.153	2282.06
483.372	2290.06
483.59	2282.06
483.808	2317.06
484.027	2343.06
484.245	2514.06
484.463	2901.06
484.681	3287.06
484.9	2535.06
485.118	2410.06
485.336	2348.06
485.554	2417.06
485.772	2595.06
485.99	2530.06
486.209	2540.06
486.427	2499.06
486.645	2469.06
486.863	2431.06
487.081	2529.06
487.299	2567.06
