Data from WStandard_LampEnergy5.5LIBS07252019.E.O._I.C._HRD10591_16-07-26-920.txt Node
Date: Thu Jul 25 16:07:26 EDT 2019
User: cochatt
Spectrometer: HR+D1059
Trigger mode: 1
Integration Time (sec): 1.000000E-1
Scans to average: 1
Electric dark correction enabled: true
Nonlinearity correction enabled: false
Boxcar width: 0
XAxis mode: Wavelengths
Number of Pixels in Spectrum: 2048
>>>>>Begin Spectral Data<<<<<
223.165	-29.88
223.4	-29.88
223.635	-29.88
223.869	-25.88
224.104	-13.88
224.338	-14.88
224.573	-14.88
224.808	-10.88
225.042	-4.88
225.277	2.12
225.511	18.12
225.746	-1.88
225.98	9.12
226.215	-0.88
226.449	8.12
226.683	14.12
226.918	25.12
227.152	41.12
227.387	37.12
227.621	38.12
227.856	37.12
228.09	58.12
228.324	55.12
228.559	62.12
228.793	155.12
229.027	360.12
229.262	361.12
229.496	381.12
229.73	387.12
229.964	437.12
230.199	475.12
230.433	487.12
230.667	527.12
230.901	557.12
231.136	484.12
231.37	479.12
231.604	473.12
231.838	466.12
232.072	467.12
232.306	446.12
232.541	469.12
232.775	567.12
233.009	606.12
233.243	609.12
233.477	557.12
233.711	548.12
233.945	576.12
234.179	571.12
234.413	590.12
234.647	657.12
234.881	610.12
235.115	557.12
235.349	565.12
235.583	586.12
235.817	572.12
236.051	546.12
236.285	578.12
236.519	599.12
236.753	690.12
236.987	678.12
237.221	689.12
237.455	773.12
237.689	731.12
237.922	703.12
238.156	701.12
238.39	695.12
238.624	742.12
238.858	763.12
239.091	800.12
239.325	801.12
239.559	956.12
239.793	991.12
240.027	1080.12
240.26	1086.12
240.494	791.12
240.728	731.12
240.961	739.12
241.195	754.12
241.429	837.12
241.662	839.12
241.896	795.12
242.13	795.12
242.363	858.12
242.597	954.12
242.83	902.12
243.064	917.12
243.298	963.12
243.531	951.12
243.765	945.12
243.998	961.12
244.232	849.12
244.465	798.12
244.699	795.12
244.932	913.12
245.166	1068.12
245.399	1008.12
245.633	921.12
245.866	931.12
246.099	980.12
246.333	970.12
246.566	994.12
246.8	1087.12
247.033	1220.12
247.266	1073.12
247.5	1073.12
247.733	1072.12
247.966	1161.12
248.2	1281.12
248.433	1223.12
248.666	1241.12
248.899	1365.12
249.133	1589.12
249.366	1819.12
249.599	1467.12
249.832	1288.12
250.066	1323.12
250.299	1341.12
250.532	1255.12
250.765	1102.12
250.998	1171.12
251.231	1220.12
251.465	1285.12
251.698	1211.12
251.931	1212.12
252.164	1252.12
252.397	1311.12
252.63	1303.12
252.863	1134.12
253.096	1105.12
253.329	1166.12
253.562	1214.12
253.795	1327.12
254.028	1314.12
254.261	1209.12
254.494	1184.12
254.727	1119.12
254.96	1168.12
255.193	1267.12
255.426	1448.12
255.659	1651.12
255.892	1724.12
256.124	1405.12
256.357	1352.12
256.59	1459.12
256.823	1497.12
257.056	1461.12
257.289	1769.12
257.521	1960.12
257.754	1774.12
257.987	1665.12
258.22	1825.12
258.452	1803.12
258.685	1445.12
258.918	1424.12
259.151	1407.12
259.383	1370.12
259.616	1167.12
259.849	1263.12
260.081	1388.12
260.314	1602.12
260.547	1710.12
260.779	1761.12
261.012	1682.12
261.244	1460.12
261.477	1372.12
261.71	1462.12
261.942	1439.12
262.175	1388.12
262.407	1527.12
262.64	1435.12
262.872	1300.12
263.105	1268.12
263.337	1341.12
263.57	1335.12
263.802	1318.12
264.035	1270.12
264.267	1190.12
264.499	1154.12
264.732	1258.12
264.964	1324.12
265.197	1367.12
265.429	1471.12
265.661	1601.12
265.894	1747.12
266.126	1863.12
266.358	1651.12
266.591	1707.12
266.823	1829.12
267.055	1649.12
267.287	1661.12
267.52	1619.12
267.752	1582.12
267.984	1616.12
268.216	1671.12
268.448	1727.12
268.681	1701.12
268.913	1559.12
269.145	1464.12
269.377	1425.12
269.609	1543.12
269.841	1801.12
270.073	2110.12
270.306	2317.12
270.538	2497.12
270.77	2123.12
271.002	1756.12
271.234	1700.12
271.466	1615.12
271.698	1877.12
271.93	2313.12
272.162	2281.12
272.394	2072.12
272.626	1974.12
272.858	1729.12
273.09	1476.12
273.322	1503.12
273.553	1406.12
273.785	1411.12
274.017	1486.12
274.249	1589.12
274.481	1606.12
274.713	1452.12
274.945	1452.12
275.176	1467.12
275.408	1428.12
275.64	1441.12
275.872	1396.12
276.104	1518.12
276.335	1662.12
276.567	1901.12
276.799	1945.12
277.031	1736.12
277.262	1637.12
277.494	1673.12
277.726	1895.12
277.957	1936.12
278.189	1733.12
278.421	1605.12
278.652	1527.12
278.884	1549.12
279.115	1507.12
279.347	1594.12
279.579	1497.12
279.81	1453.12
280.042	1674.12
280.273	1852.12
280.505	1830.12
280.736	1845.12
280.968	1781.12
281.199	1556.12
281.431	1483.12
281.662	1470.12
281.894	1449.12
282.125	1529.12
282.356	1591.12
282.588	1606.12
282.819	1530.12
283.051	1689.12
283.282	1835.12
283.513	1804.12
283.745	1569.12
283.976	1433.12
284.207	1432.12
284.439	1517.12
284.67	1514.12
284.901	1587.12
285.132	1609.12
285.364	1582.12
285.595	1599.12
285.826	1575.12
286.057	1527.12
286.288	1543.12
286.52	1589.12
286.751	1701.12
286.982	1790.12
287.213	1649.12
287.444	1501.12
287.675	1473.12
287.906	1569.12
288.138	1697.12
288.369	1642.12
288.6	1528.12
288.831	1493.12
289.062	1536.12
289.293	1565.12
289.524	1521.12
289.755	1612.12
289.986	1597.12
290.217	1448.12
290.448	1490.12
290.679	1549.12
290.91	1573.12
291.141	1622.12
291.371	1685.12
291.602	1663.12
291.833	1644.12
292.064	1643.12
292.295	1658.12
292.526	1695.12
292.757	1781.12
292.987	1705.12
293.218	1584.12
293.449	1695.12
293.68	1887.12
293.91	2059.12
294.141	1938.12
294.372	1818.12
294.603	1886.12
294.833	1958.12
295.064	1883.12
295.295	1677.12
295.525	1665.12
295.756	1493.12
295.987	1452.12
296.217	1467.12
296.448	1509.12
296.679	1543.12
296.909	1505.12
297.14	1513.12
297.37	1534.12
297.601	1604.12
297.831	1762.12
298.062	1762.12
298.292	1645.12
298.523	1531.12
298.753	1520.12
298.984	1578.12
299.214	1561.12
299.445	1612.12
299.675	1658.12
299.905	1607.12
300.136	1603.12
300.366	1574.12
300.597	1515.12
300.827	1514.12
301.057	1563.12
301.288	1619.12
301.518	1631.12
301.748	1661.12
301.979	1817.12
302.209	1790.12
302.439	1900.12
302.669	2022.12
302.9	1889.12
303.13	1702.12
303.36	1667.12
303.59	1716.12
303.82	1693.12
304.051	1686.12
304.281	1701.12
304.511	1658.12
304.741	1716.12
304.971	1928.12
305.201	2126.12
305.431	2002.12
305.661	1643.12
305.891	1467.12
306.121	1462.12
306.352	1529.12
306.582	1603.12
306.812	1699.12
307.042	1828.12
307.272	1801.12
307.502	1942.12
307.731	2051.12
307.961	2205.12
308.191	2023.12
308.421	1757.12
308.651	1653.12
308.881	1613.12
309.111	1613.12
309.341	1570.12
309.571	1588.12
309.8	1585.12
310.03	1613.12
310.26	1579.12
310.49	1561.12
310.72	1608.12
310.949	1655.12
311.179	1719.12
311.409	1673.12
311.639	1672.12
311.868	1590.12
312.098	1644.12
312.328	1623.12
312.557	1614.12
312.787	1655.12
313.017	1719.12
313.246	1677.12
313.476	1719.12
313.706	1731.12
313.935	1719.12
314.165	1711.12
314.394	1742.12
314.624	1867.12
314.853	1980.12
315.083	2036.12
315.312	2121.12
315.542	1961.12
315.771	1726.12
316.001	1743.12
316.23	1815.12
316.46	1847.12
316.689	1810.12
316.919	1693.12
317.148	1646.12
317.377	1651.12
317.607	1762.12
317.836	1981.12
318.065	2097.12
318.295	2027.12
318.524	1932.12
318.753	1835.12
318.983	1792.12
319.212	1782.12
319.441	1756.12
319.67	1724.12
319.9	1750.12
320.129	1861.12
320.358	1916.12
320.587	1976.12
320.816	1966.12
321.046	1943.12
321.275	1780.12
321.504	1802.12
321.733	2002.12
321.962	1941.12
322.191	1737.12
322.42	1726.12
322.649	1748.12
322.878	1770.12
323.108	1766.12
323.337	1799.12
323.566	1853.12
323.795	1821.12
324.024	1821.12
324.253	1761.12
324.482	1797.12
324.71	1753.12
324.939	1659.12
325.168	1715.12
325.397	1748.12
325.626	1838.12
325.855	1859.12
326.084	1764.12
326.313	1737.12
326.542	1765.12
326.77	1830.12
326.999	1845.12
327.228	1767.12
327.457	1649.12
327.686	1661.12
327.914	1694.12
328.143	1744.12
328.372	1763.12
328.6	1763.12
328.829	1757.12
329.058	1669.12
329.287	1703.12
329.515	1753.12
329.744	1809.12
329.972	1883.12
330.201	1963.12
330.43	1910.12
330.658	1873.12
330.887	1883.12
331.115	1839.12
331.344	1869.12
331.572	1815.12
331.801	1813.12
332.03	1832.12
332.258	1867.12
332.486	1888.12
332.715	1913.12
332.943	1891.12
333.172	1852.12
333.4	1864.12
333.629	1941.12
333.857	2007.12
334.085	2204.12
334.314	2456.12
334.542	2769.12
334.771	2569.12
334.999	2229.12
335.227	2078.12
335.455	2008.12
335.684	1945.12
335.912	2016.12
336.14	2138.12
336.369	2022.12
336.597	1907.12
336.825	1844.12
337.053	1941.12
337.281	2008.12
337.51	2117.12
337.738	2221.12
337.966	2131.12
338.194	1937.12
338.422	1845.12
338.65	1827.12
338.878	1820.12
339.106	1772.12
339.334	1766.12
339.562	1733.12
339.79	1817.12
340.018	1917.12
340.246	1958.12
340.474	1990.12
340.702	1883.12
340.93	1910.12
341.158	1891.12
341.386	1865.12
341.614	1858.12
341.842	1789.12
342.07	1825.12
342.298	1861.12
342.526	1879.12
342.754	1832.12
342.981	1801.12
343.209	1817.12
343.437	1806.12
343.665	1837.12
343.893	1849.12
344.12	1978.12
344.348	1947.12
344.576	1902.12
344.804	1838.12
345.031	1814.12
345.259	1839.12
345.487	1754.12
345.714	1707.12
345.942	1670.12
346.17	1632.12
346.397	1736.12
346.625	1793.12
346.853	1657.12
347.08	1631.12
347.308	1654.12
347.535	1735.12
347.763	1743.12
347.99	1718.12
348.218	1641.12
348.445	1642.12
348.673	1641.12
348.9	1743.12
349.128	1777.12
349.355	1839.12
349.583	1842.12
349.81	1740.12
350.037	1581.12
350.265	1580.12
350.492	1630.12
350.72	1660.12
350.947	1697.12
351.174	1733.12
351.402	1652.12
351.629	1603.12
351.856	1574.12
352.083	1516.12
352.311	1602.12
352.538	1627.12
352.765	1724.12
352.992	1749.12
353.22	1711.12
353.447	1629.12
353.674	1673.12
353.901	1678.12
354.128	1607.12
354.355	1641.12
354.583	1706.12
354.81	1727.12
355.037	1754.12
355.264	1762.12
355.491	1692.12
355.718	1717.12
355.945	1683.12
356.172	1659.12
356.399	1645.12
356.626	1638.12
356.853	1706.12
357.08	1797.12
357.307	2006.12
357.534	2019.12
357.761	1814.12
357.988	1627.12
358.215	1572.12
358.441	1595.12
358.668	1565.12
358.895	1641.12
359.122	1735.12
359.349	1876.12
359.576	1878.12
359.802	1713.12
360.029	1641.12
360.256	1601.12
360.483	1591.12
360.709	1648.12
360.936	1727.12
361.163	1790.12
361.39	1990.12
361.616	2101.12
361.843	2072.12
362.07	1960.12
362.296	1748.12
362.523	1659.12
362.749	1658.12
362.976	1700.12
363.203	1741.12
363.429	1692.12
363.656	1613.12
363.882	1656.12
364.109	1841.12
364.335	2018.12
364.562	1848.12
364.788	1785.12
365.015	1714.12
365.241	1642.12
365.468	1661.12
365.694	1729.12
365.92	1806.12
366.147	1730.12
366.373	1653.12
366.599	1618.12
366.826	1615.12
367.052	1628.12
367.278	1642.12
367.505	1683.12
367.731	1705.12
367.957	1675.12
368.184	1775.12
368.41	1829.12
368.636	1888.12
368.862	1879.12
369.089	1919.12
369.315	1835.12
369.541	1772.12
369.767	1697.12
369.993	1651.12
370.219	1657.12
370.445	1673.12
370.672	1795.12
370.898	1874.12
371.124	1871.12
371.35	1759.12
371.576	1839.12
371.802	1876.12
372.028	1748.12
372.254	1747.12
372.48	1669.12
372.706	1651.12
372.932	1685.12
373.158	1661.12
373.384	1686.12
373.61	1772.12
373.835	1831.12
374.061	1793.12
374.287	1751.12
374.513	1803.12
374.739	1718.12
374.965	1753.12
375.191	1783.12
375.416	1787.12
375.642	1849.12
375.868	1914.12
376.094	1962.12
376.319	1877.12
376.545	1759.12
376.771	1759.12
376.997	1882.12
377.222	1857.12
377.448	1807.12
377.674	1822.12
377.899	1813.12
378.125	1936.12
378.35	1938.12
378.576	1795.12
378.802	1681.12
379.027	1714.12
379.253	1715.12
379.478	1727.12
379.704	1720.12
379.929	1739.12
380.155	1706.12
380.38	1785.12
380.606	1784.12
380.831	1770.12
381.057	1846.12
381.282	1886.12
381.507	1805.12
381.733	1861.12
381.958	1984.12
382.184	1871.12
382.409	1802.12
382.634	1845.12
382.86	1829.12
383.085	1804.12
383.31	1863.12
383.535	1977.12
383.761	2155.12
383.986	2044.12
384.211	1977.12
384.436	1975.12
384.662	2043.12
384.887	2162.12
385.112	2011.12
385.337	2027.12
385.562	2019.12
385.787	1997.12
386.013	2064.12
386.238	2080.12
386.463	2012.12
386.688	2136.12
386.913	2246.12
387.138	2241.12
387.363	2071.12
387.588	2079.12
387.813	2033.12
388.038	2108.12
388.263	2103.12
388.488	2081.12
388.713	1910.12
388.938	1919.12
389.163	1921.12
389.387	1957.12
389.612	1911.12
389.837	2041.12
390.062	2035.12
390.287	1999.12
390.512	1985.12
390.736	1985.12
390.961	1938.12
391.186	1892.12
391.411	1920.12
391.636	1972.12
391.86	1989.12
392.085	1973.12
392.31	1971.12
392.534	2011.12
392.759	2013.12
392.984	1976.12
393.208	2040.12
393.433	2070.12
393.658	2138.12
393.882	2157.12
394.107	2058.12
394.331	2003.12
394.556	1969.12
394.78	1989.12
395.005	2071.12
395.229	2147.12
395.454	2323.12
395.678	2309.12
395.903	2235.12
396.127	2085.12
396.352	2105.12
396.576	2130.12
396.801	2214.12
397.025	2180.12
397.249	2157.12
397.474	2145.12
397.698	2144.12
397.922	2186.12
398.147	2326.12
398.371	2401.12
398.595	2394.12
398.82	2313.12
399.044	2329.12
399.268	2431.12
399.492	2569.12
399.717	2723.12
399.941	2733.12
400.165	2649.12
400.389	2563.12
400.613	2517.12
400.837	2813.12
401.062	3177.12
401.286	2761.12
401.51	2476.12
401.734	2553.12
401.958	2495.12
402.182	2386.12
402.406	2280.12
402.63	2225.12
402.854	2247.12
403.078	2299.12
403.302	2345.12
403.526	2352.12
403.75	2371.12
403.974	2403.12
404.198	2376.12
404.422	2477.12
404.645	2555.12
404.869	2547.12
405.093	2315.12
405.317	2293.12
405.541	2383.12
405.765	2420.12
405.988	2358.12
406.212	2430.12
406.436	2503.12
406.66	2529.12
406.883	2565.12
407.107	2814.12
407.331	3062.12
407.555	3347.12
407.778	3118.12
408.002	2603.12
408.226	2436.12
408.449	2510.12
408.673	2394.12
408.896	2447.12
409.12	2518.12
409.344	2419.12
409.567	2328.12
409.791	2363.12
410.014	2404.12
410.238	2540.12
410.461	2699.12
410.685	2418.12
410.908	2337.12
411.132	2384.12
411.355	2360.12
411.578	2313.12
411.802	2282.12
412.025	2402.12
412.249	2277.12
412.472	2243.12
412.695	2239.12
412.919	2212.12
413.142	2241.12
413.365	2284.12
413.589	2364.12
413.812	2416.12
414.035	2437.12
414.258	2320.12
414.482	2231.12
414.705	2325.12
414.928	2252.12
415.151	2225.12
415.374	2257.12
415.597	2276.12
415.821	2302.12
416.044	2386.12
416.267	2404.12
416.49	2157.12
416.713	2145.12
416.936	2268.12
417.159	2349.12
417.382	2392.12
417.605	2217.12
417.828	2286.12
418.051	2362.12
418.274	2249.12
418.497	2165.12
418.72	2175.12
418.943	2172.12
419.166	2356.12
419.389	2422.12
419.611	2295.12
419.834	2236.12
420.057	2267.12
420.28	2191.12
420.503	2184.12
420.726	2254.12
420.948	2197.12
421.171	2142.12
421.394	2204.12
421.617	2278.12
421.839	2245.12
422.062	2156.12
422.285	2137.12
422.507	2161.12
422.73	2115.12
422.953	2065.12
423.175	2089.12
423.398	2186.12
423.621	2162.12
423.843	2182.12
424.066	2266.12
424.288	2332.12
424.511	2339.12
424.733	2323.12
424.956	2103.12
425.178	2055.12
425.401	2103.12
425.623	2143.12
425.846	2099.12
426.068	2189.12
426.291	2307.12
426.513	2203.12
426.735	2232.12
426.958	2376.12
427.18	2536.12
427.402	2290.12
427.625	2355.12
427.847	2401.12
428.069	2231.12
428.292	2141.12
428.514	2111.12
428.736	2084.12
428.958	2120.12
429.181	2121.12
429.403	2383.12
429.625	2964.12
429.847	2606.12
430.069	2154.12
430.292	2389.12
430.514	2478.12
430.736	2297.12
430.958	2399.12
431.18	2325.12
431.402	2093.12
431.624	2081.12
431.846	2073.12
432.068	2064.12
432.29	2121.12
432.512	2134.12
432.734	2166.12
432.956	2235.12
433.178	2271.12
433.4	2258.12
433.622	2277.12
433.844	2147.12
434.066	2081.12
434.287	2067.12
434.509	2220.12
434.731	2231.12
434.953	2431.12
435.175	2380.12
435.397	2274.12
435.618	2214.12
435.84	2221.12
436.062	2231.12
436.284	2210.12
436.505	2192.12
436.727	2271.12
436.949	2215.12
437.17	2119.12
437.392	2173.12
437.614	2139.12
437.835	2065.12
438.057	2185.12
438.278	2310.12
438.5	2121.12
438.721	2101.12
438.943	2109.12
439.165	2126.12
439.386	2113.12
439.608	2069.12
439.829	2112.12
440.05	2108.12
440.272	2082.12
440.493	2065.12
440.715	2100.12
440.936	2217.12
441.158	2463.12
441.379	2375.12
441.6	2330.12
441.822	2291.12
442.043	2248.12
442.264	2195.12
442.486	2090.12
442.707	2118.12
442.928	2070.12
443.149	2182.12
443.371	2343.12
443.592	2419.12
443.813	2334.12
444.034	2287.12
444.255	2315.12
444.476	2356.12
444.698	2427.12
444.919	2354.12
445.14	2473.12
445.361	2445.12
445.582	2541.12
445.803	2404.12
446.024	2289.12
446.245	2398.12
446.466	2327.12
446.687	2180.12
446.908	2223.12
447.129	2189.12
447.35	2174.12
447.571	2136.12
447.792	2075.12
448.013	2012.12
448.234	2108.12
448.455	2198.12
448.675	2204.12
448.896	2056.12
449.117	2000.12
449.338	2059.12
449.559	2154.12
449.779	2270.12
450	2498.12
450.221	2719.12
450.442	2604.12
450.662	2275.12
450.883	1996.12
451.104	1977.12
451.324	2017.12
451.545	2102.12
451.766	2061.12
451.986	1958.12
452.207	1943.12
452.428	1894.12
452.648	1864.12
452.869	1948.12
453.089	2058.12
453.31	2094.12
453.53	2127.12
453.751	2059.12
453.971	1910.12
454.192	1993.12
454.412	2099.12
454.633	2035.12
454.853	1965.12
455.073	1889.12
455.294	1829.12
455.514	1838.12
455.734	1882.12
455.955	1890.12
456.175	1878.12
456.395	1914.12
456.616	1974.12
456.836	2009.12
457.056	1925.12
457.276	1933.12
457.497	1887.12
457.717	1822.12
457.937	1883.12
458.157	1936.12
458.377	1908.12
458.598	1887.12
458.818	1875.12
459.038	2013.12
459.258	2193.12
459.478	2154.12
459.698	2061.12
459.918	2108.12
460.138	2211.12
460.358	2242.12
460.578	2260.12
460.798	2350.12
461.018	2508.12
461.238	2391.12
461.458	2254.12
461.678	2267.12
461.898	2243.12
462.118	2148.12
462.338	2262.12
462.558	2291.12
462.777	2271.12
462.997	2357.12
463.217	2534.12
463.437	2491.12
463.657	2313.12
463.876	2309.12
464.096	2282.12
464.316	2258.12
464.536	2349.12
464.755	2325.12
464.975	2393.12
465.195	2264.12
465.414	2405.12
465.634	2379.12
465.854	2258.12
466.073	2412.12
466.293	2350.12
466.512	2082.12
466.732	2100.12
466.951	2137.12
467.171	2117.12
467.391	2059.12
467.61	2031.12
467.829	1999.12
468.049	2165.12
468.268	2484.12
468.488	2332.12
468.707	2215.12
468.927	2134.12
469.146	2078.12
469.365	2014.12
469.585	2061.12
469.804	2014.12
470.023	2069.12
470.243	2100.12
470.462	2052.12
470.681	1979.12
470.901	2092.12
471.12	2102.12
471.339	2044.12
471.558	2001.12
471.777	1998.12
471.997	2041.12
472.216	2042.12
472.435	1957.12
472.654	1965.12
472.873	2127.12
473.092	2231.12
473.311	2051.12
473.53	1939.12
473.749	1958.12
473.968	2041.12
474.187	2142.12
474.406	2282.12
474.625	2146.12
474.844	2084.12
475.063	2043.12
475.282	2158.12
475.501	2084.12
475.72	2088.12
475.939	2242.12
476.158	2143.12
476.377	2075.12
476.596	2122.12
476.814	2179.12
477.033	2185.12
477.252	2283.12
477.471	2315.12
477.69	2198.12
477.908	2214.12
478.127	2323.12
478.346	2496.12
478.564	2551.12
478.783	2471.12
479.002	2596.12
479.22	2464.12
479.439	2557.12
479.658	2921.12
479.876	2914.12
480.095	2514.12
480.313	2389.12
480.532	2316.12
480.751	2349.12
480.969	2386.12
481.188	2329.12
481.406	2297.12
481.624	2281.12
481.843	2277.12
482.061	2359.12
482.28	2365.12
482.498	2429.12
482.717	2399.12
482.935	2316.12
483.153	2313.12
483.372	2268.12
483.59	2310.12
483.808	2308.12
484.027	2361.12
484.245	2534.12
484.463	2883.12
484.681	3328.12
484.9	2561.12
485.118	2384.12
485.336	2327.12
485.554	2423.12
485.772	2531.12
485.99	2522.12
486.209	2505.12
486.427	2429.12
486.645	2509.12
486.863	2433.12
487.081	2487.12
487.299	2590.12
