Data from WStandard_LampEnergy5.5LIBS07252019.E.O._I.C._HRD10591_16-06-45-920.txt Node
Date: Thu Jul 25 16:06:45 EDT 2019
User: cochatt
Spectrometer: HR+D1059
Trigger mode: 1
Integration Time (sec): 1.000000E-1
Scans to average: 1
Electric dark correction enabled: true
Nonlinearity correction enabled: false
Boxcar width: 0
XAxis mode: Wavelengths
Number of Pixels in Spectrum: 2048
>>>>>Begin Spectral Data<<<<<
223.165	-23.81
223.4	-23.81
223.635	-23.81
223.869	-5.81
224.104	-21.81
224.338	-3.81
224.573	-11.81
224.808	-19.81
225.042	-3.81
225.277	-16.81
225.511	0.19
225.746	17.19
225.98	7.19
226.215	13.19
226.449	1.19
226.683	13.19
226.918	23.19
227.152	32.19
227.387	38.19
227.621	45.19
227.856	42.19
228.09	54.19
228.324	57.19
228.559	62.19
228.793	144.19
229.027	364.19
229.262	378.19
229.496	383.19
229.73	393.19
229.964	445.19
230.199	456.19
230.433	479.19
230.667	508.19
230.901	544.19
231.136	490.19
231.37	466.19
231.604	466.19
231.838	465.19
232.072	489.19
232.306	462.19
232.541	487.19
232.775	585.19
233.009	625.19
233.243	585.19
233.477	536.19
233.711	548.19
233.945	580.19
234.179	565.19
234.413	596.19
234.647	661.19
234.881	613.19
235.115	550.19
235.349	577.19
235.583	573.19
235.817	579.19
236.051	545.19
236.285	558.19
236.519	610.19
236.753	694.19
236.987	675.19
237.221	691.19
237.455	745.19
237.689	745.19
237.922	696.19
238.156	660.19
238.39	691.19
238.624	706.19
238.858	771.19
239.091	796.19
239.325	829.19
239.559	947.19
239.793	969.19
240.027	1039.19
240.26	1060.19
240.494	783.19
240.728	711.19
240.961	767.19
241.195	763.19
241.429	829.19
241.662	841.19
241.896	762.19
242.13	783.19
242.363	870.19
242.597	940.19
242.83	885.19
243.064	899.19
243.298	974.19
243.531	952.19
243.765	954.19
243.998	950.19
244.232	825.19
244.465	777.19
244.699	784.19
244.932	896.19
245.166	1068.19
245.399	1025.19
245.633	922.19
245.866	891.19
246.099	952.19
246.333	954.19
246.566	979.19
246.8	1024.19
247.033	1193.19
247.266	1138.19
247.5	1093.19
247.733	1092.19
247.966	1136.19
248.2	1254.19
248.433	1194.19
248.666	1244.19
248.899	1337.19
249.133	1565.19
249.366	1775.19
249.599	1462.19
249.832	1280.19
250.066	1288.19
250.299	1311.19
250.532	1200.19
250.765	1122.19
250.998	1185.19
251.231	1216.19
251.465	1276.19
251.698	1187.19
251.931	1187.19
252.164	1240.19
252.397	1270.19
252.63	1256.19
252.863	1110.19
253.096	1112.19
253.329	1148.19
253.562	1232.19
253.795	1321.19
254.028	1300.19
254.261	1176.19
254.494	1184.19
254.727	1108.19
254.96	1174.19
255.193	1268.19
255.426	1413.19
255.659	1641.19
255.892	1742.19
256.124	1396.19
256.357	1330.19
256.59	1446.19
256.823	1472.19
257.056	1397.19
257.289	1744.19
257.521	1938.19
257.754	1716.19
257.987	1562.19
258.22	1780.19
258.452	1784.19
258.685	1464.19
258.918	1392.19
259.151	1427.19
259.383	1348.19
259.616	1202.19
259.849	1242.19
260.081	1428.19
260.314	1565.19
260.547	1720.19
260.779	1743.19
261.012	1633.19
261.244	1456.19
261.477	1376.19
261.71	1428.19
261.942	1396.19
262.175	1374.19
262.407	1474.19
262.64	1413.19
262.872	1270.19
263.105	1265.19
263.337	1282.19
263.57	1305.19
263.802	1316.19
264.035	1268.19
264.267	1149.19
264.499	1137.19
264.732	1226.19
264.964	1333.19
265.197	1402.19
265.429	1401.19
265.661	1596.19
265.894	1753.19
266.126	1878.19
266.358	1623.19
266.591	1664.19
266.823	1835.19
267.055	1675.19
267.287	1621.19
267.52	1588.19
267.752	1570.19
267.984	1572.19
268.216	1638.19
268.448	1650.19
268.681	1659.19
268.913	1515.19
269.145	1437.19
269.377	1408.19
269.609	1520.19
269.841	1778.19
270.073	2023.19
270.306	2290.19
270.538	2468.19
270.77	2090.19
271.002	1753.19
271.234	1670.19
271.466	1635.19
271.698	1849.19
271.93	2247.19
272.162	2281.19
272.394	1991.19
272.626	1915.19
272.858	1718.19
273.09	1461.19
273.322	1461.19
273.553	1370.19
273.785	1366.19
274.017	1454.19
274.249	1589.19
274.481	1600.19
274.713	1459.19
274.945	1405.19
275.176	1444.19
275.408	1434.19
275.64	1405.19
275.872	1403.19
276.104	1463.19
276.335	1699.19
276.567	1961.19
276.799	1942.19
277.031	1691.19
277.262	1621.19
277.494	1702.19
277.726	1894.19
277.957	1855.19
278.189	1685.19
278.421	1606.19
278.652	1488.19
278.884	1477.19
279.115	1476.19
279.347	1528.19
279.579	1472.19
279.81	1492.19
280.042	1649.19
280.273	1804.19
280.505	1796.19
280.736	1860.19
280.968	1768.19
281.199	1509.19
281.431	1458.19
281.662	1446.19
281.894	1441.19
282.125	1493.19
282.356	1551.19
282.588	1580.19
282.819	1556.19
283.051	1677.19
283.282	1829.19
283.513	1801.19
283.745	1527.19
283.976	1444.19
284.207	1432.19
284.439	1442.19
284.67	1490.19
284.901	1506.19
285.132	1570.19
285.364	1507.19
285.595	1535.19
285.826	1509.19
286.057	1540.19
286.288	1482.19
286.52	1587.19
286.751	1679.19
286.982	1794.19
287.213	1613.19
287.444	1505.19
287.675	1485.19
287.906	1537.19
288.138	1652.19
288.369	1609.19
288.6	1556.19
288.831	1458.19
289.062	1494.19
289.293	1518.19
289.524	1528.19
289.755	1572.19
289.986	1589.19
290.217	1480.19
290.448	1504.19
290.679	1525.19
290.91	1513.19
291.141	1542.19
291.371	1627.19
291.602	1643.19
291.833	1588.19
292.064	1641.19
292.295	1614.19
292.526	1659.19
292.757	1722.19
292.987	1649.19
293.218	1554.19
293.449	1688.19
293.68	1933.19
293.91	2066.19
294.141	1918.19
294.372	1813.19
294.603	1800.19
294.833	1942.19
295.064	1833.19
295.295	1669.19
295.525	1625.19
295.756	1500.19
295.987	1412.19
296.217	1460.19
296.448	1480.19
296.679	1520.19
296.909	1515.19
297.14	1478.19
297.37	1502.19
297.601	1604.19
297.831	1757.19
298.062	1800.19
298.292	1590.19
298.523	1512.19
298.753	1531.19
298.984	1566.19
299.214	1550.19
299.445	1595.19
299.675	1622.19
299.905	1617.19
300.136	1595.19
300.366	1582.19
300.597	1501.19
300.827	1491.19
301.057	1549.19
301.288	1656.19
301.518	1612.19
301.748	1637.19
301.979	1736.19
302.209	1726.19
302.439	1894.19
302.669	1987.19
302.9	1831.19
303.13	1689.19
303.36	1612.19
303.59	1671.19
303.82	1654.19
304.051	1622.19
304.281	1659.19
304.511	1662.19
304.741	1741.19
304.971	1924.19
305.201	2088.19
305.431	1985.19
305.661	1581.19
305.891	1470.19
306.121	1453.19
306.352	1486.19
306.582	1597.19
306.812	1704.19
307.042	1867.19
307.272	1832.19
307.502	1861.19
307.731	2025.19
307.961	2186.19
308.191	2050.19
308.421	1731.19
308.651	1615.19
308.881	1620.19
309.111	1582.19
309.341	1548.19
309.571	1584.19
309.8	1601.19
310.03	1571.19
310.26	1564.19
310.49	1566.19
310.72	1627.19
310.949	1679.19
311.179	1683.19
311.409	1713.19
311.639	1605.19
311.868	1591.19
312.098	1596.19
312.328	1617.19
312.557	1600.19
312.787	1618.19
313.017	1688.19
313.246	1659.19
313.476	1672.19
313.706	1722.19
313.935	1705.19
314.165	1717.19
314.394	1765.19
314.624	1856.19
314.853	1968.19
315.083	2008.19
315.312	2087.19
315.542	1974.19
315.771	1720.19
316.001	1697.19
316.23	1826.19
316.46	1813.19
316.689	1798.19
316.919	1687.19
317.148	1634.19
317.377	1630.19
317.607	1774.19
317.836	1937.19
318.065	2054.19
318.295	2008.19
318.524	1893.19
318.753	1827.19
318.983	1795.19
319.212	1813.19
319.441	1757.19
319.67	1733.19
319.9	1723.19
320.129	1824.19
320.358	1920.19
320.587	1974.19
320.816	1983.19
321.046	1909.19
321.275	1762.19
321.504	1817.19
321.733	1980.19
321.962	1921.19
322.191	1758.19
322.42	1756.19
322.649	1693.19
322.878	1712.19
323.108	1705.19
323.337	1790.19
323.566	1822.19
323.795	1826.19
324.024	1798.19
324.253	1733.19
324.482	1768.19
324.71	1747.19
324.939	1657.19
325.168	1668.19
325.397	1709.19
325.626	1804.19
325.855	1810.19
326.084	1720.19
326.313	1738.19
326.542	1740.19
326.77	1860.19
326.999	1850.19
327.228	1760.19
327.457	1701.19
327.686	1671.19
327.914	1692.19
328.143	1733.19
328.372	1731.19
328.6	1715.19
328.829	1749.19
329.058	1677.19
329.287	1677.19
329.515	1744.19
329.744	1759.19
329.972	1841.19
330.201	1922.19
330.43	1883.19
330.658	1848.19
330.887	1847.19
331.115	1832.19
331.344	1868.19
331.572	1846.19
331.801	1804.19
332.03	1816.19
332.258	1845.19
332.486	1846.19
332.715	1880.19
332.943	1877.19
333.172	1830.19
333.4	1851.19
333.629	1933.19
333.857	2024.19
334.085	2186.19
334.314	2481.19
334.542	2808.19
334.771	2542.19
334.999	2224.19
335.227	2130.19
335.455	1960.19
335.684	1984.19
335.912	1995.19
336.14	2045.19
336.369	2038.19
336.597	1904.19
336.825	1855.19
337.053	1933.19
337.281	1994.19
337.51	2121.19
337.738	2204.19
337.966	2094.19
338.194	1939.19
338.422	1861.19
338.65	1829.19
338.878	1811.19
339.106	1773.19
339.334	1732.19
339.562	1744.19
339.79	1780.19
340.018	1848.19
340.246	1895.19
340.474	1929.19
340.702	1883.19
340.93	1857.19
341.158	1869.19
341.386	1843.19
341.614	1816.19
341.842	1819.19
342.07	1797.19
342.298	1844.19
342.526	1821.19
342.754	1760.19
342.981	1730.19
343.209	1791.19
343.437	1769.19
343.665	1798.19
343.893	1817.19
344.12	1955.19
344.348	1988.19
344.576	1930.19
344.804	1813.19
345.031	1808.19
345.259	1827.19
345.487	1742.19
345.714	1683.19
345.942	1658.19
346.17	1674.19
346.397	1744.19
346.625	1743.19
346.853	1656.19
347.08	1620.19
347.308	1663.19
347.535	1646.19
347.763	1765.19
347.99	1701.19
348.218	1633.19
348.445	1661.19
348.673	1669.19
348.9	1721.19
349.128	1800.19
349.355	1859.19
349.583	1787.19
349.81	1698.19
350.037	1594.19
350.265	1553.19
350.492	1602.19
350.72	1630.19
350.947	1698.19
351.174	1758.19
351.402	1658.19
351.629	1563.19
351.856	1599.19
352.083	1531.19
352.311	1578.19
352.538	1613.19
352.765	1692.19
352.992	1744.19
353.22	1703.19
353.447	1619.19
353.674	1601.19
353.901	1730.19
354.128	1618.19
354.355	1609.19
354.583	1674.19
354.81	1742.19
355.037	1744.19
355.264	1754.19
355.491	1705.19
355.718	1697.19
355.945	1649.19
356.172	1636.19
356.399	1613.19
356.626	1586.19
356.853	1658.19
357.08	1821.19
357.307	1972.19
357.534	2048.19
357.761	1765.19
357.988	1625.19
358.215	1570.19
358.441	1613.19
358.668	1615.19
358.895	1596.19
359.122	1694.19
359.349	1865.19
359.576	1902.19
359.802	1677.19
360.029	1626.19
360.256	1590.19
360.483	1617.19
360.709	1649.19
360.936	1738.19
361.163	1741.19
361.39	1955.19
361.616	2125.19
361.843	2023.19
362.07	1922.19
362.296	1669.19
362.523	1604.19
362.749	1627.19
362.976	1656.19
363.203	1668.19
363.429	1651.19
363.656	1600.19
363.882	1628.19
364.109	1825.19
364.335	2044.19
364.562	1889.19
364.788	1800.19
365.015	1737.19
365.241	1607.19
365.468	1696.19
365.694	1730.19
365.92	1826.19
366.147	1757.19
366.373	1634.19
366.599	1627.19
366.826	1604.19
367.052	1634.19
367.278	1651.19
367.505	1622.19
367.731	1685.19
367.957	1704.19
368.184	1717.19
368.41	1863.19
368.636	1866.19
368.862	1885.19
369.089	1911.19
369.315	1837.19
369.541	1736.19
369.767	1679.19
369.993	1615.19
370.219	1641.19
370.445	1643.19
370.672	1774.19
370.898	1885.19
371.124	1868.19
371.35	1732.19
371.576	1798.19
371.802	1864.19
372.028	1836.19
372.254	1709.19
372.48	1688.19
372.706	1666.19
372.932	1650.19
373.158	1667.19
373.384	1699.19
373.61	1761.19
373.835	1869.19
374.061	1797.19
374.287	1718.19
374.513	1704.19
374.739	1736.19
374.965	1750.19
375.191	1744.19
375.416	1800.19
375.642	1808.19
375.868	1890.19
376.094	1968.19
376.319	1883.19
376.545	1712.19
376.771	1797.19
376.997	1885.19
377.222	1858.19
377.448	1796.19
377.674	1838.19
377.899	1810.19
378.125	1912.19
378.35	1923.19
378.576	1749.19
378.802	1678.19
379.027	1666.19
379.253	1692.19
379.478	1778.19
379.704	1744.19
379.929	1705.19
380.155	1723.19
380.38	1761.19
380.606	1757.19
380.831	1787.19
381.057	1821.19
381.282	1905.19
381.507	1773.19
381.733	1917.19
381.958	2002.19
382.184	1844.19
382.409	1782.19
382.634	1813.19
382.86	1804.19
383.085	1776.19
383.31	1853.19
383.535	2015.19
383.761	2108.19
383.986	2022.19
384.211	1974.19
384.436	1923.19
384.662	2013.19
384.887	2082.19
385.112	1952.19
385.337	2038.19
385.562	2032.19
385.787	2003.19
386.013	2040.19
386.238	2082.19
386.463	2005.19
386.688	2157.19
386.913	2237.19
387.138	2204.19
387.363	2048.19
387.588	2047.19
387.813	2052.19
388.038	2076.19
388.263	2116.19
388.488	2017.19
388.713	1897.19
388.938	1872.19
389.163	1906.19
389.387	1941.19
389.612	1970.19
389.837	2027.19
390.062	2045.19
390.287	1998.19
390.512	1974.19
390.736	1950.19
390.961	1908.19
391.186	1885.19
391.411	1878.19
391.636	1960.19
391.86	2008.19
392.085	1942.19
392.31	1974.19
392.534	2045.19
392.759	2037.19
392.984	2036.19
393.208	2010.19
393.433	2066.19
393.658	2150.19
393.882	2172.19
394.107	1999.19
394.331	1961.19
394.556	1955.19
394.78	1997.19
395.005	2071.19
395.229	2113.19
395.454	2302.19
395.678	2292.19
395.903	2184.19
396.127	2109.19
396.352	2121.19
396.576	2177.19
396.801	2240.19
397.025	2207.19
397.249	2177.19
397.474	2128.19
397.698	2108.19
397.922	2167.19
398.147	2266.19
398.371	2394.19
398.595	2395.19
398.82	2255.19
399.044	2324.19
399.268	2403.19
399.492	2555.19
399.717	2641.19
399.941	2713.19
400.165	2657.19
400.389	2615.19
400.613	2492.19
400.837	2747.19
401.062	3143.19
401.286	2709.19
401.51	2450.19
401.734	2592.19
401.958	2526.19
402.182	2358.19
402.406	2296.19
402.63	2263.19
402.854	2254.19
403.078	2242.19
403.302	2349.19
403.526	2378.19
403.75	2383.19
403.974	2404.19
404.198	2330.19
404.422	2457.19
404.645	2536.19
404.869	2530.19
405.093	2304.19
405.317	2311.19
405.541	2395.19
405.765	2398.19
405.988	2352.19
406.212	2401.19
406.436	2469.19
406.66	2544.19
406.883	2548.19
407.107	2822.19
407.331	3104.19
407.555	3350.19
407.778	3094.19
408.002	2581.19
408.226	2497.19
408.449	2425.19
408.673	2397.19
408.896	2424.19
409.12	2459.19
409.344	2388.19
409.567	2329.19
409.791	2377.19
410.014	2401.19
410.238	2514.19
410.461	2700.19
410.685	2429.19
410.908	2314.19
411.132	2336.19
411.355	2333.19
411.578	2284.19
411.802	2311.19
412.025	2349.19
412.249	2290.19
412.472	2239.19
412.695	2227.19
412.919	2242.19
413.142	2244.19
413.365	2304.19
413.589	2314.19
413.812	2408.19
414.035	2543.19
414.258	2294.19
414.482	2214.19
414.705	2293.19
414.928	2252.19
415.151	2240.19
415.374	2229.19
415.597	2296.19
415.821	2342.19
416.044	2418.19
416.267	2410.19
416.49	2189.19
416.713	2149.19
416.936	2242.19
417.159	2334.19
417.382	2372.19
417.605	2212.19
417.828	2280.19
418.051	2334.19
418.274	2254.19
418.497	2180.19
418.72	2176.19
418.943	2205.19
419.166	2332.19
419.389	2435.19
419.611	2282.19
419.834	2237.19
420.057	2251.19
420.28	2195.19
420.503	2149.19
420.726	2210.19
420.948	2248.19
421.171	2169.19
421.394	2195.19
421.617	2237.19
421.839	2210.19
422.062	2171.19
422.285	2137.19
422.507	2166.19
422.73	2146.19
422.953	2075.19
423.175	2060.19
423.398	2168.19
423.621	2178.19
423.843	2165.19
424.066	2221.19
424.288	2283.19
424.511	2331.19
424.733	2306.19
424.956	2100.19
425.178	2019.19
425.401	2078.19
425.623	2124.19
425.846	2121.19
426.068	2216.19
426.291	2300.19
426.513	2217.19
426.735	2180.19
426.958	2355.19
427.18	2504.19
427.402	2362.19
427.625	2369.19
427.847	2394.19
428.069	2221.19
428.292	2140.19
428.514	2072.19
428.736	2041.19
428.958	2122.19
429.181	2131.19
429.403	2325.19
429.625	2937.19
429.847	2558.19
430.069	2173.19
430.292	2349.19
430.514	2442.19
430.736	2240.19
430.958	2374.19
431.18	2301.19
431.402	2130.19
431.624	2127.19
431.846	2099.19
432.068	2030.19
432.29	2112.19
432.512	2122.19
432.734	2160.19
432.956	2194.19
433.178	2278.19
433.4	2256.19
433.622	2263.19
433.844	2139.19
434.066	2087.19
434.287	2075.19
434.509	2106.19
434.731	2274.19
434.953	2445.19
435.175	2402.19
435.397	2209.19
435.618	2188.19
435.84	2220.19
436.062	2259.19
436.284	2185.19
436.505	2216.19
436.727	2296.19
436.949	2235.19
437.17	2124.19
437.392	2117.19
437.614	2149.19
437.835	2096.19
438.057	2210.19
438.278	2284.19
438.5	2138.19
438.721	2094.19
438.943	2095.19
439.165	2072.19
439.386	2043.19
439.608	2098.19
439.829	2092.19
440.05	2101.19
440.272	2042.19
440.493	2023.19
440.715	2072.19
440.936	2261.19
441.158	2462.19
441.379	2392.19
441.6	2312.19
441.822	2270.19
442.043	2290.19
442.264	2155.19
442.486	2132.19
442.707	2093.19
442.928	2077.19
443.149	2155.19
443.371	2269.19
443.592	2348.19
443.813	2318.19
444.034	2283.19
444.255	2295.19
444.476	2327.19
444.698	2439.19
444.919	2357.19
445.14	2466.19
445.361	2402.19
445.582	2508.19
445.803	2428.19
446.024	2309.19
446.245	2402.19
446.466	2361.19
446.687	2229.19
446.908	2203.19
447.129	2084.19
447.35	2192.19
447.571	2150.19
447.792	2077.19
448.013	2068.19
448.234	2113.19
448.455	2128.19
448.675	2157.19
448.896	2010.19
449.117	2021.19
449.338	2033.19
449.559	2124.19
449.779	2251.19
450	2471.19
450.221	2708.19
450.442	2600.19
450.662	2303.19
450.883	1997.19
451.104	2004.19
451.324	2038.19
451.545	2077.19
451.766	2057.19
451.986	1959.19
452.207	1956.19
452.428	1892.19
452.648	1870.19
452.869	1948.19
453.089	2024.19
453.31	2082.19
453.53	2125.19
453.751	2038.19
453.971	1907.19
454.192	1934.19
454.412	2076.19
454.633	2022.19
454.853	1960.19
455.073	1834.19
455.294	1823.19
455.514	1805.19
455.734	1840.19
455.955	1897.19
456.175	1900.19
456.395	1873.19
456.616	1954.19
456.836	2008.19
457.056	1908.19
457.276	1918.19
457.497	1886.19
457.717	1808.19
457.937	1861.19
458.157	1867.19
458.377	1850.19
458.598	1872.19
458.818	1899.19
459.038	1996.19
459.258	2113.19
459.478	2129.19
459.698	2060.19
459.918	2114.19
460.138	2196.19
460.358	2240.19
460.578	2247.19
460.798	2271.19
461.018	2482.19
461.238	2378.19
461.458	2224.19
461.678	2251.19
461.898	2211.19
462.118	2134.19
462.338	2240.19
462.558	2269.19
462.777	2246.19
462.997	2321.19
463.217	2504.19
463.437	2471.19
463.657	2256.19
463.876	2260.19
464.096	2283.19
464.316	2264.19
464.536	2327.19
464.755	2352.19
464.975	2390.19
465.195	2302.19
465.414	2391.19
465.634	2392.19
465.854	2220.19
466.073	2372.19
466.293	2345.19
466.512	2080.19
466.732	2076.19
466.951	2148.19
467.171	2106.19
467.391	2059.19
467.61	2016.19
467.829	2012.19
468.049	2200.19
468.268	2476.19
468.488	2322.19
468.707	2185.19
468.927	2056.19
469.146	2048.19
469.365	1948.19
469.585	2052.19
469.804	2015.19
470.023	2033.19
470.243	2062.19
470.462	2055.19
470.681	1993.19
470.901	2062.19
471.12	2026.19
471.339	1979.19
471.558	1945.19
471.777	1950.19
471.997	2018.19
472.216	2048.19
472.435	1970.19
472.654	1999.19
472.873	2060.19
473.092	2226.19
473.311	2126.19
473.53	1936.19
473.749	1926.19
473.968	2058.19
474.187	2102.19
474.406	2238.19
474.625	2103.19
474.844	2073.19
475.063	2049.19
475.282	2119.19
475.501	2090.19
475.72	2032.19
475.939	2181.19
476.158	2145.19
476.377	2076.19
476.596	2091.19
476.814	2145.19
477.033	2132.19
477.252	2275.19
477.471	2312.19
477.69	2199.19
477.908	2121.19
478.127	2320.19
478.346	2497.19
478.564	2498.19
478.783	2417.19
479.002	2552.19
479.22	2466.19
479.439	2555.19
479.658	2874.19
479.876	2867.19
480.095	2475.19
480.313	2348.19
480.532	2275.19
480.751	2308.19
480.969	2345.19
481.188	2309.19
481.406	2269.19
481.624	2257.19
481.843	2273.19
482.061	2288.19
482.28	2393.19
482.498	2418.19
482.717	2413.19
482.935	2224.19
483.153	2316.19
483.372	2300.19
483.59	2263.19
483.808	2256.19
484.027	2313.19
484.245	2452.19
484.463	2824.19
484.681	3243.19
484.9	2549.19
485.118	2340.19
485.336	2332.19
485.554	2404.19
485.772	2549.19
485.99	2454.19
486.209	2438.19
486.427	2392.19
486.645	2466.19
486.863	2364.19
487.081	2537.19
487.299	2534.19
