Data from WStandard_LampEnergy10_LIBS07252019.E.O._I.C._HRD10591_15-55-10-928.txt Node
Date: Thu Jul 25 15:55:10 EDT 2019
User: cochatt
Spectrometer: HR+D1059
Trigger mode: 1
Integration Time (sec): 1.000000E-1
Scans to average: 1
Electric dark correction enabled: true
Nonlinearity correction enabled: false
Boxcar width: 0
XAxis mode: Wavelengths
Number of Pixels in Spectrum: 2048
>>>>>Begin Spectral Data<<<<<
223.165	-17.81
223.4	-17.81
223.635	-17.81
223.869	-23.81
224.104	-25.81
224.338	-27.81
224.573	-1.81
224.808	-19.81
225.042	-6.81
225.277	1.19
225.511	-6.81
225.746	-1.81
225.98	19.19
226.215	10.19
226.449	21.19
226.683	23.19
226.918	28.19
227.152	29.19
227.387	39.19
227.621	38.19
227.856	27.19
228.09	41.19
228.324	50.19
228.559	71.19
228.793	76.19
229.027	143.19
229.262	159.19
229.496	139.19
229.73	139.19
229.964	170.19
230.199	172.19
230.433	193.19
230.667	185.19
230.901	172.19
231.136	191.19
231.37	176.19
231.604	183.19
231.838	181.19
232.072	168.19
232.306	168.19
232.541	203.19
232.775	197.19
233.009	208.19
233.243	202.19
233.477	202.19
233.711	200.19
233.945	213.19
234.179	196.19
234.413	209.19
234.647	202.19
234.881	205.19
235.115	197.19
235.349	199.19
235.583	222.19
235.817	210.19
236.051	193.19
236.285	213.19
236.519	206.19
236.753	222.19
236.987	228.19
237.221	226.19
237.455	226.19
237.689	244.19
237.922	222.19
238.156	239.19
238.39	222.19
238.624	218.19
238.858	230.19
239.091	253.19
239.325	275.19
239.559	296.19
239.793	282.19
240.027	295.19
240.26	279.19
240.494	238.19
240.728	226.19
240.961	217.19
241.195	231.19
241.429	275.19
241.662	248.19
241.896	235.19
242.13	245.19
242.363	271.19
242.597	282.19
242.83	276.19
243.064	263.19
243.298	301.19
243.531	295.19
243.765	271.19
243.998	265.19
244.232	260.19
244.465	262.19
244.699	255.19
244.932	273.19
245.166	277.19
245.399	294.19
245.633	290.19
245.866	286.19
246.099	292.19
246.333	286.19
246.566	316.19
246.8	326.19
247.033	360.19
247.266	319.19
247.5	314.19
247.733	327.19
247.966	335.19
248.2	372.19
248.433	347.19
248.666	379.19
248.899	417.19
249.133	434.19
249.366	429.19
249.599	390.19
249.832	359.19
250.066	383.19
250.299	374.19
250.532	340.19
250.765	317.19
250.998	351.19
251.231	355.19
251.465	361.19
251.698	344.19
251.931	347.19
252.164	358.19
252.397	368.19
252.63	354.19
252.863	331.19
253.096	314.19
253.329	335.19
253.562	350.19
253.795	385.19
254.028	363.19
254.261	365.19
254.494	324.19
254.727	347.19
254.96	345.19
255.193	377.19
255.426	415.19
255.659	464.19
255.892	454.19
256.124	395.19
256.357	395.19
256.59	438.19
256.823	406.19
257.056	417.19
257.289	467.19
257.521	501.19
257.754	472.19
257.987	450.19
258.22	485.19
258.452	458.19
258.685	412.19
258.918	405.19
259.151	395.19
259.383	392.19
259.616	366.19
259.849	386.19
260.081	413.19
260.314	443.19
260.547	465.19
260.779	467.19
261.012	434.19
261.244	403.19
261.477	399.19
261.71	416.19
261.942	398.19
262.175	391.19
262.407	418.19
262.64	394.19
262.872	387.19
263.105	373.19
263.337	371.19
263.57	379.19
263.802	399.19
264.035	350.19
264.267	358.19
264.499	346.19
264.732	378.19
264.964	383.19
265.197	406.19
265.429	425.19
265.661	472.19
265.894	481.19
266.126	478.19
266.358	468.19
266.591	482.19
266.823	505.19
267.055	457.19
267.287	461.19
267.52	457.19
267.752	444.19
267.984	444.19
268.216	481.19
268.448	467.19
268.681	447.19
268.913	428.19
269.145	431.19
269.377	433.19
269.609	457.19
269.841	537.19
270.073	573.19
270.306	645.19
270.538	620.19
270.77	550.19
271.002	518.19
271.234	464.19
271.466	490.19
271.698	532.19
271.93	582.19
272.162	591.19
272.394	569.19
272.626	542.19
272.858	433.19
273.09	419.19
273.322	401.19
273.553	407.19
273.785	429.19
274.017	428.19
274.249	442.19
274.481	439.19
274.713	424.19
274.945	425.19
275.176	400.19
275.408	397.19
275.64	408.19
275.872	407.19
276.104	437.19
276.335	485.19
276.567	514.19
276.799	530.19
277.031	480.19
277.262	498.19
277.494	511.19
277.726	516.19
277.957	517.19
278.189	481.19
278.421	441.19
278.652	426.19
278.884	428.19
279.115	440.19
279.347	449.19
279.579	439.19
279.81	469.19
280.042	498.19
280.273	502.19
280.505	517.19
280.736	509.19
280.968	447.19
281.199	435.19
281.431	422.19
281.662	423.19
281.894	436.19
282.125	453.19
282.356	457.19
282.588	442.19
282.819	449.19
283.051	483.19
283.282	517.19
283.513	501.19
283.745	443.19
283.976	437.19
284.207	449.19
284.439	443.19
284.67	474.19
284.901	478.19
285.132	476.19
285.364	464.19
285.595	453.19
285.826	433.19
286.057	452.19
286.288	424.19
286.52	479.19
286.751	502.19
286.982	502.19
287.213	458.19
287.444	450.19
287.675	447.19
287.906	477.19
288.138	476.19
288.369	457.19
288.6	431.19
288.831	446.19
289.062	450.19
289.293	462.19
289.524	460.19
289.755	470.19
289.986	477.19
290.217	431.19
290.448	441.19
290.679	485.19
290.91	498.19
291.141	473.19
291.371	492.19
291.602	515.19
291.833	492.19
292.064	492.19
292.295	504.19
292.526	517.19
292.757	525.19
292.987	485.19
293.218	466.19
293.449	525.19
293.68	569.19
293.91	599.19
294.141	570.19
294.372	567.19
294.603	574.19
294.833	573.19
295.064	543.19
295.295	499.19
295.525	483.19
295.756	468.19
295.987	457.19
296.217	459.19
296.448	481.19
296.679	475.19
296.909	454.19
297.14	475.19
297.37	452.19
297.601	521.19
297.831	534.19
298.062	525.19
298.292	515.19
298.523	473.19
298.753	474.19
298.984	488.19
299.214	482.19
299.445	504.19
299.675	511.19
299.905	497.19
300.136	469.19
300.366	491.19
300.597	468.19
300.827	475.19
301.057	523.19
301.288	517.19
301.518	517.19
301.748	524.19
301.979	552.19
302.209	571.19
302.439	602.19
302.669	601.19
302.9	545.19
303.13	547.19
303.36	518.19
303.59	526.19
303.82	536.19
304.051	515.19
304.281	525.19
304.511	540.19
304.741	587.19
304.971	625.19
305.201	664.19
305.431	549.19
305.661	485.19
305.891	453.19
306.121	451.19
306.352	501.19
306.582	515.19
306.812	541.19
307.042	561.19
307.272	585.19
307.502	590.19
307.731	644.19
307.961	632.19
308.191	574.19
308.421	538.19
308.651	527.19
308.881	491.19
309.111	496.19
309.341	501.19
309.571	497.19
309.8	501.19
310.03	486.19
310.26	486.19
310.49	501.19
310.72	514.19
310.949	548.19
311.179	536.19
311.409	503.19
311.639	518.19
311.868	513.19
312.098	486.19
312.328	503.19
312.557	513.19
312.787	501.19
313.017	561.19
313.246	546.19
313.476	547.19
313.706	539.19
313.935	527.19
314.165	537.19
314.394	582.19
314.624	593.19
314.853	619.19
315.083	664.19
315.312	629.19
315.542	592.19
315.771	557.19
316.001	564.19
316.23	579.19
316.46	577.19
316.689	569.19
316.919	534.19
317.148	501.19
317.377	572.19
317.607	580.19
317.836	644.19
318.065	620.19
318.295	631.19
318.524	605.19
318.753	573.19
318.983	585.19
319.212	557.19
319.441	561.19
319.67	565.19
319.9	584.19
320.129	589.19
320.358	616.19
320.587	628.19
320.816	634.19
321.046	611.19
321.275	611.19
321.504	580.19
321.733	631.19
321.962	626.19
322.191	597.19
322.42	578.19
322.649	535.19
322.878	554.19
323.108	565.19
323.337	587.19
323.566	585.19
323.795	585.19
324.024	590.19
324.253	586.19
324.482	554.19
324.71	563.19
324.939	531.19
325.168	543.19
325.397	578.19
325.626	601.19
325.855	572.19
326.084	542.19
326.313	575.19
326.542	580.19
326.77	610.19
326.999	573.19
327.228	565.19
327.457	555.19
327.686	554.19
327.914	561.19
328.143	555.19
328.372	567.19
328.6	586.19
328.829	573.19
329.058	575.19
329.287	566.19
329.515	592.19
329.744	591.19
329.972	633.19
330.201	653.19
330.43	628.19
330.658	588.19
330.887	597.19
331.115	603.19
331.344	606.19
331.572	597.19
331.801	595.19
332.03	615.19
332.258	618.19
332.486	611.19
332.715	604.19
332.943	608.19
333.172	600.19
333.4	620.19
333.629	645.19
333.857	665.19
334.085	711.19
334.314	825.19
334.542	856.19
334.771	788.19
334.999	693.19
335.227	651.19
335.455	643.19
335.684	649.19
335.912	655.19
336.14	656.19
336.369	625.19
336.597	633.19
336.825	623.19
337.053	636.19
337.281	678.19
337.51	700.19
337.738	715.19
337.966	645.19
338.194	614.19
338.422	625.19
338.65	589.19
338.878	586.19
339.106	593.19
339.334	560.19
339.562	572.19
339.79	590.19
340.018	627.19
340.246	657.19
340.474	642.19
340.702	651.19
340.93	630.19
341.158	627.19
341.386	609.19
341.614	612.19
341.842	587.19
342.07	614.19
342.298	603.19
342.526	613.19
342.754	595.19
342.981	611.19
343.209	589.19
343.437	601.19
343.665	635.19
343.893	625.19
344.12	646.19
344.348	635.19
344.576	607.19
344.804	604.19
345.031	585.19
345.259	581.19
345.487	581.19
345.714	540.19
345.942	539.19
346.17	578.19
346.397	583.19
346.625	551.19
346.853	563.19
347.08	533.19
347.308	536.19
347.535	574.19
347.763	570.19
347.99	568.19
348.218	562.19
348.445	583.19
348.673	578.19
348.9	590.19
349.128	613.19
349.355	596.19
349.583	596.19
349.81	572.19
350.037	554.19
350.265	534.19
350.492	581.19
350.72	580.19
350.947	562.19
351.174	597.19
351.402	563.19
351.629	546.19
351.856	512.19
352.083	508.19
352.311	554.19
352.538	587.19
352.765	590.19
352.992	579.19
353.22	566.19
353.447	556.19
353.674	576.19
353.901	570.19
354.128	583.19
354.355	561.19
354.583	603.19
354.81	590.19
355.037	597.19
355.264	602.19
355.491	588.19
355.718	589.19
355.945	568.19
356.172	567.19
356.399	570.19
356.626	559.19
356.853	603.19
357.08	662.19
357.307	702.19
357.534	654.19
357.761	584.19
357.988	565.19
358.215	547.19
358.441	556.19
358.668	533.19
358.895	590.19
359.122	636.19
359.349	638.19
359.576	596.19
359.802	567.19
360.029	528.19
360.256	563.19
360.483	584.19
360.709	584.19
360.936	618.19
361.163	651.19
361.39	689.19
361.616	742.19
361.843	707.19
362.07	651.19
362.296	588.19
362.523	577.19
362.749	569.19
362.976	604.19
363.203	601.19
363.429	566.19
363.656	551.19
363.882	607.19
364.109	645.19
364.335	663.19
364.562	611.19
364.788	609.19
365.015	580.19
365.241	565.19
365.468	613.19
365.694	623.19
365.92	636.19
366.147	579.19
366.373	584.19
366.599	577.19
366.826	586.19
367.052	568.19
367.278	587.19
367.505	599.19
367.731	573.19
367.957	616.19
368.184	647.19
368.41	674.19
368.636	675.19
368.862	684.19
369.089	665.19
369.315	647.19
369.541	639.19
369.767	625.19
369.993	598.19
370.219	595.19
370.445	638.19
370.672	671.19
370.898	673.19
371.124	669.19
371.35	642.19
371.576	667.19
371.802	647.19
372.028	629.19
372.254	621.19
372.48	587.19
372.706	623.19
372.932	602.19
373.158	627.19
373.384	625.19
373.61	646.19
373.835	667.19
374.061	661.19
374.287	639.19
374.513	641.19
374.739	615.19
374.965	637.19
375.191	649.19
375.416	644.19
375.642	661.19
375.868	739.19
376.094	734.19
376.319	679.19
376.545	661.19
376.771	701.19
376.997	707.19
377.222	683.19
377.448	692.19
377.674	685.19
377.899	694.19
378.125	730.19
378.35	710.19
378.576	637.19
378.802	614.19
379.027	636.19
379.253	651.19
379.478	644.19
379.704	653.19
379.929	653.19
380.155	662.19
380.38	650.19
380.606	671.19
380.831	647.19
381.057	711.19
381.282	710.19
381.507	687.19
381.733	746.19
381.958	757.19
382.184	705.19
382.409	657.19
382.634	702.19
382.86	685.19
383.085	702.19
383.31	740.19
383.535	793.19
383.761	809.19
383.986	741.19
384.211	729.19
384.436	737.19
384.662	756.19
384.887	783.19
385.112	726.19
385.337	760.19
385.562	716.19
385.787	737.19
386.013	771.19
386.238	773.19
386.463	767.19
386.688	859.19
386.913	876.19
387.138	841.19
387.363	792.19
387.588	803.19
387.813	788.19
388.038	770.19
388.263	805.19
388.488	757.19
388.713	729.19
388.938	737.19
389.163	739.19
389.387	754.19
389.612	764.19
389.837	757.19
390.062	759.19
390.287	762.19
390.512	780.19
390.736	757.19
390.961	741.19
391.186	723.19
391.411	750.19
391.636	765.19
391.86	737.19
392.085	757.19
392.31	743.19
392.534	740.19
392.759	745.19
392.984	776.19
393.208	798.19
393.433	795.19
393.658	827.19
393.882	827.19
394.107	782.19
394.331	766.19
394.556	777.19
394.78	777.19
395.005	844.19
395.229	861.19
395.454	882.19
395.678	883.19
395.903	841.19
396.127	827.19
396.352	813.19
396.576	856.19
396.801	848.19
397.025	834.19
397.249	833.19
397.474	833.19
397.698	788.19
397.922	862.19
398.147	935.19
398.371	929.19
398.595	910.19
398.82	882.19
399.044	899.19
399.268	917.19
399.492	969.19
399.717	984.19
399.941	1002.19
400.165	970.19
400.389	978.19
400.613	977.19
400.837	1177.19
401.062	1206.19
401.286	1045.19
401.51	1002.19
401.734	1013.19
401.958	945.19
402.182	910.19
402.406	868.19
402.63	873.19
402.854	878.19
403.078	899.19
403.302	887.19
403.526	914.19
403.75	937.19
403.974	962.19
404.198	930.19
404.422	1010.19
404.645	1013.19
404.869	1000.19
405.093	941.19
405.317	912.19
405.541	937.19
405.765	931.19
405.988	935.19
406.212	966.19
406.436	972.19
406.66	993.19
406.883	1026.19
407.107	1104.19
407.331	1211.19
407.555	1301.19
407.778	1129.19
408.002	999.19
408.226	971.19
408.449	977.19
408.673	953.19
408.896	932.19
409.12	953.19
409.344	972.19
409.567	939.19
409.791	942.19
410.014	945.19
410.238	1050.19
410.461	1047.19
410.685	974.19
410.908	958.19
411.132	939.19
411.355	945.19
411.578	929.19
411.802	965.19
412.025	962.19
412.249	949.19
412.472	923.19
412.695	914.19
412.919	938.19
413.142	909.19
413.365	914.19
413.589	962.19
413.812	1013.19
414.035	1002.19
414.258	947.19
414.482	920.19
414.705	922.19
414.928	956.19
415.151	912.19
415.374	929.19
415.597	959.19
415.821	939.19
416.044	930.19
416.267	923.19
416.49	900.19
416.713	931.19
416.936	972.19
417.159	967.19
417.382	939.19
417.605	933.19
417.828	942.19
418.051	967.19
418.274	947.19
418.497	922.19
418.72	951.19
418.943	926.19
419.166	971.19
419.389	971.19
419.611	957.19
419.834	913.19
420.057	934.19
420.28	937.19
420.503	911.19
420.726	950.19
420.948	944.19
421.171	904.19
421.394	938.19
421.617	993.19
421.839	995.19
422.062	977.19
422.285	963.19
422.507	950.19
422.73	907.19
422.953	901.19
423.175	889.19
423.398	935.19
423.621	925.19
423.843	910.19
424.066	966.19
424.288	1024.19
424.511	1065.19
424.733	1015.19
424.956	920.19
425.178	922.19
425.401	951.19
425.623	969.19
425.846	946.19
426.068	984.19
426.291	980.19
426.513	969.19
426.735	975.19
426.958	1085.19
427.18	1079.19
427.402	1005.19
427.625	1034.19
427.847	1009.19
428.069	928.19
428.292	916.19
428.514	909.19
428.736	877.19
428.958	891.19
429.181	948.19
429.403	1057.19
429.625	1263.19
429.847	1103.19
430.069	930.19
430.292	1049.19
430.514	1052.19
430.736	991.19
430.958	979.19
431.18	947.19
431.402	898.19
431.624	818.19
431.846	803.19
432.068	733.19
432.29	747.19
432.512	803.19
432.734	885.19
432.956	955.19
433.178	957.19
433.4	948.19
433.622	973.19
433.844	915.19
434.066	870.19
434.287	829.19
434.509	782.19
434.731	838.19
434.953	916.19
435.175	940.19
435.397	916.19
435.618	889.19
435.84	851.19
436.062	856.19
436.284	912.19
436.505	940.19
436.727	957.19
436.949	939.19
437.17	934.19
437.392	884.19
437.614	866.19
437.835	795.19
438.057	844.19
438.278	836.19
438.5	867.19
438.721	907.19
438.943	943.19
439.165	916.19
439.386	926.19
439.608	953.19
439.829	953.19
440.05	947.19
440.272	949.19
440.493	943.19
440.715	941.19
440.936	1022.19
441.158	1050.19
441.379	1064.19
441.6	1052.19
441.822	1045.19
442.043	1027.19
442.264	941.19
442.486	962.19
442.707	974.19
442.928	963.19
443.149	991.19
443.371	1020.19
443.592	1044.19
443.813	1000.19
444.034	1013.19
444.255	1023.19
444.476	1037.19
444.698	1043.19
444.919	1067.19
445.14	1194.19
445.361	1102.19
445.582	1086.19
445.803	1098.19
446.024	1050.19
446.245	1075.19
446.466	1068.19
446.687	1037.19
446.908	1047.19
447.129	1027.19
447.35	1012.19
447.571	1013.19
447.792	959.19
448.013	964.19
448.234	972.19
448.455	994.19
448.675	947.19
448.896	924.19
449.117	914.19
449.338	950.19
449.559	973.19
449.779	968.19
450	1020.19
450.221	1029.19
450.442	1042.19
450.662	946.19
450.883	875.19
451.104	879.19
451.324	877.19
451.545	883.19
451.766	867.19
451.986	855.19
452.207	838.19
452.428	811.19
452.648	784.19
452.869	788.19
453.089	783.19
453.31	782.19
453.53	778.19
453.751	737.19
453.971	708.19
454.192	754.19
454.412	767.19
454.633	780.19
454.853	785.19
455.073	781.19
455.294	777.19
455.514	803.19
455.734	793.19
455.955	743.19
456.175	761.19
456.395	731.19
456.616	754.19
456.836	773.19
457.056	746.19
457.276	761.19
457.497	706.19
457.717	687.19
457.937	732.19
458.157	740.19
458.377	713.19
458.598	688.19
458.818	682.19
459.038	723.19
459.258	714.19
459.478	736.19
459.698	698.19
459.918	736.19
460.138	813.19
460.358	835.19
460.578	846.19
460.798	885.19
461.018	881.19
461.238	933.19
461.458	822.19
461.678	860.19
461.898	815.19
462.118	820.19
462.338	847.19
462.558	864.19
462.777	846.19
462.997	914.19
463.217	883.19
463.437	881.19
463.657	857.19
463.876	844.19
464.096	849.19
464.316	855.19
464.536	869.19
464.755	881.19
464.975	894.19
465.195	864.19
465.414	877.19
465.634	844.19
465.854	890.19
466.073	974.19
466.293	932.19
466.512	876.19
466.732	859.19
466.951	912.19
467.171	909.19
467.391	874.19
467.61	854.19
467.829	906.19
468.049	977.19
468.268	1070.19
468.488	1001.19
468.707	896.19
468.927	917.19
469.146	885.19
469.365	939.19
469.585	934.19
469.804	946.19
470.023	959.19
470.243	923.19
470.462	941.19
470.681	948.19
470.901	922.19
471.12	946.19
471.339	927.19
471.558	928.19
471.777	925.19
471.997	897.19
472.216	842.19
472.435	773.19
472.654	740.19
472.873	798.19
473.092	835.19
473.311	827.19
473.53	823.19
473.749	828.19
473.968	836.19
474.187	851.19
474.406	835.19
474.625	869.19
474.844	866.19
475.063	858.19
475.282	868.19
475.501	841.19
475.72	851.19
475.939	933.19
476.158	881.19
476.377	861.19
476.596	852.19
476.814	838.19
477.033	813.19
477.252	861.19
477.471	903.19
477.69	909.19
477.908	957.19
478.127	969.19
478.346	1013.19
478.564	1046.19
478.783	985.19
479.002	1024.19
479.22	1015.19
479.439	1048.19
479.658	1069.19
479.876	1000.19
480.095	889.19
480.313	896.19
480.532	902.19
480.751	890.19
480.969	859.19
481.188	817.19
481.406	812.19
481.624	801.19
481.843	805.19
482.061	830.19
482.28	879.19
482.498	905.19
482.717	848.19
482.935	884.19
483.153	996.19
483.372	1033.19
483.59	1009.19
483.808	974.19
484.027	970.19
484.245	996.19
484.463	1225.19
484.681	1291.19
484.9	1039.19
485.118	981.19
485.336	956.19
485.554	915.19
485.772	902.19
485.99	864.19
486.209	918.19
486.427	911.19
486.645	952.19
486.863	1035.19
487.081	1046.19
487.299	1027.19
487.517	1045.19
487.735	1112.19
487.953	1217.19
488.171	1183.19
488.389	1124.19
488.607	1103.19
488.825	1161.19
489.043	1078.19
489.261	1022.19
489.479	1068.19
489.696	1063.19
489.914	1046.19
490.132	1039.19
490.35	1118.19
490.568	1197.19
490.786	1189.19
491.003	1212.19
491.221	1243.19
491.439	1277.19
491.657	1359.19
491.874	1375.19
492.092	1437.19
492.31	1521.19
492.527	1476.19
492.745	1354.19
492.963	1336.19
493.18	1325.19
493.398	1364.19
493.615	1342.19
493.833	1283.19
494.05	1244.19
494.268	1266.19
494.485	1257.19
494.703	1238.19
494.92	1251.19
495.138	1223.19
495.355	1249.19
495.573	1239.19
495.79	1306.19
496.008	1291.19
496.225	1266.19
496.442	1277.19
496.66	1251.19
496.877	1176.19
497.094	1244.19
497.312	1218.19
497.529	1228.19
497.746	1222.19
497.963	1299.19
498.181	1337.19
498.398	1276.19
498.615	1189.19
498.832	1188.19
499.049	1182.19
499.267	1197.19
499.484	1252.19
499.701	1390.19
499.918	1405.19
500.135	1507.19
