Data from WStandard_LampEnergy10_LIBS07252019.E.O._I.C._HRD10591_15-54-32-928.txt Node
Date: Thu Jul 25 15:54:32 EDT 2019
User: cochatt
Spectrometer: HR+D1059
Trigger mode: 1
Integration Time (sec): 1.000000E-1
Scans to average: 1
Electric dark correction enabled: true
Nonlinearity correction enabled: false
Boxcar width: 0
XAxis mode: Wavelengths
Number of Pixels in Spectrum: 2048
>>>>>Begin Spectral Data<<<<<
223.165	-17.88
223.4	-17.88
223.635	-17.88
223.869	-6.88
224.104	-15.88
224.338	-28.88
224.573	-15.88
224.808	-30.88
225.042	-2.88
225.277	-3.88
225.511	-0.88
225.746	9.12
225.98	16.12
226.215	14.12
226.449	6.12
226.683	16.12
226.918	22.12
227.152	40.12
227.387	47.12
227.621	34.12
227.856	48.12
228.09	42.12
228.324	53.12
228.559	54.12
228.793	63.12
229.027	134.12
229.262	151.12
229.496	134.12
229.73	148.12
229.964	163.12
230.199	153.12
230.433	166.12
230.667	178.12
230.901	184.12
231.136	177.12
231.37	178.12
231.604	167.12
231.838	191.12
232.072	179.12
232.306	186.12
232.541	170.12
232.775	195.12
233.009	197.12
233.243	203.12
233.477	190.12
233.711	206.12
233.945	201.12
234.179	188.12
234.413	210.12
234.647	207.12
234.881	208.12
235.115	194.12
235.349	201.12
235.583	193.12
235.817	177.12
236.051	211.12
236.285	198.12
236.519	208.12
236.753	226.12
236.987	229.12
237.221	223.12
237.455	232.12
237.689	242.12
237.922	208.12
238.156	205.12
238.39	198.12
238.624	225.12
238.858	230.12
239.091	241.12
239.325	265.12
239.559	290.12
239.793	294.12
240.027	302.12
240.26	304.12
240.494	244.12
240.728	233.12
240.961	230.12
241.195	234.12
241.429	272.12
241.662	272.12
241.896	247.12
242.13	246.12
242.363	257.12
242.597	283.12
242.83	283.12
243.064	276.12
243.298	295.12
243.531	274.12
243.765	287.12
243.998	278.12
244.232	253.12
244.465	246.12
244.699	252.12
244.932	276.12
245.166	301.12
245.399	302.12
245.633	282.12
245.866	264.12
246.099	288.12
246.333	296.12
246.566	305.12
246.8	304.12
247.033	348.12
247.266	328.12
247.5	300.12
247.733	323.12
247.966	368.12
248.2	369.12
248.433	368.12
248.666	361.12
248.899	390.12
249.133	428.12
249.366	467.12
249.599	400.12
249.832	353.12
250.066	376.12
250.299	376.12
250.532	347.12
250.765	331.12
250.998	345.12
251.231	340.12
251.465	362.12
251.698	315.12
251.931	331.12
252.164	346.12
252.397	373.12
252.63	353.12
252.863	297.12
253.096	338.12
253.329	330.12
253.562	345.12
253.795	367.12
254.028	361.12
254.261	332.12
254.494	331.12
254.727	332.12
254.96	332.12
255.193	376.12
255.426	414.12
255.659	444.12
255.892	430.12
256.124	411.12
256.357	380.12
256.59	415.12
256.823	414.12
257.056	405.12
257.289	474.12
257.521	485.12
257.754	458.12
257.987	436.12
258.22	464.12
258.452	479.12
258.685	392.12
258.918	404.12
259.151	389.12
259.383	384.12
259.616	351.12
259.849	358.12
260.081	430.12
260.314	417.12
260.547	478.12
260.779	462.12
261.012	444.12
261.244	390.12
261.477	379.12
261.71	411.12
261.942	398.12
262.175	390.12
262.407	422.12
262.64	402.12
262.872	368.12
263.105	376.12
263.337	378.12
263.57	369.12
263.802	369.12
264.035	371.12
264.267	347.12
264.499	347.12
264.732	348.12
264.964	375.12
265.197	404.12
265.429	408.12
265.661	459.12
265.894	490.12
266.126	469.12
266.358	438.12
266.591	464.12
266.823	492.12
267.055	432.12
267.287	462.12
267.52	426.12
267.752	452.12
267.984	456.12
268.216	468.12
268.448	477.12
268.681	462.12
268.913	413.12
269.145	406.12
269.377	434.12
269.609	441.12
269.841	492.12
270.073	597.12
270.306	607.12
270.538	601.12
270.77	517.12
271.002	487.12
271.234	480.12
271.466	471.12
271.698	528.12
271.93	612.12
272.162	591.12
272.394	537.12
272.626	515.12
272.858	474.12
273.09	422.12
273.322	402.12
273.553	400.12
273.785	426.12
274.017	393.12
274.249	411.12
274.481	427.12
274.713	408.12
274.945	410.12
275.176	386.12
275.408	400.12
275.64	392.12
275.872	415.12
276.104	441.12
276.335	484.12
276.567	527.12
276.799	508.12
277.031	472.12
277.262	475.12
277.494	482.12
277.726	528.12
277.957	517.12
278.189	478.12
278.421	450.12
278.652	437.12
278.884	423.12
279.115	412.12
279.347	435.12
279.579	423.12
279.81	461.12
280.042	503.12
280.273	533.12
280.505	517.12
280.736	494.12
280.968	481.12
281.199	424.12
281.431	410.12
281.662	422.12
281.894	414.12
282.125	451.12
282.356	446.12
282.588	472.12
282.819	443.12
283.051	508.12
283.282	504.12
283.513	483.12
283.745	442.12
283.976	425.12
284.207	426.12
284.439	442.12
284.67	443.12
284.901	459.12
285.132	449.12
285.364	458.12
285.595	444.12
285.826	468.12
286.057	425.12
286.288	448.12
286.52	477.12
286.751	484.12
286.982	479.12
287.213	448.12
287.444	423.12
287.675	458.12
287.906	478.12
288.138	491.12
288.369	482.12
288.6	452.12
288.831	450.12
289.062	433.12
289.293	441.12
289.524	443.12
289.755	460.12
289.986	442.12
290.217	424.12
290.448	460.12
290.679	455.12
290.91	463.12
291.141	472.12
291.371	496.12
291.602	473.12
291.833	488.12
292.064	486.12
292.295	472.12
292.526	495.12
292.757	534.12
292.987	497.12
293.218	489.12
293.449	534.12
293.68	554.12
293.91	579.12
294.141	555.12
294.372	537.12
294.603	548.12
294.833	572.12
295.064	534.12
295.295	487.12
295.525	487.12
295.756	455.12
295.987	455.12
296.217	451.12
296.448	461.12
296.679	470.12
296.909	474.12
297.14	441.12
297.37	473.12
297.601	499.12
297.831	507.12
298.062	499.12
298.292	466.12
298.523	458.12
298.753	478.12
298.984	475.12
299.214	475.12
299.445	490.12
299.675	496.12
299.905	495.12
300.136	481.12
300.366	460.12
300.597	474.12
300.827	464.12
301.057	475.12
301.288	492.12
301.518	498.12
301.748	532.12
301.979	545.12
302.209	559.12
302.439	576.12
302.669	601.12
302.9	537.12
303.13	507.12
303.36	491.12
303.59	491.12
303.82	517.12
304.051	544.12
304.281	515.12
304.511	526.12
304.741	569.12
304.971	592.12
305.201	635.12
305.431	551.12
305.661	465.12
305.891	461.12
306.121	447.12
306.352	466.12
306.582	524.12
306.812	534.12
307.042	567.12
307.272	564.12
307.502	590.12
307.731	623.12
307.961	610.12
308.191	578.12
308.421	542.12
308.651	497.12
308.881	483.12
309.111	494.12
309.341	498.12
309.571	510.12
309.8	494.12
310.03	509.12
310.26	495.12
310.49	491.12
310.72	495.12
310.949	524.12
311.179	510.12
311.409	514.12
311.639	500.12
311.868	520.12
312.098	518.12
312.328	498.12
312.557	502.12
312.787	528.12
313.017	536.12
313.246	531.12
313.476	537.12
313.706	534.12
313.935	520.12
314.165	555.12
314.394	568.12
314.624	580.12
314.853	615.12
315.083	628.12
315.312	615.12
315.542	579.12
315.771	551.12
316.001	556.12
316.23	577.12
316.46	554.12
316.689	536.12
316.919	517.12
317.148	512.12
317.377	527.12
317.607	570.12
317.836	616.12
318.065	656.12
318.295	616.12
318.524	574.12
318.753	571.12
318.983	555.12
319.212	538.12
319.441	553.12
319.67	548.12
319.9	555.12
320.129	615.12
320.358	605.12
320.587	616.12
320.816	610.12
321.046	579.12
321.275	587.12
321.504	615.12
321.733	625.12
321.962	562.12
322.191	558.12
322.42	555.12
322.649	570.12
322.878	549.12
323.108	564.12
323.337	576.12
323.566	547.12
323.795	564.12
324.024	567.12
324.253	558.12
324.482	564.12
324.71	534.12
324.939	518.12
325.168	556.12
325.397	567.12
325.626	594.12
325.855	598.12
326.084	549.12
326.313	561.12
326.542	554.12
326.77	590.12
326.999	573.12
327.228	540.12
327.457	544.12
327.686	547.12
327.914	539.12
328.143	573.12
328.372	579.12
328.6	569.12
328.829	567.12
329.058	543.12
329.287	558.12
329.515	555.12
329.744	571.12
329.972	616.12
330.201	625.12
330.43	578.12
330.658	594.12
330.887	586.12
331.115	591.12
331.344	599.12
331.572	603.12
331.801	596.12
332.03	592.12
332.258	588.12
332.486	616.12
332.715	600.12
332.943	625.12
333.172	599.12
333.4	606.12
333.629	627.12
333.857	657.12
334.085	727.12
334.314	817.12
334.542	852.12
334.771	736.12
334.999	674.12
335.227	656.12
335.455	633.12
335.684	634.12
335.912	654.12
336.14	632.12
336.369	618.12
336.597	586.12
336.825	588.12
337.053	641.12
337.281	660.12
337.51	681.12
337.738	694.12
337.966	648.12
338.194	595.12
338.422	588.12
338.65	594.12
338.878	564.12
339.106	559.12
339.334	576.12
339.562	574.12
339.79	584.12
340.018	614.12
340.246	620.12
340.474	611.12
340.702	602.12
340.93	606.12
341.158	600.12
341.386	593.12
341.614	607.12
341.842	599.12
342.07	607.12
342.298	624.12
342.526	615.12
342.754	588.12
342.981	556.12
343.209	588.12
343.437	590.12
343.665	570.12
343.893	600.12
344.12	625.12
344.348	630.12
344.576	618.12
344.804	602.12
345.031	577.12
345.259	584.12
345.487	550.12
345.714	559.12
345.942	566.12
346.17	580.12
346.397	551.12
346.625	566.12
346.853	520.12
347.08	531.12
347.308	555.12
347.535	549.12
347.763	558.12
347.99	555.12
348.218	548.12
348.445	552.12
348.673	568.12
348.9	599.12
349.128	601.12
349.355	606.12
349.583	580.12
349.81	561.12
350.037	507.12
350.265	525.12
350.492	540.12
350.72	551.12
350.947	582.12
351.174	582.12
351.402	547.12
351.629	530.12
351.856	503.12
352.083	510.12
352.311	544.12
352.538	567.12
352.765	575.12
352.992	540.12
353.22	539.12
353.447	548.12
353.674	571.12
353.901	544.12
354.128	548.12
354.355	565.12
354.583	596.12
354.81	588.12
355.037	571.12
355.264	569.12
355.491	569.12
355.718	584.12
355.945	553.12
356.172	533.12
356.399	537.12
356.626	544.12
356.853	555.12
357.08	614.12
357.307	654.12
357.534	647.12
357.761	567.12
357.988	553.12
358.215	537.12
358.441	536.12
358.668	518.12
358.895	566.12
359.122	603.12
359.349	647.12
359.576	568.12
359.802	578.12
360.029	522.12
360.256	553.12
360.483	556.12
360.709	578.12
360.936	614.12
361.163	611.12
361.39	676.12
361.616	695.12
361.843	699.12
362.07	652.12
362.296	562.12
362.523	532.12
362.749	568.12
362.976	598.12
363.203	583.12
363.429	559.12
363.656	561.12
363.882	607.12
364.109	660.12
364.335	646.12
364.562	633.12
364.788	588.12
365.015	571.12
365.241	560.12
365.468	570.12
365.694	606.12
365.92	613.12
366.147	575.12
366.373	556.12
366.599	567.12
366.826	555.12
367.052	556.12
367.278	569.12
367.505	580.12
367.731	623.12
367.957	615.12
368.184	640.12
368.41	681.12
368.636	669.12
368.862	646.12
369.089	648.12
369.315	643.12
369.541	617.12
369.767	587.12
369.993	585.12
370.219	583.12
370.445	592.12
370.672	656.12
370.898	672.12
371.124	666.12
371.35	628.12
371.576	653.12
371.802	655.12
372.028	639.12
372.254	633.12
372.48	600.12
372.706	594.12
372.932	577.12
373.158	600.12
373.384	620.12
373.61	634.12
373.835	652.12
374.061	633.12
374.287	613.12
374.513	626.12
374.739	618.12
374.965	642.12
375.191	630.12
375.416	638.12
375.642	656.12
375.868	719.12
376.094	717.12
376.319	681.12
376.545	642.12
376.771	651.12
376.997	698.12
377.222	673.12
377.448	669.12
377.674	641.12
377.899	661.12
378.125	696.12
378.35	681.12
378.576	638.12
378.802	610.12
379.027	622.12
379.253	622.12
379.478	644.12
379.704	656.12
379.929	633.12
380.155	626.12
380.38	650.12
380.606	656.12
380.831	645.12
381.057	687.12
381.282	707.12
381.507	676.12
381.733	748.12
381.958	735.12
382.184	694.12
382.409	681.12
382.634	677.12
382.86	666.12
383.085	690.12
383.31	713.12
383.535	761.12
383.761	763.12
383.986	752.12
384.211	719.12
384.436	715.12
384.662	781.12
384.887	774.12
385.112	718.12
385.337	726.12
385.562	710.12
385.787	698.12
386.013	753.12
386.238	749.12
386.463	738.12
386.688	823.12
386.913	843.12
387.138	832.12
387.363	752.12
387.588	764.12
387.813	770.12
388.038	764.12
388.263	804.12
388.488	745.12
388.713	713.12
388.938	712.12
389.163	727.12
389.387	746.12
389.612	743.12
389.837	748.12
390.062	762.12
390.287	743.12
390.512	728.12
390.736	742.12
390.961	719.12
391.186	710.12
391.411	720.12
391.636	737.12
391.86	753.12
392.085	763.12
392.31	728.12
392.534	772.12
392.759	772.12
392.984	768.12
393.208	751.12
393.433	802.12
393.658	805.12
393.882	833.12
394.107	747.12
394.331	743.12
394.556	806.12
394.78	792.12
395.005	791.12
395.229	834.12
395.454	875.12
395.678	853.12
395.903	807.12
396.127	806.12
396.352	830.12
396.576	834.12
396.801	835.12
397.025	842.12
397.249	847.12
397.474	834.12
397.698	802.12
397.922	873.12
398.147	854.12
398.371	887.12
398.595	890.12
398.82	859.12
399.044	883.12
399.268	899.12
399.492	950.12
399.717	1020.12
399.941	977.12
400.165	962.12
400.389	952.12
400.613	975.12
400.837	1107.12
401.062	1173.12
401.286	1024.12
401.51	963.12
401.734	958.12
401.958	960.12
402.182	894.12
402.406	872.12
402.63	837.12
402.854	867.12
403.078	898.12
403.302	879.12
403.526	921.12
403.75	917.12
403.974	936.12
404.198	931.12
404.422	948.12
404.645	989.12
404.869	978.12
405.093	907.12
405.317	869.12
405.541	922.12
405.765	909.12
405.988	939.12
406.212	930.12
406.436	971.12
406.66	1007.12
406.883	1042.12
407.107	1108.12
407.331	1208.12
407.555	1265.12
407.778	1121.12
408.002	970.12
408.226	960.12
408.449	945.12
408.673	962.12
408.896	938.12
409.12	964.12
409.344	953.12
409.567	942.12
409.791	929.12
410.014	975.12
410.238	1002.12
410.461	1059.12
410.685	928.12
410.908	937.12
411.132	930.12
411.355	926.12
411.578	926.12
411.802	932.12
412.025	953.12
412.249	908.12
412.472	903.12
412.695	902.12
412.919	892.12
413.142	911.12
413.365	902.12
413.589	981.12
413.812	1002.12
414.035	972.12
414.258	934.12
414.482	917.12
414.705	900.12
414.928	898.12
415.151	901.12
415.374	942.12
415.597	951.12
415.821	946.12
416.044	942.12
416.267	914.12
416.49	894.12
416.713	936.12
416.936	940.12
417.159	970.12
417.382	946.12
417.605	908.12
417.828	920.12
418.051	928.12
418.274	961.12
418.497	948.12
418.72	971.12
418.943	896.12
419.166	946.12
419.389	969.12
419.611	974.12
419.834	959.12
420.057	935.12
420.28	914.12
420.503	931.12
420.726	979.12
420.948	938.12
421.171	909.12
421.394	946.12
421.617	965.12
421.839	983.12
422.062	979.12
422.285	945.12
422.507	927.12
422.73	909.12
422.953	886.12
423.175	861.12
423.398	927.12
423.621	908.12
423.843	903.12
424.066	958.12
424.288	1024.12
424.511	1034.12
424.733	999.12
424.956	951.12
425.178	940.12
425.401	909.12
425.623	939.12
425.846	912.12
426.068	967.12
426.291	983.12
426.513	955.12
426.735	974.12
426.958	1047.12
427.18	1063.12
427.402	993.12
427.625	1032.12
427.847	975.12
428.069	916.12
428.292	914.12
428.514	913.12
428.736	890.12
428.958	909.12
429.181	931.12
429.403	1054.12
429.625	1192.12
429.847	1033.12
430.069	966.12
430.292	1057.12
430.514	1030.12
430.736	1007.12
430.958	978.12
431.18	911.12
431.402	884.12
431.624	862.12
431.846	821.12
432.068	714.12
432.29	722.12
432.512	776.12
432.734	866.12
432.956	938.12
433.178	944.12
433.4	953.12
433.622	954.12
433.844	938.12
434.066	837.12
434.287	798.12
434.509	792.12
434.731	830.12
434.953	918.12
435.175	928.12
435.397	914.12
435.618	878.12
435.84	849.12
436.062	834.12
436.284	875.12
436.505	926.12
436.727	937.12
436.949	930.12
437.17	865.12
437.392	867.12
437.614	838.12
437.835	789.12
438.057	832.12
438.278	833.12
438.5	842.12
438.721	887.12
438.943	914.12
439.165	929.12
439.386	926.12
439.608	958.12
439.829	914.12
440.05	948.12
440.272	961.12
440.493	948.12
440.715	963.12
440.936	1004.12
441.158	1030.12
441.379	1050.12
441.6	1062.12
441.822	1011.12
442.043	1030.12
442.264	975.12
442.486	954.12
442.707	968.12
442.928	954.12
443.149	977.12
443.371	997.12
443.592	1017.12
443.813	1014.12
444.034	1006.12
444.255	1010.12
444.476	1005.12
444.698	1018.12
444.919	1033.12
445.14	1185.12
445.361	1115.12
445.582	1068.12
445.803	1047.12
446.024	1065.12
446.245	1076.12
446.466	1063.12
446.687	1041.12
446.908	1064.12
447.129	1025.12
447.35	1004.12
447.571	994.12
447.792	962.12
448.013	975.12
448.234	959.12
448.455	1015.12
448.675	990.12
448.896	910.12
449.117	909.12
449.338	946.12
449.559	948.12
449.779	978.12
450	1017.12
450.221	1057.12
450.442	1028.12
450.662	933.12
450.883	871.12
451.104	887.12
451.324	898.12
451.545	877.12
451.766	862.12
451.986	838.12
452.207	776.12
452.428	800.12
452.648	784.12
452.869	790.12
453.089	784.12
453.31	779.12
453.53	766.12
453.751	716.12
453.971	684.12
454.192	721.12
454.412	774.12
454.633	776.12
454.853	790.12
455.073	780.12
455.294	771.12
455.514	774.12
455.734	782.12
455.955	762.12
456.175	747.12
456.395	724.12
456.616	742.12
456.836	735.12
457.056	704.12
457.276	724.12
457.497	727.12
457.717	681.12
457.937	710.12
458.157	711.12
458.377	707.12
458.598	697.12
458.818	668.12
459.038	714.12
459.258	718.12
459.478	718.12
459.698	679.12
459.918	701.12
460.138	783.12
460.358	813.12
460.578	808.12
460.798	838.12
461.018	873.12
461.238	875.12
461.458	854.12
461.678	852.12
461.898	812.12
462.118	810.12
462.338	827.12
462.558	848.12
462.777	861.12
462.997	869.12
463.217	887.12
463.437	906.12
463.657	863.12
463.876	816.12
464.096	827.12
464.316	833.12
464.536	842.12
464.755	853.12
464.975	852.12
465.195	873.12
465.414	868.12
465.634	841.12
465.854	884.12
466.073	959.12
466.293	948.12
466.512	873.12
466.732	865.12
466.951	902.12
467.171	892.12
467.391	859.12
467.61	871.12
467.829	895.12
468.049	958.12
468.268	1043.12
468.488	940.12
468.707	907.12
468.927	913.12
469.146	893.12
469.365	906.12
469.585	938.12
469.804	901.12
470.023	915.12
470.243	947.12
470.462	927.12
470.681	904.12
470.901	925.12
471.12	898.12
471.339	931.12
471.558	939.12
471.777	902.12
471.997	907.12
472.216	865.12
472.435	778.12
472.654	754.12
472.873	742.12
473.092	833.12
473.311	808.12
473.53	794.12
473.749	835.12
473.968	831.12
474.187	834.12
474.406	858.12
474.625	859.12
474.844	891.12
475.063	860.12
475.282	854.12
475.501	852.12
475.72	836.12
475.939	878.12
476.158	887.12
476.377	892.12
476.596	855.12
476.814	804.12
477.033	761.12
477.252	863.12
477.471	896.12
477.69	938.12
477.908	932.12
478.127	986.12
478.346	1022.12
478.564	1016.12
478.783	978.12
479.002	1044.12
479.22	1004.12
479.439	1035.12
479.658	1051.12
479.876	958.12
480.095	902.12
480.313	883.12
480.532	876.12
480.751	854.12
480.969	841.12
481.188	778.12
481.406	752.12
481.624	775.12
481.843	807.12
482.061	822.12
482.28	888.12
482.498	872.12
482.717	836.12
482.935	893.12
483.153	971.12
483.372	999.12
483.59	1020.12
483.808	998.12
484.027	920.12
484.245	997.12
484.463	1234.12
484.681	1246.12
484.9	1023.12
485.118	953.12
485.336	937.12
485.554	893.12
485.772	888.12
485.99	852.12
486.209	893.12
486.427	920.12
486.645	942.12
486.863	992.12
487.081	1035.12
487.299	1014.12
487.517	1031.12
487.735	1106.12
487.953	1217.12
488.171	1182.12
488.389	1137.12
488.607	1046.12
488.825	1131.12
489.043	1073.12
489.261	974.12
489.479	1024.12
489.696	1070.12
489.914	1010.12
490.132	1020.12
490.35	1062.12
490.568	1175.12
490.786	1186.12
491.003	1218.12
491.221	1255.12
491.439	1315.12
491.657	1323.12
491.874	1372.12
492.092	1420.12
492.31	1468.12
492.527	1474.12
492.745	1358.12
492.963	1312.12
493.18	1288.12
493.398	1339.12
493.615	1327.12
493.833	1289.12
494.05	1284.12
494.268	1240.12
494.485	1231.12
494.703	1224.12
494.92	1214.12
495.138	1212.12
495.355	1218.12
495.573	1240.12
495.79	1290.12
496.008	1307.12
496.225	1227.12
496.442	1231.12
496.66	1203.12
496.877	1195.12
497.094	1252.12
497.312	1226.12
497.529	1201.12
497.746	1198.12
497.963	1287.12
498.181	1314.12
498.398	1265.12
498.615	1180.12
498.832	1154.12
499.049	1150.12
499.267	1172.12
499.484	1263.12
499.701	1331.12
499.918	1360.12
500.135	1488.12
500.352	1576.12
