Data from WStandard_LampEnergy5.5LIBS07252019.E.O._I.C._HRD10591_16-07-27-920.txt Node
Date: Thu Jul 25 16:07:27 EDT 2019
User: cochatt
Spectrometer: HR+D1059
Trigger mode: 1
Integration Time (sec): 1.000000E-1
Scans to average: 1
Electric dark correction enabled: true
Nonlinearity correction enabled: false
Boxcar width: 0
XAxis mode: Wavelengths
Number of Pixels in Spectrum: 2048
>>>>>Begin Spectral Data<<<<<
223.165	-12.81
223.4	-12.81
223.635	-12.81
223.869	-17.81
224.104	-19.81
224.338	-23.81
224.573	-23.81
224.808	-9.81
225.042	-4.81
225.277	-10.81
225.511	0.19
225.746	-4.81
225.98	15.19
226.215	20.19
226.449	11.19
226.683	7.19
226.918	31.19
227.152	43.19
227.387	44.19
227.621	48.19
227.856	43.19
228.09	48.19
228.324	67.19
228.559	55.19
228.793	145.19
229.027	368.19
229.262	392.19
229.496	411.19
229.73	403.19
229.964	433.19
230.199	462.19
230.433	484.19
230.667	503.19
230.901	530.19
231.136	495.19
231.37	489.19
231.604	470.19
231.838	496.19
232.072	493.19
232.306	459.19
232.541	496.19
232.775	572.19
233.009	625.19
233.243	597.19
233.477	522.19
233.711	544.19
233.945	592.19
234.179	576.19
234.413	607.19
234.647	659.19
234.881	632.19
235.115	571.19
235.349	573.19
235.583	583.19
235.817	587.19
236.051	551.19
236.285	575.19
236.519	606.19
236.753	687.19
236.987	684.19
237.221	685.19
237.455	771.19
237.689	761.19
237.922	694.19
238.156	678.19
238.39	688.19
238.624	732.19
238.858	766.19
239.091	805.19
239.325	819.19
239.559	943.19
239.793	995.19
240.027	1094.19
240.26	1089.19
240.494	756.19
240.728	734.19
240.961	756.19
241.195	755.19
241.429	841.19
241.662	856.19
241.896	793.19
242.13	802.19
242.363	889.19
242.597	963.19
242.83	908.19
243.064	926.19
243.298	958.19
243.531	952.19
243.765	953.19
243.998	978.19
244.232	829.19
244.465	815.19
244.699	794.19
244.932	901.19
245.166	1058.19
245.399	1009.19
245.633	949.19
245.866	925.19
246.099	957.19
246.333	974.19
246.566	981.19
246.8	1079.19
247.033	1231.19
247.266	1116.19
247.5	1091.19
247.733	1062.19
247.966	1152.19
248.2	1262.19
248.433	1212.19
248.666	1235.19
248.899	1352.19
249.133	1599.19
249.366	1808.19
249.599	1484.19
249.832	1299.19
250.066	1305.19
250.299	1339.19
250.532	1243.19
250.765	1102.19
250.998	1231.19
251.231	1265.19
251.465	1269.19
251.698	1200.19
251.931	1199.19
252.164	1232.19
252.397	1261.19
252.63	1282.19
252.863	1134.19
253.096	1121.19
253.329	1164.19
253.562	1205.19
253.795	1333.19
254.028	1329.19
254.261	1224.19
254.494	1207.19
254.727	1145.19
254.96	1175.19
255.193	1263.19
255.426	1420.19
255.659	1644.19
255.892	1720.19
256.124	1423.19
256.357	1365.19
256.59	1449.19
256.823	1467.19
257.056	1446.19
257.289	1738.19
257.521	1983.19
257.754	1743.19
257.987	1638.19
258.22	1836.19
258.452	1797.19
258.685	1425.19
258.918	1401.19
259.151	1424.19
259.383	1411.19
259.616	1229.19
259.849	1263.19
260.081	1449.19
260.314	1573.19
260.547	1732.19
260.779	1797.19
261.012	1658.19
261.244	1461.19
261.477	1401.19
261.71	1450.19
261.942	1421.19
262.175	1391.19
262.407	1545.19
262.64	1453.19
262.872	1352.19
263.105	1244.19
263.337	1315.19
263.57	1321.19
263.802	1331.19
264.035	1252.19
264.267	1203.19
264.499	1147.19
264.732	1228.19
264.964	1312.19
265.197	1350.19
265.429	1443.19
265.661	1629.19
265.894	1799.19
266.126	1857.19
266.358	1632.19
266.591	1691.19
266.823	1857.19
267.055	1654.19
267.287	1661.19
267.52	1614.19
267.752	1575.19
267.984	1562.19
268.216	1646.19
268.448	1723.19
268.681	1721.19
268.913	1536.19
269.145	1470.19
269.377	1420.19
269.609	1562.19
269.841	1787.19
270.073	2103.19
270.306	2309.19
270.538	2538.19
270.77	2117.19
271.002	1781.19
271.234	1688.19
271.466	1648.19
271.698	1848.19
271.93	2276.19
272.162	2287.19
272.394	2013.19
272.626	1968.19
272.858	1730.19
273.09	1453.19
273.322	1457.19
273.553	1393.19
273.785	1456.19
274.017	1485.19
274.249	1585.19
274.481	1617.19
274.713	1500.19
274.945	1456.19
275.176	1492.19
275.408	1415.19
275.64	1379.19
275.872	1364.19
276.104	1510.19
276.335	1675.19
276.567	1907.19
276.799	1949.19
277.031	1769.19
277.262	1659.19
277.494	1663.19
277.726	1878.19
277.957	1900.19
278.189	1739.19
278.421	1599.19
278.652	1513.19
278.884	1469.19
279.115	1510.19
279.347	1502.19
279.579	1474.19
279.81	1472.19
280.042	1650.19
280.273	1788.19
280.505	1812.19
280.736	1872.19
280.968	1752.19
281.199	1536.19
281.431	1475.19
281.662	1473.19
281.894	1451.19
282.125	1501.19
282.356	1565.19
282.588	1606.19
282.819	1579.19
283.051	1649.19
283.282	1845.19
283.513	1758.19
283.745	1551.19
283.976	1459.19
284.207	1455.19
284.439	1513.19
284.67	1475.19
284.901	1506.19
285.132	1566.19
285.364	1573.19
285.595	1591.19
285.826	1562.19
286.057	1515.19
286.288	1524.19
286.52	1566.19
286.751	1710.19
286.982	1757.19
287.213	1657.19
287.444	1485.19
287.675	1466.19
287.906	1538.19
288.138	1591.19
288.369	1579.19
288.6	1578.19
288.831	1469.19
289.062	1483.19
289.293	1519.19
289.524	1552.19
289.755	1617.19
289.986	1589.19
290.217	1467.19
290.448	1537.19
290.679	1548.19
290.91	1559.19
291.141	1617.19
291.371	1680.19
291.602	1611.19
291.833	1607.19
292.064	1696.19
292.295	1661.19
292.526	1665.19
292.757	1762.19
292.987	1673.19
293.218	1572.19
293.449	1681.19
293.68	1903.19
293.91	2103.19
294.141	1919.19
294.372	1809.19
294.603	1848.19
294.833	1940.19
295.064	1829.19
295.295	1679.19
295.525	1658.19
295.756	1537.19
295.987	1408.19
296.217	1468.19
296.448	1536.19
296.679	1523.19
296.909	1514.19
297.14	1497.19
297.37	1526.19
297.601	1625.19
297.831	1741.19
298.062	1751.19
298.292	1582.19
298.523	1535.19
298.753	1539.19
298.984	1548.19
299.214	1547.19
299.445	1636.19
299.675	1667.19
299.905	1617.19
300.136	1621.19
300.366	1536.19
300.597	1502.19
300.827	1513.19
301.057	1579.19
301.288	1675.19
301.518	1626.19
301.748	1695.19
301.979	1699.19
302.209	1790.19
302.439	1923.19
302.669	1975.19
302.9	1857.19
303.13	1665.19
303.36	1644.19
303.59	1749.19
303.82	1666.19
304.051	1631.19
304.281	1659.19
304.511	1664.19
304.741	1769.19
304.971	1937.19
305.201	2109.19
305.431	1999.19
305.661	1623.19
305.891	1455.19
306.121	1469.19
306.352	1504.19
306.582	1607.19
306.812	1669.19
307.042	1849.19
307.272	1864.19
307.502	1866.19
307.731	2027.19
307.961	2215.19
308.191	2037.19
308.421	1716.19
308.651	1664.19
308.881	1612.19
309.111	1597.19
309.341	1541.19
309.571	1596.19
309.8	1598.19
310.03	1583.19
310.26	1587.19
310.49	1567.19
310.72	1633.19
310.949	1673.19
311.179	1725.19
311.409	1675.19
311.639	1599.19
311.868	1610.19
312.098	1625.19
312.328	1625.19
312.557	1581.19
312.787	1676.19
313.017	1667.19
313.246	1708.19
313.476	1641.19
313.706	1681.19
313.935	1701.19
314.165	1706.19
314.394	1772.19
314.624	1847.19
314.853	1925.19
315.083	2037.19
315.312	2113.19
315.542	1999.19
315.771	1702.19
316.001	1760.19
316.23	1839.19
316.46	1790.19
316.689	1774.19
316.919	1711.19
317.148	1622.19
317.377	1622.19
317.607	1731.19
317.836	1999.19
318.065	2059.19
318.295	1979.19
318.524	1902.19
318.753	1849.19
318.983	1768.19
319.212	1773.19
319.441	1734.19
319.67	1671.19
319.9	1775.19
320.129	1844.19
320.358	1902.19
320.587	2021.19
320.816	1984.19
321.046	1881.19
321.275	1807.19
321.504	1822.19
321.733	1979.19
321.962	1959.19
322.191	1786.19
322.42	1748.19
322.649	1744.19
322.878	1748.19
323.108	1741.19
323.337	1787.19
323.566	1797.19
323.795	1820.19
324.024	1821.19
324.253	1783.19
324.482	1798.19
324.71	1727.19
324.939	1653.19
325.168	1665.19
325.397	1757.19
325.626	1810.19
325.855	1828.19
326.084	1723.19
326.313	1737.19
326.542	1734.19
326.77	1858.19
326.999	1821.19
327.228	1728.19
327.457	1642.19
327.686	1620.19
327.914	1683.19
328.143	1774.19
328.372	1733.19
328.6	1736.19
328.829	1742.19
329.058	1726.19
329.287	1732.19
329.515	1760.19
329.744	1725.19
329.972	1824.19
330.201	1931.19
330.43	1896.19
330.658	1847.19
330.887	1797.19
331.115	1839.19
331.344	1858.19
331.572	1822.19
331.801	1813.19
332.03	1843.19
332.258	1844.19
332.486	1834.19
332.715	1853.19
332.943	1912.19
333.172	1802.19
333.4	1854.19
333.629	1900.19
333.857	2006.19
334.085	2177.19
334.314	2524.19
334.542	2813.19
334.771	2565.19
334.999	2189.19
335.227	2095.19
335.455	1995.19
335.684	1967.19
335.912	2008.19
336.14	2087.19
336.369	2063.19
336.597	1894.19
336.825	1844.19
337.053	1924.19
337.281	2018.19
337.51	2121.19
337.738	2189.19
337.966	2099.19
338.194	1905.19
338.422	1871.19
338.65	1824.19
338.878	1828.19
339.106	1804.19
339.334	1737.19
339.562	1683.19
339.79	1731.19
340.018	1846.19
340.246	1928.19
340.474	1992.19
340.702	1897.19
340.93	1914.19
341.158	1863.19
341.386	1847.19
341.614	1845.19
341.842	1804.19
342.07	1851.19
342.298	1863.19
342.526	1843.19
342.754	1772.19
342.981	1761.19
343.209	1812.19
343.437	1793.19
343.665	1792.19
343.893	1878.19
344.12	1955.19
344.348	1949.19
344.576	1881.19
344.804	1814.19
345.031	1799.19
345.259	1829.19
345.487	1775.19
345.714	1653.19
345.942	1649.19
346.17	1709.19
346.397	1722.19
346.625	1740.19
346.853	1659.19
347.08	1598.19
347.308	1626.19
347.535	1681.19
347.763	1719.19
347.99	1688.19
348.218	1630.19
348.445	1660.19
348.673	1677.19
348.9	1705.19
349.128	1743.19
349.355	1877.19
349.583	1803.19
349.81	1745.19
350.037	1579.19
350.265	1550.19
350.492	1575.19
350.72	1624.19
350.947	1682.19
351.174	1753.19
351.402	1654.19
351.629	1660.19
351.856	1597.19
352.083	1562.19
352.311	1563.19
352.538	1666.19
352.765	1717.19
352.992	1728.19
353.22	1661.19
353.447	1610.19
353.674	1667.19
353.901	1718.19
354.128	1648.19
354.355	1596.19
354.583	1729.19
354.81	1756.19
355.037	1731.19
355.264	1732.19
355.491	1667.19
355.718	1690.19
355.945	1655.19
356.172	1618.19
356.399	1621.19
356.626	1647.19
356.853	1676.19
357.08	1822.19
357.307	1993.19
357.534	2026.19
357.761	1760.19
357.988	1653.19
358.215	1573.19
358.441	1575.19
358.668	1587.19
358.895	1616.19
359.122	1716.19
359.349	1888.19
359.576	1887.19
359.802	1681.19
360.029	1587.19
360.256	1571.19
360.483	1630.19
360.709	1638.19
360.936	1725.19
361.163	1773.19
361.39	1915.19
361.616	2090.19
361.843	2056.19
362.07	1961.19
362.296	1671.19
362.523	1635.19
362.749	1664.19
362.976	1683.19
363.203	1721.19
363.429	1658.19
363.656	1561.19
363.882	1616.19
364.109	1858.19
364.335	2015.19
364.562	1853.19
364.788	1783.19
365.015	1716.19
365.241	1630.19
365.468	1661.19
365.694	1728.19
365.92	1820.19
366.147	1708.19
366.373	1599.19
366.599	1615.19
366.826	1624.19
367.052	1612.19
367.278	1651.19
367.505	1690.19
367.731	1697.19
367.957	1694.19
368.184	1745.19
368.41	1824.19
368.636	1878.19
368.862	1862.19
369.089	1915.19
369.315	1797.19
369.541	1748.19
369.767	1677.19
369.993	1639.19
370.219	1649.19
370.445	1656.19
370.672	1766.19
370.898	1861.19
371.124	1881.19
371.35	1744.19
371.576	1793.19
371.802	1865.19
372.028	1805.19
372.254	1741.19
372.48	1686.19
372.706	1677.19
372.932	1670.19
373.158	1704.19
373.384	1695.19
373.61	1771.19
373.835	1876.19
374.061	1799.19
374.287	1767.19
374.513	1732.19
374.739	1733.19
374.965	1758.19
375.191	1816.19
375.416	1769.19
375.642	1739.19
375.868	1864.19
376.094	1952.19
376.319	1888.19
376.545	1759.19
376.771	1793.19
376.997	1881.19
377.222	1840.19
377.448	1771.19
377.674	1824.19
377.899	1815.19
378.125	1899.19
378.35	1948.19
378.576	1764.19
378.802	1705.19
379.027	1671.19
379.253	1701.19
379.478	1752.19
379.704	1724.19
379.929	1684.19
380.155	1762.19
380.38	1731.19
380.606	1751.19
380.831	1750.19
381.057	1841.19
381.282	1853.19
381.507	1800.19
381.733	1893.19
381.958	1994.19
382.184	1853.19
382.409	1784.19
382.634	1836.19
382.86	1823.19
383.085	1759.19
383.31	1805.19
383.535	1974.19
383.761	2107.19
383.986	2061.19
384.211	1972.19
384.436	1943.19
384.662	2033.19
384.887	2116.19
385.112	1995.19
385.337	2029.19
385.562	1981.19
385.787	2025.19
386.013	2040.19
386.238	2006.19
386.463	1999.19
386.688	2118.19
386.913	2260.19
387.138	2232.19
387.363	2031.19
387.588	2048.19
387.813	2009.19
388.038	2086.19
388.263	2133.19
388.488	2061.19
388.713	1911.19
388.938	1904.19
389.163	1911.19
389.387	1959.19
389.612	1938.19
389.837	2032.19
390.062	2016.19
390.287	2010.19
390.512	2011.19
390.736	1961.19
390.961	1916.19
391.186	1886.19
391.411	1925.19
391.636	1937.19
391.86	1962.19
392.085	1903.19
392.31	1947.19
392.534	1941.19
392.759	1968.19
392.984	1966.19
393.208	2020.19
393.433	2025.19
393.658	2140.19
393.882	2191.19
394.107	2006.19
394.331	1970.19
394.556	1949.19
394.78	2027.19
395.005	2123.19
395.229	2107.19
395.454	2278.19
395.678	2345.19
395.903	2183.19
396.127	2112.19
396.352	2092.19
396.576	2187.19
396.801	2160.19
397.025	2139.19
397.249	2160.19
397.474	2119.19
397.698	2103.19
397.922	2214.19
398.147	2293.19
398.371	2346.19
398.595	2366.19
398.82	2262.19
399.044	2268.19
399.268	2427.19
399.492	2549.19
399.717	2607.19
399.941	2695.19
400.165	2589.19
400.389	2549.19
400.613	2536.19
400.837	2720.19
401.062	3171.19
401.286	2765.19
401.51	2492.19
401.734	2599.19
401.958	2528.19
402.182	2342.19
402.406	2276.19
402.63	2214.19
402.854	2266.19
403.078	2260.19
403.302	2323.19
403.526	2374.19
403.75	2343.19
403.974	2365.19
404.198	2382.19
404.422	2419.19
404.645	2548.19
404.869	2534.19
405.093	2290.19
405.317	2233.19
405.541	2357.19
405.765	2360.19
405.988	2352.19
406.212	2382.19
406.436	2431.19
406.66	2561.19
406.883	2540.19
407.107	2839.19
407.331	3103.19
407.555	3283.19
407.778	3087.19
408.002	2572.19
408.226	2479.19
408.449	2485.19
408.673	2426.19
408.896	2411.19
409.12	2499.19
409.344	2446.19
409.567	2321.19
409.791	2375.19
410.014	2392.19
410.238	2517.19
410.461	2683.19
410.685	2375.19
410.908	2330.19
411.132	2392.19
411.355	2342.19
411.578	2296.19
411.802	2268.19
412.025	2330.19
412.249	2288.19
412.472	2255.19
412.695	2215.19
412.919	2240.19
413.142	2217.19
413.365	2232.19
413.589	2253.19
413.812	2371.19
414.035	2474.19
414.258	2259.19
414.482	2254.19
414.705	2233.19
414.928	2236.19
415.151	2238.19
415.374	2216.19
415.597	2329.19
415.821	2343.19
416.044	2371.19
416.267	2376.19
416.49	2175.19
416.713	2115.19
416.936	2211.19
417.159	2307.19
417.382	2358.19
417.605	2205.19
417.828	2273.19
418.051	2325.19
418.274	2249.19
418.497	2154.19
418.72	2114.19
418.943	2176.19
419.166	2330.19
419.389	2461.19
419.611	2235.19
419.834	2224.19
420.057	2270.19
420.28	2179.19
420.503	2196.19
420.726	2261.19
420.948	2247.19
421.171	2183.19
421.394	2185.19
421.617	2246.19
421.839	2247.19
422.062	2171.19
422.285	2118.19
422.507	2156.19
422.73	2136.19
422.953	2037.19
423.175	2039.19
423.398	2135.19
423.621	2173.19
423.843	2143.19
424.066	2171.19
424.288	2282.19
424.511	2337.19
424.733	2275.19
424.956	2123.19
425.178	2078.19
425.401	2092.19
425.623	2141.19
425.846	2081.19
426.068	2184.19
426.291	2275.19
426.513	2240.19
426.735	2227.19
426.958	2340.19
427.18	2562.19
427.402	2283.19
427.625	2347.19
427.847	2391.19
428.069	2243.19
428.292	2148.19
428.514	2110.19
428.736	2067.19
428.958	2131.19
429.181	2097.19
429.403	2361.19
429.625	3013.19
429.847	2621.19
430.069	2190.19
430.292	2333.19
430.514	2487.19
430.736	2248.19
430.958	2357.19
431.18	2258.19
431.402	2071.19
431.624	2100.19
431.846	2110.19
432.068	2036.19
432.29	2085.19
432.512	2151.19
432.734	2132.19
432.956	2151.19
433.178	2295.19
433.4	2272.19
433.622	2271.19
433.844	2133.19
434.066	2052.19
434.287	2062.19
434.509	2121.19
434.731	2245.19
434.953	2419.19
435.175	2372.19
435.397	2234.19
435.618	2254.19
435.84	2262.19
436.062	2158.19
436.284	2212.19
436.505	2223.19
436.727	2273.19
436.949	2165.19
437.17	2126.19
437.392	2090.19
437.614	2135.19
437.835	2078.19
438.057	2175.19
438.278	2321.19
438.5	2131.19
438.721	2071.19
438.943	2136.19
439.165	2104.19
439.386	2031.19
439.608	2086.19
439.829	2071.19
440.05	2089.19
440.272	2058.19
440.493	2007.19
440.715	2108.19
440.936	2209.19
441.158	2469.19
441.379	2407.19
441.6	2347.19
441.822	2263.19
442.043	2265.19
442.264	2184.19
442.486	2077.19
442.707	2115.19
442.928	2073.19
443.149	2142.19
443.371	2317.19
443.592	2371.19
443.813	2307.19
444.034	2319.19
444.255	2311.19
444.476	2336.19
444.698	2416.19
444.919	2330.19
445.14	2430.19
445.361	2451.19
445.582	2486.19
445.803	2366.19
446.024	2273.19
446.245	2383.19
446.466	2327.19
446.687	2201.19
446.908	2209.19
447.129	2161.19
447.35	2139.19
447.571	2165.19
447.792	2065.19
448.013	2051.19
448.234	2104.19
448.455	2194.19
448.675	2179.19
448.896	1995.19
449.117	1977.19
449.338	2038.19
449.559	2148.19
449.779	2251.19
450	2452.19
450.221	2665.19
450.442	2620.19
450.662	2282.19
450.883	1998.19
451.104	1954.19
451.324	1983.19
451.545	2085.19
451.766	2065.19
451.986	1945.19
452.207	1941.19
452.428	1894.19
452.648	1884.19
452.869	1947.19
453.089	2030.19
453.31	2029.19
453.53	2141.19
453.751	2005.19
453.971	1937.19
454.192	1937.19
454.412	2129.19
454.633	2063.19
454.853	1964.19
455.073	1853.19
455.294	1831.19
455.514	1843.19
455.734	1876.19
455.955	1892.19
456.175	1919.19
456.395	1855.19
456.616	1928.19
456.836	2005.19
457.056	1961.19
457.276	1911.19
457.497	1892.19
457.717	1795.19
457.937	1882.19
458.157	1933.19
458.377	1882.19
458.598	1879.19
458.818	1876.19
459.038	2000.19
459.258	2173.19
459.478	2121.19
459.698	2085.19
459.918	2129.19
460.138	2190.19
460.358	2241.19
460.578	2223.19
460.798	2319.19
461.018	2512.19
461.238	2349.19
461.458	2293.19
461.678	2277.19
461.898	2249.19
462.118	2151.19
462.338	2269.19
462.558	2294.19
462.777	2239.19
462.997	2322.19
463.217	2468.19
463.437	2464.19
463.657	2234.19
463.876	2279.19
464.096	2279.19
464.316	2251.19
464.536	2357.19
464.755	2346.19
464.975	2446.19
465.195	2310.19
465.414	2341.19
465.634	2400.19
465.854	2229.19
466.073	2366.19
466.293	2347.19
466.512	2089.19
466.732	2045.19
466.951	2142.19
467.171	2160.19
467.391	2044.19
467.61	2004.19
467.829	2000.19
468.049	2168.19
468.268	2494.19
468.488	2290.19
468.707	2204.19
468.927	2089.19
469.146	2107.19
469.365	2023.19
469.585	2023.19
469.804	1991.19
470.023	2020.19
470.243	2100.19
470.462	2030.19
470.681	1975.19
470.901	2097.19
471.12	2070.19
471.339	2057.19
471.558	1991.19
471.777	1971.19
471.997	1993.19
472.216	2004.19
472.435	1925.19
472.654	1993.19
472.873	2058.19
473.092	2232.19
473.311	2091.19
473.53	1951.19
473.749	1917.19
473.968	2020.19
474.187	2177.19
474.406	2264.19
474.625	2137.19
474.844	2093.19
475.063	2047.19
475.282	2077.19
475.501	2051.19
475.72	2083.19
475.939	2204.19
476.158	2153.19
476.377	2079.19
476.596	2103.19
476.814	2140.19
477.033	2189.19
477.252	2251.19
477.471	2335.19
477.69	2176.19
477.908	2188.19
478.127	2321.19
478.346	2465.19
478.564	2511.19
478.783	2393.19
479.002	2567.19
479.22	2478.19
479.439	2537.19
479.658	2935.19
479.876	2875.19
480.095	2495.19
480.313	2347.19
480.532	2260.19
480.751	2328.19
480.969	2400.19
481.188	2373.19
481.406	2337.19
481.624	2224.19
481.843	2283.19
482.061	2344.19
482.28	2407.19
482.498	2399.19
482.717	2383.19
482.935	2255.19
483.153	2281.19
483.372	2289.19
483.59	2285.19
483.808	2294.19
484.027	2345.19
484.245	2520.19
484.463	2875.19
484.681	3317.19
484.9	2533.19
485.118	2351.19
485.336	2335.19
485.554	2461.19
485.772	2552.19
485.99	2469.19
486.209	2508.19
486.427	2428.19
486.645	2448.19
486.863	2412.19
487.081	2531.19
487.299	2579.19
