Data from Zn(NO3)2Standard.Agarose3%.GreenCap.LampEnergy10E.O_HRD10591_15-06-50-942.txt Node
Date: Mon Jul 22 15:06:50 EDT 2019
User: cochatt
Spectrometer: HR+D1059
Trigger mode: 1
Integration Time (sec): 1.000000E-1
Scans to average: 1
Electric dark correction enabled: true
Nonlinearity correction enabled: false
Boxcar width: 0
XAxis mode: Wavelengths
Number of Pixels in Spectrum: 2048
>>>>>Begin Spectral Data<<<<<
223.165	-17.5
223.4	-17.5
223.635	-17.5
223.869	-5.5
224.104	-12.5
224.338	-15.5
224.573	-14.5
224.808	-9.5
225.042	-12.5
225.277	-0.5
225.511	-5.5
225.746	-4.5
225.98	2.5
226.215	16.5
226.449	21.5
226.683	16.5
226.918	16.5
227.152	24.5
227.387	35.5
227.621	34.5
227.856	34.5
228.09	45.5
228.324	38.5
228.559	48.5
228.793	58.5
229.027	54.5
229.262	66.5
229.496	58.5
229.73	69.5
229.964	80.5
230.199	68.5
230.433	75.5
230.667	70.5
230.901	85.5
231.136	77.5
231.37	82.5
231.604	86.5
231.838	74.5
232.072	80.5
232.306	69.5
232.541	74.5
232.775	80.5
233.009	82.5
233.243	82.5
233.477	85.5
233.711	86.5
233.945	69.5
234.179	100.5
234.413	89.5
234.647	85.5
234.881	74.5
235.115	79.5
235.349	82.5
235.583	85.5
235.817	66.5
236.051	67.5
236.285	85.5
236.519	78.5
236.753	91.5
236.987	85.5
237.221	78.5
237.455	79.5
237.689	72.5
237.922	74.5
238.156	72.5
238.39	66.5
238.624	65.5
238.858	68.5
239.091	70.5
239.325	75.5
239.559	67.5
239.793	63.5
240.027	70.5
240.26	64.5
240.494	69.5
240.728	65.5
240.961	69.5
241.195	76.5
241.429	87.5
241.662	67.5
241.896	71.5
242.13	72.5
242.363	74.5
242.597	70.5
242.83	82.5
243.064	69.5
243.298	87.5
243.531	81.5
243.765	73.5
243.998	71.5
244.232	63.5
244.465	48.5
244.699	80.5
244.932	63.5
245.166	85.5
245.399	73.5
245.633	70.5
245.866	72.5
246.099	68.5
246.333	65.5
246.566	66.5
246.8	83.5
247.033	70.5
247.266	75.5
247.5	86.5
247.733	73.5
247.966	79.5
248.2	81.5
248.433	84.5
248.666	70.5
248.899	78.5
249.133	82.5
249.366	77.5
249.599	66.5
249.832	75.5
250.066	73.5
250.299	83.5
250.532	80.5
250.765	65.5
250.998	84.5
251.231	69.5
251.465	69.5
251.698	69.5
251.931	80.5
252.164	76.5
252.397	75.5
252.63	80.5
252.863	68.5
253.096	66.5
253.329	81.5
253.562	66.5
253.795	74.5
254.028	73.5
254.261	85.5
254.494	80.5
254.727	66.5
254.96	89.5
255.193	69.5
255.426	84.5
255.659	87.5
255.892	81.5
256.124	76.5
256.357	75.5
256.59	75.5
256.823	72.5
257.056	73.5
257.289	85.5
257.521	78.5
257.754	81.5
257.987	92.5
258.22	86.5
258.452	79.5
258.685	69.5
258.918	76.5
259.151	84.5
259.383	85.5
259.616	62.5
259.849	79.5
260.081	67.5
260.314	68.5
260.547	87.5
260.779	74.5
261.012	92.5
261.244	73.5
261.477	68.5
261.71	93.5
261.942	73.5
262.175	81.5
262.407	78.5
262.64	65.5
262.872	64.5
263.105	87.5
263.337	69.5
263.57	68.5
263.802	73.5
264.035	77.5
264.267	86.5
264.499	86.5
264.732	88.5
264.964	74.5
265.197	82.5
265.429	88.5
265.661	80.5
265.894	88.5
266.126	84.5
266.358	75.5
266.591	80.5
266.823	62.5
267.055	79.5
267.287	83.5
267.52	67.5
267.752	82.5
267.984	87.5
268.216	59.5
268.448	75.5
268.681	74.5
268.913	83.5
269.145	79.5
269.377	88.5
269.609	75.5
269.841	84.5
270.073	85.5
270.306	86.5
270.538	89.5
270.77	78.5
271.002	69.5
271.234	78.5
271.466	92.5
271.698	77.5
271.93	87.5
272.162	85.5
272.394	78.5
272.626	86.5
272.858	95.5
273.09	62.5
273.322	80.5
273.553	84.5
273.785	80.5
274.017	86.5
274.249	99.5
274.481	90.5
274.713	83.5
274.945	81.5
275.176	72.5
275.408	73.5
275.64	73.5
275.872	75.5
276.104	78.5
276.335	74.5
276.567	79.5
276.799	69.5
277.031	64.5
277.262	74.5
277.494	68.5
277.726	86.5
277.957	75.5
278.189	79.5
278.421	84.5
278.652	66.5
278.884	73.5
279.115	85.5
279.347	82.5
279.579	69.5
279.81	92.5
280.042	74.5
280.273	81.5
280.505	85.5
280.736	72.5
280.968	81.5
281.199	83.5
281.431	92.5
281.662	73.5
281.894	91.5
282.125	87.5
282.356	81.5
282.588	91.5
282.819	65.5
283.051	88.5
283.282	74.5
283.513	82.5
283.745	87.5
283.976	84.5
284.207	89.5
284.439	77.5
284.67	89.5
284.901	81.5
285.132	86.5
285.364	71.5
285.595	86.5
285.826	80.5
286.057	84.5
286.288	67.5
286.52	76.5
286.751	78.5
286.982	75.5
287.213	89.5
287.444	101.5
287.675	75.5
287.906	90.5
288.138	74.5
288.369	63.5
288.6	79.5
288.831	81.5
289.062	90.5
289.293	84.5
289.524	79.5
289.755	72.5
289.986	77.5
290.217	87.5
290.448	87.5
290.679	83.5
290.91	86.5
291.141	78.5
291.371	86.5
291.602	84.5
291.833	82.5
292.064	70.5
292.295	89.5
292.526	90.5
292.757	84.5
292.987	93.5
293.218	93.5
293.449	68.5
293.68	94.5
293.91	101.5
294.141	80.5
294.372	85.5
294.603	81.5
294.833	79.5
295.064	77.5
295.295	89.5
295.525	88.5
295.756	90.5
295.987	85.5
296.217	75.5
296.448	78.5
296.679	79.5
296.909	86.5
297.14	87.5
297.37	93.5
297.601	92.5
297.831	79.5
298.062	83.5
298.292	67.5
298.523	79.5
298.753	78.5
298.984	82.5
299.214	82.5
299.445	83.5
299.675	85.5
299.905	83.5
300.136	66.5
300.366	77.5
300.597	95.5
300.827	81.5
301.057	76.5
301.288	89.5
301.518	85.5
301.748	91.5
301.979	84.5
302.209	81.5
302.439	85.5
302.669	79.5
302.9	94.5
303.13	85.5
303.36	82.5
303.59	95.5
303.82	68.5
304.051	72.5
304.281	81.5
304.511	84.5
304.741	82.5
304.971	80.5
305.201	80.5
305.431	77.5
305.661	87.5
305.891	73.5
306.121	86.5
306.352	79.5
306.582	87.5
306.812	86.5
307.042	73.5
307.272	73.5
307.502	74.5
307.731	94.5
307.961	85.5
308.191	82.5
308.421	89.5
308.651	88.5
308.881	78.5
309.111	88.5
309.341	78.5
309.571	85.5
309.8	71.5
310.03	88.5
310.26	79.5
310.49	84.5
310.72	90.5
310.949	82.5
311.179	95.5
311.409	78.5
311.639	92.5
311.868	90.5
312.098	92.5
312.328	78.5
312.557	95.5
312.787	76.5
313.017	83.5
313.246	71.5
313.476	91.5
313.706	83.5
313.935	83.5
314.165	88.5
314.394	75.5
314.624	85.5
314.853	74.5
315.083	80.5
315.312	71.5
315.542	76.5
315.771	90.5
316.001	77.5
316.23	87.5
316.46	82.5
316.689	102.5
316.919	81.5
317.148	80.5
317.377	90.5
317.607	79.5
317.836	98.5
318.065	98.5
318.295	90.5
318.524	69.5
318.753	74.5
318.983	87.5
319.212	85.5
319.441	72.5
319.67	84.5
319.9	84.5
320.129	84.5
320.358	81.5
320.587	85.5
320.816	83.5
321.046	85.5
321.275	89.5
321.504	95.5
321.733	81.5
321.962	70.5
322.191	91.5
322.42	77.5
322.649	73.5
322.878	83.5
323.108	83.5
323.337	74.5
323.566	90.5
323.795	89.5
324.024	81.5
324.253	85.5
324.482	83.5
324.71	75.5
324.939	91.5
325.168	86.5
325.397	82.5
325.626	91.5
325.855	78.5
326.084	85.5
326.313	79.5
326.542	93.5
326.77	78.5
326.999	87.5
327.228	83.5
327.457	56.5
327.686	75.5
327.914	79.5
328.143	95.5
328.372	85.5
328.6	79.5
328.829	72.5
329.058	90.5
329.287	75.5
329.515	72.5
329.744	90.5
329.972	78.5
330.201	69.5
330.43	83.5
330.658	79.5
330.887	99.5
331.115	87.5
331.344	84.5
331.572	86.5
331.801	73.5
332.03	94.5
332.258	103.5
332.486	77.5
332.715	72.5
332.943	85.5
333.172	90.5
333.4	80.5
333.629	89.5
333.857	71.5
334.085	85.5
334.314	81.5
334.542	79.5
334.771	85.5
334.999	96.5
335.227	88.5
335.455	79.5
335.684	86.5
335.912	87.5
336.14	85.5
336.369	84.5
336.597	85.5
336.825	71.5
337.053	79.5
337.281	75.5
337.51	84.5
337.738	95.5
337.966	89.5
338.194	79.5
338.422	82.5
338.65	83.5
338.878	82.5
339.106	85.5
339.334	89.5
339.562	84.5
339.79	81.5
340.018	74.5
340.246	74.5
340.474	95.5
340.702	70.5
340.93	80.5
341.158	85.5
341.386	85.5
341.614	95.5
341.842	90.5
342.07	81.5
342.298	96.5
342.526	78.5
342.754	84.5
342.981	98.5
343.209	79.5
343.437	75.5
343.665	76.5
343.893	80.5
344.12	88.5
344.348	73.5
344.576	88.5
344.804	73.5
345.031	79.5
345.259	74.5
345.487	80.5
345.714	90.5
345.942	84.5
346.17	66.5
346.397	90.5
346.625	89.5
346.853	94.5
347.08	71.5
347.308	98.5
347.535	85.5
347.763	77.5
347.99	90.5
348.218	82.5
348.445	81.5
348.673	90.5
348.9	82.5
349.128	79.5
349.355	81.5
349.583	98.5
349.81	86.5
350.037	88.5
350.265	79.5
350.492	82.5
350.72	76.5
350.947	80.5
351.174	72.5
351.402	81.5
351.629	84.5
351.856	84.5
352.083	85.5
352.311	80.5
352.538	73.5
352.765	93.5
352.992	81.5
353.22	79.5
353.447	81.5
353.674	82.5
353.901	103.5
354.128	88.5
354.355	95.5
354.583	82.5
354.81	83.5
355.037	75.5
355.264	91.5
355.491	92.5
355.718	67.5
355.945	85.5
356.172	73.5
356.399	86.5
356.626	84.5
356.853	85.5
357.08	74.5
357.307	61.5
357.534	83.5
357.761	71.5
357.988	97.5
358.215	86.5
358.441	85.5
358.668	87.5
358.895	92.5
359.122	80.5
359.349	90.5
359.576	81.5
359.802	79.5
360.029	80.5
360.256	79.5
360.483	78.5
360.709	84.5
360.936	94.5
361.163	82.5
361.39	95.5
361.616	76.5
361.843	84.5
362.07	85.5
362.296	71.5
362.523	86.5
362.749	83.5
362.976	88.5
363.203	72.5
363.429	83.5
363.656	85.5
363.882	83.5
364.109	81.5
364.335	86.5
364.562	72.5
364.788	83.5
365.015	83.5
365.241	86.5
365.468	77.5
365.694	73.5
365.92	79.5
366.147	77.5
366.373	72.5
366.599	78.5
366.826	82.5
367.052	75.5
367.278	85.5
367.505	86.5
367.731	82.5
367.957	77.5
368.184	72.5
368.41	72.5
368.636	83.5
368.862	96.5
369.089	75.5
369.315	82.5
369.541	80.5
369.767	83.5
369.993	92.5
370.219	100.5
370.445	84.5
370.672	82.5
370.898	81.5
371.124	80.5
371.35	85.5
371.576	86.5
371.802	82.5
372.028	75.5
372.254	72.5
372.48	79.5
372.706	72.5
372.932	79.5
373.158	88.5
373.384	78.5
373.61	76.5
373.835	88.5
374.061	74.5
374.287	75.5
374.513	90.5
374.739	92.5
374.965	89.5
375.191	93.5
375.416	74.5
375.642	99.5
375.868	82.5
376.094	72.5
376.319	83.5
376.545	88.5
376.771	93.5
376.997	89.5
377.222	87.5
377.448	76.5
377.674	95.5
377.899	82.5
378.125	81.5
378.35	87.5
378.576	89.5
378.802	86.5
379.027	86.5
379.253	86.5
379.478	80.5
379.704	88.5
379.929	84.5
380.155	84.5
380.38	79.5
380.606	81.5
380.831	76.5
381.057	82.5
381.282	88.5
381.507	79.5
381.733	84.5
381.958	92.5
382.184	93.5
382.409	103.5
382.634	92.5
382.86	84.5
383.085	72.5
383.31	89.5
383.535	90.5
383.761	78.5
383.986	96.5
384.211	88.5
384.436	82.5
384.662	90.5
384.887	89.5
385.112	87.5
385.337	91.5
385.562	99.5
385.787	92.5
386.013	87.5
386.238	89.5
386.463	90.5
386.688	96.5
386.913	87.5
387.138	82.5
387.363	82.5
387.588	92.5
387.813	77.5
388.038	87.5
388.263	99.5
388.488	81.5
388.713	81.5
388.938	83.5
389.163	85.5
389.387	99.5
389.612	85.5
389.837	84.5
390.062	89.5
390.287	105.5
390.512	93.5
390.736	78.5
390.961	85.5
391.186	100.5
391.411	85.5
391.636	93.5
391.86	102.5
392.085	82.5
392.31	83.5
392.534	84.5
392.759	90.5
392.984	98.5
393.208	93.5
393.433	84.5
393.658	89.5
393.882	80.5
394.107	90.5
394.331	97.5
394.556	94.5
394.78	103.5
395.005	90.5
395.229	86.5
395.454	86.5
395.678	89.5
395.903	83.5
396.127	121.5
396.352	88.5
396.576	100.5
396.801	86.5
397.025	73.5
397.249	94.5
397.474	98.5
397.698	89.5
397.922	93.5
398.147	80.5
398.371	94.5
398.595	95.5
398.82	99.5
399.044	87.5
399.268	84.5
399.492	96.5
399.717	99.5
399.941	95.5
400.165	86.5
400.389	87.5
400.613	99.5
400.837	84.5
401.062	101.5
401.286	103.5
401.51	94.5
401.734	85.5
401.958	75.5
402.182	85.5
402.406	95.5
402.63	85.5
402.854	89.5
403.078	102.5
403.302	102.5
403.526	85.5
403.75	96.5
403.974	105.5
404.198	90.5
404.422	85.5
404.645	72.5
404.869	84.5
405.093	100.5
405.317	99.5
405.541	100.5
405.765	95.5
405.988	82.5
406.212	90.5
406.436	99.5
406.66	93.5
406.883	96.5
407.107	99.5
407.331	90.5
407.555	97.5
407.778	102.5
408.002	97.5
408.226	94.5
408.449	102.5
408.673	110.5
408.896	93.5
409.12	98.5
409.344	100.5
409.567	99.5
409.791	90.5
410.014	98.5
410.238	86.5
410.461	115.5
410.685	98.5
410.908	96.5
411.132	94.5
411.355	99.5
411.578	89.5
411.802	97.5
412.025	111.5
412.249	107.5
412.472	88.5
412.695	112.5
412.919	80.5
413.142	81.5
413.365	99.5
413.589	95.5
413.812	94.5
414.035	103.5
414.258	102.5
414.482	98.5
414.705	98.5
414.928	79.5
415.151	97.5
415.374	101.5
415.597	90.5
415.821	97.5
416.044	98.5
416.267	96.5
416.49	118.5
416.713	99.5
416.936	83.5
417.159	96.5
417.382	94.5
417.605	86.5
417.828	97.5
418.051	109.5
418.274	114.5
418.497	111.5
418.72	99.5
418.943	101.5
419.166	102.5
419.389	105.5
419.611	113.5
419.834	91.5
420.057	119.5
420.28	101.5
420.503	115.5
420.726	103.5
420.948	104.5
421.171	98.5
421.394	94.5
421.617	104.5
421.839	125.5
422.062	110.5
422.285	104.5
422.507	107.5
422.73	107.5
422.953	107.5
423.175	75.5
423.398	102.5
423.621	97.5
423.843	91.5
424.066	105.5
424.288	104.5
424.511	102.5
424.733	98.5
424.956	107.5
425.178	109.5
425.401	119.5
425.623	111.5
425.846	112.5
426.068	100.5
426.291	100.5
426.513	94.5
426.735	94.5
426.958	101.5
427.18	105.5
427.402	115.5
427.625	98.5
427.847	88.5
428.069	98.5
428.292	113.5
428.514	110.5
428.736	99.5
428.958	105.5
429.181	98.5
429.403	97.5
429.625	102.5
429.847	104.5
430.069	110.5
430.292	90.5
430.514	98.5
430.736	93.5
430.958	101.5
431.18	105.5
431.402	100.5
431.624	94.5
431.846	96.5
432.068	91.5
432.29	94.5
432.512	98.5
432.734	100.5
432.956	97.5
433.178	94.5
433.4	86.5
433.622	112.5
433.844	104.5
434.066	83.5
434.287	87.5
434.509	109.5
434.731	85.5
434.953	102.5
435.175	87.5
435.397	90.5
435.618	82.5
435.84	91.5
436.062	91.5
436.284	101.5
436.505	104.5
436.727	115.5
436.949	95.5
437.17	92.5
437.392	74.5
437.614	96.5
437.835	93.5
438.057	89.5
438.278	98.5
438.5	96.5
438.721	97.5
438.943	96.5
439.165	102.5
439.386	104.5
439.608	116.5
439.829	113.5
440.05	93.5
440.272	106.5
440.493	114.5
440.715	119.5
440.936	94.5
441.158	100.5
441.379	104.5
441.6	119.5
441.822	114.5
442.043	110.5
442.264	99.5
442.486	95.5
442.707	95.5
442.928	94.5
443.149	98.5
443.371	114.5
443.592	108.5
443.813	102.5
444.034	104.5
444.255	98.5
444.476	97.5
444.698	102.5
444.919	98.5
445.14	208.5
445.361	158.5
445.582	108.5
445.803	98.5
446.024	98.5
446.245	120.5
446.466	114.5
446.687	110.5
446.908	105.5
447.129	114.5
447.35	119.5
447.571	121.5
447.792	105.5
448.013	115.5
448.234	100.5
448.455	103.5
448.675	106.5
448.896	106.5
449.117	101.5
449.338	99.5
449.559	97.5
449.779	104.5
450	97.5
450.221	116.5
450.442	99.5
450.662	111.5
450.883	96.5
451.104	96.5
451.324	103.5
451.545	111.5
451.766	101.5
451.986	108.5
452.207	111.5
452.428	103.5
452.648	105.5
452.869	89.5
453.089	77.5
453.31	90.5
453.53	89.5
453.751	83.5
453.971	89.5
454.192	95.5
454.412	96.5
454.633	111.5
454.853	112.5
455.073	101.5
455.294	92.5
455.514	96.5
455.734	106.5
455.955	102.5
456.175	88.5
456.395	91.5
456.616	93.5
456.836	91.5
457.056	80.5
457.276	81.5
457.497	82.5
457.717	93.5
457.937	85.5
458.157	101.5
458.377	112.5
458.598	88.5
458.818	78.5
459.038	72.5
459.258	74.5
459.478	74.5
459.698	74.5
459.918	74.5
460.138	91.5
460.358	88.5
460.578	98.5
460.798	93.5
461.018	87.5
461.238	101.5
461.458	96.5
461.678	93.5
461.898	90.5
462.118	97.5
462.338	82.5
462.558	88.5
462.777	101.5
462.997	99.5
463.217	103.5
463.437	85.5
463.657	101.5
463.876	86.5
464.096	97.5
464.316	94.5
464.536	94.5
464.755	88.5
464.975	84.5
465.195	83.5
465.414	98.5
465.634	98.5
465.854	83.5
466.073	99.5
466.293	91.5
466.512	93.5
466.732	83.5
466.951	108.5
467.171	98.5
467.391	105.5
467.61	97.5
467.829	98.5
468.049	102.5
468.268	101.5
468.488	119.5
468.707	99.5
468.927	93.5
469.146	98.5
469.365	117.5
469.585	109.5
469.804	109.5
470.023	116.5
470.243	105.5
470.462	113.5
470.681	106.5
470.901	113.5
471.12	116.5
471.339	106.5
471.558	111.5
471.777	101.5
471.997	102.5
472.216	94.5
472.435	95.5
472.654	93.5
472.873	106.5
473.092	91.5
473.311	97.5
473.53	87.5
473.749	95.5
473.968	102.5
474.187	100.5
474.406	94.5
474.625	99.5
474.844	110.5
475.063	97.5
475.282	98.5
475.501	94.5
475.72	85.5
475.939	96.5
476.158	92.5
476.377	106.5
476.596	100.5
476.814	104.5
477.033	90.5
477.252	102.5
477.471	96.5
477.69	94.5
477.908	114.5
478.127	101.5
478.346	99.5
478.564	86.5
478.783	93.5
479.002	101.5
479.22	90.5
479.439	101.5
479.658	97.5
479.876	87.5
480.095	78.5
480.313	98.5
480.532	94.5
480.751	88.5
480.969	79.5
481.188	86.5
481.406	84.5
481.624	78.5
481.843	68.5
482.061	75.5
482.28	81.5
482.498	84.5
482.717	97.5
482.935	93.5
483.153	109.5
483.372	107.5
483.59	104.5
483.808	101.5
484.027	104.5
484.245	106.5
484.463	100.5
484.681	111.5
484.9	88.5
485.118	101.5
485.336	100.5
485.554	94.5
485.772	91.5
485.99	91.5
486.209	79.5
486.427	100.5
486.645	109.5
486.863	102.5
487.081	99.5
487.299	103.5
487.517	107.5
487.735	122.5
487.953	129.5
488.171	120.5
488.389	126.5
488.607	112.5
488.825	107.5
489.043	118.5
489.261	109.5
489.479	113.5
489.696	104.5
489.914	114.5
490.132	103.5
490.35	106.5
490.568	115.5
490.786	107.5
491.003	109.5
491.221	129.5
491.439	142.5
491.657	129.5
491.874	120.5
492.092	140.5
492.31	161.5
492.527	148.5
492.745	142.5
492.963	139.5
493.18	125.5
493.398	131.5
493.615	119.5
493.833	118.5
494.05	121.5
494.268	129.5
494.485	126.5
494.703	119.5
494.92	127.5
495.138	137.5
495.355	116.5
495.573	118.5
495.79	138.5
496.008	123.5
496.225	115.5
496.442	120.5
496.66	118.5
496.877	116.5
497.094	114.5
497.312	110.5
497.529	107.5
497.746	125.5
497.963	109.5
498.181	118.5
498.398	121.5
498.615	98.5
498.832	82.5
499.049	94.5
499.267	106.5
499.484	94.5
499.701	102.5
499.918	98.5
500.135	107.5
500.352	115.5
500.569	95.5
500.786	101.5
501.003	115.5
501.22	101.5
501.437	111.5
501.654	101.5
501.871	108.5
502.088	98.5
502.305	104.5
502.522	104.5
502.739	97.5
502.956	98.5
503.172	102.5
503.389	90.5
503.606	84.5
503.823	92.5
504.04	97.5
504.256	101.5
504.473	100.5
504.69	94.5
504.907	104.5
505.123	76.5
505.34	86.5
505.557	90.5
505.773	99.5
505.99	106.5
506.207	99.5
506.423	92.5
506.64	99.5
506.856	98.5
507.073	99.5
507.289	95.5
507.506	106.5
507.722	101.5
507.939	95.5
508.155	98.5
508.372	102.5
508.588	88.5
508.805	88.5
509.021	89.5
509.238	99.5
509.454	98.5
509.67	100.5
509.887	105.5
510.103	78.5
510.319	81.5
510.536	83.5
510.752	92.5
510.968	84.5
511.184	90.5
511.401	79.5
511.617	83.5
511.833	79.5
512.049	85.5
512.265	96.5
512.481	79.5
512.698	75.5
512.914	89.5
513.13	87.5
513.346	74.5
513.562	89.5
513.778	91.5
513.994	96.5
514.21	89.5
514.426	94.5
514.642	97.5
514.858	84.5
515.074	90.5
515.29	86.5
515.506	76.5
515.721	87.5
515.937	98.5
516.153	81.5
516.369	69.5
516.585	79.5
516.801	82.5
517.016	86.5
517.232	78.5
517.448	94.5
517.664	84.5
517.879	83.5
518.095	82.5
518.311	77.5
518.527	85.5
518.742	76.5
518.958	82.5
519.173	91.5
519.389	98.5
519.605	98.5
519.82	97.5
520.036	92.5
520.251	79.5
520.467	90.5
520.682	71.5
520.898	77.5
521.113	95.5
521.329	89.5
521.544	83.5
521.76	76.5
521.975	77.5
522.19	84.5
522.406	90.5
522.621	82.5
522.836	90.5
523.052	84.5
523.267	85.5
523.482	94.5
523.698	84.5
523.913	96.5
524.128	98.5
524.343	95.5
524.559	82.5
524.774	107.5
524.989	96.5
525.204	104.5
525.419	82.5
525.634	93.5
525.849	91.5
526.064	109.5
526.28	91.5
526.495	87.5
526.71	81.5
526.925	65.5
527.14	79.5
527.355	90.5
527.57	86.5
527.785	91.5
527.999	85.5
528.214	78.5
528.429	94.5
528.644	106.5
528.859	107.5
529.074	116.5
529.289	102.5
529.503	109.5
529.718	104.5
529.933	97.5
530.148	88.5
530.363	81.5
530.577	87.5
530.792	79.5
531.007	88.5
531.221	84.5
531.436	86.5
531.651	90.5
531.865	86.5
532.08	75.5
532.295	90.5
532.509	87.5
532.724	75.5
532.938	84.5
533.153	77.5
533.367	87.5
533.582	105.5
533.796	96.5
534.011	99.5
534.225	94.5
534.44	95.5
534.654	87.5
534.868	81.5
535.083	74.5
535.297	88.5
535.511	82.5
535.726	108.5
