Data from Zn(NO3)2Standard.Agarose3%.GreenCap.LampEnergy5.5.E.O_HRD10591_15-01-37-768.txt Node
Date: Mon Jul 22 15:01:37 EDT 2019
User: cochatt
Spectrometer: HR+D1059
Trigger mode: 1
Integration Time (sec): 1.000000E-1
Scans to average: 1
Electric dark correction enabled: true
Nonlinearity correction enabled: false
Boxcar width: 0
XAxis mode: Wavelengths
Number of Pixels in Spectrum: 2048
>>>>>Begin Spectral Data<<<<<
223.165	-28.44
223.4	-28.44
223.635	-28.44
223.869	-10.44
224.104	-26.44
224.338	-10.44
224.573	-3.44
224.808	-9.44
225.042	0.56
225.277	3.56
225.511	-7.44
225.746	12.56
225.98	2.56
226.215	11.56
226.449	15.56
226.683	21.56
226.918	9.56
227.152	18.56
227.387	32.56
227.621	37.56
227.856	38.56
228.09	35.56
228.324	52.56
228.559	70.56
228.793	68.56
229.027	79.56
229.262	68.56
229.496	71.56
229.73	67.56
229.964	86.56
230.199	63.56
230.433	86.56
230.667	78.56
230.901	88.56
231.136	78.56
231.37	85.56
231.604	78.56
231.838	85.56
232.072	100.56
232.306	77.56
232.541	90.56
232.775	80.56
233.009	83.56
233.243	87.56
233.477	86.56
233.711	88.56
233.945	99.56
234.179	78.56
234.413	88.56
234.647	106.56
234.881	93.56
235.115	98.56
235.349	79.56
235.583	77.56
235.817	82.56
236.051	80.56
236.285	84.56
236.519	84.56
236.753	77.56
236.987	70.56
237.221	76.56
237.455	83.56
237.689	80.56
237.922	80.56
238.156	80.56
238.39	81.56
238.624	86.56
238.858	78.56
239.091	84.56
239.325	78.56
239.559	76.56
239.793	83.56
240.027	90.56
240.26	93.56
240.494	82.56
240.728	87.56
240.961	68.56
241.195	77.56
241.429	76.56
241.662	73.56
241.896	92.56
242.13	88.56
242.363	82.56
242.597	80.56
242.83	86.56
243.064	72.56
243.298	72.56
243.531	65.56
243.765	73.56
243.998	72.56
244.232	84.56
244.465	76.56
244.699	86.56
244.932	88.56
245.166	74.56
245.399	87.56
245.633	71.56
245.866	93.56
246.099	85.56
246.333	78.56
246.566	71.56
246.8	61.56
247.033	84.56
247.266	77.56
247.5	80.56
247.733	73.56
247.966	85.56
248.2	84.56
248.433	78.56
248.666	72.56
248.899	73.56
249.133	89.56
249.366	74.56
249.599	90.56
249.832	92.56
250.066	88.56
250.299	80.56
250.532	77.56
250.765	82.56
250.998	84.56
251.231	81.56
251.465	81.56
251.698	76.56
251.931	78.56
252.164	84.56
252.397	67.56
252.63	80.56
252.863	73.56
253.096	80.56
253.329	78.56
253.562	69.56
253.795	83.56
254.028	84.56
254.261	74.56
254.494	81.56
254.727	84.56
254.96	80.56
255.193	72.56
255.426	75.56
255.659	83.56
255.892	80.56
256.124	81.56
256.357	92.56
256.59	84.56
256.823	95.56
257.056	70.56
257.289	71.56
257.521	84.56
257.754	83.56
257.987	91.56
258.22	78.56
258.452	86.56
258.685	83.56
258.918	85.56
259.151	86.56
259.383	83.56
259.616	74.56
259.849	66.56
260.081	84.56
260.314	77.56
260.547	89.56
260.779	80.56
261.012	87.56
261.244	82.56
261.477	71.56
261.71	78.56
261.942	83.56
262.175	81.56
262.407	82.56
262.64	90.56
262.872	83.56
263.105	87.56
263.337	80.56
263.57	91.56
263.802	69.56
264.035	85.56
264.267	74.56
264.499	82.56
264.732	83.56
264.964	79.56
265.197	80.56
265.429	74.56
265.661	79.56
265.894	90.56
266.126	83.56
266.358	101.56
266.591	83.56
266.823	92.56
267.055	84.56
267.287	91.56
267.52	91.56
267.752	94.56
267.984	85.56
268.216	88.56
268.448	87.56
268.681	94.56
268.913	89.56
269.145	80.56
269.377	73.56
269.609	79.56
269.841	76.56
270.073	80.56
270.306	82.56
270.538	84.56
270.77	86.56
271.002	80.56
271.234	77.56
271.466	81.56
271.698	74.56
271.93	85.56
272.162	87.56
272.394	76.56
272.626	85.56
272.858	74.56
273.09	87.56
273.322	80.56
273.553	104.56
273.785	86.56
274.017	82.56
274.249	89.56
274.481	96.56
274.713	96.56
274.945	80.56
275.176	83.56
275.408	74.56
275.64	100.56
275.872	86.56
276.104	90.56
276.335	73.56
276.567	79.56
276.799	99.56
277.031	81.56
277.262	84.56
277.494	85.56
277.726	99.56
277.957	91.56
278.189	82.56
278.421	89.56
278.652	90.56
278.884	85.56
279.115	94.56
279.347	95.56
279.579	79.56
279.81	77.56
280.042	91.56
280.273	85.56
280.505	94.56
280.736	101.56
280.968	78.56
281.199	94.56
281.431	90.56
281.662	98.56
281.894	84.56
282.125	98.56
282.356	75.56
282.588	89.56
282.819	80.56
283.051	91.56
283.282	87.56
283.513	95.56
283.745	92.56
283.976	90.56
284.207	84.56
284.439	86.56
284.67	88.56
284.901	87.56
285.132	88.56
285.364	94.56
285.595	91.56
285.826	76.56
286.057	87.56
286.288	92.56
286.52	78.56
286.751	79.56
286.982	92.56
287.213	77.56
287.444	88.56
287.675	98.56
287.906	106.56
288.138	98.56
288.369	87.56
288.6	84.56
288.831	96.56
289.062	95.56
289.293	82.56
289.524	79.56
289.755	88.56
289.986	93.56
290.217	86.56
290.448	86.56
290.679	73.56
290.91	84.56
291.141	71.56
291.371	82.56
291.602	83.56
291.833	83.56
292.064	73.56
292.295	83.56
292.526	82.56
292.757	70.56
292.987	67.56
293.218	89.56
293.449	84.56
293.68	69.56
293.91	85.56
294.141	94.56
294.372	84.56
294.603	76.56
294.833	83.56
295.064	77.56
295.295	74.56
295.525	79.56
295.756	89.56
295.987	86.56
296.217	88.56
296.448	102.56
296.679	85.56
296.909	85.56
297.14	95.56
297.37	73.56
297.601	75.56
297.831	77.56
298.062	98.56
298.292	84.56
298.523	100.56
298.753	79.56
298.984	80.56
299.214	94.56
299.445	79.56
299.675	84.56
299.905	85.56
300.136	88.56
300.366	77.56
300.597	92.56
300.827	93.56
301.057	83.56
301.288	84.56
301.518	96.56
301.748	88.56
301.979	82.56
302.209	80.56
302.439	90.56
302.669	86.56
302.9	89.56
303.13	90.56
303.36	99.56
303.59	91.56
303.82	81.56
304.051	86.56
304.281	98.56
304.511	96.56
304.741	90.56
304.971	102.56
305.201	90.56
305.431	99.56
305.661	64.56
305.891	101.56
306.121	84.56
306.352	84.56
306.582	71.56
306.812	90.56
307.042	85.56
307.272	84.56
307.502	92.56
307.731	95.56
307.961	95.56
308.191	83.56
308.421	87.56
308.651	98.56
308.881	83.56
309.111	62.56
309.341	81.56
309.571	70.56
309.8	72.56
310.03	79.56
310.26	82.56
310.49	86.56
310.72	95.56
310.949	89.56
311.179	86.56
311.409	78.56
311.639	86.56
311.868	74.56
312.098	92.56
312.328	84.56
312.557	81.56
312.787	87.56
313.017	75.56
313.246	88.56
313.476	85.56
313.706	80.56
313.935	93.56
314.165	84.56
314.394	84.56
314.624	81.56
314.853	84.56
315.083	87.56
315.312	94.56
315.542	82.56
315.771	82.56
316.001	87.56
316.23	93.56
316.46	91.56
316.689	95.56
316.919	76.56
317.148	90.56
317.377	90.56
317.607	72.56
317.836	77.56
318.065	101.56
318.295	100.56
318.524	92.56
318.753	82.56
318.983	89.56
319.212	92.56
319.441	66.56
319.67	79.56
319.9	73.56
320.129	82.56
320.358	92.56
320.587	86.56
320.816	85.56
321.046	92.56
321.275	78.56
321.504	87.56
321.733	77.56
321.962	96.56
322.191	86.56
322.42	87.56
322.649	93.56
322.878	85.56
323.108	90.56
323.337	80.56
323.566	93.56
323.795	94.56
324.024	86.56
324.253	81.56
324.482	82.56
324.71	77.56
324.939	70.56
325.168	74.56
325.397	83.56
325.626	95.56
325.855	83.56
326.084	83.56
326.313	76.56
326.542	83.56
326.77	82.56
326.999	83.56
327.228	83.56
327.457	78.56
327.686	90.56
327.914	78.56
328.143	91.56
328.372	96.56
328.6	83.56
328.829	90.56
329.058	85.56
329.287	103.56
329.515	78.56
329.744	92.56
329.972	90.56
330.201	76.56
330.43	72.56
330.658	76.56
330.887	75.56
331.115	86.56
331.344	88.56
331.572	94.56
331.801	98.56
332.03	103.56
332.258	87.56
332.486	76.56
332.715	90.56
332.943	86.56
333.172	90.56
333.4	89.56
333.629	97.56
333.857	90.56
334.085	80.56
334.314	86.56
334.542	87.56
334.771	79.56
334.999	90.56
335.227	78.56
335.455	89.56
335.684	88.56
335.912	94.56
336.14	92.56
336.369	87.56
336.597	87.56
336.825	85.56
337.053	71.56
337.281	94.56
337.51	82.56
337.738	87.56
337.966	86.56
338.194	77.56
338.422	87.56
338.65	86.56
338.878	70.56
339.106	81.56
339.334	87.56
339.562	86.56
339.79	84.56
340.018	92.56
340.246	91.56
340.474	89.56
340.702	90.56
340.93	84.56
341.158	84.56
341.386	90.56
341.614	89.56
341.842	83.56
342.07	81.56
342.298	77.56
342.526	83.56
342.754	90.56
342.981	84.56
343.209	86.56
343.437	88.56
343.665	89.56
343.893	77.56
344.12	77.56
344.348	86.56
344.576	90.56
344.804	92.56
345.031	80.56
345.259	76.56
345.487	70.56
345.714	83.56
345.942	101.56
346.17	91.56
346.397	96.56
346.625	92.56
346.853	83.56
347.08	84.56
347.308	80.56
347.535	70.56
347.763	89.56
347.99	85.56
348.218	87.56
348.445	71.56
348.673	102.56
348.9	72.56
349.128	85.56
349.355	85.56
349.583	99.56
349.81	82.56
350.037	84.56
350.265	85.56
350.492	93.56
350.72	70.56
350.947	84.56
351.174	98.56
351.402	84.56
351.629	73.56
351.856	86.56
352.083	84.56
352.311	84.56
352.538	75.56
352.765	80.56
352.992	95.56
353.22	95.56
353.447	91.56
353.674	93.56
353.901	85.56
354.128	80.56
354.355	64.56
354.583	79.56
354.81	91.56
355.037	90.56
355.264	84.56
355.491	80.56
355.718	85.56
355.945	90.56
356.172	78.56
356.399	83.56
356.626	82.56
356.853	76.56
357.08	55.56
357.307	90.56
357.534	80.56
357.761	87.56
357.988	78.56
358.215	82.56
358.441	76.56
358.668	77.56
358.895	73.56
359.122	85.56
359.349	97.56
359.576	84.56
359.802	79.56
360.029	88.56
360.256	85.56
360.483	88.56
360.709	87.56
360.936	86.56
361.163	90.56
361.39	73.56
361.616	84.56
361.843	80.56
362.07	95.56
362.296	93.56
362.523	91.56
362.749	91.56
362.976	90.56
363.203	89.56
363.429	88.56
363.656	82.56
363.882	85.56
364.109	96.56
364.335	77.56
364.562	85.56
364.788	80.56
365.015	87.56
365.241	74.56
365.468	94.56
365.694	79.56
365.92	87.56
366.147	73.56
366.373	70.56
366.599	96.56
366.826	75.56
367.052	86.56
367.278	84.56
367.505	96.56
367.731	92.56
367.957	70.56
368.184	74.56
368.41	78.56
368.636	100.56
368.862	79.56
369.089	86.56
369.315	95.56
369.541	84.56
369.767	68.56
369.993	91.56
370.219	82.56
370.445	81.56
370.672	81.56
370.898	66.56
371.124	99.56
371.35	93.56
371.576	88.56
371.802	93.56
372.028	82.56
372.254	96.56
372.48	93.56
372.706	86.56
372.932	79.56
373.158	84.56
373.384	81.56
373.61	87.56
373.835	74.56
374.061	78.56
374.287	84.56
374.513	86.56
374.739	89.56
374.965	77.56
375.191	83.56
375.416	85.56
375.642	77.56
375.868	87.56
376.094	84.56
376.319	92.56
376.545	80.56
376.771	90.56
376.997	79.56
377.222	75.56
377.448	94.56
377.674	62.56
377.899	89.56
378.125	81.56
378.35	73.56
378.576	78.56
378.802	85.56
379.027	78.56
379.253	81.56
379.478	77.56
379.704	73.56
379.929	82.56
380.155	86.56
380.38	95.56
380.606	93.56
380.831	84.56
381.057	89.56
381.282	77.56
381.507	90.56
381.733	67.56
381.958	82.56
382.184	93.56
382.409	70.56
382.634	76.56
382.86	75.56
383.085	82.56
383.31	84.56
383.535	75.56
383.761	71.56
383.986	73.56
384.211	84.56
384.436	88.56
384.662	86.56
384.887	91.56
385.112	80.56
385.337	79.56
385.562	79.56
385.787	96.56
386.013	90.56
386.238	85.56
386.463	96.56
386.688	77.56
386.913	82.56
387.138	97.56
387.363	78.56
387.588	91.56
387.813	82.56
388.038	103.56
388.263	92.56
388.488	87.56
388.713	82.56
388.938	85.56
389.163	91.56
389.387	74.56
389.612	95.56
389.837	78.56
390.062	74.56
390.287	78.56
390.512	75.56
390.736	96.56
390.961	83.56
391.186	103.56
391.411	81.56
391.636	74.56
391.86	77.56
392.085	94.56
392.31	96.56
392.534	86.56
392.759	75.56
392.984	82.56
393.208	87.56
393.433	85.56
393.658	72.56
393.882	84.56
394.107	84.56
394.331	80.56
394.556	93.56
394.78	87.56
395.005	104.56
395.229	86.56
395.454	90.56
395.678	84.56
395.903	90.56
396.127	84.56
396.352	90.56
396.576	94.56
396.801	85.56
397.025	76.56
397.249	87.56
397.474	93.56
397.698	77.56
397.922	94.56
398.147	92.56
398.371	73.56
398.595	88.56
398.82	90.56
399.044	106.56
399.268	77.56
399.492	76.56
399.717	90.56
399.941	83.56
400.165	79.56
400.389	95.56
400.613	87.56
400.837	83.56
401.062	92.56
401.286	94.56
401.51	91.56
401.734	87.56
401.958	74.56
402.182	82.56
402.406	85.56
402.63	72.56
402.854	68.56
403.078	101.56
403.302	95.56
403.526	80.56
403.75	102.56
403.974	92.56
404.198	98.56
404.422	82.56
404.645	94.56
404.869	84.56
405.093	86.56
405.317	79.56
405.541	78.56
405.765	63.56
405.988	89.56
406.212	74.56
406.436	76.56
406.66	94.56
406.883	83.56
407.107	100.56
407.331	95.56
407.555	80.56
407.778	76.56
408.002	85.56
408.226	87.56
408.449	90.56
408.673	93.56
408.896	80.56
409.12	90.56
409.344	79.56
409.567	88.56
409.791	92.56
410.014	90.56
410.238	94.56
410.461	91.56
410.685	89.56
410.908	94.56
411.132	95.56
411.355	91.56
411.578	96.56
411.802	91.56
412.025	95.56
412.249	97.56
412.472	86.56
412.695	90.56
412.919	91.56
413.142	74.56
413.365	90.56
413.589	84.56
413.812	95.56
414.035	94.56
414.258	80.56
414.482	100.56
414.705	84.56
414.928	106.56
415.151	71.56
415.374	82.56
415.597	84.56
415.821	79.56
416.044	74.56
416.267	79.56
416.49	89.56
416.713	98.56
416.936	72.56
417.159	85.56
417.382	81.56
417.605	87.56
417.828	85.56
418.051	88.56
418.274	94.56
418.497	89.56
418.72	78.56
418.943	98.56
419.166	95.56
419.389	105.56
419.611	76.56
419.834	93.56
420.057	114.56
420.28	96.56
420.503	94.56
420.726	104.56
420.948	100.56
421.171	95.56
421.394	89.56
421.617	95.56
421.839	79.56
422.062	83.56
422.285	94.56
422.507	98.56
422.73	103.56
422.953	93.56
423.175	81.56
423.398	88.56
423.621	77.56
423.843	80.56
424.066	94.56
424.288	98.56
424.511	86.56
424.733	97.56
424.956	92.56
425.178	81.56
425.401	92.56
425.623	84.56
425.846	94.56
426.068	90.56
426.291	83.56
426.513	95.56
426.735	91.56
426.958	90.56
427.18	84.56
427.402	94.56
427.625	74.56
427.847	87.56
428.069	81.56
428.292	76.56
428.514	101.56
428.736	84.56
428.958	83.56
429.181	94.56
429.403	91.56
429.625	103.56
429.847	100.56
430.069	103.56
430.292	88.56
430.514	96.56
430.736	83.56
430.958	84.56
431.18	87.56
431.402	101.56
431.624	102.56
431.846	85.56
432.068	93.56
432.29	98.56
432.512	95.56
432.734	80.56
432.956	82.56
433.178	104.56
433.4	80.56
433.622	87.56
433.844	96.56
434.066	89.56
434.287	90.56
434.509	89.56
434.731	78.56
434.953	83.56
435.175	82.56
435.397	82.56
435.618	94.56
435.84	101.56
436.062	80.56
436.284	95.56
436.505	98.56
436.727	102.56
436.949	104.56
437.17	96.56
437.392	93.56
437.614	92.56
437.835	87.56
438.057	77.56
438.278	82.56
438.5	91.56
438.721	89.56
438.943	91.56
439.165	86.56
439.386	98.56
439.608	91.56
439.829	94.56
440.05	92.56
440.272	95.56
440.493	105.56
440.715	98.56
440.936	89.56
441.158	92.56
441.379	99.56
441.6	90.56
441.822	83.56
442.043	90.56
442.264	87.56
442.486	92.56
442.707	93.56
442.928	87.56
443.149	92.56
443.371	95.56
443.592	92.56
443.813	92.56
444.034	92.56
444.255	100.56
444.476	80.56
444.698	99.56
444.919	98.56
445.14	173.56
445.361	145.56
445.582	96.56
445.803	91.56
446.024	101.56
446.245	102.56
446.466	85.56
446.687	80.56
446.908	94.56
447.129	93.56
447.35	97.56
447.571	78.56
447.792	92.56
448.013	103.56
448.234	94.56
448.455	84.56
448.675	92.56
448.896	86.56
449.117	94.56
449.338	95.56
449.559	83.56
449.779	87.56
450	97.56
450.221	97.56
450.442	104.56
450.662	92.56
450.883	90.56
451.104	92.56
451.324	80.56
451.545	96.56
451.766	95.56
451.986	94.56
452.207	100.56
452.428	94.56
452.648	85.56
452.869	91.56
453.089	101.56
453.31	92.56
453.53	89.56
453.751	94.56
453.971	88.56
454.192	104.56
454.412	83.56
454.633	83.56
454.853	77.56
455.073	74.56
455.294	80.56
455.514	79.56
455.734	83.56
455.955	92.56
456.175	96.56
456.395	80.56
456.616	86.56
456.836	95.56
457.056	86.56
457.276	80.56
457.497	90.56
457.717	80.56
457.937	84.56
458.157	79.56
458.377	79.56
458.598	85.56
458.818	76.56
459.038	88.56
459.258	84.56
459.478	77.56
459.698	80.56
459.918	98.56
460.138	85.56
460.358	86.56
460.578	86.56
460.798	94.56
461.018	81.56
461.238	88.56
461.458	80.56
461.678	86.56
461.898	78.56
462.118	91.56
462.338	95.56
462.558	85.56
462.777	78.56
462.997	79.56
463.217	90.56
463.437	88.56
463.657	89.56
463.876	86.56
464.096	76.56
464.316	81.56
464.536	84.56
464.755	98.56
464.975	82.56
465.195	88.56
465.414	89.56
465.634	93.56
465.854	87.56
466.073	92.56
466.293	93.56
466.512	81.56
466.732	103.56
466.951	88.56
467.171	87.56
467.391	81.56
467.61	92.56
467.829	82.56
468.049	97.56
468.268	99.56
468.488	100.56
468.707	103.56
468.927	90.56
469.146	88.56
469.365	100.56
469.585	102.56
469.804	88.56
470.023	86.56
470.243	93.56
470.462	78.56
470.681	97.56
470.901	104.56
471.12	105.56
471.339	87.56
471.558	91.56
471.777	100.56
471.997	100.56
472.216	85.56
472.435	95.56
472.654	84.56
472.873	80.56
473.092	91.56
473.311	96.56
473.53	86.56
473.749	85.56
473.968	98.56
474.187	106.56
474.406	85.56
474.625	79.56
474.844	82.56
475.063	86.56
475.282	99.56
475.501	89.56
475.72	90.56
475.939	74.56
476.158	99.56
476.377	73.56
476.596	97.56
476.814	91.56
477.033	92.56
477.252	105.56
477.471	90.56
477.69	93.56
477.908	89.56
478.127	103.56
478.346	80.56
478.564	108.56
478.783	101.56
479.002	85.56
479.22	85.56
479.439	95.56
479.658	78.56
479.876	83.56
480.095	100.56
480.313	89.56
480.532	93.56
480.751	88.56
480.969	93.56
481.188	101.56
481.406	82.56
481.624	83.56
481.843	99.56
482.061	80.56
482.28	80.56
482.498	93.56
482.717	79.56
482.935	98.56
483.153	91.56
483.372	90.56
483.59	90.56
483.808	94.56
484.027	93.56
484.245	89.56
484.463	94.56
484.681	99.56
484.9	90.56
485.118	84.56
485.336	76.56
485.554	69.56
485.772	84.56
485.99	78.56
486.209	90.56
486.427	89.56
486.645	81.56
486.863	87.56
487.081	88.56
487.299	101.56
487.517	91.56
487.735	86.56
487.953	98.56
488.171	86.56
488.389	84.56
488.607	87.56
488.825	95.56
489.043	99.56
489.261	90.56
489.479	84.56
489.696	87.56
489.914	91.56
490.132	94.56
490.35	105.56
490.568	97.56
490.786	110.56
491.003	106.56
491.221	108.56
491.439	93.56
491.657	103.56
491.874	87.56
492.092	104.56
492.31	108.56
492.527	114.56
492.745	124.56
492.963	102.56
493.18	105.56
493.398	89.56
493.615	104.56
493.833	89.56
494.05	92.56
494.268	105.56
494.485	107.56
494.703	107.56
494.92	102.56
495.138	97.56
495.355	109.56
495.573	105.56
495.79	101.56
496.008	107.56
496.225	99.56
496.442	95.56
496.66	102.56
496.877	91.56
497.094	103.56
497.312	102.56
497.529	106.56
497.746	86.56
497.963	87.56
498.181	91.56
498.398	95.56
498.615	91.56
498.832	81.56
499.049	92.56
499.267	104.56
499.484	93.56
499.701	99.56
499.918	98.56
500.135	98.56
500.352	106.56
500.569	92.56
500.786	90.56
501.003	100.56
501.22	101.56
501.437	85.56
501.654	102.56
501.871	101.56
502.088	93.56
502.305	85.56
502.522	76.56
502.739	78.56
502.956	94.56
503.172	86.56
503.389	94.56
503.606	92.56
503.823	86.56
504.04	87.56
504.256	99.56
504.473	92.56
504.69	85.56
504.907	88.56
505.123	102.56
505.34	107.56
505.557	106.56
505.773	89.56
505.99	96.56
506.207	94.56
506.423	83.56
506.64	102.56
506.856	94.56
507.073	90.56
507.289	88.56
507.506	91.56
507.722	80.56
507.939	89.56
508.155	96.56
508.372	84.56
508.588	73.56
508.805	80.56
509.021	89.56
509.238	101.56
509.454	98.56
509.67	100.56
509.887	92.56
510.103	83.56
510.319	90.56
510.536	91.56
510.752	102.56
510.968	96.56
511.184	87.56
511.401	73.56
511.617	92.56
511.833	90.56
512.049	84.56
512.265	83.56
512.481	78.56
512.698	100.56
512.914	81.56
513.13	95.56
513.346	92.56
513.562	91.56
513.778	94.56
513.994	100.56
514.21	78.56
514.426	81.56
514.642	78.56
514.858	92.56
515.074	71.56
515.29	84.56
515.506	86.56
515.721	84.56
515.937	94.56
516.153	89.56
516.369	93.56
516.585	76.56
516.801	76.56
517.016	93.56
517.232	73.56
517.448	92.56
517.664	94.56
517.879	93.56
