Data from Zn(NO3)2Standard.Agarose3%.GreenCap.LampEnergy10E.O_HRD10591_15-06-47-942.txt Node
Date: Mon Jul 22 15:06:47 EDT 2019
User: cochatt
Spectrometer: HR+D1059
Trigger mode: 1
Integration Time (sec): 1.000000E-1
Scans to average: 1
Electric dark correction enabled: true
Nonlinearity correction enabled: false
Boxcar width: 0
XAxis mode: Wavelengths
Number of Pixels in Spectrum: 2048
>>>>>Begin Spectral Data<<<<<
223.165	-13.69
223.4	-13.69
223.635	-13.69
223.869	-11.69
224.104	-16.69
224.338	-20.69
224.573	-26.69
224.808	-1.69
225.042	3.31
225.277	-12.69
225.511	-3.69
225.746	25.31
225.98	4.31
226.215	-3.69
226.449	29.31
226.683	6.31
226.918	14.31
227.152	28.31
227.387	33.31
227.621	43.31
227.856	50.31
228.09	51.31
228.324	60.31
228.559	42.31
228.793	62.31
229.027	57.31
229.262	55.31
229.496	75.31
229.73	71.31
229.964	72.31
230.199	78.31
230.433	77.31
230.667	72.31
230.901	72.31
231.136	75.31
231.37	79.31
231.604	82.31
231.838	70.31
232.072	81.31
232.306	69.31
232.541	80.31
232.775	91.31
233.009	86.31
233.243	73.31
233.477	84.31
233.711	75.31
233.945	76.31
234.179	72.31
234.413	69.31
234.647	69.31
234.881	80.31
235.115	97.31
235.349	82.31
235.583	63.31
235.817	81.31
236.051	74.31
236.285	82.31
236.519	85.31
236.753	78.31
236.987	77.31
237.221	90.31
237.455	83.31
237.689	76.31
237.922	71.31
238.156	84.31
238.39	80.31
238.624	73.31
238.858	65.31
239.091	76.31
239.325	80.31
239.559	88.31
239.793	81.31
240.027	76.31
240.26	72.31
240.494	73.31
240.728	70.31
240.961	66.31
241.195	82.31
241.429	59.31
241.662	60.31
241.896	76.31
242.13	82.31
242.363	73.31
242.597	82.31
242.83	74.31
243.064	83.31
243.298	68.31
243.531	72.31
243.765	85.31
243.998	84.31
244.232	64.31
244.465	84.31
244.699	73.31
244.932	79.31
245.166	65.31
245.399	82.31
245.633	76.31
245.866	86.31
246.099	76.31
246.333	75.31
246.566	76.31
246.8	66.31
247.033	71.31
247.266	77.31
247.5	84.31
247.733	65.31
247.966	96.31
248.2	81.31
248.433	69.31
248.666	72.31
248.899	69.31
249.133	79.31
249.366	77.31
249.599	62.31
249.832	82.31
250.066	86.31
250.299	89.31
250.532	76.31
250.765	78.31
250.998	74.31
251.231	77.31
251.465	79.31
251.698	84.31
251.931	74.31
252.164	81.31
252.397	77.31
252.63	84.31
252.863	67.31
253.096	85.31
253.329	83.31
253.562	75.31
253.795	74.31
254.028	73.31
254.261	93.31
254.494	76.31
254.727	85.31
254.96	76.31
255.193	83.31
255.426	80.31
255.659	73.31
255.892	97.31
256.124	78.31
256.357	84.31
256.59	84.31
256.823	83.31
257.056	85.31
257.289	71.31
257.521	71.31
257.754	72.31
257.987	73.31
258.22	77.31
258.452	75.31
258.685	68.31
258.918	86.31
259.151	80.31
259.383	84.31
259.616	91.31
259.849	94.31
260.081	64.31
260.314	78.31
260.547	86.31
260.779	82.31
261.012	77.31
261.244	90.31
261.477	106.31
261.71	71.31
261.942	64.31
262.175	90.31
262.407	83.31
262.64	78.31
262.872	89.31
263.105	80.31
263.337	83.31
263.57	70.31
263.802	70.31
264.035	81.31
264.267	98.31
264.499	99.31
264.732	94.31
264.964	80.31
265.197	88.31
265.429	84.31
265.661	92.31
265.894	77.31
266.126	89.31
266.358	69.31
266.591	90.31
266.823	77.31
267.055	72.31
267.287	64.31
267.52	81.31
267.752	71.31
267.984	79.31
268.216	77.31
268.448	78.31
268.681	69.31
268.913	92.31
269.145	80.31
269.377	72.31
269.609	85.31
269.841	68.31
270.073	82.31
270.306	73.31
270.538	82.31
270.77	71.31
271.002	81.31
271.234	80.31
271.466	84.31
271.698	75.31
271.93	89.31
272.162	85.31
272.394	104.31
272.626	71.31
272.858	90.31
273.09	77.31
273.322	80.31
273.553	86.31
273.785	85.31
274.017	70.31
274.249	79.31
274.481	81.31
274.713	87.31
274.945	97.31
275.176	85.31
275.408	76.31
275.64	70.31
275.872	67.31
276.104	80.31
276.335	89.31
276.567	88.31
276.799	82.31
277.031	81.31
277.262	70.31
277.494	82.31
277.726	82.31
277.957	83.31
278.189	80.31
278.421	70.31
278.652	86.31
278.884	84.31
279.115	75.31
279.347	71.31
279.579	83.31
279.81	85.31
280.042	79.31
280.273	74.31
280.505	79.31
280.736	96.31
280.968	81.31
281.199	79.31
281.431	84.31
281.662	84.31
281.894	93.31
282.125	65.31
282.356	101.31
282.588	85.31
282.819	82.31
283.051	83.31
283.282	79.31
283.513	85.31
283.745	69.31
283.976	87.31
284.207	73.31
284.439	84.31
284.67	75.31
284.901	96.31
285.132	82.31
285.364	77.31
285.595	86.31
285.826	79.31
286.057	86.31
286.288	90.31
286.52	85.31
286.751	84.31
286.982	67.31
287.213	78.31
287.444	88.31
287.675	84.31
287.906	99.31
288.138	84.31
288.369	78.31
288.6	80.31
288.831	80.31
289.062	85.31
289.293	84.31
289.524	78.31
289.755	86.31
289.986	86.31
290.217	88.31
290.448	84.31
290.679	82.31
290.91	70.31
291.141	92.31
291.371	86.31
291.602	91.31
291.833	93.31
292.064	92.31
292.295	72.31
292.526	88.31
292.757	79.31
292.987	84.31
293.218	76.31
293.449	92.31
293.68	82.31
293.91	90.31
294.141	63.31
294.372	76.31
294.603	98.31
294.833	78.31
295.064	93.31
295.295	83.31
295.525	87.31
295.756	86.31
295.987	84.31
296.217	89.31
296.448	83.31
296.679	85.31
296.909	72.31
297.14	82.31
297.37	85.31
297.601	84.31
297.831	77.31
298.062	79.31
298.292	94.31
298.523	84.31
298.753	79.31
298.984	77.31
299.214	63.31
299.445	89.31
299.675	95.31
299.905	84.31
300.136	81.31
300.366	79.31
300.597	82.31
300.827	75.31
301.057	84.31
301.288	77.31
301.518	86.31
301.748	89.31
301.979	65.31
302.209	86.31
302.439	79.31
302.669	82.31
302.9	86.31
303.13	89.31
303.36	81.31
303.59	85.31
303.82	93.31
304.051	76.31
304.281	78.31
304.511	89.31
304.741	82.31
304.971	85.31
305.201	75.31
305.431	85.31
305.661	96.31
305.891	72.31
306.121	84.31
306.352	87.31
306.582	92.31
306.812	82.31
307.042	79.31
307.272	72.31
307.502	83.31
307.731	93.31
307.961	81.31
308.191	79.31
308.421	82.31
308.651	97.31
308.881	91.31
309.111	90.31
309.341	89.31
309.571	90.31
309.8	87.31
310.03	84.31
310.26	69.31
310.49	88.31
310.72	90.31
310.949	84.31
311.179	76.31
311.409	92.31
311.639	74.31
311.868	90.31
312.098	90.31
312.328	80.31
312.557	76.31
312.787	97.31
313.017	82.31
313.246	74.31
313.476	81.31
313.706	87.31
313.935	99.31
314.165	77.31
314.394	75.31
314.624	76.31
314.853	84.31
315.083	75.31
315.312	76.31
315.542	87.31
315.771	81.31
316.001	82.31
316.23	78.31
316.46	99.31
316.689	92.31
316.919	81.31
317.148	80.31
317.377	92.31
317.607	88.31
317.836	84.31
318.065	92.31
318.295	92.31
318.524	78.31
318.753	92.31
318.983	92.31
319.212	76.31
319.441	86.31
319.67	89.31
319.9	80.31
320.129	88.31
320.358	88.31
320.587	87.31
320.816	83.31
321.046	87.31
321.275	88.31
321.504	73.31
321.733	69.31
321.962	94.31
322.191	93.31
322.42	84.31
322.649	81.31
322.878	88.31
323.108	71.31
323.337	88.31
323.566	89.31
323.795	88.31
324.024	76.31
324.253	92.31
324.482	96.31
324.71	96.31
324.939	97.31
325.168	76.31
325.397	88.31
325.626	93.31
325.855	86.31
326.084	79.31
326.313	81.31
326.542	90.31
326.77	83.31
326.999	77.31
327.228	96.31
327.457	77.31
327.686	78.31
327.914	85.31
328.143	82.31
328.372	71.31
328.6	87.31
328.829	81.31
329.058	85.31
329.287	92.31
329.515	86.31
329.744	93.31
329.972	90.31
330.201	82.31
330.43	76.31
330.658	84.31
330.887	99.31
331.115	83.31
331.344	84.31
331.572	79.31
331.801	86.31
332.03	87.31
332.258	86.31
332.486	89.31
332.715	87.31
332.943	78.31
333.172	90.31
333.4	91.31
333.629	88.31
333.857	79.31
334.085	77.31
334.314	83.31
334.542	85.31
334.771	87.31
334.999	70.31
335.227	62.31
335.455	70.31
335.684	81.31
335.912	72.31
336.14	87.31
336.369	89.31
336.597	84.31
336.825	70.31
337.053	85.31
337.281	89.31
337.51	94.31
337.738	88.31
337.966	85.31
338.194	90.31
338.422	89.31
338.65	86.31
338.878	78.31
339.106	77.31
339.334	81.31
339.562	77.31
339.79	87.31
340.018	89.31
340.246	72.31
340.474	80.31
340.702	74.31
340.93	85.31
341.158	81.31
341.386	82.31
341.614	84.31
341.842	92.31
342.07	82.31
342.298	77.31
342.526	80.31
342.754	84.31
342.981	76.31
343.209	82.31
343.437	71.31
343.665	89.31
343.893	98.31
344.12	85.31
344.348	85.31
344.576	83.31
344.804	86.31
345.031	88.31
345.259	89.31
345.487	102.31
345.714	83.31
345.942	81.31
346.17	80.31
346.397	94.31
346.625	81.31
346.853	88.31
347.08	82.31
347.308	91.31
347.535	68.31
347.763	67.31
347.99	78.31
348.218	92.31
348.445	79.31
348.673	83.31
348.9	74.31
349.128	77.31
349.355	82.31
349.583	86.31
349.81	82.31
350.037	87.31
350.265	83.31
350.492	78.31
350.72	84.31
350.947	79.31
351.174	78.31
351.402	77.31
351.629	95.31
351.856	93.31
352.083	78.31
352.311	76.31
352.538	73.31
352.765	86.31
352.992	99.31
353.22	69.31
353.447	78.31
353.674	66.31
353.901	67.31
354.128	74.31
354.355	82.31
354.583	79.31
354.81	88.31
355.037	82.31
355.264	69.31
355.491	91.31
355.718	91.31
355.945	92.31
356.172	73.31
356.399	74.31
356.626	88.31
356.853	81.31
357.08	85.31
357.307	78.31
357.534	88.31
357.761	77.31
357.988	80.31
358.215	80.31
358.441	69.31
358.668	68.31
358.895	76.31
359.122	83.31
359.349	96.31
359.576	89.31
359.802	88.31
360.029	84.31
360.256	87.31
360.483	79.31
360.709	75.31
360.936	99.31
361.163	68.31
361.39	84.31
361.616	84.31
361.843	71.31
362.07	85.31
362.296	81.31
362.523	81.31
362.749	77.31
362.976	90.31
363.203	79.31
363.429	84.31
363.656	90.31
363.882	71.31
364.109	87.31
364.335	72.31
364.562	73.31
364.788	81.31
365.015	83.31
365.241	84.31
365.468	83.31
365.694	76.31
365.92	79.31
366.147	80.31
366.373	76.31
366.599	79.31
366.826	83.31
367.052	83.31
367.278	77.31
367.505	79.31
367.731	80.31
367.957	82.31
368.184	84.31
368.41	80.31
368.636	99.31
368.862	79.31
369.089	100.31
369.315	100.31
369.541	76.31
369.767	80.31
369.993	79.31
370.219	92.31
370.445	80.31
370.672	66.31
370.898	92.31
371.124	82.31
371.35	74.31
371.576	73.31
371.802	79.31
372.028	80.31
372.254	83.31
372.48	98.31
372.706	77.31
372.932	86.31
373.158	96.31
373.384	74.31
373.61	84.31
373.835	82.31
374.061	91.31
374.287	88.31
374.513	91.31
374.739	104.31
374.965	75.31
375.191	77.31
375.416	96.31
375.642	87.31
375.868	96.31
376.094	87.31
376.319	80.31
376.545	92.31
376.771	78.31
376.997	79.31
377.222	96.31
377.448	98.31
377.674	89.31
377.899	90.31
378.125	87.31
378.35	99.31
378.576	93.31
378.802	87.31
379.027	88.31
379.253	77.31
379.478	79.31
379.704	86.31
379.929	104.31
380.155	84.31
380.38	93.31
380.606	82.31
380.831	77.31
381.057	92.31
381.282	82.31
381.507	96.31
381.733	89.31
381.958	72.31
382.184	95.31
382.409	87.31
382.634	83.31
382.86	101.31
383.085	86.31
383.31	71.31
383.535	97.31
383.761	92.31
383.986	70.31
384.211	84.31
384.436	83.31
384.662	83.31
384.887	101.31
385.112	101.31
385.337	88.31
385.562	89.31
385.787	82.31
386.013	92.31
386.238	82.31
386.463	86.31
386.688	78.31
386.913	82.31
387.138	83.31
387.363	88.31
387.588	97.31
387.813	92.31
388.038	81.31
388.263	83.31
388.488	83.31
388.713	83.31
388.938	88.31
389.163	93.31
389.387	91.31
389.612	92.31
389.837	94.31
390.062	77.31
390.287	81.31
390.512	82.31
390.736	82.31
390.961	92.31
391.186	69.31
391.411	79.31
391.636	94.31
391.86	112.31
392.085	94.31
392.31	96.31
392.534	82.31
392.759	82.31
392.984	83.31
393.208	88.31
393.433	88.31
393.658	94.31
393.882	98.31
394.107	98.31
394.331	86.31
394.556	86.31
394.78	84.31
395.005	99.31
395.229	76.31
395.454	88.31
395.678	76.31
395.903	85.31
396.127	81.31
396.352	79.31
396.576	86.31
396.801	94.31
397.025	82.31
397.249	93.31
397.474	95.31
397.698	110.31
397.922	100.31
398.147	98.31
398.371	84.31
398.595	89.31
398.82	106.31
399.044	84.31
399.268	99.31
399.492	82.31
399.717	98.31
399.941	98.31
400.165	105.31
400.389	100.31
400.613	88.31
400.837	113.31
401.062	97.31
401.286	93.31
401.51	100.31
401.734	79.31
401.958	95.31
402.182	92.31
402.406	84.31
402.63	116.31
402.854	99.31
403.078	99.31
403.302	85.31
403.526	94.31
403.75	96.31
403.974	104.31
404.198	89.31
404.422	103.31
404.645	94.31
404.869	87.31
405.093	90.31
405.317	104.31
405.541	90.31
405.765	98.31
405.988	95.31
406.212	96.31
406.436	91.31
406.66	97.31
406.883	74.31
407.107	95.31
407.331	89.31
407.555	92.31
407.778	98.31
408.002	106.31
408.226	105.31
408.449	92.31
408.673	94.31
408.896	93.31
409.12	87.31
409.344	91.31
409.567	90.31
409.791	106.31
410.014	104.31
410.238	91.31
410.461	93.31
410.685	99.31
410.908	111.31
411.132	103.31
411.355	102.31
411.578	94.31
411.802	86.31
412.025	96.31
412.249	98.31
412.472	109.31
412.695	107.31
412.919	84.31
413.142	87.31
413.365	95.31
413.589	109.31
413.812	107.31
414.035	89.31
414.258	90.31
414.482	83.31
414.705	109.31
414.928	96.31
415.151	99.31
415.374	113.31
415.597	90.31
415.821	96.31
416.044	101.31
416.267	112.31
416.49	92.31
416.713	101.31
416.936	101.31
417.159	106.31
417.382	98.31
417.605	84.31
417.828	83.31
418.051	90.31
418.274	96.31
418.497	99.31
418.72	105.31
418.943	119.31
419.166	106.31
419.389	112.31
419.611	99.31
419.834	115.31
420.057	98.31
420.28	93.31
420.503	112.31
420.726	109.31
420.948	112.31
421.171	108.31
421.394	88.31
421.617	100.31
421.839	127.31
422.062	120.31
422.285	103.31
422.507	97.31
422.73	117.31
422.953	116.31
423.175	88.31
423.398	95.31
423.621	98.31
423.843	102.31
424.066	106.31
424.288	110.31
424.511	113.31
424.733	124.31
424.956	117.31
425.178	108.31
425.401	118.31
425.623	96.31
425.846	97.31
426.068	106.31
426.291	95.31
426.513	98.31
426.735	100.31
426.958	106.31
427.18	99.31
427.402	106.31
427.625	95.31
427.847	96.31
428.069	100.31
428.292	96.31
428.514	109.31
428.736	105.31
428.958	102.31
429.181	98.31
429.403	105.31
429.625	94.31
429.847	105.31
430.069	104.31
430.292	100.31
430.514	98.31
430.736	109.31
430.958	86.31
431.18	97.31
431.402	106.31
431.624	101.31
431.846	100.31
432.068	92.31
432.29	92.31
432.512	109.31
432.734	101.31
432.956	81.31
433.178	118.31
433.4	105.31
433.622	110.31
433.844	123.31
434.066	114.31
434.287	93.31
434.509	85.31
434.731	92.31
434.953	88.31
435.175	99.31
435.397	118.31
435.618	92.31
435.84	109.31
436.062	91.31
436.284	91.31
436.505	107.31
436.727	104.31
436.949	93.31
437.17	103.31
437.392	104.31
437.614	91.31
437.835	92.31
438.057	97.31
438.278	102.31
438.5	93.31
438.721	120.31
438.943	99.31
439.165	98.31
439.386	105.31
439.608	119.31
439.829	101.31
440.05	114.31
440.272	105.31
440.493	116.31
440.715	107.31
440.936	108.31
441.158	99.31
441.379	107.31
441.6	117.31
441.822	118.31
442.043	113.31
442.264	109.31
442.486	102.31
442.707	101.31
442.928	116.31
443.149	101.31
443.371	99.31
443.592	108.31
443.813	108.31
444.034	107.31
444.255	118.31
444.476	102.31
444.698	107.31
444.919	107.31
445.14	208.31
445.361	160.31
445.582	112.31
445.803	118.31
446.024	118.31
446.245	96.31
446.466	106.31
446.687	110.31
446.908	113.31
447.129	126.31
447.35	113.31
447.571	119.31
447.792	113.31
448.013	106.31
448.234	104.31
448.455	107.31
448.675	109.31
448.896	120.31
449.117	87.31
449.338	95.31
449.559	114.31
449.779	104.31
450	106.31
450.221	100.31
450.442	100.31
450.662	95.31
450.883	105.31
451.104	116.31
451.324	101.31
451.545	101.31
451.766	98.31
451.986	96.31
452.207	115.31
452.428	116.31
452.648	104.31
452.869	106.31
453.089	102.31
453.31	93.31
453.53	88.31
453.751	104.31
453.971	98.31
454.192	97.31
454.412	84.31
454.633	91.31
454.853	100.31
455.073	92.31
455.294	86.31
455.514	94.31
455.734	96.31
455.955	92.31
456.175	109.31
456.395	85.31
456.616	95.31
456.836	102.31
457.056	84.31
457.276	99.31
457.497	79.31
457.717	83.31
457.937	94.31
458.157	89.31
458.377	98.31
458.598	93.31
458.818	94.31
459.038	85.31
459.258	78.31
459.478	71.31
459.698	85.31
459.918	93.31
460.138	96.31
460.358	107.31
460.578	96.31
460.798	89.31
461.018	91.31
461.238	106.31
461.458	90.31
461.678	108.31
461.898	101.31
462.118	100.31
462.338	85.31
462.558	104.31
462.777	94.31
462.997	90.31
463.217	88.31
463.437	94.31
463.657	78.31
463.876	91.31
464.096	101.31
464.316	97.31
464.536	85.31
464.755	96.31
464.975	82.31
465.195	114.31
465.414	101.31
465.634	98.31
465.854	100.31
466.073	97.31
466.293	92.31
466.512	106.31
466.732	109.31
466.951	108.31
467.171	112.31
467.391	104.31
467.61	116.31
467.829	112.31
468.049	114.31
468.268	117.31
468.488	106.31
468.707	116.31
468.927	109.31
469.146	115.31
469.365	93.31
469.585	123.31
469.804	97.31
470.023	116.31
470.243	104.31
470.462	112.31
470.681	122.31
470.901	108.31
471.12	117.31
471.339	122.31
471.558	110.31
471.777	105.31
471.997	117.31
472.216	99.31
472.435	105.31
472.654	116.31
472.873	100.31
473.092	97.31
473.311	98.31
473.53	110.31
473.749	99.31
473.968	124.31
474.187	112.31
474.406	105.31
474.625	112.31
474.844	104.31
475.063	110.31
475.282	97.31
475.501	118.31
475.72	90.31
475.939	107.31
476.158	106.31
476.377	95.31
476.596	96.31
476.814	104.31
477.033	102.31
477.252	98.31
477.471	98.31
477.69	109.31
477.908	112.31
478.127	113.31
478.346	120.31
478.564	112.31
478.783	112.31
479.002	117.31
479.22	107.31
479.439	109.31
479.658	102.31
479.876	103.31
480.095	94.31
480.313	95.31
480.532	99.31
480.751	91.31
480.969	70.31
481.188	77.31
481.406	85.31
481.624	97.31
481.843	83.31
482.061	92.31
482.28	84.31
482.498	97.31
482.717	88.31
482.935	97.31
483.153	108.31
483.372	117.31
483.59	118.31
483.808	117.31
484.027	99.31
484.245	90.31
484.463	98.31
484.681	123.31
484.9	126.31
485.118	113.31
485.336	116.31
485.554	105.31
485.772	85.31
485.99	84.31
486.209	97.31
486.427	94.31
486.645	100.31
486.863	119.31
487.081	105.31
487.299	112.31
487.517	123.31
487.735	117.31
487.953	143.31
488.171	136.31
488.389	124.31
488.607	118.31
488.825	117.31
489.043	104.31
489.261	108.31
489.479	110.31
489.696	110.31
489.914	107.31
490.132	107.31
490.35	110.31
490.568	122.31
490.786	130.31
491.003	128.31
491.221	131.31
491.439	117.31
491.657	132.31
491.874	148.31
492.092	153.31
492.31	158.31
492.527	148.31
492.745	133.31
492.963	130.31
493.18	140.31
493.398	132.31
493.615	133.31
493.833	124.31
494.05	132.31
494.268	126.31
494.485	126.31
494.703	133.31
494.92	116.31
495.138	116.31
495.355	125.31
495.573	125.31
495.79	105.31
496.008	111.31
496.225	114.31
496.442	120.31
496.66	111.31
496.877	117.31
497.094	132.31
497.312	123.31
497.529	114.31
497.746	115.31
497.963	112.31
498.181	109.31
498.398	105.31
498.615	98.31
498.832	88.31
499.049	107.31
499.267	80.31
499.484	88.31
499.701	99.31
499.918	101.31
500.135	103.31
500.352	102.31
500.569	123.31
500.786	109.31
501.003	113.31
501.22	116.31
501.437	110.31
501.654	97.31
501.871	110.31
502.088	100.31
502.305	87.31
502.522	102.31
502.739	105.31
502.956	98.31
503.172	97.31
503.389	117.31
503.606	99.31
503.823	107.31
504.04	98.31
504.256	103.31
504.473	95.31
504.69	105.31
504.907	107.31
505.123	104.31
505.34	100.31
505.557	107.31
505.773	107.31
505.99	104.31
506.207	110.31
506.423	102.31
506.64	102.31
506.856	96.31
507.073	99.31
507.289	110.31
507.506	105.31
507.722	112.31
507.939	99.31
508.155	105.31
508.372	97.31
508.588	83.31
508.805	99.31
509.021	84.31
509.238	89.31
509.454	93.31
509.67	89.31
509.887	93.31
510.103	98.31
510.319	86.31
510.536	86.31
510.752	91.31
510.968	91.31
511.184	70.31
511.401	80.31
511.617	99.31
511.833	84.31
512.049	96.31
512.265	91.31
512.481	86.31
512.698	107.31
512.914	84.31
513.13	98.31
513.346	96.31
513.562	94.31
513.778	74.31
513.994	87.31
514.21	90.31
514.426	86.31
514.642	94.31
514.858	97.31
515.074	64.31
