Data from Zn(NO3)2Standard.Agarose3%.GreenCap.LampEnergy5.5.E.O_HRD10591_15-02-21-767.txt Node
Date: Mon Jul 22 15:02:21 EDT 2019
User: cochatt
Spectrometer: HR+D1059
Trigger mode: 1
Integration Time (sec): 1.000000E-1
Scans to average: 1
Electric dark correction enabled: true
Nonlinearity correction enabled: false
Boxcar width: 0
XAxis mode: Wavelengths
Number of Pixels in Spectrum: 2048
>>>>>Begin Spectral Data<<<<<
223.165	-21.69
223.4	-21.69
223.635	-21.69
223.869	-23.69
224.104	-22.69
224.338	-17.69
224.573	-14.69
224.808	-22.69
225.042	0.31
225.277	-14.69
225.511	1.31
225.746	8.31
225.98	0.31
226.215	21.31
226.449	14.31
226.683	32.31
226.918	33.31
227.152	26.31
227.387	23.31
227.621	36.31
227.856	33.31
228.09	33.31
228.324	35.31
228.559	69.31
228.793	50.31
229.027	68.31
229.262	65.31
229.496	61.31
229.73	62.31
229.964	63.31
230.199	60.31
230.433	86.31
230.667	71.31
230.901	75.31
231.136	72.31
231.37	82.31
231.604	82.31
231.838	77.31
232.072	77.31
232.306	76.31
232.541	68.31
232.775	82.31
233.009	79.31
233.243	66.31
233.477	76.31
233.711	87.31
233.945	71.31
234.179	65.31
234.413	70.31
234.647	90.31
234.881	74.31
235.115	82.31
235.349	70.31
235.583	74.31
235.817	86.31
236.051	57.31
236.285	76.31
236.519	69.31
236.753	80.31
236.987	63.31
237.221	75.31
237.455	83.31
237.689	78.31
237.922	76.31
238.156	72.31
238.39	79.31
238.624	81.31
238.858	56.31
239.091	81.31
239.325	76.31
239.559	77.31
239.793	84.31
240.027	81.31
240.26	73.31
240.494	73.31
240.728	69.31
240.961	82.31
241.195	85.31
241.429	85.31
241.662	67.31
241.896	83.31
242.13	76.31
242.363	67.31
242.597	73.31
242.83	79.31
243.064	77.31
243.298	65.31
243.531	78.31
243.765	74.31
243.998	83.31
244.232	87.31
244.465	69.31
244.699	73.31
244.932	73.31
245.166	69.31
245.399	85.31
245.633	87.31
245.866	81.31
246.099	75.31
246.333	77.31
246.566	71.31
246.8	72.31
247.033	73.31
247.266	78.31
247.5	82.31
247.733	82.31
247.966	74.31
248.2	79.31
248.433	77.31
248.666	81.31
248.899	76.31
249.133	80.31
249.366	83.31
249.599	69.31
249.832	66.31
250.066	67.31
250.299	80.31
250.532	74.31
250.765	68.31
250.998	77.31
251.231	63.31
251.465	71.31
251.698	72.31
251.931	77.31
252.164	82.31
252.397	81.31
252.63	73.31
252.863	70.31
253.096	78.31
253.329	80.31
253.562	75.31
253.795	88.31
254.028	77.31
254.261	85.31
254.494	72.31
254.727	66.31
254.96	73.31
255.193	66.31
255.426	69.31
255.659	82.31
255.892	71.31
256.124	79.31
256.357	72.31
256.59	85.31
256.823	83.31
257.056	67.31
257.289	82.31
257.521	84.31
257.754	69.31
257.987	77.31
258.22	97.31
258.452	82.31
258.685	70.31
258.918	82.31
259.151	79.31
259.383	77.31
259.616	85.31
259.849	82.31
260.081	82.31
260.314	78.31
260.547	79.31
260.779	86.31
261.012	84.31
261.244	87.31
261.477	82.31
261.71	68.31
261.942	78.31
262.175	75.31
262.407	79.31
262.64	82.31
262.872	75.31
263.105	85.31
263.337	83.31
263.57	82.31
263.802	79.31
264.035	82.31
264.267	71.31
264.499	69.31
264.732	76.31
264.964	85.31
265.197	71.31
265.429	85.31
265.661	83.31
265.894	70.31
266.126	87.31
266.358	89.31
266.591	75.31
266.823	65.31
267.055	80.31
267.287	87.31
267.52	75.31
267.752	83.31
267.984	85.31
268.216	83.31
268.448	68.31
268.681	83.31
268.913	76.31
269.145	70.31
269.377	81.31
269.609	67.31
269.841	99.31
270.073	89.31
270.306	78.31
270.538	80.31
270.77	72.31
271.002	81.31
271.234	87.31
271.466	69.31
271.698	64.31
271.93	70.31
272.162	73.31
272.394	75.31
272.626	90.31
272.858	86.31
273.09	87.31
273.322	88.31
273.553	73.31
273.785	93.31
274.017	72.31
274.249	78.31
274.481	81.31
274.713	62.31
274.945	81.31
275.176	77.31
275.408	79.31
275.64	84.31
275.872	78.31
276.104	73.31
276.335	63.31
276.567	86.31
276.799	92.31
277.031	87.31
277.262	72.31
277.494	93.31
277.726	68.31
277.957	74.31
278.189	78.31
278.421	80.31
278.652	100.31
278.884	91.31
279.115	74.31
279.347	77.31
279.579	77.31
279.81	78.31
280.042	88.31
280.273	86.31
280.505	76.31
280.736	83.31
280.968	81.31
281.199	69.31
281.431	78.31
281.662	86.31
281.894	75.31
282.125	91.31
282.356	77.31
282.588	75.31
282.819	74.31
283.051	82.31
283.282	86.31
283.513	92.31
283.745	81.31
283.976	76.31
284.207	79.31
284.439	80.31
284.67	84.31
284.901	80.31
285.132	101.31
285.364	83.31
285.595	83.31
285.826	77.31
286.057	69.31
286.288	82.31
286.52	94.31
286.751	89.31
286.982	79.31
287.213	77.31
287.444	80.31
287.675	78.31
287.906	82.31
288.138	80.31
288.369	83.31
288.6	86.31
288.831	99.31
289.062	72.31
289.293	81.31
289.524	80.31
289.755	81.31
289.986	83.31
290.217	100.31
290.448	85.31
290.679	83.31
290.91	91.31
291.141	86.31
291.371	83.31
291.602	84.31
291.833	97.31
292.064	80.31
292.295	84.31
292.526	77.31
292.757	97.31
292.987	80.31
293.218	74.31
293.449	82.31
293.68	77.31
293.91	87.31
294.141	68.31
294.372	73.31
294.603	88.31
294.833	72.31
295.064	82.31
295.295	102.31
295.525	75.31
295.756	81.31
295.987	75.31
296.217	81.31
296.448	77.31
296.679	83.31
296.909	80.31
297.14	78.31
297.37	92.31
297.601	89.31
297.831	86.31
298.062	83.31
298.292	83.31
298.523	78.31
298.753	80.31
298.984	78.31
299.214	74.31
299.445	82.31
299.675	96.31
299.905	72.31
300.136	85.31
300.366	84.31
300.597	72.31
300.827	69.31
301.057	85.31
301.288	76.31
301.518	66.31
301.748	74.31
301.979	81.31
302.209	92.31
302.439	73.31
302.669	91.31
302.9	81.31
303.13	71.31
303.36	71.31
303.59	74.31
303.82	76.31
304.051	83.31
304.281	81.31
304.511	85.31
304.741	78.31
304.971	85.31
305.201	90.31
305.431	70.31
305.661	85.31
305.891	86.31
306.121	71.31
306.352	81.31
306.582	75.31
306.812	97.31
307.042	90.31
307.272	82.31
307.502	73.31
307.731	74.31
307.961	97.31
308.191	77.31
308.421	75.31
308.651	72.31
308.881	81.31
309.111	74.31
309.341	101.31
309.571	73.31
309.8	92.31
310.03	85.31
310.26	85.31
310.49	73.31
310.72	78.31
310.949	89.31
311.179	67.31
311.409	78.31
311.639	85.31
311.868	85.31
312.098	74.31
312.328	75.31
312.557	90.31
312.787	91.31
313.017	99.31
313.246	94.31
313.476	83.31
313.706	71.31
313.935	85.31
314.165	88.31
314.394	77.31
314.624	70.31
314.853	87.31
315.083	84.31
315.312	79.31
315.542	88.31
315.771	86.31
316.001	74.31
316.23	93.31
316.46	72.31
316.689	75.31
316.919	85.31
317.148	76.31
317.377	85.31
317.607	88.31
317.836	78.31
318.065	83.31
318.295	85.31
318.524	69.31
318.753	70.31
318.983	81.31
319.212	82.31
319.441	83.31
319.67	80.31
319.9	68.31
320.129	79.31
320.358	80.31
320.587	85.31
320.816	77.31
321.046	86.31
321.275	81.31
321.504	80.31
321.733	77.31
321.962	79.31
322.191	75.31
322.42	79.31
322.649	69.31
322.878	71.31
323.108	95.31
323.337	75.31
323.566	77.31
323.795	93.31
324.024	87.31
324.253	74.31
324.482	73.31
324.71	80.31
324.939	80.31
325.168	89.31
325.397	78.31
325.626	72.31
325.855	75.31
326.084	66.31
326.313	85.31
326.542	88.31
326.77	86.31
326.999	73.31
327.228	75.31
327.457	94.31
327.686	82.31
327.914	72.31
328.143	89.31
328.372	77.31
328.6	72.31
328.829	87.31
329.058	77.31
329.287	76.31
329.515	103.31
329.744	91.31
329.972	73.31
330.201	74.31
330.43	61.31
330.658	68.31
330.887	86.31
331.115	85.31
331.344	72.31
331.572	82.31
331.801	81.31
332.03	79.31
332.258	84.31
332.486	92.31
332.715	75.31
332.943	78.31
333.172	76.31
333.4	65.31
333.629	83.31
333.857	98.31
334.085	79.31
334.314	73.31
334.542	86.31
334.771	69.31
334.999	76.31
335.227	76.31
335.455	82.31
335.684	91.31
335.912	74.31
336.14	83.31
336.369	80.31
336.597	89.31
336.825	68.31
337.053	78.31
337.281	81.31
337.51	67.31
337.738	79.31
337.966	63.31
338.194	86.31
338.422	82.31
338.65	69.31
338.878	75.31
339.106	71.31
339.334	78.31
339.562	75.31
339.79	82.31
340.018	77.31
340.246	82.31
340.474	84.31
340.702	88.31
340.93	86.31
341.158	91.31
341.386	81.31
341.614	81.31
341.842	86.31
342.07	89.31
342.298	77.31
342.526	64.31
342.754	71.31
342.981	82.31
343.209	90.31
343.437	86.31
343.665	71.31
343.893	79.31
344.12	70.31
344.348	77.31
344.576	86.31
344.804	75.31
345.031	78.31
345.259	79.31
345.487	80.31
345.714	81.31
345.942	77.31
346.17	84.31
346.397	83.31
346.625	85.31
346.853	90.31
347.08	74.31
347.308	87.31
347.535	85.31
347.763	69.31
347.99	74.31
348.218	89.31
348.445	81.31
348.673	72.31
348.9	81.31
349.128	80.31
349.355	75.31
349.583	79.31
349.81	71.31
350.037	83.31
350.265	83.31
350.492	78.31
350.72	81.31
350.947	74.31
351.174	78.31
351.402	84.31
351.629	78.31
351.856	92.31
352.083	84.31
352.311	81.31
352.538	87.31
352.765	87.31
352.992	73.31
353.22	95.31
353.447	80.31
353.674	74.31
353.901	80.31
354.128	83.31
354.355	91.31
354.583	83.31
354.81	72.31
355.037	78.31
355.264	74.31
355.491	75.31
355.718	73.31
355.945	80.31
356.172	82.31
356.399	85.31
356.626	74.31
356.853	73.31
357.08	84.31
357.307	74.31
357.534	92.31
357.761	74.31
357.988	67.31
358.215	81.31
358.441	86.31
358.668	71.31
358.895	76.31
359.122	86.31
359.349	66.31
359.576	75.31
359.802	85.31
360.029	81.31
360.256	80.31
360.483	73.31
360.709	64.31
360.936	78.31
361.163	83.31
361.39	68.31
361.616	82.31
361.843	83.31
362.07	84.31
362.296	89.31
362.523	81.31
362.749	83.31
362.976	79.31
363.203	87.31
363.429	67.31
363.656	75.31
363.882	81.31
364.109	80.31
364.335	88.31
364.562	85.31
364.788	79.31
365.015	81.31
365.241	75.31
365.468	84.31
365.694	76.31
365.92	80.31
366.147	76.31
366.373	82.31
366.599	84.31
366.826	82.31
367.052	75.31
367.278	87.31
367.505	78.31
367.731	114.31
367.957	85.31
368.184	77.31
368.41	78.31
368.636	79.31
368.862	77.31
369.089	85.31
369.315	78.31
369.541	73.31
369.767	94.31
369.993	89.31
370.219	84.31
370.445	78.31
370.672	78.31
370.898	74.31
371.124	70.31
371.35	75.31
371.576	87.31
371.802	76.31
372.028	80.31
372.254	87.31
372.48	77.31
372.706	86.31
372.932	75.31
373.158	85.31
373.384	84.31
373.61	80.31
373.835	88.31
374.061	86.31
374.287	79.31
374.513	72.31
374.739	73.31
374.965	67.31
375.191	82.31
375.416	70.31
375.642	92.31
375.868	74.31
376.094	93.31
376.319	95.31
376.545	88.31
376.771	70.31
376.997	70.31
377.222	74.31
377.448	81.31
377.674	87.31
377.899	74.31
378.125	77.31
378.35	76.31
378.576	80.31
378.802	79.31
379.027	73.31
379.253	79.31
379.478	85.31
379.704	76.31
379.929	83.31
380.155	78.31
380.38	80.31
380.606	93.31
380.831	81.31
381.057	82.31
381.282	78.31
381.507	87.31
381.733	88.31
381.958	74.31
382.184	80.31
382.409	89.31
382.634	85.31
382.86	85.31
383.085	68.31
383.31	77.31
383.535	80.31
383.761	71.31
383.986	85.31
384.211	71.31
384.436	85.31
384.662	81.31
384.887	85.31
385.112	70.31
385.337	73.31
385.562	88.31
385.787	73.31
386.013	89.31
386.238	83.31
386.463	70.31
386.688	69.31
386.913	75.31
387.138	71.31
387.363	75.31
387.588	96.31
387.813	87.31
388.038	76.31
388.263	81.31
388.488	86.31
388.713	79.31
388.938	86.31
389.163	72.31
389.387	70.31
389.612	71.31
389.837	70.31
390.062	82.31
390.287	86.31
390.512	82.31
390.736	77.31
390.961	79.31
391.186	85.31
391.411	84.31
391.636	92.31
391.86	84.31
392.085	77.31
392.31	89.31
392.534	79.31
392.759	77.31
392.984	71.31
393.208	80.31
393.433	75.31
393.658	93.31
393.882	84.31
394.107	82.31
394.331	79.31
394.556	73.31
394.78	89.31
395.005	84.31
395.229	85.31
395.454	89.31
395.678	76.31
395.903	84.31
396.127	83.31
396.352	92.31
396.576	79.31
396.801	97.31
397.025	92.31
397.249	87.31
397.474	78.31
397.698	86.31
397.922	78.31
398.147	77.31
398.371	76.31
398.595	76.31
398.82	82.31
399.044	69.31
399.268	65.31
399.492	64.31
399.717	80.31
399.941	77.31
400.165	78.31
400.389	82.31
400.613	76.31
400.837	83.31
401.062	81.31
401.286	85.31
401.51	75.31
401.734	73.31
401.958	89.31
402.182	80.31
402.406	78.31
402.63	89.31
402.854	85.31
403.078	85.31
403.302	106.31
403.526	85.31
403.75	87.31
403.974	91.31
404.198	98.31
404.422	82.31
404.645	77.31
404.869	81.31
405.093	89.31
405.317	81.31
405.541	87.31
405.765	81.31
405.988	82.31
406.212	91.31
406.436	81.31
406.66	85.31
406.883	77.31
407.107	80.31
407.331	75.31
407.555	79.31
407.778	77.31
408.002	90.31
408.226	82.31
408.449	82.31
408.673	80.31
408.896	75.31
409.12	91.31
409.344	75.31
409.567	82.31
409.791	93.31
410.014	90.31
410.238	89.31
410.461	95.31
410.685	88.31
410.908	73.31
411.132	87.31
411.355	89.31
411.578	97.31
411.802	79.31
412.025	71.31
412.249	96.31
412.472	82.31
412.695	81.31
412.919	81.31
413.142	82.31
413.365	73.31
413.589	78.31
413.812	79.31
414.035	92.31
414.258	95.31
414.482	83.31
414.705	85.31
414.928	84.31
415.151	84.31
415.374	90.31
415.597	75.31
415.821	95.31
416.044	88.31
416.267	78.31
416.49	81.31
416.713	74.31
416.936	82.31
417.159	96.31
417.382	88.31
417.605	86.31
417.828	63.31
418.051	81.31
418.274	73.31
418.497	86.31
418.72	74.31
418.943	87.31
419.166	84.31
419.389	92.31
419.611	85.31
419.834	82.31
420.057	100.31
420.28	88.31
420.503	76.31
420.726	71.31
420.948	76.31
421.171	81.31
421.394	87.31
421.617	93.31
421.839	73.31
422.062	80.31
422.285	72.31
422.507	84.31
422.73	77.31
422.953	91.31
423.175	65.31
423.398	90.31
423.621	90.31
423.843	90.31
424.066	91.31
424.288	105.31
424.511	75.31
424.733	87.31
424.956	83.31
425.178	86.31
425.401	92.31
425.623	93.31
425.846	79.31
426.068	84.31
426.291	86.31
426.513	73.31
426.735	78.31
426.958	73.31
427.18	81.31
427.402	89.31
427.625	75.31
427.847	74.31
428.069	88.31
428.292	80.31
428.514	83.31
428.736	92.31
428.958	92.31
429.181	90.31
429.403	83.31
429.625	87.31
429.847	79.31
430.069	97.31
430.292	76.31
430.514	82.31
430.736	88.31
430.958	84.31
431.18	78.31
431.402	97.31
431.624	81.31
431.846	73.31
432.068	70.31
432.29	81.31
432.512	91.31
432.734	84.31
432.956	87.31
433.178	85.31
433.4	93.31
433.622	75.31
433.844	85.31
434.066	86.31
434.287	79.31
434.509	79.31
434.731	84.31
434.953	86.31
435.175	79.31
435.397	88.31
435.618	71.31
435.84	65.31
436.062	71.31
436.284	70.31
436.505	86.31
436.727	94.31
436.949	72.31
437.17	95.31
437.392	106.31
437.614	88.31
437.835	94.31
438.057	75.31
438.278	89.31
438.5	82.31
438.721	89.31
438.943	82.31
439.165	90.31
439.386	94.31
439.608	89.31
439.829	92.31
440.05	91.31
440.272	86.31
440.493	81.31
440.715	81.31
440.936	99.31
441.158	88.31
441.379	83.31
441.6	88.31
441.822	98.31
442.043	78.31
442.264	87.31
442.486	85.31
442.707	82.31
442.928	95.31
443.149	84.31
443.371	79.31
443.592	88.31
443.813	83.31
444.034	87.31
444.255	102.31
444.476	83.31
444.698	84.31
444.919	90.31
445.14	216.31
445.361	140.31
445.582	91.31
445.803	85.31
446.024	90.31
446.245	71.31
446.466	85.31
446.687	106.31
446.908	109.31
447.129	90.31
447.35	91.31
447.571	81.31
447.792	93.31
448.013	88.31
448.234	101.31
448.455	106.31
448.675	91.31
448.896	93.31
449.117	95.31
449.338	102.31
449.559	91.31
449.779	83.31
450	94.31
450.221	90.31
450.442	96.31
450.662	81.31
450.883	81.31
451.104	89.31
451.324	82.31
451.545	78.31
451.766	81.31
451.986	103.31
452.207	96.31
452.428	90.31
452.648	101.31
452.869	99.31
453.089	83.31
453.31	86.31
453.53	79.31
453.751	72.31
453.971	86.31
454.192	84.31
454.412	74.31
454.633	93.31
454.853	78.31
455.073	85.31
455.294	85.31
455.514	103.31
455.734	91.31
455.955	65.31
456.175	91.31
456.395	79.31
456.616	79.31
456.836	72.31
457.056	85.31
457.276	76.31
457.497	82.31
457.717	75.31
457.937	89.31
458.157	86.31
458.377	98.31
458.598	87.31
458.818	79.31
459.038	73.31
459.258	73.31
459.478	80.31
459.698	91.31
459.918	96.31
460.138	94.31
460.358	88.31
460.578	93.31
460.798	81.31
461.018	89.31
461.238	82.31
461.458	88.31
461.678	93.31
461.898	94.31
462.118	86.31
462.338	85.31
462.558	81.31
462.777	94.31
462.997	80.31
463.217	91.31
463.437	71.31
463.657	85.31
463.876	87.31
464.096	83.31
464.316	85.31
464.536	63.31
464.755	84.31
464.975	83.31
465.195	84.31
465.414	89.31
465.634	97.31
465.854	98.31
466.073	89.31
466.293	73.31
466.512	72.31
466.732	82.31
466.951	96.31
467.171	85.31
467.391	82.31
467.61	101.31
467.829	93.31
468.049	74.31
468.268	85.31
468.488	82.31
468.707	86.31
468.927	94.31
469.146	91.31
469.365	95.31
469.585	95.31
469.804	81.31
470.023	90.31
470.243	86.31
470.462	94.31
470.681	103.31
470.901	71.31
471.12	92.31
471.339	106.31
471.558	74.31
471.777	75.31
471.997	86.31
472.216	86.31
472.435	77.31
472.654	72.31
472.873	94.31
473.092	88.31
473.311	99.31
473.53	80.31
473.749	91.31
473.968	89.31
474.187	81.31
474.406	85.31
474.625	96.31
474.844	77.31
475.063	81.31
475.282	88.31
475.501	89.31
475.72	102.31
475.939	76.31
476.158	75.31
476.377	93.31
476.596	89.31
476.814	89.31
477.033	80.31
477.252	89.31
477.471	79.31
477.69	86.31
477.908	91.31
478.127	89.31
478.346	86.31
478.564	84.31
478.783	86.31
479.002	74.31
479.22	86.31
479.439	85.31
479.658	75.31
479.876	83.31
480.095	84.31
480.313	79.31
480.532	79.31
480.751	95.31
480.969	83.31
481.188	84.31
481.406	87.31
481.624	65.31
481.843	74.31
482.061	72.31
482.28	83.31
482.498	83.31
482.717	93.31
482.935	84.31
483.153	84.31
483.372	85.31
483.59	83.31
483.808	85.31
484.027	92.31
484.245	97.31
484.463	83.31
484.681	95.31
484.9	86.31
485.118	94.31
485.336	82.31
485.554	87.31
485.772	80.31
485.99	78.31
486.209	88.31
486.427	86.31
486.645	89.31
486.863	96.31
487.081	99.31
487.299	99.31
487.517	95.31
487.735	99.31
487.953	89.31
488.171	86.31
488.389	81.31
488.607	97.31
488.825	94.31
489.043	93.31
489.261	81.31
489.479	82.31
489.696	87.31
489.914	83.31
490.132	98.31
490.35	96.31
490.568	96.31
490.786	88.31
491.003	78.31
491.221	102.31
491.439	102.31
491.657	95.31
491.874	98.31
492.092	90.31
492.31	105.31
492.527	102.31
492.745	94.31
492.963	110.31
493.18	90.31
493.398	119.31
493.615	95.31
493.833	98.31
494.05	100.31
494.268	111.31
494.485	97.31
494.703	91.31
494.92	96.31
495.138	109.31
495.355	87.31
495.573	94.31
495.79	75.31
496.008	88.31
496.225	96.31
496.442	88.31
496.66	97.31
496.877	99.31
497.094	83.31
497.312	96.31
497.529	106.31
497.746	93.31
497.963	90.31
498.181	88.31
498.398	86.31
498.615	73.31
498.832	85.31
499.049	82.31
499.267	82.31
499.484	89.31
499.701	82.31
499.918	84.31
500.135	81.31
500.352	84.31
500.569	87.31
500.786	82.31
501.003	93.31
501.22	78.31
501.437	91.31
501.654	100.31
501.871	98.31
502.088	84.31
502.305	81.31
502.522	89.31
502.739	75.31
502.956	80.31
503.172	97.31
503.389	94.31
503.606	87.31
503.823	78.31
504.04	85.31
504.256	76.31
504.473	82.31
504.69	82.31
504.907	94.31
505.123	88.31
505.34	88.31
505.557	81.31
505.773	81.31
505.99	90.31
506.207	79.31
506.423	89.31
506.64	65.31
506.856	86.31
507.073	86.31
507.289	88.31
507.506	98.31
507.722	79.31
507.939	79.31
508.155	105.31
508.372	84.31
508.588	89.31
508.805	93.31
509.021	93.31
509.238	102.31
509.454	93.31
509.67	75.31
509.887	72.31
510.103	82.31
510.319	93.31
510.536	74.31
510.752	81.31
510.968	80.31
511.184	87.31
511.401	81.31
511.617	87.31
511.833	74.31
512.049	81.31
512.265	83.31
512.481	84.31
512.698	98.31
512.914	78.31
513.13	89.31
513.346	80.31
513.562	80.31
513.778	87.31
513.994	81.31
514.21	88.31
514.426	82.31
514.642	90.31
514.858	82.31
515.074	64.31
515.29	100.31
515.506	96.31
515.721	84.31
515.937	71.31
516.153	91.31
516.369	74.31
516.585	79.31
516.801	83.31
517.016	86.31
517.232	66.31
517.448	82.31
517.664	82.31
517.879	88.31
518.095	98.31
518.311	89.31
518.527	91.31
518.742	88.31
518.958	82.31
