Data from Zn(NO3)2Standard.Agarose3%.GreenCap.LampEnergy10E.O_HRD10591_15-07-04-943.txt Node
Date: Mon Jul 22 15:07:04 EDT 2019
User: cochatt
Spectrometer: HR+D1059
Trigger mode: 1
Integration Time (sec): 1.000000E-1
Scans to average: 1
Electric dark correction enabled: true
Nonlinearity correction enabled: false
Boxcar width: 0
XAxis mode: Wavelengths
Number of Pixels in Spectrum: 2048
>>>>>Begin Spectral Data<<<<<
223.165	3.62
223.4	3.62
223.635	3.62
223.869	-21.38
224.104	-1.38
224.338	-17.38
224.573	-28.38
224.808	-6.38
225.042	4.62
225.277	-5.38
225.511	1.62
225.746	-3.38
225.98	-5.38
226.215	9.62
226.449	15.62
226.683	-6.38
226.918	24.62
227.152	35.62
227.387	42.62
227.621	35.62
227.856	58.62
228.09	46.62
228.324	60.62
228.559	36.62
228.793	56.62
229.027	68.62
229.262	66.62
229.496	73.62
229.73	72.62
229.964	59.62
230.199	70.62
230.433	67.62
230.667	79.62
230.901	59.62
231.136	76.62
231.37	68.62
231.604	69.62
231.838	82.62
232.072	79.62
232.306	76.62
232.541	77.62
232.775	89.62
233.009	78.62
233.243	84.62
233.477	85.62
233.711	85.62
233.945	81.62
234.179	92.62
234.413	82.62
234.647	65.62
234.881	88.62
235.115	86.62
235.349	73.62
235.583	91.62
235.817	78.62
236.051	76.62
236.285	75.62
236.519	82.62
236.753	72.62
236.987	69.62
237.221	84.62
237.455	72.62
237.689	80.62
237.922	87.62
238.156	75.62
238.39	75.62
238.624	71.62
238.858	73.62
239.091	78.62
239.325	86.62
239.559	72.62
239.793	59.62
240.027	83.62
240.26	83.62
240.494	88.62
240.728	59.62
240.961	84.62
241.195	90.62
241.429	83.62
241.662	77.62
241.896	69.62
242.13	73.62
242.363	76.62
242.597	77.62
242.83	81.62
243.064	71.62
243.298	78.62
243.531	76.62
243.765	70.62
243.998	76.62
244.232	66.62
244.465	68.62
244.699	85.62
244.932	82.62
245.166	78.62
245.399	88.62
245.633	70.62
245.866	86.62
246.099	82.62
246.333	82.62
246.566	91.62
246.8	83.62
247.033	76.62
247.266	71.62
247.5	76.62
247.733	77.62
247.966	81.62
248.2	83.62
248.433	85.62
248.666	84.62
248.899	82.62
249.133	72.62
249.366	78.62
249.599	82.62
249.832	76.62
250.066	84.62
250.299	74.62
250.532	85.62
250.765	72.62
250.998	84.62
251.231	68.62
251.465	88.62
251.698	83.62
251.931	77.62
252.164	69.62
252.397	76.62
252.63	85.62
252.863	84.62
253.096	78.62
253.329	83.62
253.562	79.62
253.795	82.62
254.028	91.62
254.261	62.62
254.494	91.62
254.727	89.62
254.96	99.62
255.193	109.62
255.426	83.62
255.659	85.62
255.892	79.62
256.124	70.62
256.357	74.62
256.59	93.62
256.823	85.62
257.056	69.62
257.289	73.62
257.521	82.62
257.754	93.62
257.987	70.62
258.22	102.62
258.452	70.62
258.685	89.62
258.918	76.62
259.151	84.62
259.383	83.62
259.616	85.62
259.849	73.62
260.081	74.62
260.314	71.62
260.547	86.62
260.779	87.62
261.012	72.62
261.244	77.62
261.477	89.62
261.71	78.62
261.942	89.62
262.175	83.62
262.407	83.62
262.64	77.62
262.872	84.62
263.105	88.62
263.337	78.62
263.57	80.62
263.802	91.62
264.035	77.62
264.267	89.62
264.499	78.62
264.732	90.62
264.964	84.62
265.197	87.62
265.429	99.62
265.661	88.62
265.894	83.62
266.126	96.62
266.358	86.62
266.591	79.62
266.823	86.62
267.055	90.62
267.287	73.62
267.52	85.62
267.752	90.62
267.984	89.62
268.216	74.62
268.448	81.62
268.681	84.62
268.913	97.62
269.145	84.62
269.377	88.62
269.609	87.62
269.841	83.62
270.073	84.62
270.306	92.62
270.538	92.62
270.77	78.62
271.002	89.62
271.234	83.62
271.466	89.62
271.698	83.62
271.93	79.62
272.162	70.62
272.394	65.62
272.626	92.62
272.858	74.62
273.09	75.62
273.322	68.62
273.553	74.62
273.785	65.62
274.017	83.62
274.249	83.62
274.481	77.62
274.713	82.62
274.945	88.62
275.176	80.62
275.408	83.62
275.64	81.62
275.872	89.62
276.104	85.62
276.335	92.62
276.567	87.62
276.799	83.62
277.031	86.62
277.262	78.62
277.494	89.62
277.726	90.62
277.957	88.62
278.189	85.62
278.421	82.62
278.652	72.62
278.884	81.62
279.115	92.62
279.347	78.62
279.579	77.62
279.81	83.62
280.042	80.62
280.273	74.62
280.505	77.62
280.736	80.62
280.968	95.62
281.199	78.62
281.431	89.62
281.662	79.62
281.894	91.62
282.125	78.62
282.356	74.62
282.588	89.62
282.819	77.62
283.051	84.62
283.282	88.62
283.513	90.62
283.745	79.62
283.976	91.62
284.207	78.62
284.439	91.62
284.67	83.62
284.901	85.62
285.132	88.62
285.364	102.62
285.595	83.62
285.826	81.62
286.057	76.62
286.288	96.62
286.52	85.62
286.751	78.62
286.982	79.62
287.213	84.62
287.444	90.62
287.675	86.62
287.906	96.62
288.138	88.62
288.369	76.62
288.6	76.62
288.831	76.62
289.062	77.62
289.293	87.62
289.524	83.62
289.755	85.62
289.986	77.62
290.217	86.62
290.448	99.62
290.679	82.62
290.91	83.62
291.141	74.62
291.371	73.62
291.602	77.62
291.833	89.62
292.064	86.62
292.295	91.62
292.526	82.62
292.757	86.62
292.987	91.62
293.218	82.62
293.449	82.62
293.68	75.62
293.91	78.62
294.141	85.62
294.372	92.62
294.603	92.62
294.833	90.62
295.064	83.62
295.295	80.62
295.525	82.62
295.756	93.62
295.987	82.62
296.217	87.62
296.448	89.62
296.679	70.62
296.909	77.62
297.14	91.62
297.37	85.62
297.601	76.62
297.831	85.62
298.062	84.62
298.292	78.62
298.523	88.62
298.753	81.62
298.984	80.62
299.214	93.62
299.445	78.62
299.675	87.62
299.905	89.62
300.136	90.62
300.366	73.62
300.597	91.62
300.827	94.62
301.057	92.62
301.288	83.62
301.518	96.62
301.748	88.62
301.979	76.62
302.209	86.62
302.439	73.62
302.669	80.62
302.9	84.62
303.13	89.62
303.36	101.62
303.59	101.62
303.82	82.62
304.051	94.62
304.281	101.62
304.511	75.62
304.741	77.62
304.971	70.62
305.201	90.62
305.431	79.62
305.661	74.62
305.891	89.62
306.121	84.62
306.352	81.62
306.582	83.62
306.812	97.62
307.042	86.62
307.272	91.62
307.502	82.62
307.731	105.62
307.961	93.62
308.191	80.62
308.421	84.62
308.651	72.62
308.881	98.62
309.111	82.62
309.341	92.62
309.571	93.62
309.8	76.62
310.03	81.62
310.26	84.62
310.49	84.62
310.72	93.62
310.949	82.62
311.179	86.62
311.409	83.62
311.639	89.62
311.868	81.62
312.098	87.62
312.328	79.62
312.557	88.62
312.787	61.62
313.017	87.62
313.246	78.62
313.476	88.62
313.706	99.62
313.935	85.62
314.165	78.62
314.394	85.62
314.624	90.62
314.853	90.62
315.083	96.62
315.312	97.62
315.542	88.62
315.771	71.62
316.001	81.62
316.23	89.62
316.46	61.62
316.689	85.62
316.919	76.62
317.148	85.62
317.377	93.62
317.607	85.62
317.836	84.62
318.065	81.62
318.295	75.62
318.524	75.62
318.753	81.62
318.983	70.62
319.212	98.62
319.441	78.62
319.67	79.62
319.9	87.62
320.129	94.62
320.358	83.62
320.587	81.62
320.816	89.62
321.046	87.62
321.275	85.62
321.504	83.62
321.733	91.62
321.962	98.62
322.191	96.62
322.42	81.62
322.649	88.62
322.878	77.62
323.108	91.62
323.337	87.62
323.566	76.62
323.795	86.62
324.024	84.62
324.253	87.62
324.482	89.62
324.71	92.62
324.939	69.62
325.168	90.62
325.397	83.62
325.626	100.62
325.855	98.62
326.084	84.62
326.313	85.62
326.542	91.62
326.77	92.62
326.999	76.62
327.228	76.62
327.457	85.62
327.686	82.62
327.914	80.62
328.143	101.62
328.372	89.62
328.6	87.62
328.829	74.62
329.058	94.62
329.287	90.62
329.515	76.62
329.744	103.62
329.972	75.62
330.201	90.62
330.43	88.62
330.658	84.62
330.887	82.62
331.115	91.62
331.344	78.62
331.572	101.62
331.801	86.62
332.03	89.62
332.258	88.62
332.486	86.62
332.715	78.62
332.943	86.62
333.172	86.62
333.4	88.62
333.629	104.62
333.857	67.62
334.085	95.62
334.314	90.62
334.542	87.62
334.771	98.62
334.999	78.62
335.227	85.62
335.455	79.62
335.684	82.62
335.912	83.62
336.14	96.62
336.369	90.62
336.597	94.62
336.825	90.62
337.053	76.62
337.281	86.62
337.51	100.62
337.738	89.62
337.966	81.62
338.194	88.62
338.422	74.62
338.65	92.62
338.878	74.62
339.106	72.62
339.334	93.62
339.562	76.62
339.79	80.62
340.018	91.62
340.246	85.62
340.474	99.62
340.702	93.62
340.93	90.62
341.158	70.62
341.386	83.62
341.614	86.62
341.842	77.62
342.07	90.62
342.298	92.62
342.526	84.62
342.754	86.62
342.981	83.62
343.209	73.62
343.437	86.62
343.665	79.62
343.893	83.62
344.12	91.62
344.348	76.62
344.576	69.62
344.804	80.62
345.031	95.62
345.259	91.62
345.487	88.62
345.714	88.62
345.942	73.62
346.17	75.62
346.397	81.62
346.625	85.62
346.853	97.62
347.08	104.62
347.308	78.62
347.535	76.62
347.763	93.62
347.99	87.62
348.218	97.62
348.445	90.62
348.673	79.62
348.9	91.62
349.128	80.62
349.355	83.62
349.583	79.62
349.81	76.62
350.037	68.62
350.265	75.62
350.492	74.62
350.72	84.62
350.947	89.62
351.174	89.62
351.402	70.62
351.629	79.62
351.856	84.62
352.083	90.62
352.311	90.62
352.538	91.62
352.765	91.62
352.992	81.62
353.22	93.62
353.447	85.62
353.674	85.62
353.901	93.62
354.128	91.62
354.355	69.62
354.583	85.62
354.81	84.62
355.037	88.62
355.264	81.62
355.491	80.62
355.718	94.62
355.945	75.62
356.172	82.62
356.399	76.62
356.626	80.62
356.853	89.62
357.08	82.62
357.307	84.62
357.534	79.62
357.761	77.62
357.988	77.62
358.215	100.62
358.441	73.62
358.668	88.62
358.895	78.62
359.122	81.62
359.349	84.62
359.576	67.62
359.802	82.62
360.029	73.62
360.256	90.62
360.483	88.62
360.709	95.62
360.936	94.62
361.163	82.62
361.39	72.62
361.616	84.62
361.843	76.62
362.07	77.62
362.296	75.62
362.523	89.62
362.749	86.62
362.976	84.62
363.203	89.62
363.429	75.62
363.656	73.62
363.882	86.62
364.109	89.62
364.335	68.62
364.562	83.62
364.788	78.62
365.015	80.62
365.241	72.62
365.468	84.62
365.694	96.62
365.92	91.62
366.147	79.62
366.373	80.62
366.599	86.62
366.826	83.62
367.052	84.62
367.278	81.62
367.505	77.62
367.731	89.62
367.957	85.62
368.184	91.62
368.41	97.62
368.636	74.62
368.862	102.62
369.089	91.62
369.315	76.62
369.541	89.62
369.767	88.62
369.993	102.62
370.219	91.62
370.445	77.62
370.672	98.62
370.898	85.62
371.124	80.62
371.35	81.62
371.576	91.62
371.802	82.62
372.028	83.62
372.254	97.62
372.48	80.62
372.706	92.62
372.932	94.62
373.158	92.62
373.384	77.62
373.61	78.62
373.835	89.62
374.061	91.62
374.287	84.62
374.513	87.62
374.739	80.62
374.965	69.62
375.191	78.62
375.416	86.62
375.642	86.62
375.868	84.62
376.094	84.62
376.319	91.62
376.545	91.62
376.771	95.62
376.997	97.62
377.222	92.62
377.448	94.62
377.674	89.62
377.899	92.62
378.125	96.62
378.35	92.62
378.576	89.62
378.802	93.62
379.027	88.62
379.253	94.62
379.478	92.62
379.704	76.62
379.929	75.62
380.155	99.62
380.38	79.62
380.606	90.62
380.831	90.62
381.057	93.62
381.282	84.62
381.507	69.62
381.733	79.62
381.958	72.62
382.184	75.62
382.409	77.62
382.634	96.62
382.86	79.62
383.085	84.62
383.31	81.62
383.535	83.62
383.761	94.62
383.986	93.62
384.211	72.62
384.436	96.62
384.662	91.62
384.887	94.62
385.112	81.62
385.337	77.62
385.562	77.62
385.787	83.62
386.013	88.62
386.238	96.62
386.463	94.62
386.688	79.62
386.913	83.62
387.138	96.62
387.363	100.62
387.588	88.62
387.813	102.62
388.038	83.62
388.263	91.62
388.488	92.62
388.713	87.62
388.938	91.62
389.163	90.62
389.387	85.62
389.612	92.62
389.837	78.62
390.062	83.62
390.287	83.62
390.512	85.62
390.736	101.62
390.961	79.62
391.186	92.62
391.411	103.62
391.636	90.62
391.86	80.62
392.085	85.62
392.31	88.62
392.534	100.62
392.759	99.62
392.984	72.62
393.208	78.62
393.433	97.62
393.658	77.62
393.882	87.62
394.107	94.62
394.331	101.62
394.556	84.62
394.78	79.62
395.005	91.62
395.229	88.62
395.454	90.62
395.678	75.62
395.903	87.62
396.127	77.62
396.352	99.62
396.576	104.62
396.801	94.62
397.025	90.62
397.249	92.62
397.474	93.62
397.698	88.62
397.922	90.62
398.147	91.62
398.371	99.62
398.595	96.62
398.82	89.62
399.044	77.62
399.268	90.62
399.492	116.62
399.717	97.62
399.941	91.62
400.165	89.62
400.389	85.62
400.613	91.62
400.837	87.62
401.062	97.62
401.286	89.62
401.51	96.62
401.734	95.62
401.958	98.62
402.182	82.62
402.406	96.62
402.63	111.62
402.854	86.62
403.078	99.62
403.302	86.62
403.526	93.62
403.75	101.62
403.974	86.62
404.198	107.62
404.422	100.62
404.645	84.62
404.869	99.62
405.093	96.62
405.317	101.62
405.541	100.62
405.765	97.62
405.988	87.62
406.212	103.62
406.436	107.62
406.66	104.62
406.883	99.62
407.107	92.62
407.331	78.62
407.555	83.62
407.778	118.62
408.002	100.62
408.226	98.62
408.449	100.62
408.673	105.62
408.896	88.62
409.12	101.62
409.344	107.62
409.567	99.62
409.791	89.62
410.014	113.62
410.238	102.62
410.461	100.62
410.685	90.62
410.908	122.62
411.132	103.62
411.355	88.62
411.578	100.62
411.802	95.62
412.025	91.62
412.249	95.62
412.472	104.62
412.695	94.62
412.919	98.62
413.142	102.62
413.365	122.62
413.589	90.62
413.812	106.62
414.035	100.62
414.258	101.62
414.482	108.62
414.705	103.62
414.928	94.62
415.151	103.62
415.374	84.62
415.597	101.62
415.821	105.62
416.044	88.62
416.267	112.62
416.49	98.62
416.713	102.62
416.936	101.62
417.159	90.62
417.382	85.62
417.605	100.62
417.828	125.62
418.051	102.62
418.274	103.62
418.497	108.62
418.72	112.62
418.943	100.62
419.166	120.62
419.389	84.62
419.611	124.62
419.834	111.62
420.057	107.62
420.28	106.62
420.503	95.62
420.726	116.62
420.948	112.62
421.171	100.62
421.394	93.62
421.617	103.62
421.839	118.62
422.062	108.62
422.285	115.62
422.507	109.62
422.73	109.62
422.953	118.62
423.175	104.62
423.398	97.62
423.621	100.62
423.843	95.62
424.066	105.62
424.288	103.62
424.511	115.62
424.733	103.62
424.956	127.62
425.178	116.62
425.401	108.62
425.623	118.62
425.846	103.62
426.068	109.62
426.291	105.62
426.513	114.62
426.735	95.62
426.958	104.62
427.18	96.62
427.402	105.62
427.625	103.62
427.847	105.62
428.069	98.62
428.292	104.62
428.514	105.62
428.736	112.62
428.958	109.62
429.181	113.62
429.403	92.62
429.625	102.62
429.847	110.62
430.069	102.62
430.292	115.62
430.514	92.62
430.736	95.62
430.958	108.62
431.18	99.62
431.402	110.62
431.624	101.62
431.846	91.62
432.068	75.62
432.29	91.62
432.512	97.62
432.734	93.62
432.956	116.62
433.178	115.62
433.4	104.62
433.622	122.62
433.844	109.62
434.066	99.62
434.287	89.62
434.509	90.62
434.731	80.62
434.953	95.62
435.175	102.62
435.397	93.62
435.618	88.62
435.84	102.62
436.062	87.62
436.284	90.62
436.505	97.62
436.727	107.62
436.949	98.62
437.17	97.62
437.392	99.62
437.614	101.62
437.835	93.62
438.057	93.62
438.278	98.62
438.5	95.62
438.721	110.62
438.943	108.62
439.165	105.62
439.386	100.62
439.608	112.62
439.829	116.62
440.05	117.62
440.272	116.62
440.493	106.62
440.715	115.62
440.936	102.62
441.158	104.62
441.379	112.62
441.6	123.62
441.822	124.62
442.043	121.62
442.264	107.62
442.486	111.62
442.707	101.62
442.928	108.62
443.149	107.62
443.371	120.62
443.592	107.62
443.813	126.62
444.034	101.62
444.255	106.62
444.476	113.62
444.698	92.62
444.919	103.62
445.14	208.62
445.361	160.62
445.582	122.62
445.803	110.62
446.024	106.62
446.245	110.62
446.466	129.62
446.687	122.62
446.908	120.62
447.129	119.62
447.35	120.62
447.571	101.62
447.792	135.62
448.013	122.62
448.234	108.62
448.455	107.62
448.675	104.62
448.896	92.62
449.117	101.62
449.338	112.62
449.559	87.62
449.779	102.62
450	100.62
450.221	109.62
450.442	110.62
450.662	111.62
450.883	112.62
451.104	102.62
451.324	98.62
451.545	107.62
451.766	101.62
451.986	107.62
452.207	101.62
452.428	108.62
452.648	112.62
452.869	84.62
453.089	85.62
453.31	87.62
453.53	85.62
453.751	76.62
453.971	100.62
454.192	85.62
454.412	80.62
454.633	81.62
454.853	108.62
455.073	102.62
455.294	94.62
455.514	104.62
455.734	94.62
455.955	99.62
456.175	102.62
456.395	95.62
456.616	86.62
456.836	85.62
457.056	96.62
457.276	90.62
457.497	94.62
457.717	104.62
457.937	92.62
458.157	101.62
458.377	72.62
458.598	84.62
458.818	75.62
459.038	90.62
459.258	94.62
459.478	96.62
459.698	94.62
459.918	97.62
460.138	88.62
460.358	97.62
460.578	93.62
460.798	97.62
461.018	101.62
461.238	89.62
461.458	97.62
461.678	97.62
461.898	113.62
462.118	104.62
462.338	92.62
462.558	100.62
462.777	94.62
462.997	97.62
463.217	87.62
463.437	105.62
463.657	89.62
463.876	102.62
464.096	91.62
464.316	105.62
464.536	89.62
464.755	94.62
464.975	101.62
465.195	105.62
465.414	90.62
465.634	101.62
465.854	99.62
466.073	98.62
466.293	97.62
466.512	116.62
466.732	114.62
466.951	115.62
467.171	114.62
467.391	109.62
467.61	105.62
467.829	117.62
468.049	122.62
468.268	103.62
468.488	98.62
468.707	114.62
468.927	107.62
469.146	96.62
469.365	127.62
469.585	102.62
469.804	114.62
470.023	100.62
470.243	114.62
470.462	96.62
470.681	106.62
470.901	113.62
471.12	108.62
471.339	128.62
471.558	100.62
471.777	104.62
471.997	95.62
472.216	99.62
472.435	95.62
472.654	83.62
472.873	98.62
473.092	99.62
473.311	103.62
473.53	111.62
473.749	94.62
473.968	98.62
474.187	95.62
474.406	91.62
474.625	103.62
474.844	101.62
475.063	107.62
475.282	89.62
475.501	92.62
475.72	105.62
475.939	102.62
476.158	98.62
476.377	105.62
476.596	104.62
476.814	103.62
477.033	101.62
477.252	89.62
477.471	104.62
477.69	102.62
477.908	108.62
478.127	89.62
478.346	109.62
478.564	115.62
478.783	114.62
479.002	107.62
479.22	102.62
479.439	108.62
479.658	96.62
479.876	102.62
480.095	89.62
480.313	105.62
480.532	91.62
480.751	99.62
480.969	102.62
481.188	99.62
481.406	80.62
481.624	81.62
481.843	86.62
482.061	68.62
482.28	93.62
482.498	94.62
482.717	93.62
482.935	110.62
483.153	120.62
483.372	100.62
483.59	133.62
483.808	106.62
484.027	108.62
484.245	104.62
484.463	110.62
484.681	133.62
484.9	108.62
485.118	122.62
485.336	131.62
485.554	115.62
485.772	99.62
485.99	98.62
486.209	115.62
486.427	87.62
486.645	108.62
486.863	103.62
487.081	109.62
487.299	94.62
487.517	103.62
487.735	121.62
487.953	123.62
488.171	139.62
488.389	146.62
488.607	113.62
488.825	109.62
489.043	113.62
489.261	112.62
489.479	113.62
489.696	114.62
489.914	94.62
490.132	112.62
490.35	106.62
490.568	116.62
490.786	127.62
491.003	139.62
491.221	132.62
491.439	141.62
491.657	120.62
491.874	146.62
492.092	147.62
492.31	149.62
492.527	139.62
492.745	146.62
492.963	143.62
493.18	132.62
493.398	133.62
493.615	143.62
493.833	113.62
494.05	116.62
494.268	124.62
494.485	137.62
494.703	130.62
494.92	110.62
495.138	124.62
495.355	113.62
495.573	122.62
495.79	128.62
496.008	133.62
496.225	114.62
496.442	113.62
496.66	134.62
496.877	118.62
497.094	109.62
497.312	126.62
497.529	128.62
497.746	113.62
497.963	129.62
498.181	103.62
498.398	112.62
498.615	97.62
498.832	102.62
499.049	103.62
499.267	99.62
499.484	113.62
499.701	106.62
499.918	120.62
500.135	105.62
500.352	118.62
500.569	104.62
500.786	121.62
501.003	126.62
501.22	100.62
501.437	114.62
501.654	108.62
501.871	107.62
502.088	83.62
502.305	98.62
502.522	112.62
502.739	102.62
502.956	99.62
503.172	97.62
503.389	96.62
503.606	90.62
503.823	103.62
504.04	109.62
504.256	91.62
504.473	88.62
504.69	105.62
504.907	107.62
505.123	101.62
505.34	103.62
505.557	103.62
505.773	92.62
505.99	104.62
506.207	106.62
506.423	102.62
506.64	116.62
506.856	96.62
507.073	107.62
507.289	98.62
507.506	98.62
507.722	91.62
507.939	93.62
508.155	103.62
508.372	98.62
508.588	102.62
508.805	95.62
509.021	93.62
509.238	81.62
509.454	91.62
509.67	88.62
509.887	93.62
510.103	77.62
510.319	82.62
510.536	86.62
510.752	87.62
510.968	97.62
511.184	103.62
511.401	97.62
511.617	88.62
511.833	94.62
512.049	82.62
512.265	92.62
512.481	86.62
512.698	86.62
512.914	86.62
513.13	81.62
513.346	89.62
513.562	83.62
513.778	90.62
513.994	95.62
514.21	82.62
514.426	91.62
514.642	81.62
