Data from Zn(NO3)2Standard.Agarose3%.GreenCap.LampEnergy5.5.E.O_HRD10591_15-02-38-767.txt Node
Date: Mon Jul 22 15:02:38 EDT 2019
User: cochatt
Spectrometer: HR+D1059
Trigger mode: 1
Integration Time (sec): 1.000000E-1
Scans to average: 1
Electric dark correction enabled: true
Nonlinearity correction enabled: false
Boxcar width: 0
XAxis mode: Wavelengths
Number of Pixels in Spectrum: 2048
>>>>>Begin Spectral Data<<<<<
223.165	-16.75
223.4	-16.75
223.635	-16.75
223.869	-41.75
224.104	-24.75
224.338	-6.75
224.573	1.25
224.808	-16.75
225.042	0.25
225.277	-3.75
225.511	-1.75
225.746	-2.75
225.98	6.25
226.215	13.25
226.449	3.25
226.683	26.25
226.918	37.25
227.152	27.25
227.387	44.25
227.621	49.25
227.856	35.25
228.09	57.25
228.324	52.25
228.559	54.25
228.793	73.25
229.027	61.25
229.262	71.25
229.496	68.25
229.73	62.25
229.964	74.25
230.199	74.25
230.433	68.25
230.667	85.25
230.901	84.25
231.136	82.25
231.37	80.25
231.604	82.25
231.838	90.25
232.072	90.25
232.306	79.25
232.541	88.25
232.775	67.25
233.009	90.25
233.243	88.25
233.477	81.25
233.711	88.25
233.945	85.25
234.179	96.25
234.413	87.25
234.647	92.25
234.881	87.25
235.115	79.25
235.349	68.25
235.583	81.25
235.817	90.25
236.051	80.25
236.285	89.25
236.519	84.25
236.753	97.25
236.987	74.25
237.221	68.25
237.455	71.25
237.689	79.25
237.922	82.25
238.156	81.25
238.39	77.25
238.624	56.25
238.858	76.25
239.091	83.25
239.325	83.25
239.559	94.25
239.793	76.25
240.027	89.25
240.26	80.25
240.494	88.25
240.728	82.25
240.961	82.25
241.195	83.25
241.429	66.25
241.662	81.25
241.896	84.25
242.13	83.25
242.363	84.25
242.597	84.25
242.83	89.25
243.064	79.25
243.298	71.25
243.531	78.25
243.765	67.25
243.998	79.25
244.232	95.25
244.465	70.25
244.699	73.25
244.932	79.25
245.166	77.25
245.399	78.25
245.633	79.25
245.866	77.25
246.099	89.25
246.333	87.25
246.566	69.25
246.8	74.25
247.033	90.25
247.266	87.25
247.5	90.25
247.733	79.25
247.966	81.25
248.2	75.25
248.433	74.25
248.666	87.25
248.899	90.25
249.133	86.25
249.366	86.25
249.599	70.25
249.832	96.25
250.066	83.25
250.299	86.25
250.532	76.25
250.765	87.25
250.998	86.25
251.231	66.25
251.465	87.25
251.698	80.25
251.931	84.25
252.164	94.25
252.397	79.25
252.63	74.25
252.863	88.25
253.096	80.25
253.329	88.25
253.562	76.25
253.795	91.25
254.028	90.25
254.261	86.25
254.494	90.25
254.727	92.25
254.96	84.25
255.193	99.25
255.426	90.25
255.659	94.25
255.892	90.25
256.124	82.25
256.357	88.25
256.59	81.25
256.823	78.25
257.056	83.25
257.289	77.25
257.521	85.25
257.754	88.25
257.987	92.25
258.22	91.25
258.452	85.25
258.685	82.25
258.918	80.25
259.151	73.25
259.383	79.25
259.616	90.25
259.849	82.25
260.081	84.25
260.314	81.25
260.547	90.25
260.779	86.25
261.012	75.25
261.244	80.25
261.477	108.25
261.71	84.25
261.942	91.25
262.175	90.25
262.407	82.25
262.64	83.25
262.872	80.25
263.105	98.25
263.337	98.25
263.57	92.25
263.802	87.25
264.035	82.25
264.267	93.25
264.499	99.25
264.732	95.25
264.964	94.25
265.197	88.25
265.429	76.25
265.661	95.25
265.894	93.25
266.126	81.25
266.358	95.25
266.591	76.25
266.823	102.25
267.055	79.25
267.287	83.25
267.52	89.25
267.752	93.25
267.984	76.25
268.216	85.25
268.448	89.25
268.681	98.25
268.913	82.25
269.145	102.25
269.377	72.25
269.609	97.25
269.841	82.25
270.073	82.25
270.306	100.25
270.538	86.25
270.77	86.25
271.002	94.25
271.234	91.25
271.466	87.25
271.698	89.25
271.93	97.25
272.162	87.25
272.394	96.25
272.626	80.25
272.858	81.25
273.09	107.25
273.322	87.25
273.553	79.25
273.785	96.25
274.017	90.25
274.249	84.25
274.481	77.25
274.713	90.25
274.945	78.25
275.176	86.25
275.408	86.25
275.64	80.25
275.872	94.25
276.104	77.25
276.335	89.25
276.567	97.25
276.799	81.25
277.031	100.25
277.262	92.25
277.494	92.25
277.726	90.25
277.957	75.25
278.189	84.25
278.421	93.25
278.652	87.25
278.884	92.25
279.115	79.25
279.347	98.25
279.579	83.25
279.81	94.25
280.042	84.25
280.273	90.25
280.505	92.25
280.736	80.25
280.968	91.25
281.199	79.25
281.431	76.25
281.662	94.25
281.894	82.25
282.125	87.25
282.356	92.25
282.588	82.25
282.819	82.25
283.051	97.25
283.282	92.25
283.513	95.25
283.745	89.25
283.976	88.25
284.207	76.25
284.439	82.25
284.67	92.25
284.901	90.25
285.132	78.25
285.364	91.25
285.595	104.25
285.826	88.25
286.057	80.25
286.288	78.25
286.52	96.25
286.751	96.25
286.982	82.25
287.213	98.25
287.444	86.25
287.675	77.25
287.906	103.25
288.138	78.25
288.369	95.25
288.6	91.25
288.831	92.25
289.062	99.25
289.293	87.25
289.524	92.25
289.755	100.25
289.986	88.25
290.217	63.25
290.448	80.25
290.679	84.25
290.91	90.25
291.141	101.25
291.371	89.25
291.602	87.25
291.833	70.25
292.064	92.25
292.295	88.25
292.526	73.25
292.757	83.25
292.987	94.25
293.218	100.25
293.449	91.25
293.68	112.25
293.91	96.25
294.141	86.25
294.372	87.25
294.603	91.25
294.833	86.25
295.064	111.25
295.295	79.25
295.525	97.25
295.756	89.25
295.987	85.25
296.217	89.25
296.448	76.25
296.679	72.25
296.909	87.25
297.14	73.25
297.37	87.25
297.601	96.25
297.831	99.25
298.062	83.25
298.292	76.25
298.523	77.25
298.753	99.25
298.984	88.25
299.214	85.25
299.445	84.25
299.675	90.25
299.905	87.25
300.136	71.25
300.366	76.25
300.597	97.25
300.827	84.25
301.057	95.25
301.288	96.25
301.518	75.25
301.748	82.25
301.979	90.25
302.209	96.25
302.439	103.25
302.669	97.25
302.9	85.25
303.13	89.25
303.36	92.25
303.59	89.25
303.82	97.25
304.051	95.25
304.281	89.25
304.511	76.25
304.741	87.25
304.971	84.25
305.201	80.25
305.431	92.25
305.661	88.25
305.891	78.25
306.121	90.25
306.352	104.25
306.582	79.25
306.812	94.25
307.042	80.25
307.272	89.25
307.502	80.25
307.731	95.25
307.961	78.25
308.191	90.25
308.421	82.25
308.651	72.25
308.881	98.25
309.111	98.25
309.341	93.25
309.571	80.25
309.8	91.25
310.03	83.25
310.26	89.25
310.49	90.25
310.72	86.25
310.949	87.25
311.179	92.25
311.409	90.25
311.639	96.25
311.868	93.25
312.098	97.25
312.328	82.25
312.557	86.25
312.787	84.25
313.017	96.25
313.246	95.25
313.476	88.25
313.706	97.25
313.935	92.25
314.165	70.25
314.394	90.25
314.624	86.25
314.853	102.25
315.083	73.25
315.312	99.25
315.542	87.25
315.771	91.25
316.001	96.25
316.23	77.25
316.46	85.25
316.689	91.25
316.919	85.25
317.148	96.25
317.377	86.25
317.607	76.25
317.836	91.25
318.065	89.25
318.295	95.25
318.524	98.25
318.753	99.25
318.983	98.25
319.212	91.25
319.441	94.25
319.67	88.25
319.9	95.25
320.129	101.25
320.358	92.25
320.587	89.25
320.816	80.25
321.046	84.25
321.275	102.25
321.504	93.25
321.733	100.25
321.962	88.25
322.191	97.25
322.42	87.25
322.649	79.25
322.878	91.25
323.108	96.25
323.337	84.25
323.566	95.25
323.795	92.25
324.024	82.25
324.253	96.25
324.482	84.25
324.71	88.25
324.939	92.25
325.168	92.25
325.397	90.25
325.626	89.25
325.855	103.25
326.084	110.25
326.313	111.25
326.542	97.25
326.77	94.25
326.999	83.25
327.228	77.25
327.457	83.25
327.686	87.25
327.914	98.25
328.143	82.25
328.372	105.25
328.6	82.25
328.829	84.25
329.058	90.25
329.287	91.25
329.515	89.25
329.744	87.25
329.972	107.25
330.201	89.25
330.43	85.25
330.658	73.25
330.887	93.25
331.115	91.25
331.344	87.25
331.572	94.25
331.801	84.25
332.03	96.25
332.258	91.25
332.486	78.25
332.715	83.25
332.943	76.25
333.172	77.25
333.4	97.25
333.629	90.25
333.857	100.25
334.085	88.25
334.314	88.25
334.542	92.25
334.771	62.25
334.999	92.25
335.227	88.25
335.455	83.25
335.684	90.25
335.912	84.25
336.14	85.25
336.369	87.25
336.597	79.25
336.825	79.25
337.053	83.25
337.281	88.25
337.51	81.25
337.738	102.25
337.966	88.25
338.194	98.25
338.422	84.25
338.65	97.25
338.878	95.25
339.106	106.25
339.334	83.25
339.562	92.25
339.79	89.25
340.018	93.25
340.246	74.25
340.474	87.25
340.702	90.25
340.93	86.25
341.158	80.25
341.386	97.25
341.614	94.25
341.842	81.25
342.07	84.25
342.298	77.25
342.526	80.25
342.754	97.25
342.981	88.25
343.209	82.25
343.437	96.25
343.665	78.25
343.893	70.25
344.12	93.25
344.348	97.25
344.576	106.25
344.804	83.25
345.031	83.25
345.259	94.25
345.487	88.25
345.714	82.25
345.942	82.25
346.17	95.25
346.397	97.25
346.625	102.25
346.853	92.25
347.08	86.25
347.308	89.25
347.535	84.25
347.763	84.25
347.99	87.25
348.218	96.25
348.445	90.25
348.673	88.25
348.9	86.25
349.128	105.25
349.355	94.25
349.583	96.25
349.81	91.25
350.037	91.25
350.265	95.25
350.492	86.25
350.72	89.25
350.947	80.25
351.174	78.25
351.402	97.25
351.629	96.25
351.856	91.25
352.083	94.25
352.311	90.25
352.538	79.25
352.765	80.25
352.992	84.25
353.22	83.25
353.447	87.25
353.674	85.25
353.901	84.25
354.128	92.25
354.355	88.25
354.583	96.25
354.81	88.25
355.037	99.25
355.264	91.25
355.491	86.25
355.718	85.25
355.945	82.25
356.172	95.25
356.399	95.25
356.626	96.25
356.853	79.25
357.08	79.25
357.307	94.25
357.534	83.25
357.761	91.25
357.988	81.25
358.215	85.25
358.441	96.25
358.668	87.25
358.895	83.25
359.122	91.25
359.349	86.25
359.576	87.25
359.802	94.25
360.029	99.25
360.256	81.25
360.483	84.25
360.709	78.25
360.936	95.25
361.163	94.25
361.39	76.25
361.616	82.25
361.843	86.25
362.07	72.25
362.296	99.25
362.523	81.25
362.749	90.25
362.976	93.25
363.203	90.25
363.429	96.25
363.656	102.25
363.882	88.25
364.109	94.25
364.335	84.25
364.562	90.25
364.788	80.25
365.015	73.25
365.241	94.25
365.468	92.25
365.694	88.25
365.92	88.25
366.147	84.25
366.373	93.25
366.599	88.25
366.826	100.25
367.052	89.25
367.278	107.25
367.505	100.25
367.731	95.25
367.957	89.25
368.184	83.25
368.41	79.25
368.636	81.25
368.862	91.25
369.089	80.25
369.315	79.25
369.541	93.25
369.767	106.25
369.993	77.25
370.219	71.25
370.445	97.25
370.672	93.25
370.898	84.25
371.124	89.25
371.35	93.25
371.576	84.25
371.802	92.25
372.028	92.25
372.254	90.25
372.48	94.25
372.706	94.25
372.932	92.25
373.158	90.25
373.384	98.25
373.61	91.25
373.835	85.25
374.061	99.25
374.287	96.25
374.513	84.25
374.739	80.25
374.965	83.25
375.191	78.25
375.416	100.25
375.642	97.25
375.868	95.25
376.094	94.25
376.319	91.25
376.545	91.25
376.771	79.25
376.997	91.25
377.222	90.25
377.448	94.25
377.674	95.25
377.899	89.25
378.125	86.25
378.35	95.25
378.576	75.25
378.802	89.25
379.027	83.25
379.253	86.25
379.478	91.25
379.704	82.25
379.929	84.25
380.155	81.25
380.38	80.25
380.606	78.25
380.831	84.25
381.057	92.25
381.282	102.25
381.507	87.25
381.733	82.25
381.958	84.25
382.184	98.25
382.409	90.25
382.634	87.25
382.86	71.25
383.085	96.25
383.31	86.25
383.535	90.25
383.761	89.25
383.986	84.25
384.211	83.25
384.436	88.25
384.662	88.25
384.887	87.25
385.112	90.25
385.337	90.25
385.562	90.25
385.787	87.25
386.013	88.25
386.238	80.25
386.463	89.25
386.688	86.25
386.913	76.25
387.138	84.25
387.363	86.25
387.588	94.25
387.813	102.25
388.038	92.25
388.263	93.25
388.488	67.25
388.713	87.25
388.938	85.25
389.163	76.25
389.387	80.25
389.612	90.25
389.837	93.25
390.062	89.25
390.287	88.25
390.512	90.25
390.736	91.25
390.961	91.25
391.186	101.25
391.411	83.25
391.636	90.25
391.86	95.25
392.085	93.25
392.31	83.25
392.534	93.25
392.759	88.25
392.984	84.25
393.208	90.25
393.433	90.25
393.658	83.25
393.882	99.25
394.107	100.25
394.331	94.25
394.556	73.25
394.78	80.25
395.005	96.25
395.229	86.25
395.454	88.25
395.678	82.25
395.903	98.25
396.127	84.25
396.352	84.25
396.576	96.25
396.801	91.25
397.025	90.25
397.249	88.25
397.474	88.25
397.698	70.25
397.922	101.25
398.147	91.25
398.371	104.25
398.595	84.25
398.82	95.25
399.044	87.25
399.268	98.25
399.492	83.25
399.717	88.25
399.941	91.25
400.165	80.25
400.389	86.25
400.613	77.25
400.837	89.25
401.062	81.25
401.286	84.25
401.51	86.25
401.734	86.25
401.958	78.25
402.182	91.25
402.406	75.25
402.63	101.25
402.854	76.25
403.078	94.25
403.302	89.25
403.526	94.25
403.75	88.25
403.974	88.25
404.198	81.25
404.422	75.25
404.645	82.25
404.869	80.25
405.093	91.25
405.317	81.25
405.541	98.25
405.765	91.25
405.988	89.25
406.212	91.25
406.436	91.25
406.66	85.25
406.883	98.25
407.107	81.25
407.331	88.25
407.555	100.25
407.778	78.25
408.002	84.25
408.226	90.25
408.449	86.25
408.673	87.25
408.896	76.25
409.12	90.25
409.344	88.25
409.567	90.25
409.791	82.25
410.014	83.25
410.238	100.25
410.461	97.25
410.685	94.25
410.908	77.25
411.132	92.25
411.355	90.25
411.578	101.25
411.802	102.25
412.025	100.25
412.249	99.25
412.472	93.25
412.695	99.25
412.919	82.25
413.142	96.25
413.365	99.25
413.589	93.25
413.812	94.25
414.035	95.25
414.258	93.25
414.482	91.25
414.705	93.25
414.928	90.25
415.151	87.25
415.374	83.25
415.597	82.25
415.821	88.25
416.044	92.25
416.267	103.25
416.49	91.25
416.713	90.25
416.936	93.25
417.159	82.25
417.382	105.25
417.605	101.25
417.828	103.25
418.051	90.25
418.274	106.25
418.497	105.25
418.72	99.25
418.943	89.25
419.166	90.25
419.389	83.25
419.611	96.25
419.834	87.25
420.057	90.25
420.28	97.25
420.503	91.25
420.726	99.25
420.948	92.25
421.171	96.25
421.394	84.25
421.617	97.25
421.839	98.25
422.062	88.25
422.285	108.25
422.507	79.25
422.73	95.25
422.953	87.25
423.175	104.25
423.398	94.25
423.621	99.25
423.843	94.25
424.066	95.25
424.288	91.25
424.511	90.25
424.733	91.25
424.956	96.25
425.178	94.25
425.401	92.25
425.623	84.25
425.846	90.25
426.068	86.25
426.291	79.25
426.513	82.25
426.735	90.25
426.958	92.25
427.18	99.25
427.402	88.25
427.625	91.25
427.847	90.25
428.069	95.25
428.292	93.25
428.514	87.25
428.736	83.25
428.958	90.25
429.181	94.25
429.403	99.25
429.625	91.25
429.847	96.25
430.069	94.25
430.292	90.25
430.514	97.25
430.736	82.25
430.958	91.25
431.18	93.25
431.402	98.25
431.624	100.25
431.846	94.25
432.068	88.25
432.29	79.25
432.512	92.25
432.734	86.25
432.956	95.25
433.178	86.25
433.4	92.25
433.622	106.25
433.844	85.25
434.066	84.25
434.287	91.25
434.509	74.25
434.731	70.25
434.953	88.25
435.175	91.25
435.397	74.25
435.618	85.25
435.84	79.25
436.062	87.25
436.284	94.25
436.505	87.25
436.727	93.25
436.949	91.25
437.17	87.25
437.392	72.25
437.614	99.25
437.835	89.25
438.057	94.25
438.278	86.25
438.5	88.25
438.721	95.25
438.943	93.25
439.165	96.25
439.386	91.25
439.608	98.25
439.829	92.25
440.05	91.25
440.272	104.25
440.493	83.25
440.715	102.25
440.936	100.25
441.158	99.25
441.379	97.25
441.6	100.25
441.822	88.25
442.043	89.25
442.264	93.25
442.486	105.25
442.707	93.25
442.928	94.25
443.149	95.25
443.371	95.25
443.592	94.25
443.813	97.25
444.034	89.25
444.255	93.25
444.476	105.25
444.698	97.25
444.919	99.25
445.14	233.25
445.361	162.25
445.582	104.25
445.803	111.25
446.024	90.25
446.245	90.25
446.466	103.25
446.687	95.25
446.908	84.25
447.129	106.25
447.35	93.25
447.571	104.25
447.792	106.25
448.013	110.25
448.234	85.25
448.455	85.25
448.675	97.25
448.896	94.25
449.117	98.25
449.338	97.25
449.559	103.25
449.779	98.25
450	95.25
450.221	92.25
450.442	94.25
450.662	97.25
450.883	86.25
451.104	97.25
451.324	80.25
451.545	86.25
451.766	98.25
451.986	102.25
452.207	99.25
452.428	93.25
452.648	101.25
452.869	81.25
453.089	94.25
453.31	92.25
453.53	95.25
453.751	86.25
453.971	90.25
454.192	88.25
454.412	87.25
454.633	96.25
454.853	94.25
455.073	97.25
455.294	97.25
455.514	106.25
455.734	89.25
455.955	94.25
456.175	89.25
456.395	86.25
456.616	84.25
456.836	85.25
457.056	88.25
457.276	99.25
457.497	95.25
457.717	102.25
457.937	94.25
458.157	79.25
458.377	83.25
458.598	91.25
458.818	88.25
459.038	78.25
459.258	89.25
459.478	89.25
459.698	84.25
459.918	86.25
460.138	92.25
460.358	85.25
460.578	98.25
460.798	80.25
461.018	77.25
461.238	75.25
461.458	96.25
461.678	101.25
461.898	86.25
462.118	90.25
462.338	101.25
462.558	93.25
462.777	91.25
462.997	86.25
463.217	81.25
463.437	90.25
463.657	78.25
463.876	80.25
464.096	87.25
464.316	80.25
464.536	91.25
464.755	90.25
464.975	90.25
465.195	92.25
465.414	95.25
465.634	96.25
465.854	97.25
466.073	82.25
466.293	87.25
466.512	99.25
466.732	96.25
466.951	86.25
467.171	83.25
467.391	92.25
467.61	91.25
467.829	99.25
468.049	100.25
468.268	102.25
468.488	96.25
468.707	93.25
468.927	96.25
469.146	85.25
469.365	97.25
469.585	96.25
469.804	94.25
470.023	94.25
470.243	87.25
470.462	98.25
470.681	102.25
470.901	101.25
471.12	97.25
471.339	90.25
471.558	92.25
471.777	101.25
471.997	108.25
472.216	95.25
472.435	96.25
472.654	83.25
472.873	90.25
473.092	99.25
473.311	114.25
473.53	92.25
473.749	81.25
473.968	100.25
474.187	82.25
474.406	86.25
474.625	85.25
474.844	90.25
475.063	82.25
475.282	84.25
475.501	77.25
475.72	87.25
475.939	91.25
476.158	113.25
476.377	93.25
476.596	85.25
476.814	83.25
477.033	84.25
477.252	97.25
477.471	83.25
477.69	97.25
477.908	89.25
478.127	94.25
478.346	97.25
478.564	88.25
478.783	106.25
479.002	94.25
479.22	93.25
479.439	88.25
479.658	95.25
479.876	80.25
480.095	73.25
480.313	87.25
480.532	90.25
480.751	84.25
480.969	95.25
481.188	92.25
481.406	82.25
481.624	86.25
481.843	91.25
482.061	93.25
482.28	82.25
482.498	88.25
482.717	78.25
482.935	88.25
483.153	91.25
483.372	97.25
483.59	106.25
483.808	108.25
484.027	103.25
484.245	90.25
484.463	94.25
484.681	106.25
484.9	99.25
485.118	101.25
485.336	105.25
485.554	105.25
485.772	93.25
485.99	86.25
486.209	84.25
486.427	85.25
486.645	88.25
486.863	99.25
487.081	95.25
487.299	107.25
487.517	96.25
487.735	101.25
487.953	100.25
488.171	115.25
488.389	117.25
488.607	92.25
488.825	89.25
489.043	97.25
489.261	90.25
489.479	98.25
489.696	103.25
489.914	96.25
490.132	96.25
490.35	95.25
490.568	99.25
490.786	102.25
491.003	97.25
491.221	91.25
491.439	95.25
491.657	91.25
491.874	115.25
492.092	117.25
492.31	121.25
492.527	114.25
492.745	126.25
492.963	108.25
493.18	113.25
493.398	103.25
493.615	105.25
493.833	102.25
494.05	103.25
494.268	115.25
494.485	116.25
494.703	110.25
494.92	108.25
495.138	103.25
495.355	121.25
495.573	115.25
495.79	113.25
496.008	113.25
496.225	106.25
496.442	98.25
496.66	102.25
496.877	102.25
497.094	104.25
497.312	94.25
497.529	94.25
497.746	98.25
497.963	88.25
498.181	84.25
498.398	84.25
498.615	85.25
498.832	90.25
499.049	109.25
499.267	97.25
499.484	94.25
499.701	101.25
499.918	109.25
500.135	101.25
500.352	93.25
500.569	94.25
500.786	82.25
501.003	91.25
501.22	92.25
501.437	85.25
501.654	85.25
501.871	97.25
502.088	90.25
502.305	106.25
502.522	97.25
502.739	107.25
502.956	81.25
503.172	94.25
503.389	100.25
503.606	99.25
503.823	89.25
504.04	101.25
504.256	94.25
504.473	94.25
504.69	92.25
504.907	90.25
505.123	92.25
505.34	98.25
505.557	97.25
505.773	98.25
505.99	99.25
506.207	109.25
506.423	102.25
506.64	98.25
506.856	86.25
507.073	84.25
507.289	100.25
507.506	95.25
507.722	93.25
507.939	92.25
508.155	92.25
508.372	83.25
508.588	100.25
508.805	86.25
509.021	93.25
509.238	83.25
509.454	96.25
509.67	83.25
509.887	82.25
510.103	90.25
510.319	91.25
510.536	82.25
510.752	90.25
510.968	88.25
511.184	78.25
511.401	83.25
511.617	99.25
511.833	86.25
512.049	98.25
512.265	97.25
512.481	90.25
512.698	88.25
512.914	91.25
513.13	81.25
513.346	79.25
513.562	93.25
513.778	84.25
513.994	92.25
514.21	86.25
514.426	91.25
514.642	84.25
514.858	89.25
515.074	87.25
515.29	98.25
515.506	82.25
515.721	86.25
515.937	87.25
516.153	77.25
516.369	82.25
516.585	101.25
516.801	89.25
517.016	91.25
517.232	99.25
517.448	89.25
