Data from Zn(NO3)2Standard.Agarose3%.GreenCap.LampEnergy10E.O_HRD10591_15-08-12-947.txt Node
Date: Mon Jul 22 15:08:12 EDT 2019
User: cochatt
Spectrometer: HR+D1059
Trigger mode: 1
Integration Time (sec): 1.000000E-1
Scans to average: 1
Electric dark correction enabled: true
Nonlinearity correction enabled: false
Boxcar width: 0
XAxis mode: Wavelengths
Number of Pixels in Spectrum: 2048
>>>>>Begin Spectral Data<<<<<
223.165	-13.75
223.4	-13.75
223.635	-13.75
223.869	-21.75
224.104	-16.75
224.338	-18.75
224.573	-22.75
224.808	-10.75
225.042	-11.75
225.277	4.25
225.511	-7.75
225.746	13.25
225.98	14.25
226.215	9.25
226.449	20.25
226.683	16.25
226.918	12.25
227.152	34.25
227.387	27.25
227.621	38.25
227.856	39.25
228.09	47.25
228.324	47.25
228.559	61.25
228.793	49.25
229.027	67.25
229.262	55.25
229.496	66.25
229.73	64.25
229.964	71.25
230.199	62.25
230.433	84.25
230.667	79.25
230.901	77.25
231.136	66.25
231.37	74.25
231.604	70.25
231.838	70.25
232.072	68.25
232.306	83.25
232.541	79.25
232.775	61.25
233.009	83.25
233.243	82.25
233.477	68.25
233.711	89.25
233.945	80.25
234.179	73.25
234.413	78.25
234.647	91.25
234.881	69.25
235.115	62.25
235.349	67.25
235.583	80.25
235.817	78.25
236.051	61.25
236.285	78.25
236.519	77.25
236.753	75.25
236.987	96.25
237.221	85.25
237.455	78.25
237.689	80.25
237.922	68.25
238.156	72.25
238.39	84.25
238.624	68.25
238.858	77.25
239.091	88.25
239.325	79.25
239.559	79.25
239.793	83.25
240.027	70.25
240.26	81.25
240.494	75.25
240.728	77.25
240.961	76.25
241.195	81.25
241.429	71.25
241.662	64.25
241.896	80.25
242.13	87.25
242.363	69.25
242.597	82.25
242.83	83.25
243.064	83.25
243.298	69.25
243.531	77.25
243.765	80.25
243.998	74.25
244.232	76.25
244.465	94.25
244.699	72.25
244.932	73.25
245.166	92.25
245.399	91.25
245.633	85.25
245.866	71.25
246.099	86.25
246.333	67.25
246.566	87.25
246.8	73.25
247.033	91.25
247.266	71.25
247.5	80.25
247.733	85.25
247.966	73.25
248.2	71.25
248.433	64.25
248.666	65.25
248.899	78.25
249.133	76.25
249.366	60.25
249.599	92.25
249.832	91.25
250.066	76.25
250.299	74.25
250.532	83.25
250.765	90.25
250.998	93.25
251.231	87.25
251.465	90.25
251.698	76.25
251.931	69.25
252.164	75.25
252.397	64.25
252.63	82.25
252.863	77.25
253.096	78.25
253.329	77.25
253.562	75.25
253.795	75.25
254.028	76.25
254.261	72.25
254.494	86.25
254.727	76.25
254.96	80.25
255.193	93.25
255.426	80.25
255.659	72.25
255.892	79.25
256.124	61.25
256.357	75.25
256.59	83.25
256.823	68.25
257.056	76.25
257.289	85.25
257.521	69.25
257.754	78.25
257.987	64.25
258.22	93.25
258.452	75.25
258.685	76.25
258.918	57.25
259.151	82.25
259.383	85.25
259.616	77.25
259.849	73.25
260.081	80.25
260.314	77.25
260.547	93.25
260.779	73.25
261.012	84.25
261.244	99.25
261.477	101.25
261.71	89.25
261.942	78.25
262.175	82.25
262.407	79.25
262.64	94.25
262.872	77.25
263.105	79.25
263.337	75.25
263.57	71.25
263.802	81.25
264.035	90.25
264.267	81.25
264.499	85.25
264.732	71.25
264.964	74.25
265.197	84.25
265.429	80.25
265.661	71.25
265.894	73.25
266.126	88.25
266.358	83.25
266.591	84.25
266.823	84.25
267.055	82.25
267.287	75.25
267.52	77.25
267.752	81.25
267.984	93.25
268.216	81.25
268.448	82.25
268.681	75.25
268.913	80.25
269.145	84.25
269.377	82.25
269.609	86.25
269.841	77.25
270.073	82.25
270.306	87.25
270.538	75.25
270.77	97.25
271.002	77.25
271.234	95.25
271.466	81.25
271.698	75.25
271.93	82.25
272.162	69.25
272.394	86.25
272.626	76.25
272.858	91.25
273.09	77.25
273.322	74.25
273.553	81.25
273.785	80.25
274.017	78.25
274.249	73.25
274.481	81.25
274.713	72.25
274.945	89.25
275.176	86.25
275.408	93.25
275.64	77.25
275.872	84.25
276.104	73.25
276.335	95.25
276.567	73.25
276.799	73.25
277.031	94.25
277.262	92.25
277.494	83.25
277.726	71.25
277.957	90.25
278.189	88.25
278.421	84.25
278.652	99.25
278.884	78.25
279.115	82.25
279.347	86.25
279.579	90.25
279.81	93.25
280.042	78.25
280.273	72.25
280.505	87.25
280.736	73.25
280.968	82.25
281.199	88.25
281.431	81.25
281.662	72.25
281.894	85.25
282.125	91.25
282.356	87.25
282.588	89.25
282.819	83.25
283.051	81.25
283.282	83.25
283.513	84.25
283.745	94.25
283.976	84.25
284.207	84.25
284.439	83.25
284.67	100.25
284.901	86.25
285.132	89.25
285.364	88.25
285.595	85.25
285.826	89.25
286.057	83.25
286.288	92.25
286.52	85.25
286.751	90.25
286.982	92.25
287.213	91.25
287.444	84.25
287.675	76.25
287.906	86.25
288.138	71.25
288.369	83.25
288.6	80.25
288.831	91.25
289.062	87.25
289.293	92.25
289.524	75.25
289.755	72.25
289.986	91.25
290.217	89.25
290.448	95.25
290.679	85.25
290.91	78.25
291.141	87.25
291.371	75.25
291.602	85.25
291.833	81.25
292.064	85.25
292.295	82.25
292.526	73.25
292.757	92.25
292.987	77.25
293.218	63.25
293.449	81.25
293.68	83.25
293.91	78.25
294.141	85.25
294.372	82.25
294.603	93.25
294.833	89.25
295.064	80.25
295.295	84.25
295.525	76.25
295.756	95.25
295.987	77.25
296.217	85.25
296.448	79.25
296.679	88.25
296.909	77.25
297.14	79.25
297.37	85.25
297.601	85.25
297.831	69.25
298.062	93.25
298.292	95.25
298.523	85.25
298.753	78.25
298.984	68.25
299.214	64.25
299.445	82.25
299.675	72.25
299.905	75.25
300.136	92.25
300.366	96.25
300.597	97.25
300.827	93.25
301.057	91.25
301.288	72.25
301.518	78.25
301.748	77.25
301.979	86.25
302.209	75.25
302.439	87.25
302.669	78.25
302.9	84.25
303.13	87.25
303.36	86.25
303.59	75.25
303.82	85.25
304.051	78.25
304.281	91.25
304.511	75.25
304.741	90.25
304.971	85.25
305.201	91.25
305.431	73.25
305.661	71.25
305.891	70.25
306.121	91.25
306.352	88.25
306.582	72.25
306.812	71.25
307.042	75.25
307.272	76.25
307.502	76.25
307.731	81.25
307.961	72.25
308.191	83.25
308.421	81.25
308.651	88.25
308.881	94.25
309.111	84.25
309.341	89.25
309.571	75.25
309.8	81.25
310.03	92.25
310.26	96.25
310.49	87.25
310.72	105.25
310.949	94.25
311.179	77.25
311.409	83.25
311.639	71.25
311.868	81.25
312.098	87.25
312.328	84.25
312.557	75.25
312.787	81.25
313.017	89.25
313.246	84.25
313.476	87.25
313.706	78.25
313.935	79.25
314.165	82.25
314.394	79.25
314.624	93.25
314.853	81.25
315.083	89.25
315.312	92.25
315.542	85.25
315.771	72.25
316.001	72.25
316.23	77.25
316.46	80.25
316.689	67.25
316.919	96.25
317.148	89.25
317.377	87.25
317.607	85.25
317.836	78.25
318.065	97.25
318.295	87.25
318.524	81.25
318.753	81.25
318.983	97.25
319.212	71.25
319.441	89.25
319.67	98.25
319.9	81.25
320.129	94.25
320.358	75.25
320.587	81.25
320.816	87.25
321.046	80.25
321.275	81.25
321.504	72.25
321.733	77.25
321.962	83.25
322.191	75.25
322.42	92.25
322.649	79.25
322.878	77.25
323.108	90.25
323.337	86.25
323.566	80.25
323.795	84.25
324.024	79.25
324.253	83.25
324.482	85.25
324.71	92.25
324.939	69.25
325.168	80.25
325.397	86.25
325.626	76.25
325.855	85.25
326.084	70.25
326.313	82.25
326.542	96.25
326.77	85.25
326.999	85.25
327.228	87.25
327.457	77.25
327.686	85.25
327.914	75.25
328.143	86.25
328.372	90.25
328.6	81.25
328.829	83.25
329.058	85.25
329.287	78.25
329.515	75.25
329.744	93.25
329.972	93.25
330.201	83.25
330.43	85.25
330.658	90.25
330.887	83.25
331.115	82.25
331.344	85.25
331.572	80.25
331.801	72.25
332.03	81.25
332.258	83.25
332.486	87.25
332.715	93.25
332.943	81.25
333.172	85.25
333.4	81.25
333.629	90.25
333.857	101.25
334.085	93.25
334.314	89.25
334.542	86.25
334.771	83.25
334.999	83.25
335.227	83.25
335.455	95.25
335.684	83.25
335.912	71.25
336.14	91.25
336.369	95.25
336.597	84.25
336.825	89.25
337.053	88.25
337.281	88.25
337.51	89.25
337.738	77.25
337.966	89.25
338.194	87.25
338.422	78.25
338.65	91.25
338.878	79.25
339.106	81.25
339.334	86.25
339.562	82.25
339.79	90.25
340.018	87.25
340.246	69.25
340.474	83.25
340.702	67.25
340.93	71.25
341.158	93.25
341.386	85.25
341.614	90.25
341.842	76.25
342.07	69.25
342.298	84.25
342.526	83.25
342.754	91.25
342.981	90.25
343.209	85.25
343.437	80.25
343.665	88.25
343.893	97.25
344.12	84.25
344.348	86.25
344.576	75.25
344.804	77.25
345.031	103.25
345.259	90.25
345.487	80.25
345.714	74.25
345.942	89.25
346.17	89.25
346.397	86.25
346.625	88.25
346.853	87.25
347.08	82.25
347.308	82.25
347.535	84.25
347.763	88.25
347.99	80.25
348.218	71.25
348.445	76.25
348.673	65.25
348.9	88.25
349.128	88.25
349.355	73.25
349.583	72.25
349.81	85.25
350.037	98.25
350.265	89.25
350.492	83.25
350.72	91.25
350.947	84.25
351.174	81.25
351.402	99.25
351.629	87.25
351.856	73.25
352.083	80.25
352.311	77.25
352.538	78.25
352.765	83.25
352.992	91.25
353.22	83.25
353.447	86.25
353.674	86.25
353.901	79.25
354.128	84.25
354.355	85.25
354.583	88.25
354.81	90.25
355.037	80.25
355.264	80.25
355.491	66.25
355.718	100.25
355.945	88.25
356.172	86.25
356.399	83.25
356.626	82.25
356.853	73.25
357.08	97.25
357.307	84.25
357.534	64.25
357.761	74.25
357.988	96.25
358.215	89.25
358.441	96.25
358.668	99.25
358.895	83.25
359.122	76.25
359.349	83.25
359.576	92.25
359.802	91.25
360.029	88.25
360.256	76.25
360.483	69.25
360.709	68.25
360.936	87.25
361.163	81.25
361.39	87.25
361.616	92.25
361.843	89.25
362.07	84.25
362.296	95.25
362.523	81.25
362.749	80.25
362.976	82.25
363.203	81.25
363.429	82.25
363.656	84.25
363.882	80.25
364.109	87.25
364.335	90.25
364.562	86.25
364.788	77.25
365.015	85.25
365.241	82.25
365.468	91.25
365.694	79.25
365.92	84.25
366.147	77.25
366.373	79.25
366.599	96.25
366.826	81.25
367.052	91.25
367.278	89.25
367.505	75.25
367.731	81.25
367.957	81.25
368.184	89.25
368.41	92.25
368.636	83.25
368.862	96.25
369.089	98.25
369.315	104.25
369.541	106.25
369.767	84.25
369.993	85.25
370.219	86.25
370.445	73.25
370.672	87.25
370.898	94.25
371.124	87.25
371.35	88.25
371.576	98.25
371.802	83.25
372.028	97.25
372.254	79.25
372.48	84.25
372.706	83.25
372.932	85.25
373.158	96.25
373.384	81.25
373.61	77.25
373.835	88.25
374.061	83.25
374.287	66.25
374.513	76.25
374.739	81.25
374.965	87.25
375.191	86.25
375.416	95.25
375.642	88.25
375.868	95.25
376.094	88.25
376.319	83.25
376.545	76.25
376.771	91.25
376.997	93.25
377.222	90.25
377.448	95.25
377.674	80.25
377.899	85.25
378.125	100.25
378.35	88.25
378.576	98.25
378.802	85.25
379.027	95.25
379.253	83.25
379.478	89.25
379.704	83.25
379.929	86.25
380.155	100.25
380.38	95.25
380.606	91.25
380.831	72.25
381.057	101.25
381.282	97.25
381.507	93.25
381.733	83.25
381.958	101.25
382.184	92.25
382.409	71.25
382.634	75.25
382.86	90.25
383.085	98.25
383.31	102.25
383.535	93.25
383.761	96.25
383.986	97.25
384.211	82.25
384.436	90.25
384.662	83.25
384.887	103.25
385.112	93.25
385.337	92.25
385.562	98.25
385.787	82.25
386.013	88.25
386.238	90.25
386.463	74.25
386.688	86.25
386.913	77.25
387.138	86.25
387.363	91.25
387.588	93.25
387.813	82.25
388.038	92.25
388.263	106.25
388.488	89.25
388.713	74.25
388.938	90.25
389.163	97.25
389.387	86.25
389.612	89.25
389.837	91.25
390.062	98.25
390.287	97.25
390.512	77.25
390.736	98.25
390.961	92.25
391.186	91.25
391.411	88.25
391.636	85.25
391.86	84.25
392.085	88.25
392.31	89.25
392.534	98.25
392.759	96.25
392.984	95.25
393.208	98.25
393.433	88.25
393.658	84.25
393.882	78.25
394.107	83.25
394.331	82.25
394.556	88.25
394.78	95.25
395.005	79.25
395.229	84.25
395.454	93.25
395.678	103.25
395.903	97.25
396.127	90.25
396.352	86.25
396.576	101.25
396.801	102.25
397.025	81.25
397.249	96.25
397.474	100.25
397.698	88.25
397.922	86.25
398.147	83.25
398.371	82.25
398.595	94.25
398.82	98.25
399.044	92.25
399.268	101.25
399.492	100.25
399.717	94.25
399.941	102.25
400.165	99.25
400.389	91.25
400.613	81.25
400.837	85.25
401.062	93.25
401.286	90.25
401.51	85.25
401.734	96.25
401.958	82.25
402.182	85.25
402.406	89.25
402.63	97.25
402.854	92.25
403.078	98.25
403.302	93.25
403.526	88.25
403.75	97.25
403.974	93.25
404.198	90.25
404.422	97.25
404.645	100.25
404.869	107.25
405.093	94.25
405.317	115.25
405.541	89.25
405.765	106.25
405.988	94.25
406.212	107.25
406.436	105.25
406.66	82.25
406.883	106.25
407.107	108.25
407.331	109.25
407.555	101.25
407.778	89.25
408.002	99.25
408.226	106.25
408.449	107.25
408.673	84.25
408.896	86.25
409.12	98.25
409.344	99.25
409.567	99.25
409.791	103.25
410.014	96.25
410.238	108.25
410.461	93.25
410.685	99.25
410.908	111.25
411.132	109.25
411.355	101.25
411.578	98.25
411.802	101.25
412.025	94.25
412.249	86.25
412.472	98.25
412.695	96.25
412.919	101.25
413.142	112.25
413.365	92.25
413.589	97.25
413.812	100.25
414.035	114.25
414.258	106.25
414.482	103.25
414.705	90.25
414.928	92.25
415.151	106.25
415.374	95.25
415.597	98.25
415.821	113.25
416.044	88.25
416.267	108.25
416.49	98.25
416.713	102.25
416.936	103.25
417.159	93.25
417.382	105.25
417.605	98.25
417.828	96.25
418.051	119.25
418.274	107.25
418.497	102.25
418.72	104.25
418.943	91.25
419.166	106.25
419.389	111.25
419.611	106.25
419.834	109.25
420.057	106.25
420.28	105.25
420.503	85.25
420.726	106.25
420.948	106.25
421.171	93.25
421.394	120.25
421.617	102.25
421.839	108.25
422.062	105.25
422.285	100.25
422.507	112.25
422.73	106.25
422.953	100.25
423.175	90.25
423.398	107.25
423.621	104.25
423.843	94.25
424.066	102.25
424.288	93.25
424.511	98.25
424.733	108.25
424.956	118.25
425.178	95.25
425.401	105.25
425.623	111.25
425.846	113.25
426.068	106.25
426.291	109.25
426.513	108.25
426.735	100.25
426.958	112.25
427.18	117.25
427.402	116.25
427.625	112.25
427.847	89.25
428.069	98.25
428.292	107.25
428.514	106.25
428.736	116.25
428.958	105.25
429.181	100.25
429.403	106.25
429.625	95.25
429.847	103.25
430.069	106.25
430.292	113.25
430.514	106.25
430.736	119.25
430.958	109.25
431.18	99.25
431.402	104.25
431.624	101.25
431.846	110.25
432.068	95.25
432.29	87.25
432.512	90.25
432.734	94.25
432.956	112.25
433.178	108.25
433.4	101.25
433.622	101.25
433.844	111.25
434.066	103.25
434.287	91.25
434.509	95.25
434.731	94.25
434.953	97.25
435.175	98.25
435.397	101.25
435.618	98.25
435.84	101.25
436.062	98.25
436.284	103.25
436.505	99.25
436.727	103.25
436.949	109.25
437.17	107.25
437.392	89.25
437.614	91.25
437.835	112.25
438.057	101.25
438.278	99.25
438.5	104.25
438.721	106.25
438.943	102.25
439.165	100.25
439.386	96.25
439.608	98.25
439.829	109.25
440.05	108.25
440.272	114.25
440.493	112.25
440.715	121.25
440.936	112.25
441.158	116.25
441.379	120.25
441.6	109.25
441.822	93.25
442.043	116.25
442.264	127.25
442.486	123.25
442.707	124.25
442.928	135.25
443.149	114.25
443.371	119.25
443.592	103.25
443.813	94.25
444.034	114.25
444.255	125.25
444.476	114.25
444.698	101.25
444.919	120.25
445.14	184.25
445.361	162.25
445.582	122.25
445.803	117.25
446.024	117.25
446.245	109.25
446.466	106.25
446.687	122.25
446.908	104.25
447.129	114.25
447.35	106.25
447.571	100.25
447.792	101.25
448.013	108.25
448.234	106.25
448.455	111.25
448.675	115.25
448.896	104.25
449.117	107.25
449.338	105.25
449.559	110.25
449.779	111.25
450	105.25
450.221	97.25
450.442	118.25
450.662	120.25
450.883	105.25
451.104	104.25
451.324	110.25
451.545	105.25
451.766	88.25
451.986	114.25
452.207	99.25
452.428	116.25
452.648	105.25
452.869	104.25
453.089	115.25
453.31	92.25
453.53	99.25
453.751	79.25
453.971	93.25
454.192	100.25
454.412	98.25
454.633	114.25
454.853	103.25
455.073	92.25
455.294	107.25
455.514	100.25
455.734	92.25
455.955	95.25
456.175	113.25
456.395	99.25
456.616	100.25
456.836	102.25
457.056	83.25
457.276	96.25
457.497	107.25
457.717	87.25
457.937	75.25
458.157	90.25
458.377	82.25
458.598	95.25
458.818	88.25
459.038	75.25
459.258	96.25
459.478	84.25
459.698	87.25
459.918	96.25
460.138	108.25
460.358	91.25
460.578	100.25
460.798	97.25
461.018	101.25
461.238	87.25
461.458	96.25
461.678	98.25
461.898	98.25
462.118	109.25
462.338	97.25
462.558	115.25
462.777	101.25
462.997	94.25
463.217	102.25
463.437	111.25
463.657	83.25
463.876	88.25
464.096	80.25
464.316	98.25
464.536	106.25
464.755	104.25
464.975	84.25
465.195	107.25
465.414	105.25
465.634	95.25
465.854	96.25
466.073	105.25
466.293	105.25
466.512	100.25
466.732	116.25
466.951	119.25
467.171	105.25
467.391	100.25
467.61	106.25
467.829	112.25
468.049	102.25
468.268	96.25
468.488	108.25
468.707	115.25
468.927	99.25
469.146	88.25
469.365	119.25
469.585	114.25
469.804	119.25
470.023	105.25
470.243	103.25
470.462	113.25
470.681	121.25
470.901	106.25
471.12	107.25
471.339	129.25
471.558	102.25
471.777	102.25
471.997	103.25
472.216	116.25
472.435	111.25
472.654	116.25
472.873	112.25
473.092	88.25
473.311	99.25
473.53	87.25
473.749	94.25
473.968	101.25
474.187	102.25
474.406	101.25
474.625	102.25
474.844	110.25
475.063	100.25
475.282	114.25
475.501	99.25
475.72	102.25
475.939	103.25
476.158	103.25
476.377	117.25
476.596	104.25
476.814	95.25
477.033	91.25
477.252	102.25
477.471	98.25
477.69	113.25
477.908	122.25
478.127	112.25
478.346	90.25
478.564	111.25
478.783	112.25
479.002	93.25
479.22	103.25
479.439	104.25
479.658	121.25
479.876	76.25
480.095	92.25
480.313	94.25
480.532	98.25
480.751	100.25
480.969	97.25
481.188	84.25
481.406	92.25
481.624	88.25
481.843	87.25
482.061	80.25
482.28	99.25
482.498	111.25
482.717	113.25
482.935	109.25
483.153	91.25
483.372	109.25
483.59	126.25
483.808	116.25
484.027	117.25
484.245	119.25
484.463	107.25
484.681	115.25
484.9	113.25
485.118	109.25
485.336	106.25
485.554	105.25
485.772	91.25
485.99	97.25
486.209	89.25
486.427	91.25
486.645	103.25
486.863	115.25
487.081	107.25
487.299	111.25
487.517	107.25
487.735	135.25
487.953	127.25
488.171	124.25
488.389	116.25
488.607	98.25
488.825	109.25
489.043	113.25
489.261	104.25
489.479	124.25
489.696	118.25
489.914	113.25
490.132	108.25
490.35	129.25
490.568	103.25
490.786	121.25
491.003	122.25
491.221	113.25
491.439	133.25
491.657	133.25
491.874	135.25
492.092	141.25
492.31	144.25
492.527	155.25
492.745	137.25
492.963	139.25
493.18	138.25
493.398	137.25
493.615	133.25
493.833	131.25
494.05	128.25
494.268	116.25
494.485	139.25
494.703	126.25
494.92	123.25
495.138	111.25
495.355	114.25
495.573	119.25
495.79	133.25
496.008	127.25
496.225	126.25
496.442	132.25
496.66	126.25
496.877	117.25
497.094	130.25
497.312	128.25
497.529	126.25
497.746	123.25
497.963	113.25
498.181	92.25
498.398	86.25
498.615	94.25
498.832	95.25
499.049	96.25
499.267	111.25
499.484	107.25
499.701	119.25
499.918	119.25
500.135	118.25
500.352	106.25
500.569	106.25
500.786	107.25
501.003	116.25
501.22	102.25
501.437	101.25
501.654	119.25
501.871	106.25
502.088	115.25
502.305	104.25
502.522	108.25
502.739	112.25
502.956	106.25
503.172	120.25
503.389	108.25
503.606	107.25
503.823	100.25
504.04	96.25
504.256	111.25
504.473	94.25
504.69	92.25
504.907	92.25
505.123	92.25
505.34	100.25
505.557	99.25
505.773	110.25
505.99	91.25
506.207	113.25
506.423	91.25
506.64	99.25
506.856	99.25
507.073	94.25
507.289	97.25
507.506	103.25
507.722	84.25
507.939	98.25
508.155	104.25
508.372	93.25
508.588	93.25
508.805	91.25
509.021	85.25
509.238	88.25
509.454	103.25
509.67	95.25
509.887	96.25
510.103	84.25
510.319	102.25
510.536	86.25
510.752	83.25
510.968	103.25
511.184	70.25
511.401	74.25
511.617	73.25
511.833	91.25
512.049	95.25
512.265	91.25
512.481	91.25
512.698	102.25
512.914	82.25
513.13	89.25
513.346	87.25
513.562	90.25
513.778	96.25
513.994	104.25
514.21	83.25
514.426	94.25
