Data from Zn(NO3)2Standard.Agarose3%.GreenCap.LampEnergy5.5.E.O_HRD10591_15-03-51-768.txt Node
Date: Mon Jul 22 15:03:51 EDT 2019
User: cochatt
Spectrometer: HR+D1059
Trigger mode: 1
Integration Time (sec): 1.000000E-1
Scans to average: 1
Electric dark correction enabled: true
Nonlinearity correction enabled: false
Boxcar width: 0
XAxis mode: Wavelengths
Number of Pixels in Spectrum: 2048
>>>>>Begin Spectral Data<<<<<
223.165	-15.56
223.4	-15.56
223.635	-15.56
223.869	-24.56
224.104	-21.56
224.338	-10.56
224.573	-13.56
224.808	-12.56
225.042	-3.56
225.277	-2.56
225.511	5.44
225.746	13.44
225.98	-7.56
226.215	11.44
226.449	6.44
226.683	21.44
226.918	20.44
227.152	33.44
227.387	41.44
227.621	36.44
227.856	34.44
228.09	35.44
228.324	64.44
228.559	41.44
228.793	62.44
229.027	58.44
229.262	59.44
229.496	74.44
229.73	67.44
229.964	71.44
230.199	65.44
230.433	61.44
230.667	83.44
230.901	70.44
231.136	78.44
231.37	91.44
231.604	76.44
231.838	98.44
232.072	98.44
232.306	81.44
232.541	90.44
232.775	91.44
233.009	78.44
233.243	87.44
233.477	79.44
233.711	83.44
233.945	76.44
234.179	77.44
234.413	89.44
234.647	87.44
234.881	101.44
235.115	91.44
235.349	80.44
235.583	86.44
235.817	91.44
236.051	77.44
236.285	78.44
236.519	73.44
236.753	85.44
236.987	74.44
237.221	73.44
237.455	78.44
237.689	79.44
237.922	80.44
238.156	72.44
238.39	79.44
238.624	81.44
238.858	71.44
239.091	65.44
239.325	77.44
239.559	72.44
239.793	62.44
240.027	65.44
240.26	71.44
240.494	84.44
240.728	66.44
240.961	78.44
241.195	94.44
241.429	63.44
241.662	71.44
241.896	79.44
242.13	75.44
242.363	69.44
242.597	76.44
242.83	70.44
243.064	79.44
243.298	75.44
243.531	76.44
243.765	73.44
243.998	72.44
244.232	86.44
244.465	78.44
244.699	69.44
244.932	67.44
245.166	74.44
245.399	86.44
245.633	61.44
245.866	67.44
246.099	85.44
246.333	64.44
246.566	78.44
246.8	69.44
247.033	68.44
247.266	73.44
247.5	83.44
247.733	73.44
247.966	69.44
248.2	73.44
248.433	78.44
248.666	78.44
248.899	74.44
249.133	76.44
249.366	98.44
249.599	89.44
249.832	75.44
250.066	79.44
250.299	84.44
250.532	91.44
250.765	82.44
250.998	77.44
251.231	79.44
251.465	89.44
251.698	72.44
251.931	104.44
252.164	83.44
252.397	86.44
252.63	83.44
252.863	78.44
253.096	81.44
253.329	77.44
253.562	78.44
253.795	106.44
254.028	88.44
254.261	68.44
254.494	79.44
254.727	82.44
254.96	75.44
255.193	79.44
255.426	83.44
255.659	81.44
255.892	87.44
256.124	102.44
256.357	74.44
256.59	78.44
256.823	90.44
257.056	70.44
257.289	83.44
257.521	83.44
257.754	87.44
257.987	77.44
258.22	88.44
258.452	81.44
258.685	92.44
258.918	87.44
259.151	68.44
259.383	91.44
259.616	76.44
259.849	81.44
260.081	104.44
260.314	90.44
260.547	87.44
260.779	79.44
261.012	74.44
261.244	70.44
261.477	81.44
261.71	93.44
261.942	94.44
262.175	77.44
262.407	81.44
262.64	73.44
262.872	71.44
263.105	83.44
263.337	83.44
263.57	70.44
263.802	81.44
264.035	102.44
264.267	87.44
264.499	91.44
264.732	77.44
264.964	80.44
265.197	99.44
265.429	81.44
265.661	74.44
265.894	78.44
266.126	84.44
266.358	78.44
266.591	89.44
266.823	79.44
267.055	89.44
267.287	92.44
267.52	78.44
267.752	102.44
267.984	89.44
268.216	90.44
268.448	66.44
268.681	92.44
268.913	86.44
269.145	78.44
269.377	84.44
269.609	83.44
269.841	87.44
270.073	80.44
270.306	81.44
270.538	72.44
270.77	97.44
271.002	84.44
271.234	91.44
271.466	106.44
271.698	72.44
271.93	91.44
272.162	79.44
272.394	88.44
272.626	68.44
272.858	91.44
273.09	85.44
273.322	82.44
273.553	98.44
273.785	86.44
274.017	94.44
274.249	83.44
274.481	82.44
274.713	85.44
274.945	98.44
275.176	77.44
275.408	86.44
275.64	82.44
275.872	86.44
276.104	75.44
276.335	91.44
276.567	91.44
276.799	82.44
277.031	87.44
277.262	93.44
277.494	61.44
277.726	77.44
277.957	76.44
278.189	77.44
278.421	83.44
278.652	84.44
278.884	78.44
279.115	75.44
279.347	72.44
279.579	80.44
279.81	88.44
280.042	79.44
280.273	83.44
280.505	87.44
280.736	85.44
280.968	77.44
281.199	82.44
281.431	63.44
281.662	82.44
281.894	85.44
282.125	90.44
282.356	97.44
282.588	86.44
282.819	76.44
283.051	85.44
283.282	97.44
283.513	88.44
283.745	85.44
283.976	74.44
284.207	88.44
284.439	86.44
284.67	72.44
284.901	82.44
285.132	85.44
285.364	89.44
285.595	85.44
285.826	81.44
286.057	87.44
286.288	80.44
286.52	90.44
286.751	88.44
286.982	90.44
287.213	86.44
287.444	99.44
287.675	87.44
287.906	81.44
288.138	75.44
288.369	85.44
288.6	89.44
288.831	81.44
289.062	95.44
289.293	100.44
289.524	80.44
289.755	89.44
289.986	86.44
290.217	83.44
290.448	77.44
290.679	84.44
290.91	77.44
291.141	85.44
291.371	75.44
291.602	86.44
291.833	84.44
292.064	79.44
292.295	92.44
292.526	70.44
292.757	68.44
292.987	83.44
293.218	106.44
293.449	78.44
293.68	81.44
293.91	85.44
294.141	79.44
294.372	85.44
294.603	71.44
294.833	85.44
295.064	79.44
295.295	81.44
295.525	80.44
295.756	62.44
295.987	95.44
296.217	93.44
296.448	85.44
296.679	93.44
296.909	89.44
297.14	76.44
297.37	97.44
297.601	75.44
297.831	86.44
298.062	85.44
298.292	93.44
298.523	88.44
298.753	79.44
298.984	82.44
299.214	76.44
299.445	76.44
299.675	85.44
299.905	86.44
300.136	87.44
300.366	88.44
300.597	89.44
300.827	94.44
301.057	76.44
301.288	92.44
301.518	86.44
301.748	77.44
301.979	77.44
302.209	90.44
302.439	79.44
302.669	89.44
302.9	81.44
303.13	86.44
303.36	80.44
303.59	80.44
303.82	75.44
304.051	82.44
304.281	87.44
304.511	99.44
304.741	89.44
304.971	76.44
305.201	84.44
305.431	81.44
305.661	89.44
305.891	66.44
306.121	73.44
306.352	90.44
306.582	71.44
306.812	89.44
307.042	75.44
307.272	79.44
307.502	78.44
307.731	89.44
307.961	87.44
308.191	87.44
308.421	91.44
308.651	81.44
308.881	89.44
309.111	88.44
309.341	93.44
309.571	90.44
309.8	78.44
310.03	83.44
310.26	92.44
310.49	84.44
310.72	92.44
310.949	89.44
311.179	79.44
311.409	83.44
311.639	93.44
311.868	93.44
312.098	78.44
312.328	84.44
312.557	86.44
312.787	89.44
313.017	87.44
313.246	77.44
313.476	81.44
313.706	86.44
313.935	81.44
314.165	80.44
314.394	93.44
314.624	82.44
314.853	73.44
315.083	82.44
315.312	101.44
315.542	82.44
315.771	80.44
316.001	89.44
316.23	74.44
316.46	79.44
316.689	85.44
316.919	79.44
317.148	95.44
317.377	86.44
317.607	99.44
317.836	83.44
318.065	97.44
318.295	78.44
318.524	93.44
318.753	83.44
318.983	89.44
319.212	86.44
319.441	84.44
319.67	85.44
319.9	83.44
320.129	78.44
320.358	82.44
320.587	79.44
320.816	82.44
321.046	91.44
321.275	91.44
321.504	91.44
321.733	91.44
321.962	93.44
322.191	89.44
322.42	91.44
322.649	77.44
322.878	84.44
323.108	88.44
323.337	87.44
323.566	90.44
323.795	78.44
324.024	92.44
324.253	92.44
324.482	99.44
324.71	78.44
324.939	84.44
325.168	75.44
325.397	94.44
325.626	90.44
325.855	74.44
326.084	96.44
326.313	94.44
326.542	83.44
326.77	90.44
326.999	66.44
327.228	77.44
327.457	89.44
327.686	76.44
327.914	68.44
328.143	85.44
328.372	87.44
328.6	85.44
328.829	82.44
329.058	89.44
329.287	79.44
329.515	85.44
329.744	90.44
329.972	96.44
330.201	83.44
330.43	85.44
330.658	75.44
330.887	81.44
331.115	74.44
331.344	81.44
331.572	106.44
331.801	87.44
332.03	83.44
332.258	92.44
332.486	80.44
332.715	93.44
332.943	92.44
333.172	88.44
333.4	74.44
333.629	85.44
333.857	81.44
334.085	96.44
334.314	74.44
334.542	95.44
334.771	85.44
334.999	74.44
335.227	74.44
335.455	87.44
335.684	83.44
335.912	96.44
336.14	80.44
336.369	73.44
336.597	78.44
336.825	90.44
337.053	76.44
337.281	81.44
337.51	82.44
337.738	103.44
337.966	95.44
338.194	77.44
338.422	88.44
338.65	87.44
338.878	86.44
339.106	78.44
339.334	102.44
339.562	85.44
339.79	82.44
340.018	85.44
340.246	95.44
340.474	83.44
340.702	95.44
340.93	85.44
341.158	79.44
341.386	82.44
341.614	82.44
341.842	85.44
342.07	91.44
342.298	84.44
342.526	86.44
342.754	86.44
342.981	90.44
343.209	87.44
343.437	88.44
343.665	94.44
343.893	79.44
344.12	102.44
344.348	73.44
344.576	103.44
344.804	94.44
345.031	85.44
345.259	95.44
345.487	81.44
345.714	87.44
345.942	92.44
346.17	96.44
346.397	85.44
346.625	74.44
346.853	85.44
347.08	86.44
347.308	72.44
347.535	83.44
347.763	83.44
347.99	97.44
348.218	88.44
348.445	74.44
348.673	83.44
348.9	92.44
349.128	86.44
349.355	90.44
349.583	94.44
349.81	95.44
350.037	81.44
350.265	92.44
350.492	79.44
350.72	80.44
350.947	79.44
351.174	89.44
351.402	78.44
351.629	73.44
351.856	85.44
352.083	88.44
352.311	92.44
352.538	89.44
352.765	97.44
352.992	88.44
353.22	83.44
353.447	91.44
353.674	84.44
353.901	81.44
354.128	90.44
354.355	76.44
354.583	82.44
354.81	75.44
355.037	81.44
355.264	93.44
355.491	78.44
355.718	78.44
355.945	105.44
356.172	84.44
356.399	88.44
356.626	79.44
356.853	80.44
357.08	84.44
357.307	88.44
357.534	75.44
357.761	82.44
357.988	76.44
358.215	85.44
358.441	87.44
358.668	91.44
358.895	83.44
359.122	79.44
359.349	82.44
359.576	80.44
359.802	94.44
360.029	91.44
360.256	80.44
360.483	83.44
360.709	81.44
360.936	77.44
361.163	102.44
361.39	102.44
361.616	76.44
361.843	81.44
362.07	77.44
362.296	82.44
362.523	60.44
362.749	75.44
362.976	88.44
363.203	97.44
363.429	84.44
363.656	76.44
363.882	68.44
364.109	79.44
364.335	92.44
364.562	90.44
364.788	87.44
365.015	83.44
365.241	90.44
365.468	76.44
365.694	75.44
365.92	66.44
366.147	59.44
366.373	86.44
366.599	69.44
366.826	95.44
367.052	86.44
367.278	92.44
367.505	75.44
367.731	78.44
367.957	82.44
368.184	93.44
368.41	82.44
368.636	75.44
368.862	92.44
369.089	70.44
369.315	78.44
369.541	82.44
369.767	77.44
369.993	84.44
370.219	86.44
370.445	86.44
370.672	82.44
370.898	83.44
371.124	66.44
371.35	78.44
371.576	85.44
371.802	77.44
372.028	72.44
372.254	74.44
372.48	83.44
372.706	81.44
372.932	97.44
373.158	67.44
373.384	92.44
373.61	87.44
373.835	83.44
374.061	86.44
374.287	90.44
374.513	79.44
374.739	84.44
374.965	78.44
375.191	76.44
375.416	91.44
375.642	86.44
375.868	74.44
376.094	78.44
376.319	75.44
376.545	86.44
376.771	79.44
376.997	84.44
377.222	87.44
377.448	84.44
377.674	70.44
377.899	79.44
378.125	79.44
378.35	77.44
378.576	92.44
378.802	85.44
379.027	83.44
379.253	98.44
379.478	90.44
379.704	69.44
379.929	86.44
380.155	96.44
380.38	80.44
380.606	81.44
380.831	83.44
381.057	90.44
381.282	74.44
381.507	80.44
381.733	94.44
381.958	89.44
382.184	87.44
382.409	98.44
382.634	106.44
382.86	74.44
383.085	83.44
383.31	85.44
383.535	101.44
383.761	76.44
383.986	85.44
384.211	72.44
384.436	80.44
384.662	82.44
384.887	86.44
385.112	94.44
385.337	102.44
385.562	91.44
385.787	92.44
386.013	98.44
386.238	91.44
386.463	93.44
386.688	82.44
386.913	83.44
387.138	73.44
387.363	85.44
387.588	91.44
387.813	75.44
388.038	80.44
388.263	86.44
388.488	77.44
388.713	73.44
388.938	87.44
389.163	84.44
389.387	90.44
389.612	71.44
389.837	71.44
390.062	97.44
390.287	90.44
390.512	73.44
390.736	85.44
390.961	78.44
391.186	92.44
391.411	78.44
391.636	87.44
391.86	77.44
392.085	85.44
392.31	75.44
392.534	83.44
392.759	90.44
392.984	84.44
393.208	81.44
393.433	85.44
393.658	78.44
393.882	94.44
394.107	93.44
394.331	69.44
394.556	83.44
394.78	86.44
395.005	75.44
395.229	80.44
395.454	97.44
395.678	95.44
395.903	92.44
396.127	97.44
396.352	65.44
396.576	76.44
396.801	89.44
397.025	85.44
397.249	81.44
397.474	88.44
397.698	85.44
397.922	83.44
398.147	93.44
398.371	96.44
398.595	85.44
398.82	89.44
399.044	88.44
399.268	74.44
399.492	77.44
399.717	84.44
399.941	74.44
400.165	85.44
400.389	89.44
400.613	72.44
400.837	91.44
401.062	81.44
401.286	83.44
401.51	79.44
401.734	92.44
401.958	94.44
402.182	93.44
402.406	76.44
402.63	87.44
402.854	100.44
403.078	84.44
403.302	89.44
403.526	90.44
403.75	90.44
403.974	74.44
404.198	85.44
404.422	85.44
404.645	76.44
404.869	87.44
405.093	72.44
405.317	75.44
405.541	103.44
405.765	79.44
405.988	82.44
406.212	100.44
406.436	75.44
406.66	100.44
406.883	104.44
407.107	82.44
407.331	90.44
407.555	82.44
407.778	69.44
408.002	90.44
408.226	89.44
408.449	90.44
408.673	79.44
408.896	85.44
409.12	89.44
409.344	90.44
409.567	93.44
409.791	69.44
410.014	95.44
410.238	97.44
410.461	83.44
410.685	90.44
410.908	101.44
411.132	91.44
411.355	83.44
411.578	80.44
411.802	94.44
412.025	79.44
412.249	76.44
412.472	87.44
412.695	75.44
412.919	104.44
413.142	89.44
413.365	84.44
413.589	86.44
413.812	83.44
414.035	93.44
414.258	106.44
414.482	84.44
414.705	84.44
414.928	78.44
415.151	83.44
415.374	86.44
415.597	79.44
415.821	90.44
416.044	86.44
416.267	85.44
416.49	78.44
416.713	89.44
416.936	80.44
417.159	82.44
417.382	67.44
417.605	82.44
417.828	82.44
418.051	72.44
418.274	86.44
418.497	91.44
418.72	87.44
418.943	94.44
419.166	98.44
419.389	83.44
419.611	79.44
419.834	91.44
420.057	89.44
420.28	85.44
420.503	88.44
420.726	81.44
420.948	95.44
421.171	92.44
421.394	80.44
421.617	110.44
421.839	80.44
422.062	84.44
422.285	83.44
422.507	84.44
422.73	92.44
422.953	78.44
423.175	89.44
423.398	87.44
423.621	94.44
423.843	82.44
424.066	84.44
424.288	58.44
424.511	95.44
424.733	98.44
424.956	100.44
425.178	88.44
425.401	89.44
425.623	105.44
425.846	83.44
426.068	90.44
426.291	95.44
426.513	101.44
426.735	97.44
426.958	82.44
427.18	96.44
427.402	88.44
427.625	85.44
427.847	77.44
428.069	90.44
428.292	98.44
428.514	85.44
428.736	87.44
428.958	75.44
429.181	78.44
429.403	91.44
429.625	78.44
429.847	78.44
430.069	83.44
430.292	85.44
430.514	95.44
430.736	93.44
430.958	87.44
431.18	97.44
431.402	72.44
431.624	101.44
431.846	88.44
432.068	85.44
432.29	90.44
432.512	77.44
432.734	85.44
432.956	91.44
433.178	90.44
433.4	87.44
433.622	92.44
433.844	83.44
434.066	77.44
434.287	89.44
434.509	98.44
434.731	88.44
434.953	79.44
435.175	93.44
435.397	98.44
435.618	72.44
435.84	91.44
436.062	84.44
436.284	79.44
436.505	90.44
436.727	88.44
436.949	73.44
437.17	85.44
437.392	94.44
437.614	89.44
437.835	90.44
438.057	90.44
438.278	93.44
438.5	83.44
438.721	92.44
438.943	89.44
439.165	83.44
439.386	94.44
439.608	81.44
439.829	89.44
440.05	99.44
440.272	95.44
440.493	95.44
440.715	95.44
440.936	83.44
441.158	97.44
441.379	76.44
441.6	101.44
441.822	81.44
442.043	86.44
442.264	80.44
442.486	92.44
442.707	85.44
442.928	90.44
443.149	89.44
443.371	83.44
443.592	95.44
443.813	94.44
444.034	87.44
444.255	78.44
444.476	93.44
444.698	84.44
444.919	76.44
445.14	207.44
445.361	143.44
445.582	83.44
445.803	102.44
446.024	91.44
446.245	90.44
446.466	94.44
446.687	90.44
446.908	88.44
447.129	81.44
447.35	89.44
447.571	99.44
447.792	101.44
448.013	104.44
448.234	89.44
448.455	90.44
448.675	73.44
448.896	85.44
449.117	104.44
449.338	86.44
449.559	102.44
449.779	96.44
450	85.44
450.221	85.44
450.442	91.44
450.662	86.44
450.883	91.44
451.104	83.44
451.324	86.44
451.545	99.44
451.766	107.44
451.986	94.44
452.207	92.44
452.428	90.44
452.648	87.44
452.869	85.44
453.089	86.44
453.31	98.44
453.53	86.44
453.751	83.44
453.971	79.44
454.192	81.44
454.412	82.44
454.633	85.44
454.853	91.44
455.073	98.44
455.294	90.44
455.514	90.44
455.734	94.44
455.955	105.44
456.175	90.44
456.395	83.44
456.616	86.44
456.836	78.44
457.056	86.44
457.276	74.44
457.497	82.44
457.717	74.44
457.937	87.44
458.157	63.44
458.377	76.44
458.598	75.44
458.818	66.44
459.038	86.44
459.258	81.44
459.478	73.44
459.698	87.44
459.918	81.44
460.138	79.44
460.358	81.44
460.578	77.44
460.798	95.44
461.018	79.44
461.238	88.44
461.458	78.44
461.678	83.44
461.898	79.44
462.118	79.44
462.338	85.44
462.558	79.44
462.777	78.44
462.997	85.44
463.217	72.44
463.437	91.44
463.657	76.44
463.876	85.44
464.096	83.44
464.316	81.44
464.536	81.44
464.755	82.44
464.975	85.44
465.195	84.44
465.414	69.44
465.634	67.44
465.854	76.44
466.073	84.44
466.293	86.44
466.512	90.44
466.732	81.44
466.951	82.44
467.171	89.44
467.391	84.44
467.61	92.44
467.829	94.44
468.049	95.44
468.268	77.44
468.488	95.44
468.707	104.44
468.927	89.44
469.146	92.44
469.365	98.44
469.585	98.44
469.804	99.44
470.023	90.44
470.243	90.44
470.462	85.44
470.681	100.44
470.901	84.44
471.12	89.44
471.339	100.44
471.558	86.44
471.777	99.44
471.997	103.44
472.216	70.44
472.435	88.44
472.654	90.44
472.873	83.44
473.092	84.44
473.311	97.44
473.53	89.44
473.749	99.44
473.968	93.44
474.187	83.44
474.406	85.44
474.625	61.44
474.844	89.44
475.063	84.44
475.282	82.44
475.501	97.44
475.72	78.44
475.939	81.44
476.158	85.44
476.377	93.44
476.596	86.44
476.814	96.44
477.033	77.44
477.252	93.44
477.471	92.44
477.69	97.44
477.908	80.44
478.127	90.44
478.346	93.44
478.564	90.44
478.783	86.44
479.002	87.44
479.22	98.44
479.439	109.44
479.658	85.44
479.876	95.44
480.095	85.44
480.313	78.44
480.532	72.44
480.751	75.44
480.969	68.44
481.188	84.44
481.406	102.44
481.624	91.44
481.843	75.44
482.061	81.44
482.28	85.44
482.498	88.44
482.717	76.44
482.935	77.44
483.153	88.44
483.372	84.44
483.59	102.44
483.808	90.44
484.027	89.44
484.245	79.44
484.463	76.44
484.681	87.44
484.9	83.44
485.118	101.44
485.336	85.44
485.554	91.44
485.772	90.44
485.99	80.44
486.209	81.44
486.427	99.44
486.645	84.44
486.863	85.44
487.081	85.44
487.299	90.44
487.517	88.44
487.735	88.44
487.953	100.44
488.171	106.44
488.389	91.44
488.607	84.44
488.825	96.44
489.043	92.44
489.261	106.44
489.479	90.44
489.696	84.44
489.914	92.44
490.132	107.44
490.35	96.44
490.568	81.44
490.786	87.44
491.003	98.44
491.221	97.44
491.439	110.44
491.657	84.44
491.874	79.44
492.092	99.44
492.31	111.44
492.527	100.44
492.745	108.44
492.963	94.44
493.18	94.44
493.398	105.44
493.615	94.44
493.833	85.44
494.05	93.44
494.268	93.44
494.485	103.44
494.703	98.44
494.92	99.44
495.138	94.44
495.355	91.44
495.573	108.44
495.79	88.44
496.008	96.44
496.225	90.44
496.442	97.44
496.66	74.44
496.877	98.44
497.094	94.44
497.312	103.44
497.529	102.44
497.746	83.44
497.963	100.44
498.181	76.44
498.398	92.44
498.615	89.44
498.832	90.44
499.049	86.44
499.267	93.44
499.484	88.44
499.701	81.44
499.918	93.44
500.135	96.44
500.352	92.44
500.569	83.44
500.786	91.44
501.003	99.44
501.22	85.44
501.437	83.44
501.654	99.44
501.871	97.44
502.088	94.44
502.305	90.44
502.522	87.44
502.739	90.44
502.956	86.44
503.172	81.44
503.389	87.44
503.606	71.44
503.823	82.44
504.04	83.44
504.256	96.44
504.473	108.44
504.69	93.44
504.907	91.44
505.123	85.44
505.34	100.44
505.557	76.44
505.773	101.44
505.99	84.44
506.207	86.44
506.423	93.44
506.64	108.44
506.856	90.44
507.073	83.44
507.289	101.44
507.506	78.44
507.722	86.44
507.939	95.44
508.155	90.44
508.372	83.44
508.588	92.44
508.805	85.44
509.021	94.44
509.238	93.44
509.454	83.44
509.67	83.44
509.887	73.44
510.103	79.44
510.319	83.44
510.536	93.44
510.752	85.44
510.968	79.44
511.184	83.44
511.401	71.44
511.617	77.44
511.833	86.44
512.049	93.44
512.265	72.44
512.481	97.44
512.698	80.44
512.914	83.44
513.13	86.44
513.346	90.44
513.562	79.44
513.778	71.44
513.994	87.44
514.21	93.44
514.426	80.44
514.642	82.44
514.858	82.44
515.074	86.44
515.29	92.44
515.506	101.44
515.721	92.44
515.937	89.44
516.153	85.44
516.369	90.44
516.585	87.44
516.801	76.44
517.016	72.44
517.232	97.44
517.448	82.44
517.664	73.44
517.879	78.44
518.095	91.44
518.311	84.44
518.527	91.44
