Data from Zn(NO3)2Standard.Agarose3%.GreenCap.LampEnergy5.5.E.O_HRD10591_15-01-10-768.txt Node
Date: Mon Jul 22 15:01:10 EDT 2019
User: cochatt
Spectrometer: HR+D1059
Trigger mode: 1
Integration Time (sec): 1.000000E-1
Scans to average: 1
Electric dark correction enabled: true
Nonlinearity correction enabled: false
Boxcar width: 0
XAxis mode: Wavelengths
Number of Pixels in Spectrum: 2048
>>>>>Begin Spectral Data<<<<<
223.165	-28.38
223.4	-28.38
223.635	-28.38
223.869	-19.38
224.104	-20.38
224.338	-12.38
224.573	-12.38
224.808	-21.38
225.042	-8.38
225.277	6.62
225.511	7.62
225.746	2.62
225.98	4.62
226.215	20.62
226.449	21.62
226.683	20.62
226.918	22.62
227.152	15.62
227.387	30.62
227.621	31.62
227.856	48.62
228.09	47.62
228.324	43.62
228.559	57.62
228.793	60.62
229.027	54.62
229.262	64.62
229.496	67.62
229.73	67.62
229.964	65.62
230.199	93.62
230.433	80.62
230.667	67.62
230.901	81.62
231.136	85.62
231.37	86.62
231.604	88.62
231.838	91.62
232.072	99.62
232.306	84.62
232.541	66.62
232.775	80.62
233.009	89.62
233.243	85.62
233.477	84.62
233.711	85.62
233.945	80.62
234.179	87.62
234.413	79.62
234.647	87.62
234.881	75.62
235.115	79.62
235.349	80.62
235.583	84.62
235.817	87.62
236.051	81.62
236.285	75.62
236.519	69.62
236.753	74.62
236.987	72.62
237.221	59.62
237.455	70.62
237.689	88.62
237.922	82.62
238.156	85.62
238.39	72.62
238.624	75.62
238.858	83.62
239.091	75.62
239.325	68.62
239.559	79.62
239.793	81.62
240.027	75.62
240.26	66.62
240.494	73.62
240.728	91.62
240.961	79.62
241.195	90.62
241.429	71.62
241.662	68.62
241.896	71.62
242.13	64.62
242.363	76.62
242.597	71.62
242.83	76.62
243.064	74.62
243.298	81.62
243.531	80.62
243.765	74.62
243.998	86.62
244.232	84.62
244.465	69.62
244.699	80.62
244.932	74.62
245.166	66.62
245.399	90.62
245.633	85.62
245.866	93.62
246.099	75.62
246.333	70.62
246.566	76.62
246.8	87.62
247.033	84.62
247.266	75.62
247.5	78.62
247.733	81.62
247.966	65.62
248.2	75.62
248.433	82.62
248.666	86.62
248.899	76.62
249.133	80.62
249.366	78.62
249.599	79.62
249.832	84.62
250.066	79.62
250.299	81.62
250.532	84.62
250.765	72.62
250.998	88.62
251.231	86.62
251.465	78.62
251.698	87.62
251.931	68.62
252.164	87.62
252.397	60.62
252.63	79.62
252.863	88.62
253.096	83.62
253.329	85.62
253.562	77.62
253.795	77.62
254.028	90.62
254.261	74.62
254.494	75.62
254.727	84.62
254.96	70.62
255.193	73.62
255.426	74.62
255.659	73.62
255.892	86.62
256.124	98.62
256.357	87.62
256.59	75.62
256.823	75.62
257.056	84.62
257.289	79.62
257.521	95.62
257.754	75.62
257.987	78.62
258.22	68.62
258.452	79.62
258.685	85.62
258.918	84.62
259.151	69.62
259.383	85.62
259.616	90.62
259.849	58.62
260.081	74.62
260.314	84.62
260.547	92.62
260.779	69.62
261.012	92.62
261.244	68.62
261.477	81.62
261.71	76.62
261.942	74.62
262.175	81.62
262.407	85.62
262.64	67.62
262.872	75.62
263.105	78.62
263.337	81.62
263.57	84.62
263.802	69.62
264.035	71.62
264.267	87.62
264.499	92.62
264.732	87.62
264.964	82.62
265.197	74.62
265.429	81.62
265.661	85.62
265.894	80.62
266.126	76.62
266.358	85.62
266.591	76.62
266.823	94.62
267.055	76.62
267.287	83.62
267.52	85.62
267.752	86.62
267.984	80.62
268.216	86.62
268.448	86.62
268.681	82.62
268.913	83.62
269.145	79.62
269.377	82.62
269.609	82.62
269.841	77.62
270.073	75.62
270.306	78.62
270.538	88.62
270.77	85.62
271.002	85.62
271.234	86.62
271.466	87.62
271.698	97.62
271.93	62.62
272.162	86.62
272.394	84.62
272.626	90.62
272.858	83.62
273.09	77.62
273.322	86.62
273.553	83.62
273.785	79.62
274.017	78.62
274.249	84.62
274.481	88.62
274.713	76.62
274.945	77.62
275.176	79.62
275.408	79.62
275.64	75.62
275.872	82.62
276.104	73.62
276.335	76.62
276.567	87.62
276.799	77.62
277.031	80.62
277.262	90.62
277.494	77.62
277.726	88.62
277.957	76.62
278.189	90.62
278.421	83.62
278.652	76.62
278.884	86.62
279.115	72.62
279.347	86.62
279.579	88.62
279.81	86.62
280.042	75.62
280.273	77.62
280.505	86.62
280.736	76.62
280.968	79.62
281.199	92.62
281.431	89.62
281.662	78.62
281.894	80.62
282.125	75.62
282.356	89.62
282.588	89.62
282.819	93.62
283.051	85.62
283.282	82.62
283.513	88.62
283.745	93.62
283.976	77.62
284.207	79.62
284.439	85.62
284.67	91.62
284.901	85.62
285.132	77.62
285.364	83.62
285.595	95.62
285.826	76.62
286.057	86.62
286.288	90.62
286.52	65.62
286.751	87.62
286.982	87.62
287.213	85.62
287.444	83.62
287.675	86.62
287.906	75.62
288.138	99.62
288.369	82.62
288.6	67.62
288.831	79.62
289.062	88.62
289.293	95.62
289.524	91.62
289.755	90.62
289.986	88.62
290.217	85.62
290.448	94.62
290.679	90.62
290.91	95.62
291.141	88.62
291.371	82.62
291.602	81.62
291.833	82.62
292.064	92.62
292.295	91.62
292.526	90.62
292.757	85.62
292.987	77.62
293.218	99.62
293.449	98.62
293.68	91.62
293.91	84.62
294.141	81.62
294.372	82.62
294.603	82.62
294.833	93.62
295.064	82.62
295.295	90.62
295.525	86.62
295.756	83.62
295.987	91.62
296.217	94.62
296.448	94.62
296.679	83.62
296.909	89.62
297.14	87.62
297.37	88.62
297.601	83.62
297.831	85.62
298.062	81.62
298.292	85.62
298.523	86.62
298.753	76.62
298.984	67.62
299.214	78.62
299.445	93.62
299.675	89.62
299.905	76.62
300.136	78.62
300.366	86.62
300.597	80.62
300.827	79.62
301.057	90.62
301.288	83.62
301.518	89.62
301.748	79.62
301.979	92.62
302.209	90.62
302.439	81.62
302.669	72.62
302.9	81.62
303.13	78.62
303.36	75.62
303.59	79.62
303.82	92.62
304.051	74.62
304.281	92.62
304.511	92.62
304.741	77.62
304.971	86.62
305.201	88.62
305.431	75.62
305.661	77.62
305.891	87.62
306.121	84.62
306.352	84.62
306.582	90.62
306.812	79.62
307.042	96.62
307.272	85.62
307.502	74.62
307.731	84.62
307.961	78.62
308.191	87.62
308.421	91.62
308.651	79.62
308.881	88.62
309.111	91.62
309.341	90.62
309.571	88.62
309.8	91.62
310.03	78.62
310.26	85.62
310.49	100.62
310.72	91.62
310.949	87.62
311.179	75.62
311.409	84.62
311.639	93.62
311.868	84.62
312.098	98.62
312.328	84.62
312.557	91.62
312.787	92.62
313.017	98.62
313.246	90.62
313.476	84.62
313.706	85.62
313.935	100.62
314.165	93.62
314.394	71.62
314.624	91.62
314.853	98.62
315.083	83.62
315.312	71.62
315.542	83.62
315.771	84.62
316.001	82.62
316.23	95.62
316.46	68.62
316.689	86.62
316.919	83.62
317.148	92.62
317.377	95.62
317.607	89.62
317.836	87.62
318.065	84.62
318.295	101.62
318.524	95.62
318.753	88.62
318.983	78.62
319.212	75.62
319.441	94.62
319.67	85.62
319.9	86.62
320.129	100.62
320.358	84.62
320.587	80.62
320.816	88.62
321.046	88.62
321.275	83.62
321.504	95.62
321.733	98.62
321.962	86.62
322.191	83.62
322.42	99.62
322.649	88.62
322.878	85.62
323.108	93.62
323.337	92.62
323.566	72.62
323.795	92.62
324.024	86.62
324.253	85.62
324.482	89.62
324.71	83.62
324.939	88.62
325.168	83.62
325.397	102.62
325.626	88.62
325.855	81.62
326.084	92.62
326.313	84.62
326.542	84.62
326.77	93.62
326.999	84.62
327.228	80.62
327.457	73.62
327.686	83.62
327.914	79.62
328.143	80.62
328.372	84.62
328.6	83.62
328.829	74.62
329.058	84.62
329.287	92.62
329.515	96.62
329.744	92.62
329.972	95.62
330.201	85.62
330.43	92.62
330.658	101.62
330.887	72.62
331.115	82.62
331.344	85.62
331.572	83.62
331.801	71.62
332.03	80.62
332.258	72.62
332.486	84.62
332.715	91.62
332.943	76.62
333.172	58.62
333.4	80.62
333.629	70.62
333.857	80.62
334.085	80.62
334.314	73.62
334.542	92.62
334.771	85.62
334.999	99.62
335.227	93.62
335.455	86.62
335.684	91.62
335.912	102.62
336.14	88.62
336.369	89.62
336.597	87.62
336.825	86.62
337.053	74.62
337.281	88.62
337.51	88.62
337.738	91.62
337.966	101.62
338.194	76.62
338.422	81.62
338.65	89.62
338.878	92.62
339.106	89.62
339.334	86.62
339.562	87.62
339.79	80.62
340.018	82.62
340.246	87.62
340.474	80.62
340.702	95.62
340.93	86.62
341.158	77.62
341.386	68.62
341.614	80.62
341.842	81.62
342.07	79.62
342.298	96.62
342.526	88.62
342.754	85.62
342.981	82.62
343.209	90.62
343.437	88.62
343.665	92.62
343.893	80.62
344.12	105.62
344.348	83.62
344.576	85.62
344.804	69.62
345.031	80.62
345.259	96.62
345.487	89.62
345.714	102.62
345.942	90.62
346.17	86.62
346.397	81.62
346.625	89.62
346.853	84.62
347.08	93.62
347.308	96.62
347.535	81.62
347.763	79.62
347.99	77.62
348.218	85.62
348.445	102.62
348.673	87.62
348.9	75.62
349.128	88.62
349.355	100.62
349.583	77.62
349.81	91.62
350.037	76.62
350.265	93.62
350.492	71.62
350.72	86.62
350.947	86.62
351.174	77.62
351.402	76.62
351.629	94.62
351.856	105.62
352.083	83.62
352.311	93.62
352.538	81.62
352.765	94.62
352.992	91.62
353.22	86.62
353.447	90.62
353.674	83.62
353.901	99.62
354.128	93.62
354.355	86.62
354.583	87.62
354.81	87.62
355.037	98.62
355.264	80.62
355.491	83.62
355.718	92.62
355.945	92.62
356.172	82.62
356.399	90.62
356.626	70.62
356.853	89.62
357.08	79.62
357.307	79.62
357.534	82.62
357.761	86.62
357.988	77.62
358.215	80.62
358.441	95.62
358.668	88.62
358.895	75.62
359.122	93.62
359.349	84.62
359.576	94.62
359.802	77.62
360.029	79.62
360.256	93.62
360.483	83.62
360.709	84.62
360.936	85.62
361.163	82.62
361.39	86.62
361.616	81.62
361.843	96.62
362.07	67.62
362.296	80.62
362.523	81.62
362.749	75.62
362.976	92.62
363.203	96.62
363.429	94.62
363.656	93.62
363.882	89.62
364.109	90.62
364.335	84.62
364.562	84.62
364.788	84.62
365.015	88.62
365.241	81.62
365.468	86.62
365.694	85.62
365.92	90.62
366.147	87.62
366.373	87.62
366.599	94.62
366.826	93.62
367.052	75.62
367.278	77.62
367.505	73.62
367.731	82.62
367.957	85.62
368.184	87.62
368.41	79.62
368.636	73.62
368.862	82.62
369.089	93.62
369.315	77.62
369.541	76.62
369.767	71.62
369.993	99.62
370.219	93.62
370.445	78.62
370.672	88.62
370.898	96.62
371.124	85.62
371.35	80.62
371.576	77.62
371.802	81.62
372.028	77.62
372.254	87.62
372.48	86.62
372.706	94.62
372.932	85.62
373.158	95.62
373.384	88.62
373.61	81.62
373.835	85.62
374.061	85.62
374.287	78.62
374.513	76.62
374.739	96.62
374.965	93.62
375.191	81.62
375.416	79.62
375.642	73.62
375.868	87.62
376.094	94.62
376.319	95.62
376.545	90.62
376.771	106.62
376.997	89.62
377.222	99.62
377.448	80.62
377.674	80.62
377.899	94.62
378.125	81.62
378.35	87.62
378.576	87.62
378.802	89.62
379.027	97.62
379.253	96.62
379.478	82.62
379.704	71.62
379.929	97.62
380.155	84.62
380.38	94.62
380.606	73.62
380.831	91.62
381.057	83.62
381.282	82.62
381.507	83.62
381.733	87.62
381.958	86.62
382.184	94.62
382.409	77.62
382.634	83.62
382.86	78.62
383.085	77.62
383.31	83.62
383.535	96.62
383.761	100.62
383.986	92.62
384.211	86.62
384.436	86.62
384.662	91.62
384.887	79.62
385.112	91.62
385.337	94.62
385.562	96.62
385.787	79.62
386.013	90.62
386.238	97.62
386.463	76.62
386.688	76.62
386.913	80.62
387.138	90.62
387.363	81.62
387.588	84.62
387.813	89.62
388.038	72.62
388.263	88.62
388.488	85.62
388.713	96.62
388.938	84.62
389.163	90.62
389.387	81.62
389.612	93.62
389.837	88.62
390.062	83.62
390.287	83.62
390.512	90.62
390.736	79.62
390.961	71.62
391.186	75.62
391.411	83.62
391.636	91.62
391.86	96.62
392.085	68.62
392.31	75.62
392.534	95.62
392.759	95.62
392.984	81.62
393.208	82.62
393.433	76.62
393.658	73.62
393.882	77.62
394.107	87.62
394.331	99.62
394.556	94.62
394.78	86.62
395.005	80.62
395.229	91.62
395.454	87.62
395.678	82.62
395.903	90.62
396.127	91.62
396.352	76.62
396.576	80.62
396.801	93.62
397.025	94.62
397.249	79.62
397.474	88.62
397.698	99.62
397.922	86.62
398.147	83.62
398.371	85.62
398.595	92.62
398.82	93.62
399.044	88.62
399.268	95.62
399.492	86.62
399.717	94.62
399.941	87.62
400.165	93.62
400.389	63.62
400.613	101.62
400.837	82.62
401.062	92.62
401.286	85.62
401.51	88.62
401.734	88.62
401.958	85.62
402.182	81.62
402.406	80.62
402.63	93.62
402.854	87.62
403.078	82.62
403.302	79.62
403.526	92.62
403.75	80.62
403.974	93.62
404.198	74.62
404.422	84.62
404.645	92.62
404.869	86.62
405.093	81.62
405.317	84.62
405.541	77.62
405.765	92.62
405.988	87.62
406.212	81.62
406.436	88.62
406.66	79.62
406.883	85.62
407.107	84.62
407.331	79.62
407.555	87.62
407.778	76.62
408.002	89.62
408.226	76.62
408.449	95.62
408.673	93.62
408.896	79.62
409.12	85.62
409.344	83.62
409.567	83.62
409.791	79.62
410.014	88.62
410.238	70.62
410.461	78.62
410.685	84.62
410.908	81.62
411.132	87.62
411.355	91.62
411.578	78.62
411.802	89.62
412.025	95.62
412.249	83.62
412.472	87.62
412.695	72.62
412.919	73.62
413.142	82.62
413.365	80.62
413.589	80.62
413.812	79.62
414.035	89.62
414.258	95.62
414.482	94.62
414.705	94.62
414.928	88.62
415.151	68.62
415.374	99.62
415.597	95.62
415.821	81.62
416.044	88.62
416.267	92.62
416.49	89.62
416.713	89.62
416.936	83.62
417.159	100.62
417.382	96.62
417.605	90.62
417.828	88.62
418.051	98.62
418.274	87.62
418.497	90.62
418.72	85.62
418.943	93.62
419.166	75.62
419.389	114.62
419.611	80.62
419.834	104.62
420.057	88.62
420.28	71.62
420.503	93.62
420.726	98.62
420.948	78.62
421.171	87.62
421.394	91.62
421.617	94.62
421.839	78.62
422.062	98.62
422.285	86.62
422.507	77.62
422.73	102.62
422.953	76.62
423.175	88.62
423.398	94.62
423.621	93.62
423.843	98.62
424.066	99.62
424.288	101.62
424.511	101.62
424.733	95.62
424.956	91.62
425.178	73.62
425.401	109.62
425.623	101.62
425.846	93.62
426.068	89.62
426.291	101.62
426.513	83.62
426.735	89.62
426.958	76.62
427.18	83.62
427.402	86.62
427.625	86.62
427.847	87.62
428.069	98.62
428.292	96.62
428.514	80.62
428.736	98.62
428.958	97.62
429.181	93.62
429.403	93.62
429.625	95.62
429.847	95.62
430.069	87.62
430.292	101.62
430.514	89.62
430.736	90.62
430.958	95.62
431.18	92.62
431.402	94.62
431.624	82.62
431.846	87.62
432.068	79.62
432.29	84.62
432.512	78.62
432.734	80.62
432.956	83.62
433.178	79.62
433.4	89.62
433.622	91.62
433.844	84.62
434.066	115.62
434.287	91.62
434.509	95.62
434.731	93.62
434.953	91.62
435.175	93.62
435.397	102.62
435.618	82.62
435.84	87.62
436.062	85.62
436.284	91.62
436.505	82.62
436.727	90.62
436.949	88.62
437.17	85.62
437.392	93.62
437.614	98.62
437.835	80.62
438.057	98.62
438.278	80.62
438.5	90.62
438.721	82.62
438.943	85.62
439.165	80.62
439.386	96.62
439.608	99.62
439.829	103.62
440.05	97.62
440.272	91.62
440.493	101.62
440.715	90.62
440.936	86.62
441.158	82.62
441.379	98.62
441.6	96.62
441.822	81.62
442.043	99.62
442.264	91.62
442.486	95.62
442.707	98.62
442.928	88.62
443.149	78.62
443.371	80.62
443.592	91.62
443.813	78.62
444.034	99.62
444.255	106.62
444.476	91.62
444.698	91.62
444.919	102.62
445.14	201.62
445.361	136.62
445.582	104.62
445.803	96.62
446.024	80.62
446.245	91.62
446.466	92.62
446.687	98.62
446.908	99.62
447.129	79.62
447.35	91.62
447.571	84.62
447.792	93.62
448.013	100.62
448.234	98.62
448.455	84.62
448.675	99.62
448.896	86.62
449.117	102.62
449.338	92.62
449.559	98.62
449.779	90.62
450	86.62
450.221	93.62
450.442	93.62
450.662	87.62
450.883	89.62
451.104	85.62
451.324	91.62
451.545	102.62
451.766	85.62
451.986	100.62
452.207	97.62
452.428	88.62
452.648	92.62
452.869	72.62
453.089	89.62
453.31	89.62
453.53	99.62
453.751	86.62
453.971	80.62
454.192	96.62
454.412	87.62
454.633	82.62
454.853	80.62
455.073	88.62
455.294	101.62
455.514	92.62
455.734	99.62
455.955	95.62
456.175	92.62
456.395	95.62
456.616	91.62
456.836	90.62
457.056	87.62
457.276	85.62
457.497	81.62
457.717	86.62
457.937	82.62
458.157	98.62
458.377	86.62
458.598	97.62
458.818	84.62
459.038	80.62
459.258	79.62
459.478	85.62
459.698	74.62
459.918	90.62
460.138	88.62
460.358	86.62
460.578	84.62
460.798	85.62
461.018	94.62
461.238	90.62
461.458	84.62
461.678	90.62
461.898	97.62
462.118	95.62
462.338	77.62
462.558	82.62
462.777	90.62
462.997	86.62
463.217	84.62
463.437	96.62
463.657	72.62
463.876	93.62
464.096	91.62
464.316	87.62
464.536	92.62
464.755	86.62
464.975	94.62
465.195	87.62
465.414	96.62
465.634	83.62
465.854	86.62
466.073	75.62
466.293	90.62
466.512	101.62
466.732	95.62
466.951	116.62
467.171	96.62
467.391	92.62
467.61	75.62
467.829	96.62
468.049	94.62
468.268	97.62
468.488	91.62
468.707	105.62
468.927	81.62
469.146	102.62
469.365	104.62
469.585	88.62
469.804	95.62
470.023	99.62
470.243	91.62
470.462	90.62
470.681	94.62
470.901	94.62
471.12	94.62
471.339	87.62
471.558	103.62
471.777	108.62
471.997	88.62
472.216	90.62
472.435	71.62
472.654	94.62
472.873	98.62
473.092	85.62
473.311	82.62
473.53	98.62
473.749	91.62
473.968	94.62
474.187	102.62
474.406	96.62
474.625	104.62
474.844	94.62
475.063	89.62
475.282	88.62
475.501	88.62
475.72	98.62
475.939	98.62
476.158	92.62
476.377	69.62
476.596	71.62
476.814	85.62
477.033	82.62
477.252	89.62
477.471	94.62
477.69	83.62
477.908	100.62
478.127	93.62
478.346	95.62
478.564	107.62
478.783	84.62
479.002	90.62
479.22	92.62
479.439	91.62
479.658	88.62
479.876	98.62
480.095	88.62
480.313	88.62
480.532	79.62
480.751	74.62
480.969	86.62
481.188	85.62
481.406	89.62
481.624	79.62
481.843	84.62
482.061	92.62
482.28	90.62
482.498	87.62
482.717	78.62
482.935	91.62
483.153	90.62
483.372	90.62
483.59	87.62
483.808	101.62
484.027	97.62
484.245	80.62
484.463	84.62
484.681	98.62
484.9	104.62
485.118	95.62
485.336	85.62
485.554	75.62
485.772	90.62
485.99	86.62
486.209	86.62
486.427	88.62
486.645	95.62
486.863	92.62
487.081	93.62
487.299	104.62
487.517	86.62
487.735	93.62
487.953	94.62
488.171	95.62
488.389	101.62
488.607	91.62
488.825	94.62
489.043	85.62
489.261	104.62
489.479	106.62
489.696	101.62
489.914	103.62
490.132	76.62
490.35	90.62
490.568	87.62
490.786	94.62
491.003	96.62
491.221	89.62
491.439	106.62
491.657	92.62
491.874	107.62
492.092	101.62
492.31	101.62
492.527	102.62
492.745	102.62
492.963	100.62
493.18	98.62
493.398	98.62
493.615	96.62
493.833	90.62
494.05	95.62
494.268	94.62
494.485	106.62
494.703	102.62
494.92	105.62
495.138	104.62
495.355	93.62
495.573	86.62
495.79	92.62
496.008	95.62
496.225	92.62
496.442	92.62
496.66	109.62
496.877	101.62
497.094	90.62
497.312	95.62
497.529	86.62
497.746	105.62
497.963	105.62
498.181	100.62
498.398	82.62
498.615	97.62
498.832	85.62
499.049	75.62
499.267	84.62
499.484	74.62
499.701	94.62
499.918	90.62
500.135	76.62
500.352	95.62
500.569	99.62
500.786	108.62
501.003	96.62
501.22	90.62
501.437	114.62
501.654	104.62
501.871	94.62
502.088	93.62
502.305	91.62
502.522	100.62
502.739	93.62
502.956	93.62
503.172	87.62
503.389	86.62
503.606	83.62
503.823	98.62
504.04	89.62
504.256	101.62
504.473	86.62
504.69	94.62
504.907	97.62
505.123	98.62
505.34	88.62
505.557	86.62
505.773	93.62
505.99	75.62
506.207	85.62
506.423	92.62
506.64	107.62
506.856	98.62
507.073	99.62
507.289	90.62
507.506	93.62
507.722	91.62
507.939	80.62
508.155	84.62
508.372	93.62
508.588	87.62
508.805	90.62
509.021	91.62
509.238	72.62
509.454	94.62
509.67	90.62
509.887	98.62
510.103	82.62
510.319	86.62
510.536	89.62
510.752	107.62
510.968	92.62
511.184	75.62
511.401	86.62
511.617	90.62
511.833	92.62
512.049	80.62
512.265	89.62
512.481	82.62
512.698	78.62
512.914	91.62
513.13	74.62
513.346	92.62
513.562	92.62
513.778	80.62
513.994	85.62
514.21	95.62
514.426	86.62
514.642	85.62
514.858	87.62
515.074	80.62
515.29	92.62
515.506	100.62
515.721	81.62
515.937	90.62
516.153	84.62
516.369	88.62
516.585	84.62
516.801	90.62
517.016	90.62
517.232	81.62
517.448	81.62
517.664	90.62
517.879	81.62
518.095	85.62
518.311	93.62
