Data from Zn(NO3)2Standard.Agarose3%.GreenCap.LampEnergy5.5.E.O_HRD10591_15-03-56-768.txt Node
Date: Mon Jul 22 15:03:56 EDT 2019
User: cochatt
Spectrometer: HR+D1059
Trigger mode: 1
Integration Time (sec): 1.000000E-1
Scans to average: 1
Electric dark correction enabled: true
Nonlinearity correction enabled: false
Boxcar width: 0
XAxis mode: Wavelengths
Number of Pixels in Spectrum: 2048
>>>>>Begin Spectral Data<<<<<
223.165	-9.81
223.4	-9.81
223.635	-9.81
223.869	-14.81
224.104	-29.81
224.338	-18.81
224.573	-20.81
224.808	-12.81
225.042	-8.81
225.277	-13.81
225.511	6.19
225.746	8.19
225.98	10.19
226.215	17.19
226.449	19.19
226.683	22.19
226.918	25.19
227.152	21.19
227.387	32.19
227.621	24.19
227.856	48.19
228.09	48.19
228.324	53.19
228.559	43.19
228.793	60.19
229.027	69.19
229.262	81.19
229.496	54.19
229.73	67.19
229.964	65.19
230.199	78.19
230.433	77.19
230.667	80.19
230.901	70.19
231.136	87.19
231.37	71.19
231.604	77.19
231.838	77.19
232.072	80.19
232.306	82.19
232.541	86.19
232.775	78.19
233.009	82.19
233.243	82.19
233.477	86.19
233.711	84.19
233.945	82.19
234.179	73.19
234.413	72.19
234.647	89.19
234.881	86.19
235.115	87.19
235.349	77.19
235.583	74.19
235.817	79.19
236.051	79.19
236.285	75.19
236.519	88.19
236.753	75.19
236.987	88.19
237.221	81.19
237.455	73.19
237.689	73.19
237.922	80.19
238.156	71.19
238.39	68.19
238.624	72.19
238.858	81.19
239.091	78.19
239.325	63.19
239.559	84.19
239.793	75.19
240.027	77.19
240.26	67.19
240.494	79.19
240.728	73.19
240.961	75.19
241.195	86.19
241.429	85.19
241.662	75.19
241.896	70.19
242.13	82.19
242.363	84.19
242.597	76.19
242.83	73.19
243.064	64.19
243.298	73.19
243.531	82.19
243.765	72.19
243.998	79.19
244.232	79.19
244.465	73.19
244.699	73.19
244.932	78.19
245.166	67.19
245.399	67.19
245.633	86.19
245.866	74.19
246.099	84.19
246.333	78.19
246.566	72.19
246.8	71.19
247.033	74.19
247.266	72.19
247.5	79.19
247.733	76.19
247.966	73.19
248.2	79.19
248.433	68.19
248.666	78.19
248.899	77.19
249.133	70.19
249.366	95.19
249.599	81.19
249.832	79.19
250.066	80.19
250.299	83.19
250.532	69.19
250.765	86.19
250.998	69.19
251.231	76.19
251.465	80.19
251.698	82.19
251.931	88.19
252.164	72.19
252.397	91.19
252.63	87.19
252.863	75.19
253.096	80.19
253.329	86.19
253.562	74.19
253.795	85.19
254.028	83.19
254.261	72.19
254.494	71.19
254.727	78.19
254.96	77.19
255.193	65.19
255.426	83.19
255.659	72.19
255.892	67.19
256.124	75.19
256.357	86.19
256.59	84.19
256.823	81.19
257.056	77.19
257.289	75.19
257.521	78.19
257.754	71.19
257.987	83.19
258.22	80.19
258.452	70.19
258.685	82.19
258.918	93.19
259.151	80.19
259.383	90.19
259.616	78.19
259.849	83.19
260.081	73.19
260.314	79.19
260.547	86.19
260.779	85.19
261.012	84.19
261.244	87.19
261.477	69.19
261.71	73.19
261.942	64.19
262.175	74.19
262.407	82.19
262.64	81.19
262.872	82.19
263.105	79.19
263.337	83.19
263.57	80.19
263.802	73.19
264.035	80.19
264.267	94.19
264.499	95.19
264.732	90.19
264.964	80.19
265.197	88.19
265.429	78.19
265.661	74.19
265.894	80.19
266.126	70.19
266.358	74.19
266.591	89.19
266.823	86.19
267.055	74.19
267.287	86.19
267.52	85.19
267.752	71.19
267.984	77.19
268.216	94.19
268.448	78.19
268.681	91.19
268.913	82.19
269.145	76.19
269.377	74.19
269.609	78.19
269.841	83.19
270.073	81.19
270.306	81.19
270.538	82.19
270.77	88.19
271.002	80.19
271.234	81.19
271.466	88.19
271.698	78.19
271.93	72.19
272.162	76.19
272.394	83.19
272.626	86.19
272.858	77.19
273.09	71.19
273.322	80.19
273.553	78.19
273.785	83.19
274.017	99.19
274.249	77.19
274.481	78.19
274.713	86.19
274.945	80.19
275.176	95.19
275.408	77.19
275.64	89.19
275.872	93.19
276.104	83.19
276.335	85.19
276.567	95.19
276.799	85.19
277.031	96.19
277.262	82.19
277.494	74.19
277.726	66.19
277.957	73.19
278.189	75.19
278.421	64.19
278.652	75.19
278.884	84.19
279.115	84.19
279.347	73.19
279.579	77.19
279.81	75.19
280.042	63.19
280.273	73.19
280.505	65.19
280.736	92.19
280.968	78.19
281.199	88.19
281.431	80.19
281.662	73.19
281.894	81.19
282.125	87.19
282.356	88.19
282.588	84.19
282.819	74.19
283.051	79.19
283.282	81.19
283.513	84.19
283.745	88.19
283.976	82.19
284.207	81.19
284.439	78.19
284.67	82.19
284.901	64.19
285.132	84.19
285.364	89.19
285.595	91.19
285.826	83.19
286.057	81.19
286.288	75.19
286.52	81.19
286.751	84.19
286.982	85.19
287.213	78.19
287.444	72.19
287.675	74.19
287.906	78.19
288.138	84.19
288.369	77.19
288.6	79.19
288.831	76.19
289.062	75.19
289.293	74.19
289.524	84.19
289.755	73.19
289.986	82.19
290.217	86.19
290.448	84.19
290.679	71.19
290.91	80.19
291.141	71.19
291.371	85.19
291.602	74.19
291.833	81.19
292.064	79.19
292.295	89.19
292.526	66.19
292.757	90.19
292.987	76.19
293.218	80.19
293.449	88.19
293.68	76.19
293.91	80.19
294.141	93.19
294.372	81.19
294.603	58.19
294.833	95.19
295.064	73.19
295.295	78.19
295.525	74.19
295.756	85.19
295.987	79.19
296.217	84.19
296.448	84.19
296.679	69.19
296.909	85.19
297.14	82.19
297.37	96.19
297.601	87.19
297.831	75.19
298.062	82.19
298.292	69.19
298.523	77.19
298.753	63.19
298.984	79.19
299.214	83.19
299.445	69.19
299.675	77.19
299.905	75.19
300.136	75.19
300.366	68.19
300.597	96.19
300.827	70.19
301.057	72.19
301.288	83.19
301.518	70.19
301.748	87.19
301.979	82.19
302.209	97.19
302.439	88.19
302.669	82.19
302.9	80.19
303.13	71.19
303.36	81.19
303.59	78.19
303.82	82.19
304.051	83.19
304.281	82.19
304.511	83.19
304.741	84.19
304.971	80.19
305.201	86.19
305.431	77.19
305.661	68.19
305.891	83.19
306.121	69.19
306.352	94.19
306.582	91.19
306.812	101.19
307.042	80.19
307.272	83.19
307.502	92.19
307.731	69.19
307.961	82.19
308.191	80.19
308.421	84.19
308.651	86.19
308.881	82.19
309.111	83.19
309.341	81.19
309.571	80.19
309.8	75.19
310.03	84.19
310.26	77.19
310.49	89.19
310.72	74.19
310.949	87.19
311.179	87.19
311.409	74.19
311.639	83.19
311.868	90.19
312.098	83.19
312.328	81.19
312.557	92.19
312.787	69.19
313.017	90.19
313.246	70.19
313.476	96.19
313.706	78.19
313.935	84.19
314.165	71.19
314.394	81.19
314.624	83.19
314.853	77.19
315.083	77.19
315.312	85.19
315.542	79.19
315.771	79.19
316.001	72.19
316.23	73.19
316.46	80.19
316.689	89.19
316.919	83.19
317.148	77.19
317.377	80.19
317.607	90.19
317.836	72.19
318.065	88.19
318.295	78.19
318.524	87.19
318.753	83.19
318.983	88.19
319.212	94.19
319.441	84.19
319.67	75.19
319.9	85.19
320.129	74.19
320.358	86.19
320.587	82.19
320.816	77.19
321.046	76.19
321.275	86.19
321.504	64.19
321.733	86.19
321.962	76.19
322.191	98.19
322.42	79.19
322.649	88.19
322.878	87.19
323.108	75.19
323.337	88.19
323.566	89.19
323.795	74.19
324.024	87.19
324.253	83.19
324.482	83.19
324.71	82.19
324.939	61.19
325.168	74.19
325.397	94.19
325.626	79.19
325.855	89.19
326.084	75.19
326.313	73.19
326.542	74.19
326.77	79.19
326.999	97.19
327.228	91.19
327.457	86.19
327.686	83.19
327.914	94.19
328.143	78.19
328.372	86.19
328.6	78.19
328.829	75.19
329.058	71.19
329.287	77.19
329.515	80.19
329.744	74.19
329.972	85.19
330.201	85.19
330.43	81.19
330.658	79.19
330.887	102.19
331.115	79.19
331.344	85.19
331.572	80.19
331.801	91.19
332.03	76.19
332.258	79.19
332.486	80.19
332.715	78.19
332.943	91.19
333.172	81.19
333.4	73.19
333.629	87.19
333.857	83.19
334.085	78.19
334.314	80.19
334.542	96.19
334.771	78.19
334.999	86.19
335.227	64.19
335.455	79.19
335.684	65.19
335.912	86.19
336.14	72.19
336.369	81.19
336.597	84.19
336.825	77.19
337.053	74.19
337.281	72.19
337.51	69.19
337.738	62.19
337.966	87.19
338.194	70.19
338.422	75.19
338.65	83.19
338.878	85.19
339.106	88.19
339.334	82.19
339.562	85.19
339.79	79.19
340.018	78.19
340.246	88.19
340.474	80.19
340.702	76.19
340.93	75.19
341.158	85.19
341.386	82.19
341.614	76.19
341.842	64.19
342.07	89.19
342.298	73.19
342.526	80.19
342.754	76.19
342.981	80.19
343.209	87.19
343.437	72.19
343.665	81.19
343.893	76.19
344.12	88.19
344.348	90.19
344.576	78.19
344.804	77.19
345.031	73.19
345.259	77.19
345.487	77.19
345.714	83.19
345.942	84.19
346.17	89.19
346.397	87.19
346.625	82.19
346.853	79.19
347.08	81.19
347.308	80.19
347.535	78.19
347.763	77.19
347.99	80.19
348.218	97.19
348.445	73.19
348.673	82.19
348.9	91.19
349.128	89.19
349.355	86.19
349.583	78.19
349.81	71.19
350.037	76.19
350.265	89.19
350.492	80.19
350.72	74.19
350.947	78.19
351.174	80.19
351.402	83.19
351.629	85.19
351.856	84.19
352.083	81.19
352.311	72.19
352.538	73.19
352.765	71.19
352.992	85.19
353.22	73.19
353.447	85.19
353.674	85.19
353.901	71.19
354.128	88.19
354.355	85.19
354.583	80.19
354.81	88.19
355.037	82.19
355.264	87.19
355.491	72.19
355.718	67.19
355.945	81.19
356.172	85.19
356.399	86.19
356.626	78.19
356.853	79.19
357.08	75.19
357.307	80.19
357.534	77.19
357.761	70.19
357.988	81.19
358.215	81.19
358.441	86.19
358.668	75.19
358.895	83.19
359.122	81.19
359.349	75.19
359.576	66.19
359.802	73.19
360.029	79.19
360.256	82.19
360.483	88.19
360.709	85.19
360.936	88.19
361.163	85.19
361.39	76.19
361.616	81.19
361.843	76.19
362.07	87.19
362.296	69.19
362.523	67.19
362.749	82.19
362.976	68.19
363.203	87.19
363.429	67.19
363.656	78.19
363.882	81.19
364.109	84.19
364.335	64.19
364.562	75.19
364.788	89.19
365.015	69.19
365.241	82.19
365.468	83.19
365.694	79.19
365.92	76.19
366.147	85.19
366.373	78.19
366.599	78.19
366.826	79.19
367.052	86.19
367.278	86.19
367.505	87.19
367.731	66.19
367.957	79.19
368.184	70.19
368.41	91.19
368.636	72.19
368.862	93.19
369.089	86.19
369.315	83.19
369.541	78.19
369.767	91.19
369.993	105.19
370.219	85.19
370.445	86.19
370.672	77.19
370.898	90.19
371.124	78.19
371.35	70.19
371.576	88.19
371.802	67.19
372.028	78.19
372.254	65.19
372.48	75.19
372.706	84.19
372.932	80.19
373.158	79.19
373.384	72.19
373.61	82.19
373.835	85.19
374.061	86.19
374.287	86.19
374.513	82.19
374.739	85.19
374.965	67.19
375.191	81.19
375.416	78.19
375.642	87.19
375.868	71.19
376.094	74.19
376.319	84.19
376.545	93.19
376.771	75.19
376.997	81.19
377.222	84.19
377.448	80.19
377.674	80.19
377.899	85.19
378.125	89.19
378.35	82.19
378.576	71.19
378.802	79.19
379.027	75.19
379.253	83.19
379.478	91.19
379.704	69.19
379.929	72.19
380.155	68.19
380.38	66.19
380.606	65.19
380.831	67.19
381.057	77.19
381.282	84.19
381.507	93.19
381.733	80.19
381.958	85.19
382.184	88.19
382.409	71.19
382.634	83.19
382.86	79.19
383.085	90.19
383.31	86.19
383.535	88.19
383.761	87.19
383.986	85.19
384.211	69.19
384.436	70.19
384.662	93.19
384.887	94.19
385.112	91.19
385.337	78.19
385.562	96.19
385.787	76.19
386.013	86.19
386.238	78.19
386.463	68.19
386.688	79.19
386.913	72.19
387.138	90.19
387.363	80.19
387.588	88.19
387.813	89.19
388.038	77.19
388.263	71.19
388.488	69.19
388.713	75.19
388.938	75.19
389.163	87.19
389.387	78.19
389.612	75.19
389.837	93.19
390.062	86.19
390.287	92.19
390.512	85.19
390.736	78.19
390.961	76.19
391.186	88.19
391.411	91.19
391.636	80.19
391.86	69.19
392.085	83.19
392.31	81.19
392.534	84.19
392.759	78.19
392.984	88.19
393.208	83.19
393.433	85.19
393.658	58.19
393.882	55.19
394.107	72.19
394.331	71.19
394.556	78.19
394.78	72.19
395.005	86.19
395.229	79.19
395.454	85.19
395.678	75.19
395.903	79.19
396.127	69.19
396.352	91.19
396.576	86.19
396.801	75.19
397.025	82.19
397.249	90.19
397.474	79.19
397.698	90.19
397.922	74.19
398.147	75.19
398.371	88.19
398.595	71.19
398.82	80.19
399.044	78.19
399.268	80.19
399.492	73.19
399.717	78.19
399.941	78.19
400.165	84.19
400.389	79.19
400.613	90.19
400.837	85.19
401.062	92.19
401.286	65.19
401.51	79.19
401.734	67.19
401.958	72.19
402.182	90.19
402.406	71.19
402.63	89.19
402.854	83.19
403.078	79.19
403.302	87.19
403.526	70.19
403.75	73.19
403.974	106.19
404.198	82.19
404.422	89.19
404.645	94.19
404.869	76.19
405.093	69.19
405.317	70.19
405.541	84.19
405.765	81.19
405.988	78.19
406.212	76.19
406.436	81.19
406.66	75.19
406.883	79.19
407.107	68.19
407.331	74.19
407.555	98.19
407.778	84.19
408.002	75.19
408.226	85.19
408.449	74.19
408.673	84.19
408.896	72.19
409.12	76.19
409.344	86.19
409.567	92.19
409.791	79.19
410.014	84.19
410.238	87.19
410.461	96.19
410.685	81.19
410.908	74.19
411.132	81.19
411.355	83.19
411.578	80.19
411.802	78.19
412.025	86.19
412.249	82.19
412.472	85.19
412.695	81.19
412.919	85.19
413.142	68.19
413.365	74.19
413.589	83.19
413.812	73.19
414.035	74.19
414.258	86.19
414.482	72.19
414.705	82.19
414.928	99.19
415.151	83.19
415.374	85.19
415.597	79.19
415.821	79.19
416.044	82.19
416.267	85.19
416.49	84.19
416.713	79.19
416.936	84.19
417.159	85.19
417.382	95.19
417.605	91.19
417.828	81.19
418.051	84.19
418.274	74.19
418.497	82.19
418.72	93.19
418.943	86.19
419.166	81.19
419.389	86.19
419.611	88.19
419.834	86.19
420.057	68.19
420.28	84.19
420.503	80.19
420.726	73.19
420.948	81.19
421.171	91.19
421.394	79.19
421.617	82.19
421.839	88.19
422.062	77.19
422.285	90.19
422.507	98.19
422.73	83.19
422.953	78.19
423.175	92.19
423.398	95.19
423.621	84.19
423.843	79.19
424.066	93.19
424.288	73.19
424.511	98.19
424.733	86.19
424.956	85.19
425.178	79.19
425.401	87.19
425.623	89.19
425.846	76.19
426.068	71.19
426.291	72.19
426.513	86.19
426.735	73.19
426.958	95.19
427.18	90.19
427.402	78.19
427.625	86.19
427.847	83.19
428.069	89.19
428.292	87.19
428.514	92.19
428.736	81.19
428.958	82.19
429.181	71.19
429.403	85.19
429.625	86.19
429.847	87.19
430.069	84.19
430.292	95.19
430.514	86.19
430.736	90.19
430.958	100.19
431.18	83.19
431.402	69.19
431.624	88.19
431.846	75.19
432.068	100.19
432.29	83.19
432.512	79.19
432.734	85.19
432.956	87.19
433.178	92.19
433.4	84.19
433.622	94.19
433.844	95.19
434.066	79.19
434.287	90.19
434.509	87.19
434.731	87.19
434.953	87.19
435.175	82.19
435.397	91.19
435.618	85.19
435.84	80.19
436.062	86.19
436.284	78.19
436.505	96.19
436.727	77.19
436.949	84.19
437.17	86.19
437.392	78.19
437.614	85.19
437.835	87.19
438.057	77.19
438.278	71.19
438.5	74.19
438.721	83.19
438.943	85.19
439.165	85.19
439.386	72.19
439.608	98.19
439.829	86.19
440.05	96.19
440.272	95.19
440.493	102.19
440.715	97.19
440.936	100.19
441.158	89.19
441.379	77.19
441.6	96.19
441.822	90.19
442.043	89.19
442.264	99.19
442.486	82.19
442.707	86.19
442.928	106.19
443.149	76.19
443.371	87.19
443.592	91.19
443.813	88.19
444.034	84.19
444.255	86.19
444.476	88.19
444.698	84.19
444.919	91.19
445.14	223.19
445.361	145.19
445.582	98.19
445.803	94.19
446.024	97.19
446.245	86.19
446.466	94.19
446.687	98.19
446.908	82.19
447.129	82.19
447.35	98.19
447.571	90.19
447.792	84.19
448.013	81.19
448.234	93.19
448.455	77.19
448.675	91.19
448.896	67.19
449.117	87.19
449.338	93.19
449.559	82.19
449.779	96.19
450	79.19
450.221	92.19
450.442	93.19
450.662	86.19
450.883	89.19
451.104	93.19
451.324	93.19
451.545	86.19
451.766	88.19
451.986	104.19
452.207	76.19
452.428	75.19
452.648	75.19
452.869	90.19
453.089	77.19
453.31	84.19
453.53	80.19
453.751	78.19
453.971	92.19
454.192	67.19
454.412	83.19
454.633	98.19
454.853	74.19
455.073	82.19
455.294	81.19
455.514	75.19
455.734	98.19
455.955	84.19
456.175	81.19
456.395	97.19
456.616	90.19
456.836	77.19
457.056	70.19
457.276	90.19
457.497	72.19
457.717	78.19
457.937	81.19
458.157	79.19
458.377	85.19
458.598	91.19
458.818	84.19
459.038	71.19
459.258	66.19
459.478	94.19
459.698	77.19
459.918	83.19
460.138	82.19
460.358	76.19
460.578	87.19
460.798	88.19
461.018	72.19
461.238	88.19
461.458	68.19
461.678	86.19
461.898	89.19
462.118	85.19
462.338	81.19
462.558	94.19
462.777	82.19
462.997	80.19
463.217	90.19
463.437	83.19
463.657	98.19
463.876	77.19
464.096	97.19
464.316	87.19
464.536	89.19
464.755	102.19
464.975	99.19
465.195	89.19
465.414	83.19
465.634	88.19
465.854	85.19
466.073	86.19
466.293	78.19
466.512	88.19
466.732	74.19
466.951	83.19
467.171	88.19
467.391	96.19
467.61	106.19
467.829	79.19
468.049	99.19
468.268	88.19
468.488	93.19
468.707	79.19
468.927	86.19
469.146	85.19
469.365	88.19
469.585	82.19
469.804	93.19
470.023	86.19
470.243	98.19
470.462	83.19
470.681	96.19
470.901	83.19
471.12	88.19
471.339	81.19
471.558	73.19
471.777	97.19
471.997	81.19
472.216	85.19
472.435	81.19
472.654	81.19
472.873	75.19
473.092	79.19
473.311	98.19
473.53	95.19
473.749	88.19
473.968	93.19
474.187	84.19
474.406	92.19
474.625	89.19
474.844	72.19
475.063	84.19
475.282	89.19
475.501	98.19
475.72	97.19
475.939	71.19
476.158	86.19
476.377	92.19
476.596	73.19
476.814	97.19
477.033	96.19
477.252	84.19
477.471	94.19
477.69	85.19
477.908	86.19
478.127	89.19
478.346	94.19
478.564	88.19
478.783	95.19
479.002	90.19
479.22	78.19
479.439	89.19
479.658	81.19
479.876	80.19
480.095	89.19
480.313	87.19
480.532	80.19
480.751	90.19
480.969	72.19
481.188	79.19
481.406	93.19
481.624	88.19
481.843	74.19
482.061	61.19
482.28	76.19
482.498	82.19
482.717	86.19
482.935	83.19
483.153	80.19
483.372	73.19
483.59	90.19
483.808	91.19
484.027	93.19
484.245	95.19
484.463	96.19
484.681	99.19
484.9	83.19
485.118	90.19
485.336	70.19
485.554	77.19
485.772	65.19
485.99	77.19
486.209	73.19
486.427	75.19
486.645	87.19
486.863	96.19
487.081	76.19
487.299	88.19
487.517	92.19
487.735	86.19
487.953	90.19
488.171	108.19
488.389	93.19
488.607	89.19
488.825	82.19
489.043	100.19
489.261	94.19
489.479	86.19
489.696	86.19
489.914	89.19
490.132	97.19
490.35	105.19
490.568	94.19
490.786	93.19
491.003	95.19
491.221	98.19
491.439	90.19
491.657	104.19
491.874	88.19
492.092	98.19
492.31	112.19
492.527	109.19
492.745	102.19
492.963	102.19
493.18	85.19
493.398	99.19
493.615	90.19
493.833	85.19
494.05	96.19
494.268	100.19
494.485	87.19
494.703	98.19
494.92	95.19
495.138	86.19
495.355	105.19
495.573	93.19
495.79	98.19
496.008	104.19
496.225	90.19
496.442	93.19
496.66	99.19
496.877	89.19
497.094	96.19
497.312	105.19
497.529	94.19
497.746	90.19
497.963	88.19
498.181	67.19
498.398	96.19
498.615	77.19
498.832	91.19
499.049	97.19
499.267	85.19
499.484	94.19
499.701	80.19
499.918	77.19
500.135	95.19
500.352	114.19
500.569	94.19
500.786	91.19
501.003	99.19
501.22	86.19
501.437	79.19
501.654	79.19
501.871	94.19
502.088	86.19
502.305	100.19
502.522	101.19
502.739	92.19
502.956	85.19
503.172	86.19
503.389	82.19
503.606	74.19
503.823	90.19
504.04	93.19
504.256	95.19
504.473	89.19
504.69	89.19
504.907	95.19
505.123	83.19
505.34	91.19
505.557	74.19
505.773	88.19
505.99	88.19
506.207	90.19
506.423	82.19
506.64	84.19
506.856	85.19
507.073	101.19
507.289	93.19
507.506	90.19
507.722	78.19
507.939	81.19
508.155	86.19
508.372	80.19
508.588	69.19
508.805	83.19
509.021	82.19
509.238	87.19
509.454	81.19
509.67	86.19
509.887	82.19
510.103	78.19
510.319	68.19
510.536	76.19
510.752	88.19
510.968	81.19
511.184	69.19
511.401	74.19
511.617	65.19
511.833	77.19
512.049	73.19
512.265	78.19
512.481	94.19
512.698	82.19
512.914	69.19
513.13	97.19
513.346	80.19
513.562	92.19
513.778	100.19
513.994	64.19
514.21	71.19
514.426	92.19
514.642	81.19
514.858	95.19
515.074	86.19
515.29	79.19
515.506	72.19
515.721	99.19
515.937	97.19
516.153	89.19
516.369	79.19
516.585	66.19
516.801	80.19
517.016	95.19
517.232	84.19
517.448	87.19
517.664	89.19
517.879	89.19
518.095	88.19
518.311	90.19
518.527	88.19
518.742	85.19
518.958	78.19
519.173	96.19
