Data from Zn(NO3)2Standard.Agarose3%.GreenCap.LampEnergy5.5.E.O_HRD10591_15-02-31-768.txt Node
Date: Mon Jul 22 15:02:31 EDT 2019
User: cochatt
Spectrometer: HR+D1059
Trigger mode: 1
Integration Time (sec): 1.000000E-1
Scans to average: 1
Electric dark correction enabled: true
Nonlinearity correction enabled: false
Boxcar width: 0
XAxis mode: Wavelengths
Number of Pixels in Spectrum: 2048
>>>>>Begin Spectral Data<<<<<
223.165	-12.19
223.4	-12.19
223.635	-12.19
223.869	-26.19
224.104	-30.19
224.338	-11.19
224.573	-4.19
224.808	-7.19
225.042	-2.19
225.277	-8.19
225.511	-8.19
225.746	2.81
225.98	8.81
226.215	-4.19
226.449	10.81
226.683	35.81
226.918	25.81
227.152	29.81
227.387	33.81
227.621	33.81
227.856	38.81
228.09	33.81
228.324	56.81
228.559	60.81
228.793	69.81
229.027	65.81
229.262	69.81
229.496	69.81
229.73	58.81
229.964	71.81
230.199	67.81
230.433	66.81
230.667	65.81
230.901	68.81
231.136	79.81
231.37	90.81
231.604	88.81
231.838	71.81
232.072	91.81
232.306	71.81
232.541	81.81
232.775	83.81
233.009	98.81
233.243	92.81
233.477	78.81
233.711	81.81
233.945	95.81
234.179	81.81
234.413	85.81
234.647	79.81
234.881	83.81
235.115	80.81
235.349	83.81
235.583	87.81
235.817	77.81
236.051	76.81
236.285	84.81
236.519	74.81
236.753	85.81
236.987	69.81
237.221	61.81
237.455	67.81
237.689	90.81
237.922	68.81
238.156	105.81
238.39	76.81
238.624	67.81
238.858	81.81
239.091	85.81
239.325	82.81
239.559	83.81
239.793	79.81
240.027	73.81
240.26	76.81
240.494	78.81
240.728	71.81
240.961	79.81
241.195	78.81
241.429	73.81
241.662	71.81
241.896	85.81
242.13	78.81
242.363	83.81
242.597	84.81
242.83	83.81
243.064	94.81
243.298	87.81
243.531	75.81
243.765	90.81
243.998	87.81
244.232	71.81
244.465	92.81
244.699	84.81
244.932	84.81
245.166	81.81
245.399	85.81
245.633	85.81
245.866	82.81
246.099	90.81
246.333	66.81
246.566	78.81
246.8	87.81
247.033	88.81
247.266	87.81
247.5	92.81
247.733	82.81
247.966	75.81
248.2	79.81
248.433	82.81
248.666	71.81
248.899	75.81
249.133	82.81
249.366	90.81
249.599	86.81
249.832	74.81
250.066	75.81
250.299	81.81
250.532	69.81
250.765	73.81
250.998	82.81
251.231	81.81
251.465	91.81
251.698	81.81
251.931	82.81
252.164	80.81
252.397	63.81
252.63	72.81
252.863	82.81
253.096	91.81
253.329	86.81
253.562	88.81
253.795	105.81
254.028	87.81
254.261	70.81
254.494	73.81
254.727	74.81
254.96	90.81
255.193	85.81
255.426	76.81
255.659	83.81
255.892	66.81
256.124	88.81
256.357	67.81
256.59	84.81
256.823	75.81
257.056	79.81
257.289	79.81
257.521	84.81
257.754	78.81
257.987	90.81
258.22	74.81
258.452	71.81
258.685	66.81
258.918	79.81
259.151	72.81
259.383	74.81
259.616	86.81
259.849	74.81
260.081	79.81
260.314	93.81
260.547	80.81
260.779	78.81
261.012	73.81
261.244	83.81
261.477	100.81
261.71	101.81
261.942	86.81
262.175	87.81
262.407	81.81
262.64	94.81
262.872	79.81
263.105	83.81
263.337	73.81
263.57	73.81
263.802	81.81
264.035	72.81
264.267	77.81
264.499	77.81
264.732	76.81
264.964	85.81
265.197	73.81
265.429	84.81
265.661	76.81
265.894	90.81
266.126	84.81
266.358	89.81
266.591	82.81
266.823	78.81
267.055	91.81
267.287	85.81
267.52	74.81
267.752	84.81
267.984	94.81
268.216	77.81
268.448	81.81
268.681	97.81
268.913	76.81
269.145	84.81
269.377	89.81
269.609	75.81
269.841	85.81
270.073	83.81
270.306	81.81
270.538	81.81
270.77	85.81
271.002	86.81
271.234	98.81
271.466	77.81
271.698	85.81
271.93	85.81
272.162	81.81
272.394	85.81
272.626	76.81
272.858	80.81
273.09	65.81
273.322	79.81
273.553	81.81
273.785	89.81
274.017	85.81
274.249	101.81
274.481	93.81
274.713	88.81
274.945	88.81
275.176	73.81
275.408	95.81
275.64	90.81
275.872	83.81
276.104	79.81
276.335	102.81
276.567	86.81
276.799	90.81
277.031	92.81
277.262	93.81
277.494	69.81
277.726	70.81
277.957	89.81
278.189	73.81
278.421	89.81
278.652	82.81
278.884	82.81
279.115	85.81
279.347	91.81
279.579	95.81
279.81	69.81
280.042	102.81
280.273	81.81
280.505	80.81
280.736	92.81
280.968	94.81
281.199	87.81
281.431	83.81
281.662	88.81
281.894	94.81
282.125	83.81
282.356	106.81
282.588	89.81
282.819	82.81
283.051	86.81
283.282	87.81
283.513	85.81
283.745	92.81
283.976	87.81
284.207	84.81
284.439	65.81
284.67	88.81
284.901	93.81
285.132	76.81
285.364	75.81
285.595	85.81
285.826	90.81
286.057	100.81
286.288	83.81
286.52	80.81
286.751	95.81
286.982	66.81
287.213	67.81
287.444	79.81
287.675	79.81
287.906	76.81
288.138	79.81
288.369	85.81
288.6	88.81
288.831	80.81
289.062	85.81
289.293	84.81
289.524	88.81
289.755	87.81
289.986	83.81
290.217	99.81
290.448	84.81
290.679	80.81
290.91	89.81
291.141	77.81
291.371	91.81
291.602	75.81
291.833	83.81
292.064	99.81
292.295	85.81
292.526	82.81
292.757	79.81
292.987	87.81
293.218	87.81
293.449	94.81
293.68	86.81
293.91	76.81
294.141	81.81
294.372	89.81
294.603	82.81
294.833	81.81
295.064	93.81
295.295	88.81
295.525	65.81
295.756	82.81
295.987	77.81
296.217	79.81
296.448	78.81
296.679	67.81
296.909	77.81
297.14	93.81
297.37	82.81
297.601	79.81
297.831	82.81
298.062	80.81
298.292	72.81
298.523	75.81
298.753	87.81
298.984	100.81
299.214	92.81
299.445	90.81
299.675	76.81
299.905	94.81
300.136	71.81
300.366	86.81
300.597	97.81
300.827	81.81
301.057	75.81
301.288	82.81
301.518	91.81
301.748	85.81
301.979	92.81
302.209	80.81
302.439	78.81
302.669	88.81
302.9	90.81
303.13	101.81
303.36	77.81
303.59	96.81
303.82	84.81
304.051	96.81
304.281	90.81
304.511	90.81
304.741	101.81
304.971	88.81
305.201	81.81
305.431	80.81
305.661	92.81
305.891	85.81
306.121	95.81
306.352	97.81
306.582	80.81
306.812	81.81
307.042	89.81
307.272	87.81
307.502	86.81
307.731	87.81
307.961	77.81
308.191	75.81
308.421	87.81
308.651	87.81
308.881	73.81
309.111	95.81
309.341	89.81
309.571	78.81
309.8	86.81
310.03	95.81
310.26	86.81
310.49	75.81
310.72	79.81
310.949	76.81
311.179	85.81
311.409	80.81
311.639	87.81
311.868	87.81
312.098	85.81
312.328	81.81
312.557	73.81
312.787	75.81
313.017	80.81
313.246	75.81
313.476	80.81
313.706	81.81
313.935	85.81
314.165	80.81
314.394	73.81
314.624	87.81
314.853	86.81
315.083	93.81
315.312	82.81
315.542	87.81
315.771	92.81
316.001	75.81
316.23	78.81
316.46	80.81
316.689	91.81
316.919	77.81
317.148	71.81
317.377	90.81
317.607	91.81
317.836	75.81
318.065	97.81
318.295	97.81
318.524	78.81
318.753	77.81
318.983	86.81
319.212	84.81
319.441	102.81
319.67	66.81
319.9	82.81
320.129	76.81
320.358	88.81
320.587	85.81
320.816	87.81
321.046	83.81
321.275	86.81
321.504	99.81
321.733	84.81
321.962	77.81
322.191	102.81
322.42	82.81
322.649	83.81
322.878	94.81
323.108	87.81
323.337	87.81
323.566	92.81
323.795	94.81
324.024	91.81
324.253	94.81
324.482	88.81
324.71	88.81
324.939	92.81
325.168	74.81
325.397	82.81
325.626	96.81
325.855	89.81
326.084	77.81
326.313	86.81
326.542	87.81
326.77	76.81
326.999	87.81
327.228	87.81
327.457	86.81
327.686	88.81
327.914	92.81
328.143	82.81
328.372	79.81
328.6	93.81
328.829	77.81
329.058	93.81
329.287	76.81
329.515	89.81
329.744	73.81
329.972	93.81
330.201	70.81
330.43	72.81
330.658	73.81
330.887	74.81
331.115	94.81
331.344	84.81
331.572	92.81
331.801	70.81
332.03	91.81
332.258	94.81
332.486	76.81
332.715	82.81
332.943	79.81
333.172	94.81
333.4	80.81
333.629	84.81
333.857	68.81
334.085	89.81
334.314	79.81
334.542	95.81
334.771	75.81
334.999	96.81
335.227	95.81
335.455	80.81
335.684	99.81
335.912	102.81
336.14	83.81
336.369	77.81
336.597	71.81
336.825	100.81
337.053	86.81
337.281	77.81
337.51	87.81
337.738	85.81
337.966	88.81
338.194	71.81
338.422	81.81
338.65	86.81
338.878	85.81
339.106	80.81
339.334	89.81
339.562	90.81
339.79	74.81
340.018	77.81
340.246	82.81
340.474	81.81
340.702	89.81
340.93	97.81
341.158	79.81
341.386	87.81
341.614	89.81
341.842	81.81
342.07	81.81
342.298	97.81
342.526	82.81
342.754	93.81
342.981	86.81
343.209	73.81
343.437	111.81
343.665	90.81
343.893	81.81
344.12	81.81
344.348	80.81
344.576	92.81
344.804	79.81
345.031	93.81
345.259	90.81
345.487	84.81
345.714	81.81
345.942	77.81
346.17	83.81
346.397	87.81
346.625	84.81
346.853	103.81
347.08	86.81
347.308	85.81
347.535	74.81
347.763	80.81
347.99	89.81
348.218	84.81
348.445	91.81
348.673	79.81
348.9	98.81
349.128	79.81
349.355	79.81
349.583	87.81
349.81	82.81
350.037	87.81
350.265	75.81
350.492	89.81
350.72	90.81
350.947	76.81
351.174	82.81
351.402	84.81
351.629	89.81
351.856	87.81
352.083	90.81
352.311	94.81
352.538	80.81
352.765	83.81
352.992	88.81
353.22	81.81
353.447	88.81
353.674	86.81
353.901	84.81
354.128	76.81
354.355	65.81
354.583	75.81
354.81	99.81
355.037	91.81
355.264	90.81
355.491	88.81
355.718	91.81
355.945	87.81
356.172	83.81
356.399	81.81
356.626	78.81
356.853	91.81
357.08	81.81
357.307	81.81
357.534	88.81
357.761	67.81
357.988	98.81
358.215	84.81
358.441	92.81
358.668	78.81
358.895	84.81
359.122	81.81
359.349	77.81
359.576	79.81
359.802	81.81
360.029	67.81
360.256	85.81
360.483	74.81
360.709	77.81
360.936	85.81
361.163	92.81
361.39	76.81
361.616	75.81
361.843	82.81
362.07	82.81
362.296	90.81
362.523	94.81
362.749	82.81
362.976	75.81
363.203	100.81
363.429	83.81
363.656	90.81
363.882	81.81
364.109	72.81
364.335	90.81
364.562	67.81
364.788	83.81
365.015	85.81
365.241	86.81
365.468	85.81
365.694	67.81
365.92	79.81
366.147	79.81
366.373	66.81
366.599	86.81
366.826	81.81
367.052	79.81
367.278	82.81
367.505	82.81
367.731	91.81
367.957	88.81
368.184	91.81
368.41	83.81
368.636	83.81
368.862	78.81
369.089	75.81
369.315	90.81
369.541	89.81
369.767	77.81
369.993	81.81
370.219	77.81
370.445	73.81
370.672	88.81
370.898	89.81
371.124	74.81
371.35	76.81
371.576	67.81
371.802	89.81
372.028	92.81
372.254	85.81
372.48	76.81
372.706	92.81
372.932	100.81
373.158	81.81
373.384	90.81
373.61	79.81
373.835	94.81
374.061	74.81
374.287	69.81
374.513	81.81
374.739	92.81
374.965	79.81
375.191	76.81
375.416	91.81
375.642	86.81
375.868	90.81
376.094	81.81
376.319	92.81
376.545	85.81
376.771	87.81
376.997	82.81
377.222	91.81
377.448	82.81
377.674	76.81
377.899	79.81
378.125	82.81
378.35	80.81
378.576	96.81
378.802	85.81
379.027	84.81
379.253	93.81
379.478	84.81
379.704	76.81
379.929	73.81
380.155	89.81
380.38	80.81
380.606	85.81
380.831	93.81
381.057	91.81
381.282	93.81
381.507	94.81
381.733	77.81
381.958	92.81
382.184	85.81
382.409	80.81
382.634	89.81
382.86	83.81
383.085	81.81
383.31	90.81
383.535	81.81
383.761	81.81
383.986	70.81
384.211	79.81
384.436	58.81
384.662	78.81
384.887	71.81
385.112	87.81
385.337	75.81
385.562	88.81
385.787	89.81
386.013	89.81
386.238	85.81
386.463	69.81
386.688	74.81
386.913	85.81
387.138	88.81
387.363	76.81
387.588	86.81
387.813	81.81
388.038	86.81
388.263	86.81
388.488	88.81
388.713	84.81
388.938	81.81
389.163	88.81
389.387	82.81
389.612	89.81
389.837	71.81
390.062	84.81
390.287	76.81
390.512	72.81
390.736	97.81
390.961	87.81
391.186	84.81
391.411	84.81
391.636	85.81
391.86	92.81
392.085	88.81
392.31	87.81
392.534	80.81
392.759	80.81
392.984	95.81
393.208	87.81
393.433	90.81
393.658	90.81
393.882	86.81
394.107	79.81
394.331	84.81
394.556	79.81
394.78	83.81
395.005	95.81
395.229	82.81
395.454	83.81
395.678	93.81
395.903	76.81
396.127	76.81
396.352	75.81
396.576	82.81
396.801	81.81
397.025	82.81
397.249	85.81
397.474	97.81
397.698	85.81
397.922	85.81
398.147	82.81
398.371	81.81
398.595	74.81
398.82	76.81
399.044	87.81
399.268	74.81
399.492	74.81
399.717	87.81
399.941	69.81
400.165	82.81
400.389	96.81
400.613	91.81
400.837	83.81
401.062	78.81
401.286	88.81
401.51	81.81
401.734	94.81
401.958	86.81
402.182	71.81
402.406	76.81
402.63	85.81
402.854	74.81
403.078	74.81
403.302	79.81
403.526	80.81
403.75	81.81
403.974	78.81
404.198	87.81
404.422	80.81
404.645	79.81
404.869	85.81
405.093	77.81
405.317	89.81
405.541	78.81
405.765	83.81
405.988	88.81
406.212	86.81
406.436	89.81
406.66	85.81
406.883	86.81
407.107	92.81
407.331	78.81
407.555	86.81
407.778	92.81
408.002	82.81
408.226	89.81
408.449	90.81
408.673	95.81
408.896	82.81
409.12	86.81
409.344	84.81
409.567	90.81
409.791	80.81
410.014	92.81
410.238	90.81
410.461	90.81
410.685	74.81
410.908	79.81
411.132	88.81
411.355	87.81
411.578	78.81
411.802	71.81
412.025	82.81
412.249	71.81
412.472	87.81
412.695	77.81
412.919	85.81
413.142	75.81
413.365	82.81
413.589	77.81
413.812	93.81
414.035	88.81
414.258	80.81
414.482	91.81
414.705	80.81
414.928	83.81
415.151	78.81
415.374	83.81
415.597	86.81
415.821	104.81
416.044	85.81
416.267	78.81
416.49	95.81
416.713	84.81
416.936	90.81
417.159	106.81
417.382	96.81
417.605	81.81
417.828	87.81
418.051	97.81
418.274	96.81
418.497	83.81
418.72	85.81
418.943	83.81
419.166	102.81
419.389	84.81
419.611	87.81
419.834	99.81
420.057	94.81
420.28	96.81
420.503	94.81
420.726	80.81
420.948	69.81
421.171	85.81
421.394	85.81
421.617	93.81
421.839	79.81
422.062	81.81
422.285	76.81
422.507	85.81
422.73	79.81
422.953	81.81
423.175	95.81
423.398	94.81
423.621	99.81
423.843	98.81
424.066	84.81
424.288	86.81
424.511	93.81
424.733	80.81
424.956	92.81
425.178	78.81
425.401	90.81
425.623	91.81
425.846	86.81
426.068	97.81
426.291	81.81
426.513	94.81
426.735	100.81
426.958	106.81
427.18	83.81
427.402	86.81
427.625	78.81
427.847	84.81
428.069	75.81
428.292	76.81
428.514	97.81
428.736	84.81
428.958	89.81
429.181	82.81
429.403	80.81
429.625	76.81
429.847	97.81
430.069	89.81
430.292	91.81
430.514	94.81
430.736	90.81
430.958	81.81
431.18	77.81
431.402	83.81
431.624	89.81
431.846	93.81
432.068	79.81
432.29	80.81
432.512	74.81
432.734	81.81
432.956	84.81
433.178	82.81
433.4	91.81
433.622	98.81
433.844	104.81
434.066	84.81
434.287	90.81
434.509	84.81
434.731	77.81
434.953	76.81
435.175	76.81
435.397	86.81
435.618	91.81
435.84	70.81
436.062	90.81
436.284	95.81
436.505	100.81
436.727	78.81
436.949	90.81
437.17	80.81
437.392	81.81
437.614	74.81
437.835	84.81
438.057	91.81
438.278	83.81
438.5	83.81
438.721	90.81
438.943	95.81
439.165	74.81
439.386	96.81
439.608	92.81
439.829	97.81
440.05	101.81
440.272	93.81
440.493	89.81
440.715	89.81
440.936	90.81
441.158	98.81
441.379	86.81
441.6	94.81
441.822	88.81
442.043	89.81
442.264	95.81
442.486	96.81
442.707	91.81
442.928	80.81
443.149	92.81
443.371	97.81
443.592	92.81
443.813	84.81
444.034	94.81
444.255	95.81
444.476	91.81
444.698	80.81
444.919	96.81
445.14	214.81
445.361	147.81
445.582	94.81
445.803	93.81
446.024	88.81
446.245	83.81
446.466	104.81
446.687	91.81
446.908	85.81
447.129	93.81
447.35	99.81
447.571	94.81
447.792	96.81
448.013	92.81
448.234	99.81
448.455	79.81
448.675	86.81
448.896	102.81
449.117	80.81
449.338	76.81
449.559	77.81
449.779	81.81
450	85.81
450.221	78.81
450.442	95.81
450.662	94.81
450.883	85.81
451.104	81.81
451.324	80.81
451.545	85.81
451.766	85.81
451.986	81.81
452.207	94.81
452.428	89.81
452.648	86.81
452.869	91.81
453.089	87.81
453.31	89.81
453.53	93.81
453.751	65.81
453.971	88.81
454.192	76.81
454.412	91.81
454.633	83.81
454.853	80.81
455.073	102.81
455.294	78.81
455.514	95.81
455.734	90.81
455.955	77.81
456.175	85.81
456.395	82.81
456.616	79.81
456.836	76.81
457.056	79.81
457.276	71.81
457.497	87.81
457.717	83.81
457.937	88.81
458.157	75.81
458.377	97.81
458.598	93.81
458.818	88.81
459.038	81.81
459.258	79.81
459.478	73.81
459.698	82.81
459.918	72.81
460.138	87.81
460.358	90.81
460.578	84.81
460.798	89.81
461.018	94.81
461.238	90.81
461.458	99.81
461.678	83.81
461.898	90.81
462.118	72.81
462.338	86.81
462.558	97.81
462.777	83.81
462.997	85.81
463.217	91.81
463.437	87.81
463.657	90.81
463.876	82.81
464.096	83.81
464.316	88.81
464.536	86.81
464.755	95.81
464.975	84.81
465.195	88.81
465.414	84.81
465.634	92.81
465.854	86.81
466.073	82.81
466.293	78.81
466.512	90.81
466.732	93.81
466.951	85.81
467.171	96.81
467.391	91.81
467.61	95.81
467.829	68.81
468.049	87.81
468.268	95.81
468.488	79.81
468.707	89.81
468.927	85.81
469.146	90.81
469.365	89.81
469.585	86.81
469.804	85.81
470.023	90.81
470.243	93.81
470.462	89.81
470.681	99.81
470.901	97.81
471.12	87.81
471.339	111.81
471.558	105.81
471.777	95.81
471.997	98.81
472.216	97.81
472.435	94.81
472.654	89.81
472.873	83.81
473.092	95.81
473.311	88.81
473.53	87.81
473.749	81.81
473.968	92.81
474.187	89.81
474.406	85.81
474.625	88.81
474.844	99.81
475.063	81.81
475.282	76.81
475.501	87.81
475.72	89.81
475.939	105.81
476.158	91.81
476.377	92.81
476.596	80.81
476.814	91.81
477.033	97.81
477.252	82.81
477.471	91.81
477.69	82.81
477.908	102.81
478.127	89.81
478.346	92.81
478.564	94.81
478.783	98.81
479.002	86.81
479.22	107.81
479.439	94.81
479.658	102.81
479.876	102.81
480.095	87.81
480.313	89.81
480.532	80.81
480.751	78.81
480.969	86.81
481.188	78.81
481.406	85.81
481.624	76.81
481.843	79.81
482.061	80.81
482.28	74.81
482.498	81.81
482.717	99.81
482.935	79.81
483.153	95.81
483.372	94.81
483.59	81.81
483.808	82.81
484.027	84.81
484.245	76.81
484.463	101.81
484.681	94.81
484.9	96.81
485.118	90.81
485.336	90.81
485.554	88.81
485.772	90.81
485.99	85.81
486.209	89.81
486.427	91.81
486.645	91.81
486.863	93.81
487.081	86.81
487.299	85.81
487.517	87.81
487.735	99.81
487.953	109.81
488.171	89.81
488.389	95.81
488.607	79.81
488.825	107.81
489.043	94.81
489.261	105.81
489.479	94.81
489.696	100.81
489.914	81.81
490.132	93.81
490.35	105.81
490.568	90.81
490.786	102.81
491.003	93.81
491.221	99.81
491.439	104.81
491.657	94.81
491.874	106.81
492.092	114.81
492.31	93.81
492.527	100.81
492.745	115.81
492.963	107.81
493.18	97.81
493.398	97.81
493.615	101.81
493.833	91.81
494.05	111.81
494.268	103.81
494.485	102.81
494.703	81.81
494.92	91.81
495.138	113.81
495.355	101.81
495.573	106.81
495.79	89.81
496.008	95.81
496.225	103.81
496.442	93.81
496.66	88.81
496.877	106.81
497.094	100.81
497.312	89.81
497.529	94.81
497.746	95.81
497.963	75.81
498.181	91.81
498.398	80.81
498.615	86.81
498.832	85.81
499.049	92.81
499.267	75.81
499.484	97.81
499.701	88.81
499.918	90.81
500.135	82.81
500.352	85.81
500.569	94.81
500.786	106.81
501.003	89.81
501.22	82.81
501.437	103.81
501.654	90.81
501.871	100.81
502.088	86.81
502.305	115.81
502.522	85.81
502.739	89.81
502.956	79.81
503.172	82.81
503.389	104.81
503.606	73.81
503.823	88.81
504.04	99.81
504.256	99.81
504.473	75.81
504.69	98.81
504.907	90.81
505.123	77.81
505.34	90.81
505.557	70.81
505.773	92.81
505.99	91.81
506.207	95.81
506.423	85.81
506.64	90.81
506.856	92.81
507.073	87.81
507.289	92.81
507.506	87.81
507.722	89.81
507.939	86.81
508.155	98.81
508.372	93.81
508.588	80.81
508.805	86.81
509.021	79.81
509.238	73.81
509.454	89.81
509.67	83.81
509.887	81.81
510.103	88.81
510.319	85.81
510.536	77.81
510.752	87.81
510.968	76.81
511.184	76.81
511.401	92.81
511.617	90.81
511.833	75.81
512.049	70.81
512.265	93.81
512.481	75.81
512.698	78.81
512.914	97.81
513.13	91.81
513.346	89.81
513.562	97.81
513.778	89.81
513.994	90.81
514.21	84.81
514.426	82.81
514.642	88.81
514.858	86.81
515.074	77.81
515.29	89.81
515.506	80.81
515.721	89.81
515.937	87.81
516.153	77.81
516.369	78.81
516.585	82.81
516.801	95.81
517.016	78.81
517.232	84.81
517.448	87.81
517.664	82.81
517.879	93.81
518.095	88.81
518.311	79.81
518.527	77.81
