Data from Zn(NO3)2Standard.Agarose3%.GreenCap.LampEnergy10E.O_HRD10591_15-07-56-947.txt Node
Date: Mon Jul 22 15:07:56 EDT 2019
User: cochatt
Spectrometer: HR+D1059
Trigger mode: 1
Integration Time (sec): 1.000000E-1
Scans to average: 1
Electric dark correction enabled: true
Nonlinearity correction enabled: false
Boxcar width: 0
XAxis mode: Wavelengths
Number of Pixels in Spectrum: 2048
>>>>>Begin Spectral Data<<<<<
223.165	-17.19
223.4	-17.19
223.635	-17.19
223.869	-15.19
224.104	-18.19
224.338	-23.19
224.573	-6.19
224.808	-10.19
225.042	-19.19
225.277	3.81
225.511	15.81
225.746	5.81
225.98	-2.19
226.215	11.81
226.449	17.81
226.683	9.81
226.918	37.81
227.152	8.81
227.387	39.81
227.621	37.81
227.856	43.81
228.09	60.81
228.324	64.81
228.559	52.81
228.793	64.81
229.027	57.81
229.262	51.81
229.496	73.81
229.73	70.81
229.964	74.81
230.199	78.81
230.433	104.81
230.667	78.81
230.901	89.81
231.136	79.81
231.37	94.81
231.604	79.81
231.838	81.81
232.072	93.81
232.306	77.81
232.541	93.81
232.775	89.81
233.009	83.81
233.243	72.81
233.477	82.81
233.711	97.81
233.945	85.81
234.179	92.81
234.413	89.81
234.647	88.81
234.881	84.81
235.115	81.81
235.349	73.81
235.583	78.81
235.817	76.81
236.051	83.81
236.285	65.81
236.519	95.81
236.753	96.81
236.987	88.81
237.221	77.81
237.455	90.81
237.689	91.81
237.922	69.81
238.156	78.81
238.39	76.81
238.624	74.81
238.858	77.81
239.091	85.81
239.325	85.81
239.559	79.81
239.793	84.81
240.027	91.81
240.26	91.81
240.494	97.81
240.728	74.81
240.961	82.81
241.195	83.81
241.429	77.81
241.662	67.81
241.896	73.81
242.13	84.81
242.363	78.81
242.597	81.81
242.83	79.81
243.064	67.81
243.298	89.81
243.531	91.81
243.765	71.81
243.998	73.81
244.232	100.81
244.465	84.81
244.699	74.81
244.932	79.81
245.166	73.81
245.399	77.81
245.633	73.81
245.866	74.81
246.099	77.81
246.333	71.81
246.566	78.81
246.8	62.81
247.033	59.81
247.266	90.81
247.5	71.81
247.733	81.81
247.966	80.81
248.2	92.81
248.433	88.81
248.666	85.81
248.899	94.81
249.133	79.81
249.366	88.81
249.599	96.81
249.832	63.81
250.066	92.81
250.299	82.81
250.532	77.81
250.765	90.81
250.998	75.81
251.231	94.81
251.465	71.81
251.698	76.81
251.931	95.81
252.164	81.81
252.397	81.81
252.63	88.81
252.863	79.81
253.096	92.81
253.329	81.81
253.562	73.81
253.795	79.81
254.028	81.81
254.261	80.81
254.494	78.81
254.727	103.81
254.96	82.81
255.193	81.81
255.426	79.81
255.659	92.81
255.892	84.81
256.124	89.81
256.357	86.81
256.59	96.81
256.823	77.81
257.056	92.81
257.289	83.81
257.521	83.81
257.754	83.81
257.987	91.81
258.22	87.81
258.452	81.81
258.685	69.81
258.918	94.81
259.151	90.81
259.383	100.81
259.616	84.81
259.849	84.81
260.081	85.81
260.314	92.81
260.547	88.81
260.779	87.81
261.012	84.81
261.244	80.81
261.477	84.81
261.71	82.81
261.942	74.81
262.175	93.81
262.407	73.81
262.64	88.81
262.872	78.81
263.105	79.81
263.337	72.81
263.57	100.81
263.802	76.81
264.035	80.81
264.267	103.81
264.499	84.81
264.732	85.81
264.964	65.81
265.197	90.81
265.429	77.81
265.661	89.81
265.894	92.81
266.126	82.81
266.358	82.81
266.591	86.81
266.823	80.81
267.055	83.81
267.287	80.81
267.52	85.81
267.752	102.81
267.984	76.81
268.216	89.81
268.448	82.81
268.681	84.81
268.913	90.81
269.145	97.81
269.377	90.81
269.609	78.81
269.841	81.81
270.073	102.81
270.306	76.81
270.538	98.81
270.77	86.81
271.002	93.81
271.234	73.81
271.466	91.81
271.698	95.81
271.93	80.81
272.162	77.81
272.394	79.81
272.626	75.81
272.858	86.81
273.09	87.81
273.322	85.81
273.553	79.81
273.785	83.81
274.017	83.81
274.249	92.81
274.481	74.81
274.713	79.81
274.945	76.81
275.176	91.81
275.408	79.81
275.64	72.81
275.872	84.81
276.104	102.81
276.335	95.81
276.567	91.81
276.799	80.81
277.031	78.81
277.262	87.81
277.494	95.81
277.726	90.81
277.957	85.81
278.189	87.81
278.421	83.81
278.652	92.81
278.884	102.81
279.115	96.81
279.347	77.81
279.579	95.81
279.81	102.81
280.042	94.81
280.273	79.81
280.505	82.81
280.736	83.81
280.968	97.81
281.199	83.81
281.431	81.81
281.662	88.81
281.894	91.81
282.125	85.81
282.356	82.81
282.588	91.81
282.819	90.81
283.051	79.81
283.282	79.81
283.513	95.81
283.745	92.81
283.976	80.81
284.207	92.81
284.439	85.81
284.67	88.81
284.901	79.81
285.132	81.81
285.364	82.81
285.595	94.81
285.826	93.81
286.057	82.81
286.288	98.81
286.52	86.81
286.751	91.81
286.982	76.81
287.213	92.81
287.444	90.81
287.675	85.81
287.906	94.81
288.138	83.81
288.369	92.81
288.6	85.81
288.831	75.81
289.062	85.81
289.293	88.81
289.524	94.81
289.755	77.81
289.986	86.81
290.217	83.81
290.448	81.81
290.679	74.81
290.91	72.81
291.141	79.81
291.371	94.81
291.602	90.81
291.833	89.81
292.064	83.81
292.295	102.81
292.526	92.81
292.757	87.81
292.987	81.81
293.218	81.81
293.449	85.81
293.68	94.81
293.91	78.81
294.141	91.81
294.372	90.81
294.603	89.81
294.833	73.81
295.064	101.81
295.295	85.81
295.525	85.81
295.756	107.81
295.987	73.81
296.217	91.81
296.448	92.81
296.679	77.81
296.909	79.81
297.14	91.81
297.37	85.81
297.601	89.81
297.831	77.81
298.062	90.81
298.292	82.81
298.523	89.81
298.753	86.81
298.984	79.81
299.214	77.81
299.445	87.81
299.675	100.81
299.905	95.81
300.136	87.81
300.366	94.81
300.597	87.81
300.827	85.81
301.057	93.81
301.288	88.81
301.518	95.81
301.748	87.81
301.979	93.81
302.209	84.81
302.439	91.81
302.669	93.81
302.9	96.81
303.13	81.81
303.36	86.81
303.59	81.81
303.82	77.81
304.051	100.81
304.281	94.81
304.511	81.81
304.741	102.81
304.971	97.81
305.201	92.81
305.431	78.81
305.661	82.81
305.891	89.81
306.121	93.81
306.352	95.81
306.582	88.81
306.812	82.81
307.042	92.81
307.272	95.81
307.502	91.81
307.731	88.81
307.961	87.81
308.191	87.81
308.421	83.81
308.651	86.81
308.881	79.81
309.111	80.81
309.341	71.81
309.571	87.81
309.8	85.81
310.03	79.81
310.26	89.81
310.49	93.81
310.72	95.81
310.949	86.81
311.179	97.81
311.409	82.81
311.639	87.81
311.868	97.81
312.098	97.81
312.328	93.81
312.557	88.81
312.787	87.81
313.017	87.81
313.246	91.81
313.476	93.81
313.706	92.81
313.935	91.81
314.165	79.81
314.394	88.81
314.624	92.81
314.853	89.81
315.083	91.81
315.312	88.81
315.542	87.81
315.771	86.81
316.001	87.81
316.23	90.81
316.46	76.81
316.689	102.81
316.919	86.81
317.148	79.81
317.377	82.81
317.607	74.81
317.836	105.81
318.065	83.81
318.295	75.81
318.524	99.81
318.753	93.81
318.983	94.81
319.212	82.81
319.441	95.81
319.67	78.81
319.9	74.81
320.129	81.81
320.358	86.81
320.587	96.81
320.816	96.81
321.046	81.81
321.275	83.81
321.504	84.81
321.733	78.81
321.962	89.81
322.191	94.81
322.42	85.81
322.649	83.81
322.878	100.81
323.108	98.81
323.337	80.81
323.566	91.81
323.795	77.81
324.024	84.81
324.253	87.81
324.482	88.81
324.71	90.81
324.939	90.81
325.168	96.81
325.397	98.81
325.626	93.81
325.855	85.81
326.084	89.81
326.313	90.81
326.542	76.81
326.77	91.81
326.999	95.81
327.228	103.81
327.457	77.81
327.686	95.81
327.914	69.81
328.143	74.81
328.372	77.81
328.6	93.81
328.829	99.81
329.058	100.81
329.287	90.81
329.515	85.81
329.744	86.81
329.972	92.81
330.201	85.81
330.43	96.81
330.658	92.81
330.887	85.81
331.115	93.81
331.344	95.81
331.572	89.81
331.801	83.81
332.03	88.81
332.258	87.81
332.486	73.81
332.715	93.81
332.943	83.81
333.172	80.81
333.4	91.81
333.629	105.81
333.857	92.81
334.085	81.81
334.314	78.81
334.542	75.81
334.771	85.81
334.999	90.81
335.227	91.81
335.455	92.81
335.684	89.81
335.912	92.81
336.14	85.81
336.369	81.81
336.597	87.81
336.825	87.81
337.053	81.81
337.281	100.81
337.51	90.81
337.738	91.81
337.966	96.81
338.194	76.81
338.422	92.81
338.65	72.81
338.878	81.81
339.106	80.81
339.334	94.81
339.562	98.81
339.79	91.81
340.018	82.81
340.246	95.81
340.474	91.81
340.702	88.81
340.93	88.81
341.158	97.81
341.386	99.81
341.614	92.81
341.842	93.81
342.07	88.81
342.298	80.81
342.526	88.81
342.754	87.81
342.981	98.81
343.209	88.81
343.437	92.81
343.665	96.81
343.893	101.81
344.12	94.81
344.348	86.81
344.576	90.81
344.804	93.81
345.031	87.81
345.259	93.81
345.487	96.81
345.714	89.81
345.942	80.81
346.17	91.81
346.397	81.81
346.625	90.81
346.853	79.81
347.08	82.81
347.308	99.81
347.535	82.81
347.763	91.81
347.99	88.81
348.218	102.81
348.445	92.81
348.673	79.81
348.9	102.81
349.128	85.81
349.355	90.81
349.583	91.81
349.81	88.81
350.037	93.81
350.265	90.81
350.492	86.81
350.72	85.81
350.947	87.81
351.174	88.81
351.402	87.81
351.629	78.81
351.856	83.81
352.083	96.81
352.311	93.81
352.538	94.81
352.765	83.81
352.992	93.81
353.22	103.81
353.447	100.81
353.674	89.81
353.901	77.81
354.128	71.81
354.355	86.81
354.583	85.81
354.81	90.81
355.037	99.81
355.264	91.81
355.491	90.81
355.718	79.81
355.945	84.81
356.172	84.81
356.399	80.81
356.626	85.81
356.853	80.81
357.08	87.81
357.307	109.81
357.534	91.81
357.761	92.81
357.988	95.81
358.215	80.81
358.441	93.81
358.668	77.81
358.895	84.81
359.122	93.81
359.349	100.81
359.576	81.81
359.802	78.81
360.029	92.81
360.256	81.81
360.483	97.81
360.709	72.81
360.936	107.81
361.163	95.81
361.39	92.81
361.616	78.81
361.843	85.81
362.07	90.81
362.296	95.81
362.523	87.81
362.749	93.81
362.976	85.81
363.203	87.81
363.429	93.81
363.656	100.81
363.882	80.81
364.109	85.81
364.335	85.81
364.562	77.81
364.788	90.81
365.015	84.81
365.241	93.81
365.468	87.81
365.694	86.81
365.92	94.81
366.147	90.81
366.373	90.81
366.599	77.81
366.826	79.81
367.052	81.81
367.278	83.81
367.505	85.81
367.731	91.81
367.957	82.81
368.184	97.81
368.41	98.81
368.636	84.81
368.862	87.81
369.089	89.81
369.315	97.81
369.541	83.81
369.767	93.81
369.993	81.81
370.219	77.81
370.445	71.81
370.672	91.81
370.898	88.81
371.124	84.81
371.35	99.81
371.576	87.81
371.802	62.81
372.028	99.81
372.254	96.81
372.48	87.81
372.706	94.81
372.932	85.81
373.158	90.81
373.384	75.81
373.61	86.81
373.835	94.81
374.061	79.81
374.287	81.81
374.513	89.81
374.739	88.81
374.965	73.81
375.191	89.81
375.416	80.81
375.642	94.81
375.868	81.81
376.094	83.81
376.319	92.81
376.545	93.81
376.771	88.81
376.997	87.81
377.222	92.81
377.448	89.81
377.674	103.81
377.899	84.81
378.125	88.81
378.35	88.81
378.576	89.81
378.802	86.81
379.027	99.81
379.253	102.81
379.478	99.81
379.704	101.81
379.929	96.81
380.155	86.81
380.38	91.81
380.606	91.81
380.831	93.81
381.057	100.81
381.282	86.81
381.507	76.81
381.733	96.81
381.958	96.81
382.184	89.81
382.409	84.81
382.634	86.81
382.86	91.81
383.085	103.81
383.31	101.81
383.535	97.81
383.761	91.81
383.986	85.81
384.211	93.81
384.436	90.81
384.662	86.81
384.887	99.81
385.112	93.81
385.337	100.81
385.562	99.81
385.787	80.81
386.013	90.81
386.238	101.81
386.463	92.81
386.688	92.81
386.913	97.81
387.138	88.81
387.363	76.81
387.588	102.81
387.813	89.81
388.038	96.81
388.263	100.81
388.488	91.81
388.713	86.81
388.938	95.81
389.163	90.81
389.387	89.81
389.612	103.81
389.837	98.81
390.062	99.81
390.287	98.81
390.512	111.81
390.736	91.81
390.961	95.81
391.186	99.81
391.411	88.81
391.636	81.81
391.86	98.81
392.085	86.81
392.31	106.81
392.534	90.81
392.759	89.81
392.984	101.81
393.208	81.81
393.433	94.81
393.658	88.81
393.882	87.81
394.107	96.81
394.331	105.81
394.556	99.81
394.78	98.81
395.005	100.81
395.229	98.81
395.454	94.81
395.678	89.81
395.903	91.81
396.127	80.81
396.352	88.81
396.576	101.81
396.801	89.81
397.025	90.81
397.249	95.81
397.474	94.81
397.698	86.81
397.922	103.81
398.147	104.81
398.371	90.81
398.595	102.81
398.82	96.81
399.044	91.81
399.268	111.81
399.492	91.81
399.717	85.81
399.941	101.81
400.165	108.81
400.389	93.81
400.613	106.81
400.837	100.81
401.062	98.81
401.286	84.81
401.51	93.81
401.734	94.81
401.958	96.81
402.182	99.81
402.406	94.81
402.63	100.81
402.854	95.81
403.078	96.81
403.302	110.81
403.526	114.81
403.75	107.81
403.974	103.81
404.198	102.81
404.422	89.81
404.645	93.81
404.869	92.81
405.093	96.81
405.317	103.81
405.541	99.81
405.765	100.81
405.988	101.81
406.212	108.81
406.436	111.81
406.66	93.81
406.883	118.81
407.107	100.81
407.331	104.81
407.555	96.81
407.778	96.81
408.002	101.81
408.226	93.81
408.449	94.81
408.673	99.81
408.896	98.81
409.12	101.81
409.344	95.81
409.567	107.81
409.791	100.81
410.014	111.81
410.238	100.81
410.461	91.81
410.685	96.81
410.908	104.81
411.132	107.81
411.355	108.81
411.578	107.81
411.802	102.81
412.025	105.81
412.249	116.81
412.472	93.81
412.695	89.81
412.919	98.81
413.142	117.81
413.365	78.81
413.589	101.81
413.812	110.81
414.035	108.81
414.258	97.81
414.482	95.81
414.705	105.81
414.928	113.81
415.151	108.81
415.374	99.81
415.597	113.81
415.821	103.81
416.044	109.81
416.267	120.81
416.49	103.81
416.713	110.81
416.936	102.81
417.159	99.81
417.382	96.81
417.605	103.81
417.828	89.81
418.051	106.81
418.274	100.81
418.497	95.81
418.72	121.81
418.943	109.81
419.166	109.81
419.389	116.81
419.611	121.81
419.834	110.81
420.057	98.81
420.28	118.81
420.503	107.81
420.726	109.81
420.948	108.81
421.171	114.81
421.394	105.81
421.617	111.81
421.839	115.81
422.062	108.81
422.285	101.81
422.507	109.81
422.73	120.81
422.953	111.81
423.175	92.81
423.398	107.81
423.621	106.81
423.843	102.81
424.066	103.81
424.288	115.81
424.511	111.81
424.733	107.81
424.956	103.81
425.178	111.81
425.401	124.81
425.623	102.81
425.846	112.81
426.068	103.81
426.291	121.81
426.513	113.81
426.735	117.81
426.958	100.81
427.18	96.81
427.402	102.81
427.625	99.81
427.847	104.81
428.069	95.81
428.292	108.81
428.514	109.81
428.736	100.81
428.958	100.81
429.181	100.81
429.403	108.81
429.625	108.81
429.847	87.81
430.069	120.81
430.292	110.81
430.514	105.81
430.736	104.81
430.958	112.81
431.18	100.81
431.402	100.81
431.624	110.81
431.846	99.81
432.068	96.81
432.29	101.81
432.512	94.81
432.734	103.81
432.956	123.81
433.178	102.81
433.4	110.81
433.622	100.81
433.844	121.81
434.066	108.81
434.287	106.81
434.509	86.81
434.731	90.81
434.953	113.81
435.175	97.81
435.397	95.81
435.618	109.81
435.84	100.81
436.062	102.81
436.284	104.81
436.505	115.81
436.727	112.81
436.949	117.81
437.17	109.81
437.392	108.81
437.614	112.81
437.835	97.81
438.057	95.81
438.278	95.81
438.5	106.81
438.721	111.81
438.943	111.81
439.165	129.81
439.386	100.81
439.608	105.81
439.829	107.81
440.05	116.81
440.272	118.81
440.493	125.81
440.715	104.81
440.936	119.81
441.158	113.81
441.379	113.81
441.6	117.81
441.822	121.81
442.043	100.81
442.264	102.81
442.486	115.81
442.707	115.81
442.928	127.81
443.149	116.81
443.371	107.81
443.592	112.81
443.813	103.81
444.034	107.81
444.255	119.81
444.476	115.81
444.698	112.81
444.919	122.81
445.14	197.81
445.361	155.81
445.582	118.81
445.803	132.81
446.024	124.81
446.245	119.81
446.466	110.81
446.687	123.81
446.908	122.81
447.129	131.81
447.35	120.81
447.571	112.81
447.792	100.81
448.013	117.81
448.234	108.81
448.455	101.81
448.675	105.81
448.896	110.81
449.117	122.81
449.338	117.81
449.559	93.81
449.779	99.81
450	106.81
450.221	93.81
450.442	116.81
450.662	104.81
450.883	115.81
451.104	117.81
451.324	122.81
451.545	103.81
451.766	125.81
451.986	104.81
452.207	114.81
452.428	104.81
452.648	119.81
452.869	111.81
453.089	107.81
453.31	93.81
453.53	99.81
453.751	103.81
453.971	104.81
454.192	94.81
454.412	107.81
454.633	100.81
454.853	101.81
455.073	111.81
455.294	104.81
455.514	104.81
455.734	100.81
455.955	95.81
456.175	96.81
456.395	93.81
456.616	117.81
456.836	101.81
457.056	90.81
457.276	108.81
457.497	92.81
457.717	103.81
457.937	95.81
458.157	110.81
458.377	112.81
458.598	100.81
458.818	89.81
459.038	92.81
459.258	88.81
459.478	86.81
459.698	73.81
459.918	95.81
460.138	94.81
460.358	96.81
460.578	109.81
460.798	105.81
461.018	96.81
461.238	98.81
461.458	111.81
461.678	104.81
461.898	96.81
462.118	91.81
462.338	101.81
462.558	119.81
462.777	101.81
462.997	100.81
463.217	101.81
463.437	108.81
463.657	80.81
463.876	103.81
464.096	106.81
464.316	90.81
464.536	94.81
464.755	92.81
464.975	99.81
465.195	101.81
465.414	105.81
465.634	108.81
465.854	96.81
466.073	121.81
466.293	108.81
466.512	117.81
466.732	99.81
466.951	121.81
467.171	99.81
467.391	112.81
467.61	117.81
467.829	104.81
468.049	119.81
468.268	100.81
468.488	112.81
468.707	112.81
468.927	94.81
469.146	110.81
469.365	93.81
469.585	108.81
469.804	106.81
470.023	110.81
470.243	112.81
470.462	106.81
470.681	122.81
470.901	120.81
471.12	107.81
471.339	115.81
471.558	109.81
471.777	108.81
471.997	114.81
472.216	108.81
472.435	105.81
472.654	96.81
472.873	93.81
473.092	93.81
473.311	105.81
473.53	106.81
473.749	109.81
473.968	105.81
474.187	111.81
474.406	115.81
474.625	104.81
474.844	113.81
475.063	100.81
475.282	109.81
475.501	91.81
475.72	106.81
475.939	101.81
476.158	102.81
476.377	97.81
476.596	107.81
476.814	106.81
477.033	120.81
477.252	101.81
477.471	105.81
477.69	110.81
477.908	120.81
478.127	124.81
478.346	112.81
478.564	107.81
478.783	129.81
479.002	111.81
479.22	103.81
479.439	92.81
479.658	112.81
479.876	111.81
480.095	103.81
480.313	107.81
480.532	106.81
480.751	114.81
480.969	89.81
481.188	100.81
481.406	89.81
481.624	90.81
481.843	103.81
482.061	82.81
482.28	107.81
482.498	109.81
482.717	100.81
482.935	100.81
483.153	104.81
483.372	113.81
483.59	117.81
483.808	101.81
484.027	118.81
484.245	107.81
484.463	105.81
484.681	126.81
484.9	109.81
485.118	116.81
485.336	103.81
485.554	118.81
485.772	103.81
485.99	88.81
486.209	97.81
486.427	92.81
486.645	107.81
486.863	99.81
487.081	110.81
487.299	127.81
487.517	110.81
487.735	120.81
487.953	142.81
488.171	138.81
488.389	127.81
488.607	123.81
488.825	116.81
489.043	118.81
489.261	110.81
489.479	121.81
489.696	124.81
489.914	103.81
490.132	124.81
490.35	120.81
490.568	109.81
490.786	125.81
491.003	139.81
491.221	128.81
491.439	143.81
491.657	147.81
491.874	151.81
492.092	145.81
492.31	163.81
492.527	160.81
492.745	148.81
492.963	133.81
493.18	141.81
493.398	126.81
493.615	143.81
493.833	123.81
494.05	119.81
494.268	133.81
494.485	146.81
494.703	124.81
494.92	131.81
495.138	131.81
495.355	140.81
495.573	137.81
495.79	128.81
496.008	126.81
496.225	131.81
496.442	121.81
496.66	126.81
496.877	125.81
497.094	126.81
497.312	125.81
497.529	128.81
497.746	115.81
497.963	113.81
498.181	112.81
498.398	119.81
498.615	94.81
498.832	116.81
499.049	91.81
499.267	103.81
499.484	103.81
499.701	106.81
499.918	108.81
500.135	113.81
500.352	112.81
500.569	107.81
500.786	128.81
501.003	106.81
501.22	114.81
501.437	127.81
501.654	121.81
501.871	110.81
502.088	101.81
502.305	111.81
502.522	100.81
502.739	121.81
502.956	99.81
503.172	108.81
503.389	109.81
503.606	99.81
503.823	119.81
504.04	100.81
504.256	91.81
504.473	104.81
504.69	97.81
504.907	101.81
505.123	109.81
505.34	107.81
505.557	99.81
505.773	107.81
505.99	101.81
506.207	100.81
506.423	92.81
506.64	99.81
506.856	110.81
507.073	105.81
507.289	121.81
507.506	118.81
507.722	100.81
507.939	115.81
508.155	99.81
508.372	106.81
508.588	91.81
508.805	100.81
509.021	94.81
509.238	105.81
509.454	97.81
509.67	89.81
509.887	105.81
510.103	95.81
510.319	101.81
510.536	97.81
510.752	81.81
510.968	100.81
511.184	88.81
511.401	78.81
511.617	103.81
511.833	84.81
512.049	74.81
512.265	103.81
512.481	97.81
512.698	91.81
512.914	95.81
513.13	94.81
