Data from Zn(NO3)2Standard.Agarose3%.GreenCap.LampEnergy5.5.E.O_HRD10591_15-03-37-768.txt Node
Date: Mon Jul 22 15:03:37 EDT 2019
User: cochatt
Spectrometer: HR+D1059
Trigger mode: 1
Integration Time (sec): 1.000000E-1
Scans to average: 1
Electric dark correction enabled: true
Nonlinearity correction enabled: false
Boxcar width: 0
XAxis mode: Wavelengths
Number of Pixels in Spectrum: 2048
>>>>>Begin Spectral Data<<<<<
223.165	-18.25
223.4	-18.25
223.635	-18.25
223.869	-18.25
224.104	-10.25
224.338	-22.25
224.573	-20.25
224.808	-23.25
225.042	-8.25
225.277	-12.25
225.511	5.75
225.746	-4.25
225.98	13.75
226.215	18.75
226.449	18.75
226.683	21.75
226.918	32.75
227.152	25.75
227.387	20.75
227.621	28.75
227.856	41.75
228.09	53.75
228.324	35.75
228.559	55.75
228.793	57.75
229.027	43.75
229.262	69.75
229.496	61.75
229.73	68.75
229.964	70.75
230.199	72.75
230.433	75.75
230.667	67.75
230.901	77.75
231.136	84.75
231.37	77.75
231.604	66.75
231.838	73.75
232.072	80.75
232.306	75.75
232.541	79.75
232.775	80.75
233.009	82.75
233.243	86.75
233.477	84.75
233.711	74.75
233.945	83.75
234.179	74.75
234.413	77.75
234.647	71.75
234.881	79.75
235.115	76.75
235.349	70.75
235.583	74.75
235.817	49.75
236.051	88.75
236.285	77.75
236.519	73.75
236.753	77.75
236.987	63.75
237.221	73.75
237.455	70.75
237.689	86.75
237.922	70.75
238.156	68.75
238.39	73.75
238.624	77.75
238.858	72.75
239.091	63.75
239.325	74.75
239.559	77.75
239.793	72.75
240.027	65.75
240.26	75.75
240.494	86.75
240.728	71.75
240.961	73.75
241.195	84.75
241.429	70.75
241.662	83.75
241.896	75.75
242.13	68.75
242.363	71.75
242.597	88.75
242.83	67.75
243.064	70.75
243.298	79.75
243.531	74.75
243.765	73.75
243.998	69.75
244.232	89.75
244.465	90.75
244.699	62.75
244.932	80.75
245.166	79.75
245.399	85.75
245.633	59.75
245.866	75.75
246.099	65.75
246.333	83.75
246.566	69.75
246.8	61.75
247.033	92.75
247.266	78.75
247.5	72.75
247.733	79.75
247.966	81.75
248.2	93.75
248.433	82.75
248.666	82.75
248.899	84.75
249.133	72.75
249.366	77.75
249.599	84.75
249.832	79.75
250.066	77.75
250.299	75.75
250.532	83.75
250.765	74.75
250.998	86.75
251.231	74.75
251.465	87.75
251.698	74.75
251.931	81.75
252.164	75.75
252.397	84.75
252.63	85.75
252.863	75.75
253.096	76.75
253.329	86.75
253.562	75.75
253.795	87.75
254.028	72.75
254.261	85.75
254.494	83.75
254.727	85.75
254.96	83.75
255.193	78.75
255.426	74.75
255.659	85.75
255.892	85.75
256.124	89.75
256.357	74.75
256.59	83.75
256.823	84.75
257.056	80.75
257.289	81.75
257.521	90.75
257.754	85.75
257.987	81.75
258.22	80.75
258.452	78.75
258.685	93.75
258.918	76.75
259.151	56.75
259.383	79.75
259.616	76.75
259.849	84.75
260.081	87.75
260.314	64.75
260.547	74.75
260.779	85.75
261.012	86.75
261.244	77.75
261.477	90.75
261.71	72.75
261.942	76.75
262.175	84.75
262.407	77.75
262.64	78.75
262.872	91.75
263.105	82.75
263.337	83.75
263.57	95.75
263.802	81.75
264.035	74.75
264.267	79.75
264.499	74.75
264.732	80.75
264.964	90.75
265.197	77.75
265.429	73.75
265.661	84.75
265.894	65.75
266.126	80.75
266.358	81.75
266.591	88.75
266.823	85.75
267.055	77.75
267.287	82.75
267.52	78.75
267.752	80.75
267.984	87.75
268.216	83.75
268.448	91.75
268.681	92.75
268.913	92.75
269.145	86.75
269.377	75.75
269.609	97.75
269.841	100.75
270.073	94.75
270.306	88.75
270.538	81.75
270.77	96.75
271.002	83.75
271.234	66.75
271.466	74.75
271.698	82.75
271.93	92.75
272.162	80.75
272.394	72.75
272.626	71.75
272.858	78.75
273.09	69.75
273.322	87.75
273.553	87.75
273.785	91.75
274.017	85.75
274.249	83.75
274.481	69.75
274.713	86.75
274.945	82.75
275.176	70.75
275.408	76.75
275.64	66.75
275.872	84.75
276.104	85.75
276.335	86.75
276.567	68.75
276.799	79.75
277.031	83.75
277.262	80.75
277.494	77.75
277.726	85.75
277.957	80.75
278.189	96.75
278.421	87.75
278.652	75.75
278.884	73.75
279.115	79.75
279.347	78.75
279.579	87.75
279.81	64.75
280.042	83.75
280.273	83.75
280.505	88.75
280.736	84.75
280.968	79.75
281.199	74.75
281.431	78.75
281.662	97.75
281.894	78.75
282.125	81.75
282.356	88.75
282.588	90.75
282.819	89.75
283.051	86.75
283.282	88.75
283.513	72.75
283.745	67.75
283.976	87.75
284.207	89.75
284.439	82.75
284.67	93.75
284.901	87.75
285.132	75.75
285.364	90.75
285.595	94.75
285.826	67.75
286.057	93.75
286.288	88.75
286.52	85.75
286.751	102.75
286.982	92.75
287.213	77.75
287.444	84.75
287.675	91.75
287.906	83.75
288.138	76.75
288.369	89.75
288.6	82.75
288.831	74.75
289.062	82.75
289.293	78.75
289.524	90.75
289.755	86.75
289.986	68.75
290.217	88.75
290.448	89.75
290.679	95.75
290.91	97.75
291.141	74.75
291.371	79.75
291.602	82.75
291.833	92.75
292.064	68.75
292.295	78.75
292.526	87.75
292.757	75.75
292.987	85.75
293.218	83.75
293.449	95.75
293.68	71.75
293.91	87.75
294.141	100.75
294.372	87.75
294.603	81.75
294.833	83.75
295.064	90.75
295.295	81.75
295.525	83.75
295.756	80.75
295.987	79.75
296.217	77.75
296.448	76.75
296.679	91.75
296.909	90.75
297.14	81.75
297.37	94.75
297.601	76.75
297.831	85.75
298.062	81.75
298.292	89.75
298.523	81.75
298.753	87.75
298.984	75.75
299.214	90.75
299.445	85.75
299.675	80.75
299.905	81.75
300.136	84.75
300.366	81.75
300.597	89.75
300.827	78.75
301.057	80.75
301.288	84.75
301.518	86.75
301.748	85.75
301.979	85.75
302.209	77.75
302.439	76.75
302.669	78.75
302.9	83.75
303.13	92.75
303.36	76.75
303.59	69.75
303.82	80.75
304.051	85.75
304.281	84.75
304.511	100.75
304.741	90.75
304.971	75.75
305.201	84.75
305.431	88.75
305.661	92.75
305.891	84.75
306.121	92.75
306.352	78.75
306.582	77.75
306.812	88.75
307.042	80.75
307.272	81.75
307.502	88.75
307.731	87.75
307.961	80.75
308.191	87.75
308.421	95.75
308.651	74.75
308.881	97.75
309.111	89.75
309.341	91.75
309.571	95.75
309.8	86.75
310.03	86.75
310.26	81.75
310.49	71.75
310.72	72.75
310.949	62.75
311.179	84.75
311.409	77.75
311.639	97.75
311.868	88.75
312.098	84.75
312.328	83.75
312.557	79.75
312.787	83.75
313.017	80.75
313.246	89.75
313.476	93.75
313.706	98.75
313.935	90.75
314.165	80.75
314.394	81.75
314.624	75.75
314.853	72.75
315.083	74.75
315.312	73.75
315.542	86.75
315.771	82.75
316.001	82.75
316.23	82.75
316.46	85.75
316.689	80.75
316.919	90.75
317.148	87.75
317.377	77.75
317.607	95.75
317.836	89.75
318.065	82.75
318.295	102.75
318.524	99.75
318.753	97.75
318.983	88.75
319.212	88.75
319.441	81.75
319.67	74.75
319.9	82.75
320.129	84.75
320.358	94.75
320.587	79.75
320.816	85.75
321.046	78.75
321.275	85.75
321.504	83.75
321.733	83.75
321.962	99.75
322.191	92.75
322.42	75.75
322.649	99.75
322.878	76.75
323.108	82.75
323.337	102.75
323.566	84.75
323.795	56.75
324.024	95.75
324.253	88.75
324.482	72.75
324.71	92.75
324.939	95.75
325.168	70.75
325.397	77.75
325.626	91.75
325.855	75.75
326.084	74.75
326.313	81.75
326.542	77.75
326.77	81.75
326.999	82.75
327.228	85.75
327.457	90.75
327.686	86.75
327.914	91.75
328.143	80.75
328.372	89.75
328.6	76.75
328.829	72.75
329.058	94.75
329.287	77.75
329.515	71.75
329.744	78.75
329.972	89.75
330.201	88.75
330.43	91.75
330.658	82.75
330.887	74.75
331.115	84.75
331.344	79.75
331.572	79.75
331.801	83.75
332.03	84.75
332.258	80.75
332.486	72.75
332.715	76.75
332.943	88.75
333.172	79.75
333.4	74.75
333.629	77.75
333.857	79.75
334.085	75.75
334.314	86.75
334.542	85.75
334.771	74.75
334.999	87.75
335.227	87.75
335.455	78.75
335.684	95.75
335.912	86.75
336.14	72.75
336.369	71.75
336.597	72.75
336.825	83.75
337.053	93.75
337.281	99.75
337.51	74.75
337.738	83.75
337.966	75.75
338.194	71.75
338.422	88.75
338.65	101.75
338.878	88.75
339.106	85.75
339.334	92.75
339.562	84.75
339.79	80.75
340.018	87.75
340.246	88.75
340.474	95.75
340.702	91.75
340.93	75.75
341.158	88.75
341.386	72.75
341.614	84.75
341.842	73.75
342.07	85.75
342.298	85.75
342.526	81.75
342.754	77.75
342.981	85.75
343.209	89.75
343.437	82.75
343.665	81.75
343.893	89.75
344.12	99.75
344.348	86.75
344.576	71.75
344.804	72.75
345.031	69.75
345.259	91.75
345.487	83.75
345.714	72.75
345.942	81.75
346.17	79.75
346.397	76.75
346.625	88.75
346.853	87.75
347.08	96.75
347.308	78.75
347.535	99.75
347.763	79.75
347.99	85.75
348.218	91.75
348.445	86.75
348.673	82.75
348.9	95.75
349.128	89.75
349.355	76.75
349.583	75.75
349.81	80.75
350.037	81.75
350.265	90.75
350.492	76.75
350.72	87.75
350.947	78.75
351.174	76.75
351.402	61.75
351.629	71.75
351.856	85.75
352.083	75.75
352.311	83.75
352.538	82.75
352.765	77.75
352.992	63.75
353.22	83.75
353.447	78.75
353.674	92.75
353.901	85.75
354.128	89.75
354.355	79.75
354.583	88.75
354.81	87.75
355.037	70.75
355.264	91.75
355.491	80.75
355.718	76.75
355.945	80.75
356.172	76.75
356.399	81.75
356.626	91.75
356.853	87.75
357.08	85.75
357.307	94.75
357.534	79.75
357.761	84.75
357.988	89.75
358.215	69.75
358.441	96.75
358.668	81.75
358.895	70.75
359.122	93.75
359.349	81.75
359.576	83.75
359.802	76.75
360.029	84.75
360.256	81.75
360.483	77.75
360.709	87.75
360.936	106.75
361.163	90.75
361.39	87.75
361.616	90.75
361.843	88.75
362.07	79.75
362.296	72.75
362.523	79.75
362.749	76.75
362.976	98.75
363.203	87.75
363.429	80.75
363.656	90.75
363.882	82.75
364.109	99.75
364.335	97.75
364.562	90.75
364.788	87.75
365.015	74.75
365.241	76.75
365.468	95.75
365.694	84.75
365.92	99.75
366.147	82.75
366.373	90.75
366.599	82.75
366.826	67.75
367.052	70.75
367.278	78.75
367.505	81.75
367.731	88.75
367.957	73.75
368.184	79.75
368.41	87.75
368.636	72.75
368.862	96.75
369.089	74.75
369.315	84.75
369.541	78.75
369.767	87.75
369.993	87.75
370.219	91.75
370.445	82.75
370.672	76.75
370.898	82.75
371.124	78.75
371.35	83.75
371.576	83.75
371.802	79.75
372.028	71.75
372.254	77.75
372.48	83.75
372.706	83.75
372.932	91.75
373.158	83.75
373.384	80.75
373.61	75.75
373.835	84.75
374.061	84.75
374.287	85.75
374.513	93.75
374.739	74.75
374.965	78.75
375.191	73.75
375.416	89.75
375.642	86.75
375.868	83.75
376.094	79.75
376.319	89.75
376.545	91.75
376.771	66.75
376.997	93.75
377.222	86.75
377.448	83.75
377.674	89.75
377.899	74.75
378.125	80.75
378.35	86.75
378.576	83.75
378.802	81.75
379.027	86.75
379.253	70.75
379.478	79.75
379.704	78.75
379.929	68.75
380.155	67.75
380.38	68.75
380.606	71.75
380.831	71.75
381.057	90.75
381.282	79.75
381.507	84.75
381.733	86.75
381.958	83.75
382.184	66.75
382.409	83.75
382.634	79.75
382.86	95.75
383.085	76.75
383.31	75.75
383.535	96.75
383.761	87.75
383.986	98.75
384.211	94.75
384.436	83.75
384.662	73.75
384.887	83.75
385.112	88.75
385.337	85.75
385.562	81.75
385.787	75.75
386.013	88.75
386.238	81.75
386.463	80.75
386.688	87.75
386.913	75.75
387.138	92.75
387.363	84.75
387.588	83.75
387.813	91.75
388.038	87.75
388.263	100.75
388.488	73.75
388.713	87.75
388.938	73.75
389.163	80.75
389.387	91.75
389.612	79.75
389.837	82.75
390.062	78.75
390.287	81.75
390.512	85.75
390.736	72.75
390.961	72.75
391.186	78.75
391.411	72.75
391.636	92.75
391.86	90.75
392.085	83.75
392.31	83.75
392.534	88.75
392.759	86.75
392.984	89.75
393.208	92.75
393.433	77.75
393.658	93.75
393.882	85.75
394.107	76.75
394.331	77.75
394.556	79.75
394.78	68.75
395.005	78.75
395.229	88.75
395.454	66.75
395.678	73.75
395.903	76.75
396.127	83.75
396.352	78.75
396.576	73.75
396.801	87.75
397.025	77.75
397.249	89.75
397.474	76.75
397.698	82.75
397.922	84.75
398.147	81.75
398.371	73.75
398.595	70.75
398.82	81.75
399.044	65.75
399.268	88.75
399.492	67.75
399.717	84.75
399.941	79.75
400.165	79.75
400.389	86.75
400.613	78.75
400.837	88.75
401.062	80.75
401.286	79.75
401.51	95.75
401.734	83.75
401.958	93.75
402.182	87.75
402.406	92.75
402.63	77.75
402.854	73.75
403.078	94.75
403.302	72.75
403.526	89.75
403.75	76.75
403.974	63.75
404.198	82.75
404.422	64.75
404.645	83.75
404.869	67.75
405.093	79.75
405.317	74.75
405.541	76.75
405.765	77.75
405.988	84.75
406.212	95.75
406.436	81.75
406.66	87.75
406.883	84.75
407.107	71.75
407.331	83.75
407.555	73.75
407.778	85.75
408.002	72.75
408.226	87.75
408.449	83.75
408.673	91.75
408.896	70.75
409.12	75.75
409.344	90.75
409.567	83.75
409.791	84.75
410.014	70.75
410.238	91.75
410.461	82.75
410.685	95.75
410.908	77.75
411.132	84.75
411.355	76.75
411.578	87.75
411.802	79.75
412.025	67.75
412.249	92.75
412.472	81.75
412.695	82.75
412.919	91.75
413.142	79.75
413.365	91.75
413.589	98.75
413.812	90.75
414.035	85.75
414.258	70.75
414.482	79.75
414.705	81.75
414.928	102.75
415.151	91.75
415.374	85.75
415.597	81.75
415.821	83.75
416.044	84.75
416.267	83.75
416.49	90.75
416.713	83.75
416.936	84.75
417.159	86.75
417.382	89.75
417.605	95.75
417.828	81.75
418.051	102.75
418.274	90.75
418.497	85.75
418.72	87.75
418.943	85.75
419.166	73.75
419.389	85.75
419.611	73.75
419.834	95.75
420.057	89.75
420.28	78.75
420.503	85.75
420.726	60.75
420.948	70.75
421.171	92.75
421.394	94.75
421.617	80.75
421.839	87.75
422.062	85.75
422.285	69.75
422.507	80.75
422.73	75.75
422.953	92.75
423.175	87.75
423.398	84.75
423.621	90.75
423.843	88.75
424.066	86.75
424.288	104.75
424.511	89.75
424.733	87.75
424.956	92.75
425.178	84.75
425.401	79.75
425.623	84.75
425.846	91.75
426.068	92.75
426.291	84.75
426.513	86.75
426.735	89.75
426.958	83.75
427.18	105.75
427.402	84.75
427.625	101.75
427.847	78.75
428.069	84.75
428.292	71.75
428.514	91.75
428.736	62.75
428.958	83.75
429.181	103.75
429.403	83.75
429.625	77.75
429.847	96.75
430.069	75.75
430.292	95.75
430.514	78.75
430.736	86.75
430.958	75.75
431.18	84.75
431.402	93.75
431.624	99.75
431.846	90.75
432.068	92.75
432.29	87.75
432.512	81.75
432.734	72.75
432.956	79.75
433.178	89.75
433.4	82.75
433.622	100.75
433.844	103.75
434.066	80.75
434.287	83.75
434.509	93.75
434.731	72.75
434.953	92.75
435.175	89.75
435.397	98.75
435.618	87.75
435.84	85.75
436.062	81.75
436.284	77.75
436.505	88.75
436.727	105.75
436.949	92.75
437.17	91.75
437.392	89.75
437.614	98.75
437.835	73.75
438.057	74.75
438.278	91.75
438.5	93.75
438.721	81.75
438.943	95.75
439.165	91.75
439.386	84.75
439.608	94.75
439.829	91.75
440.05	86.75
440.272	85.75
440.493	84.75
440.715	68.75
440.936	95.75
441.158	88.75
441.379	88.75
441.6	87.75
441.822	85.75
442.043	84.75
442.264	95.75
442.486	96.75
442.707	84.75
442.928	106.75
443.149	93.75
443.371	77.75
443.592	73.75
443.813	84.75
444.034	93.75
444.255	90.75
444.476	87.75
444.698	91.75
444.919	73.75
445.14	223.75
445.361	145.75
445.582	79.75
445.803	83.75
446.024	90.75
446.245	89.75
446.466	86.75
446.687	80.75
446.908	92.75
447.129	84.75
447.35	79.75
447.571	101.75
447.792	90.75
448.013	88.75
448.234	91.75
448.455	93.75
448.675	97.75
448.896	78.75
449.117	99.75
449.338	92.75
449.559	90.75
449.779	78.75
450	92.75
450.221	87.75
450.442	77.75
450.662	85.75
450.883	85.75
451.104	91.75
451.324	90.75
451.545	83.75
451.766	82.75
451.986	82.75
452.207	90.75
452.428	78.75
452.648	80.75
452.869	92.75
453.089	81.75
453.31	67.75
453.53	84.75
453.751	72.75
453.971	85.75
454.192	83.75
454.412	67.75
454.633	79.75
454.853	91.75
455.073	80.75
455.294	84.75
455.514	96.75
455.734	77.75
455.955	77.75
456.175	91.75
456.395	76.75
456.616	81.75
456.836	87.75
457.056	75.75
457.276	86.75
457.497	77.75
457.717	74.75
457.937	91.75
458.157	91.75
458.377	80.75
458.598	75.75
458.818	72.75
459.038	79.75
459.258	80.75
459.478	73.75
459.698	87.75
459.918	93.75
460.138	79.75
460.358	69.75
460.578	89.75
460.798	79.75
461.018	89.75
461.238	79.75
461.458	96.75
461.678	90.75
461.898	92.75
462.118	75.75
462.338	102.75
462.558	94.75
462.777	82.75
462.997	82.75
463.217	77.75
463.437	76.75
463.657	86.75
463.876	84.75
464.096	80.75
464.316	81.75
464.536	82.75
464.755	91.75
464.975	91.75
465.195	92.75
465.414	90.75
465.634	96.75
465.854	74.75
466.073	85.75
466.293	77.75
466.512	88.75
466.732	88.75
466.951	95.75
467.171	83.75
467.391	84.75
467.61	92.75
467.829	88.75
468.049	95.75
468.268	85.75
468.488	89.75
468.707	94.75
468.927	85.75
469.146	80.75
469.365	86.75
469.585	86.75
469.804	85.75
470.023	72.75
470.243	85.75
470.462	97.75
470.681	98.75
470.901	85.75
471.12	88.75
471.339	76.75
471.558	91.75
471.777	94.75
471.997	87.75
472.216	88.75
472.435	86.75
472.654	85.75
472.873	80.75
473.092	80.75
473.311	99.75
473.53	83.75
473.749	77.75
473.968	84.75
474.187	85.75
474.406	75.75
474.625	86.75
474.844	97.75
475.063	87.75
475.282	101.75
475.501	98.75
475.72	98.75
475.939	84.75
476.158	82.75
476.377	88.75
476.596	70.75
476.814	71.75
477.033	93.75
477.252	87.75
477.471	85.75
477.69	82.75
477.908	99.75
478.127	97.75
478.346	99.75
478.564	78.75
478.783	74.75
479.002	98.75
479.22	91.75
479.439	81.75
479.658	83.75
479.876	87.75
480.095	80.75
480.313	86.75
480.532	82.75
480.751	80.75
480.969	84.75
481.188	71.75
481.406	68.75
481.624	87.75
481.843	82.75
482.061	84.75
482.28	81.75
482.498	75.75
482.717	82.75
482.935	99.75
483.153	95.75
483.372	82.75
483.59	96.75
483.808	92.75
484.027	89.75
484.245	103.75
484.463	97.75
484.681	89.75
484.9	89.75
485.118	101.75
485.336	72.75
485.554	80.75
485.772	85.75
485.99	86.75
486.209	93.75
486.427	88.75
486.645	81.75
486.863	80.75
487.081	103.75
487.299	92.75
487.517	83.75
487.735	84.75
487.953	89.75
488.171	104.75
488.389	90.75
488.607	86.75
488.825	95.75
489.043	88.75
489.261	95.75
489.479	93.75
489.696	79.75
489.914	88.75
490.132	78.75
490.35	80.75
490.568	80.75
490.786	106.75
491.003	95.75
491.221	99.75
491.439	95.75
491.657	92.75
491.874	79.75
492.092	101.75
492.31	107.75
492.527	106.75
492.745	105.75
492.963	94.75
493.18	112.75
493.398	104.75
493.615	95.75
493.833	104.75
494.05	103.75
494.268	95.75
494.485	103.75
494.703	104.75
494.92	92.75
495.138	89.75
495.355	96.75
495.573	98.75
495.79	85.75
496.008	95.75
496.225	88.75
496.442	83.75
496.66	95.75
496.877	83.75
497.094	88.75
497.312	96.75
497.529	87.75
497.746	81.75
497.963	83.75
498.181	101.75
498.398	76.75
498.615	86.75
498.832	89.75
499.049	75.75
499.267	98.75
499.484	77.75
499.701	83.75
499.918	82.75
500.135	90.75
500.352	89.75
500.569	95.75
500.786	76.75
501.003	94.75
501.22	93.75
501.437	100.75
501.654	96.75
501.871	88.75
502.088	87.75
502.305	98.75
502.522	93.75
502.739	90.75
502.956	85.75
503.172	91.75
503.389	94.75
503.606	96.75
503.823	89.75
504.04	92.75
504.256	72.75
504.473	97.75
504.69	85.75
504.907	92.75
505.123	90.75
505.34	83.75
505.557	92.75
505.773	87.75
505.99	83.75
506.207	90.75
506.423	92.75
506.64	93.75
506.856	75.75
507.073	92.75
507.289	82.75
507.506	89.75
507.722	91.75
507.939	97.75
508.155	89.75
508.372	88.75
508.588	80.75
508.805	89.75
509.021	85.75
509.238	77.75
509.454	83.75
509.67	81.75
509.887	79.75
510.103	88.75
510.319	79.75
510.536	77.75
510.752	76.75
510.968	78.75
511.184	87.75
511.401	74.75
511.617	91.75
511.833	93.75
512.049	77.75
512.265	88.75
512.481	80.75
512.698	81.75
512.914	78.75
513.13	90.75
513.346	82.75
513.562	76.75
513.778	92.75
513.994	81.75
514.21	83.75
514.426	77.75
514.642	75.75
514.858	81.75
515.074	76.75
515.29	79.75
515.506	83.75
515.721	96.75
515.937	78.75
516.153	77.75
516.369	84.75
516.585	83.75
516.801	87.75
517.016	84.75
517.232	91.75
517.448	80.75
517.664	74.75
517.879	85.75
518.095	82.75
518.311	82.75
518.527	74.75
518.742	77.75
518.958	87.75
