Data from Zn(NO3)2Standard.Agarose3%.GreenCap.LampEnergy10E.O_HRD10591_15-08-16-948.txt Node
Date: Mon Jul 22 15:08:16 EDT 2019
User: cochatt
Spectrometer: HR+D1059
Trigger mode: 1
Integration Time (sec): 1.000000E-1
Scans to average: 1
Electric dark correction enabled: true
Nonlinearity correction enabled: false
Boxcar width: 0
XAxis mode: Wavelengths
Number of Pixels in Spectrum: 2048
>>>>>Begin Spectral Data<<<<<
223.165	-0.25
223.4	-0.25
223.635	-0.25
223.869	-16.25
224.104	-18.25
224.338	1.75
224.573	-8.25
224.808	-9.25
225.042	-6.25
225.277	-18.25
225.511	-16.25
225.746	-16.25
225.98	2.75
226.215	3.75
226.449	22.75
226.683	9.75
226.918	37.75
227.152	30.75
227.387	32.75
227.621	41.75
227.856	55.75
228.09	50.75
228.324	46.75
228.559	54.75
228.793	47.75
229.027	55.75
229.262	66.75
229.496	65.75
229.73	73.75
229.964	65.75
230.199	84.75
230.433	67.75
230.667	79.75
230.901	80.75
231.136	77.75
231.37	76.75
231.604	82.75
231.838	94.75
232.072	93.75
232.306	94.75
232.541	66.75
232.775	89.75
233.009	85.75
233.243	77.75
233.477	86.75
233.711	91.75
233.945	89.75
234.179	77.75
234.413	77.75
234.647	77.75
234.881	83.75
235.115	95.75
235.349	83.75
235.583	82.75
235.817	71.75
236.051	71.75
236.285	82.75
236.519	85.75
236.753	81.75
236.987	68.75
237.221	82.75
237.455	74.75
237.689	69.75
237.922	79.75
238.156	76.75
238.39	74.75
238.624	83.75
238.858	87.75
239.091	75.75
239.325	75.75
239.559	69.75
239.793	80.75
240.027	86.75
240.26	85.75
240.494	74.75
240.728	74.75
240.961	67.75
241.195	77.75
241.429	96.75
241.662	63.75
241.896	67.75
242.13	87.75
242.363	81.75
242.597	74.75
242.83	77.75
243.064	79.75
243.298	75.75
243.531	89.75
243.765	86.75
243.998	89.75
244.232	74.75
244.465	91.75
244.699	77.75
244.932	73.75
245.166	70.75
245.399	69.75
245.633	82.75
245.866	93.75
246.099	85.75
246.333	79.75
246.566	73.75
246.8	73.75
247.033	82.75
247.266	62.75
247.5	70.75
247.733	72.75
247.966	72.75
248.2	97.75
248.433	87.75
248.666	76.75
248.899	91.75
249.133	71.75
249.366	60.75
249.599	88.75
249.832	83.75
250.066	82.75
250.299	80.75
250.532	89.75
250.765	65.75
250.998	81.75
251.231	87.75
251.465	63.75
251.698	88.75
251.931	87.75
252.164	91.75
252.397	82.75
252.63	85.75
252.863	63.75
253.096	78.75
253.329	78.75
253.562	84.75
253.795	74.75
254.028	87.75
254.261	78.75
254.494	98.75
254.727	93.75
254.96	83.75
255.193	85.75
255.426	93.75
255.659	78.75
255.892	79.75
256.124	79.75
256.357	74.75
256.59	76.75
256.823	86.75
257.056	74.75
257.289	83.75
257.521	73.75
257.754	82.75
257.987	70.75
258.22	77.75
258.452	86.75
258.685	97.75
258.918	78.75
259.151	84.75
259.383	74.75
259.616	96.75
259.849	82.75
260.081	82.75
260.314	75.75
260.547	88.75
260.779	79.75
261.012	78.75
261.244	68.75
261.477	89.75
261.71	80.75
261.942	81.75
262.175	70.75
262.407	82.75
262.64	89.75
262.872	79.75
263.105	94.75
263.337	73.75
263.57	78.75
263.802	87.75
264.035	83.75
264.267	71.75
264.499	77.75
264.732	86.75
264.964	96.75
265.197	90.75
265.429	80.75
265.661	89.75
265.894	89.75
266.126	87.75
266.358	95.75
266.591	79.75
266.823	71.75
267.055	78.75
267.287	86.75
267.52	85.75
267.752	85.75
267.984	91.75
268.216	81.75
268.448	79.75
268.681	83.75
268.913	101.75
269.145	103.75
269.377	80.75
269.609	83.75
269.841	100.75
270.073	86.75
270.306	75.75
270.538	86.75
270.77	75.75
271.002	83.75
271.234	75.75
271.466	77.75
271.698	85.75
271.93	85.75
272.162	86.75
272.394	88.75
272.626	75.75
272.858	77.75
273.09	103.75
273.322	77.75
273.553	90.75
273.785	85.75
274.017	89.75
274.249	82.75
274.481	77.75
274.713	74.75
274.945	79.75
275.176	87.75
275.408	77.75
275.64	79.75
275.872	83.75
276.104	85.75
276.335	78.75
276.567	92.75
276.799	84.75
277.031	70.75
277.262	83.75
277.494	89.75
277.726	85.75
277.957	87.75
278.189	83.75
278.421	87.75
278.652	74.75
278.884	80.75
279.115	91.75
279.347	85.75
279.579	91.75
279.81	81.75
280.042	78.75
280.273	85.75
280.505	67.75
280.736	65.75
280.968	82.75
281.199	79.75
281.431	95.75
281.662	85.75
281.894	86.75
282.125	83.75
282.356	91.75
282.588	86.75
282.819	97.75
283.051	93.75
283.282	98.75
283.513	96.75
283.745	92.75
283.976	97.75
284.207	86.75
284.439	71.75
284.67	85.75
284.901	76.75
285.132	85.75
285.364	94.75
285.595	95.75
285.826	96.75
286.057	93.75
286.288	88.75
286.52	98.75
286.751	83.75
286.982	88.75
287.213	80.75
287.444	92.75
287.675	86.75
287.906	94.75
288.138	90.75
288.369	82.75
288.6	89.75
288.831	69.75
289.062	87.75
289.293	102.75
289.524	94.75
289.755	83.75
289.986	78.75
290.217	95.75
290.448	88.75
290.679	92.75
290.91	88.75
291.141	81.75
291.371	65.75
291.602	87.75
291.833	91.75
292.064	80.75
292.295	91.75
292.526	84.75
292.757	83.75
292.987	91.75
293.218	78.75
293.449	84.75
293.68	78.75
293.91	93.75
294.141	83.75
294.372	83.75
294.603	100.75
294.833	91.75
295.064	83.75
295.295	88.75
295.525	73.75
295.756	79.75
295.987	97.75
296.217	79.75
296.448	88.75
296.679	92.75
296.909	83.75
297.14	84.75
297.37	82.75
297.601	76.75
297.831	81.75
298.062	91.75
298.292	73.75
298.523	80.75
298.753	86.75
298.984	88.75
299.214	91.75
299.445	82.75
299.675	82.75
299.905	76.75
300.136	76.75
300.366	86.75
300.597	79.75
300.827	75.75
301.057	91.75
301.288	83.75
301.518	89.75
301.748	93.75
301.979	107.75
302.209	90.75
302.439	79.75
302.669	90.75
302.9	98.75
303.13	85.75
303.36	89.75
303.59	76.75
303.82	86.75
304.051	75.75
304.281	79.75
304.511	88.75
304.741	91.75
304.971	93.75
305.201	84.75
305.431	92.75
305.661	85.75
305.891	91.75
306.121	96.75
306.352	96.75
306.582	78.75
306.812	80.75
307.042	89.75
307.272	79.75
307.502	75.75
307.731	77.75
307.961	78.75
308.191	91.75
308.421	90.75
308.651	100.75
308.881	90.75
309.111	93.75
309.341	72.75
309.571	84.75
309.8	92.75
310.03	84.75
310.26	86.75
310.49	93.75
310.72	103.75
310.949	89.75
311.179	81.75
311.409	93.75
311.639	92.75
311.868	86.75
312.098	85.75
312.328	85.75
312.557	93.75
312.787	97.75
313.017	73.75
313.246	106.75
313.476	82.75
313.706	90.75
313.935	85.75
314.165	80.75
314.394	92.75
314.624	98.75
314.853	86.75
315.083	82.75
315.312	91.75
315.542	94.75
315.771	87.75
316.001	86.75
316.23	95.75
316.46	76.75
316.689	88.75
316.919	78.75
317.148	78.75
317.377	102.75
317.607	76.75
317.836	79.75
318.065	85.75
318.295	96.75
318.524	93.75
318.753	81.75
318.983	103.75
319.212	80.75
319.441	89.75
319.67	86.75
319.9	95.75
320.129	96.75
320.358	91.75
320.587	70.75
320.816	90.75
321.046	90.75
321.275	78.75
321.504	85.75
321.733	84.75
321.962	98.75
322.191	89.75
322.42	87.75
322.649	80.75
322.878	89.75
323.108	83.75
323.337	85.75
323.566	78.75
323.795	73.75
324.024	85.75
324.253	76.75
324.482	89.75
324.71	89.75
324.939	89.75
325.168	87.75
325.397	90.75
325.626	75.75
325.855	84.75
326.084	73.75
326.313	96.75
326.542	91.75
326.77	103.75
326.999	89.75
327.228	83.75
327.457	72.75
327.686	98.75
327.914	94.75
328.143	99.75
328.372	106.75
328.6	84.75
328.829	93.75
329.058	83.75
329.287	76.75
329.515	77.75
329.744	84.75
329.972	80.75
330.201	82.75
330.43	84.75
330.658	87.75
330.887	78.75
331.115	83.75
331.344	88.75
331.572	79.75
331.801	81.75
332.03	93.75
332.258	90.75
332.486	100.75
332.715	84.75
332.943	92.75
333.172	80.75
333.4	86.75
333.629	94.75
333.857	90.75
334.085	66.75
334.314	88.75
334.542	94.75
334.771	93.75
334.999	83.75
335.227	76.75
335.455	84.75
335.684	88.75
335.912	102.75
336.14	81.75
336.369	81.75
336.597	74.75
336.825	81.75
337.053	88.75
337.281	73.75
337.51	81.75
337.738	77.75
337.966	76.75
338.194	76.75
338.422	79.75
338.65	81.75
338.878	75.75
339.106	84.75
339.334	85.75
339.562	90.75
339.79	97.75
340.018	95.75
340.246	98.75
340.474	90.75
340.702	78.75
340.93	82.75
341.158	83.75
341.386	83.75
341.614	87.75
341.842	76.75
342.07	73.75
342.298	88.75
342.526	74.75
342.754	89.75
342.981	71.75
343.209	95.75
343.437	99.75
343.665	82.75
343.893	82.75
344.12	84.75
344.348	83.75
344.576	72.75
344.804	87.75
345.031	92.75
345.259	90.75
345.487	81.75
345.714	76.75
345.942	78.75
346.17	83.75
346.397	86.75
346.625	93.75
346.853	77.75
347.08	99.75
347.308	88.75
347.535	85.75
347.763	77.75
347.99	96.75
348.218	79.75
348.445	92.75
348.673	89.75
348.9	92.75
349.128	79.75
349.355	70.75
349.583	83.75
349.81	86.75
350.037	92.75
350.265	77.75
350.492	78.75
350.72	84.75
350.947	83.75
351.174	84.75
351.402	92.75
351.629	92.75
351.856	86.75
352.083	87.75
352.311	83.75
352.538	82.75
352.765	69.75
352.992	99.75
353.22	74.75
353.447	81.75
353.674	93.75
353.901	88.75
354.128	97.75
354.355	86.75
354.583	90.75
354.81	76.75
355.037	88.75
355.264	94.75
355.491	93.75
355.718	85.75
355.945	81.75
356.172	86.75
356.399	92.75
356.626	98.75
356.853	83.75
357.08	94.75
357.307	84.75
357.534	79.75
357.761	74.75
357.988	75.75
358.215	84.75
358.441	88.75
358.668	97.75
358.895	81.75
359.122	85.75
359.349	88.75
359.576	83.75
359.802	76.75
360.029	75.75
360.256	83.75
360.483	76.75
360.709	85.75
360.936	100.75
361.163	94.75
361.39	89.75
361.616	80.75
361.843	81.75
362.07	84.75
362.296	76.75
362.523	93.75
362.749	96.75
362.976	87.75
363.203	69.75
363.429	74.75
363.656	96.75
363.882	91.75
364.109	93.75
364.335	86.75
364.562	88.75
364.788	74.75
365.015	81.75
365.241	89.75
365.468	91.75
365.694	84.75
365.92	85.75
366.147	78.75
366.373	73.75
366.599	85.75
366.826	91.75
367.052	87.75
367.278	100.75
367.505	91.75
367.731	85.75
367.957	81.75
368.184	92.75
368.41	88.75
368.636	80.75
368.862	99.75
369.089	88.75
369.315	97.75
369.541	86.75
369.767	90.75
369.993	78.75
370.219	78.75
370.445	87.75
370.672	73.75
370.898	80.75
371.124	91.75
371.35	76.75
371.576	88.75
371.802	92.75
372.028	79.75
372.254	79.75
372.48	103.75
372.706	90.75
372.932	88.75
373.158	87.75
373.384	81.75
373.61	89.75
373.835	105.75
374.061	66.75
374.287	80.75
374.513	88.75
374.739	93.75
374.965	93.75
375.191	98.75
375.416	91.75
375.642	107.75
375.868	95.75
376.094	87.75
376.319	84.75
376.545	93.75
376.771	83.75
376.997	94.75
377.222	89.75
377.448	96.75
377.674	74.75
377.899	90.75
378.125	77.75
378.35	89.75
378.576	83.75
378.802	87.75
379.027	81.75
379.253	98.75
379.478	85.75
379.704	82.75
379.929	91.75
380.155	100.75
380.38	105.75
380.606	84.75
380.831	88.75
381.057	86.75
381.282	93.75
381.507	91.75
381.733	87.75
381.958	83.75
382.184	92.75
382.409	104.75
382.634	98.75
382.86	107.75
383.085	96.75
383.31	92.75
383.535	97.75
383.761	99.75
383.986	94.75
384.211	81.75
384.436	97.75
384.662	95.75
384.887	94.75
385.112	84.75
385.337	87.75
385.562	95.75
385.787	90.75
386.013	87.75
386.238	88.75
386.463	88.75
386.688	93.75
386.913	83.75
387.138	78.75
387.363	98.75
387.588	99.75
387.813	95.75
388.038	105.75
388.263	96.75
388.488	91.75
388.713	83.75
388.938	97.75
389.163	86.75
389.387	93.75
389.612	88.75
389.837	84.75
390.062	92.75
390.287	98.75
390.512	92.75
390.736	79.75
390.961	95.75
391.186	96.75
391.411	86.75
391.636	93.75
391.86	87.75
392.085	84.75
392.31	93.75
392.534	100.75
392.759	107.75
392.984	91.75
393.208	92.75
393.433	97.75
393.658	107.75
393.882	92.75
394.107	93.75
394.331	97.75
394.556	89.75
394.78	82.75
395.005	93.75
395.229	87.75
395.454	100.75
395.678	89.75
395.903	94.75
396.127	100.75
396.352	102.75
396.576	99.75
396.801	96.75
397.025	92.75
397.249	98.75
397.474	111.75
397.698	105.75
397.922	109.75
398.147	84.75
398.371	93.75
398.595	91.75
398.82	82.75
399.044	99.75
399.268	111.75
399.492	86.75
399.717	84.75
399.941	94.75
400.165	99.75
400.389	93.75
400.613	99.75
400.837	94.75
401.062	106.75
401.286	94.75
401.51	85.75
401.734	80.75
401.958	86.75
402.182	99.75
402.406	87.75
402.63	91.75
402.854	98.75
403.078	107.75
403.302	91.75
403.526	96.75
403.75	108.75
403.974	100.75
404.198	97.75
404.422	87.75
404.645	81.75
404.869	103.75
405.093	89.75
405.317	101.75
405.541	101.75
405.765	99.75
405.988	82.75
406.212	91.75
406.436	103.75
406.66	103.75
406.883	104.75
407.107	103.75
407.331	96.75
407.555	102.75
407.778	100.75
408.002	95.75
408.226	80.75
408.449	90.75
408.673	98.75
408.896	94.75
409.12	88.75
409.344	119.75
409.567	107.75
409.791	92.75
410.014	99.75
410.238	109.75
410.461	90.75
410.685	87.75
410.908	126.75
411.132	107.75
411.355	106.75
411.578	106.75
411.802	89.75
412.025	79.75
412.249	106.75
412.472	103.75
412.695	101.75
412.919	105.75
413.142	101.75
413.365	102.75
413.589	99.75
413.812	107.75
414.035	98.75
414.258	107.75
414.482	97.75
414.705	94.75
414.928	107.75
415.151	86.75
415.374	101.75
415.597	110.75
415.821	102.75
416.044	103.75
416.267	108.75
416.49	113.75
416.713	113.75
416.936	107.75
417.159	118.75
417.382	107.75
417.605	79.75
417.828	92.75
418.051	92.75
418.274	106.75
418.497	105.75
418.72	109.75
418.943	102.75
419.166	113.75
419.389	113.75
419.611	109.75
419.834	94.75
420.057	106.75
420.28	123.75
420.503	102.75
420.726	94.75
420.948	107.75
421.171	96.75
421.394	102.75
421.617	118.75
421.839	95.75
422.062	99.75
422.285	101.75
422.507	123.75
422.73	93.75
422.953	97.75
423.175	99.75
423.398	90.75
423.621	109.75
423.843	102.75
424.066	100.75
424.288	105.75
424.511	111.75
424.733	106.75
424.956	114.75
425.178	122.75
425.401	106.75
425.623	105.75
425.846	111.75
426.068	101.75
426.291	114.75
426.513	96.75
426.735	107.75
426.958	104.75
427.18	96.75
427.402	106.75
427.625	98.75
427.847	105.75
428.069	103.75
428.292	91.75
428.514	119.75
428.736	111.75
428.958	100.75
429.181	94.75
429.403	98.75
429.625	92.75
429.847	99.75
430.069	113.75
430.292	105.75
430.514	92.75
430.736	116.75
430.958	92.75
431.18	111.75
431.402	111.75
431.624	93.75
431.846	101.75
432.068	90.75
432.29	91.75
432.512	88.75
432.734	119.75
432.956	113.75
433.178	117.75
433.4	97.75
433.622	92.75
433.844	101.75
434.066	115.75
434.287	93.75
434.509	82.75
434.731	96.75
434.953	94.75
435.175	111.75
435.397	102.75
435.618	104.75
435.84	92.75
436.062	99.75
436.284	93.75
436.505	99.75
436.727	109.75
436.949	104.75
437.17	96.75
437.392	97.75
437.614	91.75
437.835	110.75
438.057	85.75
438.278	101.75
438.5	102.75
438.721	115.75
438.943	92.75
439.165	100.75
439.386	114.75
439.608	102.75
439.829	106.75
440.05	124.75
440.272	129.75
440.493	112.75
440.715	115.75
440.936	108.75
441.158	109.75
441.379	117.75
441.6	107.75
441.822	124.75
442.043	105.75
442.264	105.75
442.486	110.75
442.707	114.75
442.928	109.75
443.149	119.75
443.371	121.75
443.592	123.75
443.813	114.75
444.034	108.75
444.255	109.75
444.476	97.75
444.698	99.75
444.919	105.75
445.14	191.75
445.361	165.75
445.582	121.75
445.803	124.75
446.024	105.75
446.245	119.75
446.466	114.75
446.687	117.75
446.908	103.75
447.129	118.75
447.35	107.75
447.571	119.75
447.792	98.75
448.013	108.75
448.234	109.75
448.455	102.75
448.675	110.75
448.896	109.75
449.117	100.75
449.338	115.75
449.559	93.75
449.779	103.75
450	117.75
450.221	104.75
450.442	117.75
450.662	119.75
450.883	113.75
451.104	115.75
451.324	97.75
451.545	101.75
451.766	119.75
451.986	105.75
452.207	116.75
452.428	116.75
452.648	109.75
452.869	109.75
453.089	106.75
453.31	102.75
453.53	93.75
453.751	90.75
453.971	91.75
454.192	85.75
454.412	98.75
454.633	109.75
454.853	114.75
455.073	89.75
455.294	101.75
455.514	110.75
455.734	101.75
455.955	117.75
456.175	98.75
456.395	99.75
456.616	117.75
456.836	93.75
457.056	85.75
457.276	103.75
457.497	91.75
457.717	98.75
457.937	86.75
458.157	106.75
458.377	96.75
458.598	102.75
458.818	95.75
459.038	85.75
459.258	87.75
459.478	90.75
459.698	86.75
459.918	105.75
460.138	89.75
460.358	98.75
460.578	102.75
460.798	103.75
461.018	94.75
461.238	106.75
461.458	108.75
461.678	97.75
461.898	82.75
462.118	95.75
462.338	82.75
462.558	103.75
462.777	78.75
462.997	97.75
463.217	95.75
463.437	100.75
463.657	100.75
463.876	87.75
464.096	92.75
464.316	81.75
464.536	113.75
464.755	87.75
464.975	99.75
465.195	95.75
465.414	92.75
465.634	99.75
465.854	89.75
466.073	106.75
466.293	88.75
466.512	109.75
466.732	109.75
466.951	101.75
467.171	93.75
467.391	91.75
467.61	110.75
467.829	131.75
468.049	112.75
468.268	99.75
468.488	104.75
468.707	109.75
468.927	100.75
469.146	118.75
469.365	108.75
469.585	97.75
469.804	94.75
470.023	101.75
470.243	110.75
470.462	117.75
470.681	121.75
470.901	90.75
471.12	113.75
471.339	97.75
471.558	106.75
471.777	110.75
471.997	108.75
472.216	106.75
472.435	107.75
472.654	95.75
472.873	108.75
473.092	113.75
473.311	91.75
473.53	109.75
473.749	104.75
473.968	118.75
474.187	97.75
474.406	85.75
474.625	102.75
474.844	97.75
475.063	113.75
475.282	109.75
475.501	110.75
475.72	98.75
475.939	112.75
476.158	92.75
476.377	97.75
476.596	107.75
476.814	98.75
477.033	86.75
477.252	101.75
477.471	106.75
477.69	122.75
477.908	117.75
478.127	111.75
478.346	106.75
478.564	119.75
478.783	117.75
479.002	117.75
479.22	97.75
479.439	109.75
479.658	97.75
479.876	100.75
480.095	89.75
480.313	102.75
480.532	89.75
480.751	110.75
480.969	90.75
481.188	89.75
481.406	78.75
481.624	89.75
481.843	78.75
482.061	89.75
482.28	99.75
482.498	93.75
482.717	89.75
482.935	98.75
483.153	106.75
483.372	121.75
483.59	101.75
483.808	119.75
484.027	115.75
484.245	121.75
484.463	119.75
484.681	125.75
484.9	130.75
485.118	103.75
485.336	121.75
485.554	109.75
485.772	88.75
485.99	98.75
486.209	107.75
486.427	95.75
486.645	86.75
486.863	108.75
487.081	110.75
487.299	106.75
487.517	123.75
487.735	133.75
487.953	131.75
488.171	140.75
488.389	131.75
488.607	121.75
488.825	118.75
489.043	105.75
489.261	107.75
489.479	113.75
489.696	112.75
489.914	114.75
490.132	106.75
490.35	110.75
490.568	112.75
490.786	126.75
491.003	133.75
491.221	133.75
491.439	137.75
491.657	137.75
491.874	140.75
492.092	161.75
492.31	155.75
492.527	158.75
492.745	149.75
492.963	149.75
493.18	133.75
493.398	137.75
493.615	137.75
493.833	125.75
494.05	123.75
494.268	134.75
494.485	122.75
494.703	129.75
494.92	128.75
495.138	133.75
495.355	123.75
495.573	121.75
495.79	119.75
496.008	122.75
496.225	141.75
496.442	108.75
496.66	119.75
496.877	120.75
497.094	129.75
497.312	123.75
497.529	135.75
497.746	122.75
497.963	114.75
498.181	111.75
498.398	99.75
498.615	94.75
498.832	105.75
499.049	102.75
499.267	109.75
499.484	114.75
499.701	113.75
499.918	98.75
500.135	105.75
500.352	120.75
500.569	109.75
500.786	113.75
501.003	129.75
501.22	102.75
501.437	114.75
501.654	104.75
501.871	108.75
502.088	94.75
502.305	118.75
502.522	96.75
502.739	106.75
502.956	113.75
503.172	105.75
503.389	123.75
503.606	117.75
503.823	97.75
504.04	94.75
504.256	121.75
504.473	100.75
504.69	108.75
504.907	126.75
505.123	97.75
505.34	96.75
505.557	113.75
505.773	113.75
505.99	101.75
506.207	110.75
506.423	122.75
506.64	101.75
506.856	123.75
507.073	95.75
507.289	105.75
507.506	104.75
507.722	97.75
507.939	103.75
508.155	99.75
508.372	98.75
508.588	94.75
508.805	108.75
509.021	97.75
509.238	97.75
509.454	97.75
509.67	87.75
509.887	100.75
510.103	101.75
510.319	87.75
510.536	85.75
510.752	87.75
510.968	83.75
511.184	93.75
511.401	79.75
511.617	92.75
511.833	85.75
512.049	89.75
512.265	99.75
512.481	101.75
512.698	86.75
512.914	71.75
513.13	84.75
513.346	75.75
513.562	85.75
513.778	89.75
513.994	100.75
514.21	97.75
514.426	86.75
