Data from Zn(NO3)2Standard.Agarose3%.GreenCap.LampEnergy10E.O_HRD10591_15-06-04-942.txt Node
Date: Mon Jul 22 15:06:04 EDT 2019
User: cochatt
Spectrometer: HR+D1059
Trigger mode: 1
Integration Time (sec): 1.000000E-1
Scans to average: 1
Electric dark correction enabled: true
Nonlinearity correction enabled: false
Boxcar width: 0
XAxis mode: Wavelengths
Number of Pixels in Spectrum: 2048
>>>>>Begin Spectral Data<<<<<
223.165	-10.62
223.4	-10.62
223.635	-10.62
223.869	-18.62
224.104	-23.62
224.338	-24.62
224.573	-13.62
224.808	-12.62
225.042	-9.62
225.277	-6.62
225.511	3.38
225.746	8.38
225.98	11.38
226.215	10.38
226.449	16.38
226.683	14.38
226.918	26.38
227.152	29.38
227.387	37.38
227.621	44.38
227.856	41.38
228.09	53.38
228.324	38.38
228.559	64.38
228.793	56.38
229.027	68.38
229.262	55.38
229.496	61.38
229.73	69.38
229.964	51.38
230.199	74.38
230.433	77.38
230.667	73.38
230.901	72.38
231.136	77.38
231.37	72.38
231.604	74.38
231.838	81.38
232.072	77.38
232.306	81.38
232.541	86.38
232.775	81.38
233.009	78.38
233.243	90.38
233.477	75.38
233.711	80.38
233.945	67.38
234.179	85.38
234.413	85.38
234.647	69.38
234.881	56.38
235.115	80.38
235.349	80.38
235.583	81.38
235.817	88.38
236.051	81.38
236.285	76.38
236.519	83.38
236.753	83.38
236.987	67.38
237.221	85.38
237.455	71.38
237.689	78.38
237.922	79.38
238.156	75.38
238.39	67.38
238.624	71.38
238.858	66.38
239.091	76.38
239.325	65.38
239.559	64.38
239.793	65.38
240.027	64.38
240.26	74.38
240.494	74.38
240.728	78.38
240.961	69.38
241.195	70.38
241.429	80.38
241.662	72.38
241.896	66.38
242.13	75.38
242.363	85.38
242.597	81.38
242.83	72.38
243.064	69.38
243.298	62.38
243.531	80.38
243.765	74.38
243.998	69.38
244.232	84.38
244.465	68.38
244.699	73.38
244.932	87.38
245.166	88.38
245.399	63.38
245.633	84.38
245.866	76.38
246.099	75.38
246.333	74.38
246.566	74.38
246.8	69.38
247.033	69.38
247.266	71.38
247.5	62.38
247.733	75.38
247.966	74.38
248.2	98.38
248.433	88.38
248.666	69.38
248.899	76.38
249.133	63.38
249.366	72.38
249.599	75.38
249.832	72.38
250.066	69.38
250.299	75.38
250.532	74.38
250.765	82.38
250.998	71.38
251.231	86.38
251.465	78.38
251.698	80.38
251.931	74.38
252.164	88.38
252.397	82.38
252.63	81.38
252.863	76.38
253.096	80.38
253.329	79.38
253.562	76.38
253.795	77.38
254.028	77.38
254.261	72.38
254.494	79.38
254.727	90.38
254.96	85.38
255.193	80.38
255.426	75.38
255.659	74.38
255.892	70.38
256.124	66.38
256.357	83.38
256.59	83.38
256.823	77.38
257.056	67.38
257.289	74.38
257.521	63.38
257.754	67.38
257.987	70.38
258.22	78.38
258.452	71.38
258.685	89.38
258.918	74.38
259.151	81.38
259.383	77.38
259.616	73.38
259.849	77.38
260.081	93.38
260.314	66.38
260.547	93.38
260.779	62.38
261.012	79.38
261.244	81.38
261.477	90.38
261.71	83.38
261.942	75.38
262.175	82.38
262.407	75.38
262.64	82.38
262.872	82.38
263.105	67.38
263.337	68.38
263.57	80.38
263.802	73.38
264.035	64.38
264.267	65.38
264.499	74.38
264.732	80.38
264.964	74.38
265.197	86.38
265.429	89.38
265.661	83.38
265.894	72.38
266.126	68.38
266.358	81.38
266.591	88.38
266.823	77.38
267.055	68.38
267.287	83.38
267.52	68.38
267.752	78.38
267.984	84.38
268.216	84.38
268.448	77.38
268.681	85.38
268.913	89.38
269.145	87.38
269.377	75.38
269.609	83.38
269.841	58.38
270.073	73.38
270.306	86.38
270.538	75.38
270.77	90.38
271.002	83.38
271.234	82.38
271.466	86.38
271.698	73.38
271.93	74.38
272.162	71.38
272.394	84.38
272.626	80.38
272.858	81.38
273.09	73.38
273.322	71.38
273.553	84.38
273.785	81.38
274.017	78.38
274.249	82.38
274.481	73.38
274.713	84.38
274.945	71.38
275.176	84.38
275.408	78.38
275.64	75.38
275.872	74.38
276.104	80.38
276.335	66.38
276.567	84.38
276.799	73.38
277.031	85.38
277.262	82.38
277.494	88.38
277.726	85.38
277.957	73.38
278.189	84.38
278.421	92.38
278.652	87.38
278.884	83.38
279.115	83.38
279.347	81.38
279.579	84.38
279.81	82.38
280.042	74.38
280.273	81.38
280.505	77.38
280.736	80.38
280.968	75.38
281.199	89.38
281.431	88.38
281.662	79.38
281.894	92.38
282.125	79.38
282.356	80.38
282.588	68.38
282.819	82.38
283.051	69.38
283.282	86.38
283.513	82.38
283.745	81.38
283.976	81.38
284.207	87.38
284.439	74.38
284.67	83.38
284.901	79.38
285.132	83.38
285.364	86.38
285.595	70.38
285.826	89.38
286.057	90.38
286.288	63.38
286.52	76.38
286.751	80.38
286.982	85.38
287.213	70.38
287.444	72.38
287.675	61.38
287.906	81.38
288.138	94.38
288.369	73.38
288.6	77.38
288.831	90.38
289.062	89.38
289.293	90.38
289.524	89.38
289.755	73.38
289.986	75.38
290.217	85.38
290.448	71.38
290.679	73.38
290.91	77.38
291.141	92.38
291.371	74.38
291.602	84.38
291.833	81.38
292.064	79.38
292.295	80.38
292.526	72.38
292.757	85.38
292.987	86.38
293.218	82.38
293.449	86.38
293.68	86.38
293.91	83.38
294.141	80.38
294.372	79.38
294.603	86.38
294.833	82.38
295.064	74.38
295.295	74.38
295.525	83.38
295.756	93.38
295.987	90.38
296.217	91.38
296.448	83.38
296.679	81.38
296.909	77.38
297.14	73.38
297.37	75.38
297.601	84.38
297.831	86.38
298.062	86.38
298.292	86.38
298.523	86.38
298.753	74.38
298.984	89.38
299.214	90.38
299.445	78.38
299.675	70.38
299.905	83.38
300.136	85.38
300.366	78.38
300.597	92.38
300.827	83.38
301.057	66.38
301.288	83.38
301.518	82.38
301.748	86.38
301.979	81.38
302.209	69.38
302.439	83.38
302.669	89.38
302.9	75.38
303.13	83.38
303.36	97.38
303.59	73.38
303.82	83.38
304.051	88.38
304.281	92.38
304.511	73.38
304.741	80.38
304.971	79.38
305.201	63.38
305.431	75.38
305.661	79.38
305.891	77.38
306.121	90.38
306.352	72.38
306.582	79.38
306.812	93.38
307.042	89.38
307.272	78.38
307.502	89.38
307.731	78.38
307.961	90.38
308.191	81.38
308.421	84.38
308.651	80.38
308.881	81.38
309.111	73.38
309.341	75.38
309.571	62.38
309.8	71.38
310.03	91.38
310.26	80.38
310.49	76.38
310.72	87.38
310.949	76.38
311.179	73.38
311.409	74.38
311.639	88.38
311.868	78.38
312.098	73.38
312.328	89.38
312.557	72.38
312.787	90.38
313.017	86.38
313.246	67.38
313.476	75.38
313.706	71.38
313.935	67.38
314.165	91.38
314.394	81.38
314.624	90.38
314.853	90.38
315.083	93.38
315.312	74.38
315.542	93.38
315.771	82.38
316.001	96.38
316.23	87.38
316.46	83.38
316.689	83.38
316.919	83.38
317.148	76.38
317.377	73.38
317.607	83.38
317.836	81.38
318.065	91.38
318.295	93.38
318.524	97.38
318.753	80.38
318.983	78.38
319.212	81.38
319.441	94.38
319.67	83.38
319.9	75.38
320.129	92.38
320.358	74.38
320.587	81.38
320.816	80.38
321.046	65.38
321.275	78.38
321.504	75.38
321.733	75.38
321.962	86.38
322.191	81.38
322.42	78.38
322.649	86.38
322.878	75.38
323.108	86.38
323.337	75.38
323.566	87.38
323.795	82.38
324.024	71.38
324.253	74.38
324.482	73.38
324.71	86.38
324.939	84.38
325.168	85.38
325.397	77.38
325.626	89.38
325.855	74.38
326.084	79.38
326.313	82.38
326.542	74.38
326.77	87.38
326.999	86.38
327.228	79.38
327.457	78.38
327.686	99.38
327.914	88.38
328.143	73.38
328.372	84.38
328.6	86.38
328.829	78.38
329.058	87.38
329.287	77.38
329.515	92.38
329.744	87.38
329.972	75.38
330.201	85.38
330.43	93.38
330.658	73.38
330.887	81.38
331.115	86.38
331.344	67.38
331.572	89.38
331.801	75.38
332.03	89.38
332.258	80.38
332.486	94.38
332.715	82.38
332.943	85.38
333.172	70.38
333.4	92.38
333.629	71.38
333.857	77.38
334.085	74.38
334.314	94.38
334.542	100.38
334.771	81.38
334.999	80.38
335.227	80.38
335.455	76.38
335.684	73.38
335.912	73.38
336.14	67.38
336.369	83.38
336.597	69.38
336.825	80.38
337.053	73.38
337.281	73.38
337.51	84.38
337.738	79.38
337.966	78.38
338.194	82.38
338.422	81.38
338.65	79.38
338.878	79.38
339.106	79.38
339.334	96.38
339.562	100.38
339.79	79.38
340.018	84.38
340.246	81.38
340.474	74.38
340.702	74.38
340.93	71.38
341.158	91.38
341.386	81.38
341.614	80.38
341.842	85.38
342.07	90.38
342.298	67.38
342.526	87.38
342.754	85.38
342.981	86.38
343.209	89.38
343.437	88.38
343.665	73.38
343.893	83.38
344.12	80.38
344.348	81.38
344.576	82.38
344.804	82.38
345.031	79.38
345.259	82.38
345.487	81.38
345.714	101.38
345.942	85.38
346.17	86.38
346.397	78.38
346.625	87.38
346.853	88.38
347.08	83.38
347.308	83.38
347.535	81.38
347.763	82.38
347.99	77.38
348.218	87.38
348.445	81.38
348.673	79.38
348.9	91.38
349.128	84.38
349.355	94.38
349.583	81.38
349.81	71.38
350.037	84.38
350.265	86.38
350.492	76.38
350.72	80.38
350.947	78.38
351.174	89.38
351.402	86.38
351.629	78.38
351.856	75.38
352.083	63.38
352.311	76.38
352.538	82.38
352.765	76.38
352.992	81.38
353.22	77.38
353.447	78.38
353.674	63.38
353.901	78.38
354.128	79.38
354.355	88.38
354.583	72.38
354.81	79.38
355.037	88.38
355.264	89.38
355.491	76.38
355.718	65.38
355.945	75.38
356.172	88.38
356.399	78.38
356.626	80.38
356.853	96.38
357.08	74.38
357.307	79.38
357.534	85.38
357.761	80.38
357.988	72.38
358.215	75.38
358.441	78.38
358.668	79.38
358.895	81.38
359.122	69.38
359.349	98.38
359.576	65.38
359.802	75.38
360.029	92.38
360.256	80.38
360.483	85.38
360.709	73.38
360.936	74.38
361.163	82.38
361.39	69.38
361.616	77.38
361.843	83.38
362.07	80.38
362.296	84.38
362.523	79.38
362.749	75.38
362.976	72.38
363.203	78.38
363.429	82.38
363.656	87.38
363.882	76.38
364.109	87.38
364.335	81.38
364.562	75.38
364.788	85.38
365.015	95.38
365.241	75.38
365.468	96.38
365.694	90.38
365.92	83.38
366.147	95.38
366.373	84.38
366.599	87.38
366.826	86.38
367.052	70.38
367.278	79.38
367.505	77.38
367.731	80.38
367.957	85.38
368.184	84.38
368.41	66.38
368.636	94.38
368.862	87.38
369.089	91.38
369.315	82.38
369.541	88.38
369.767	79.38
369.993	83.38
370.219	80.38
370.445	83.38
370.672	90.38
370.898	98.38
371.124	81.38
371.35	79.38
371.576	73.38
371.802	82.38
372.028	81.38
372.254	86.38
372.48	77.38
372.706	84.38
372.932	77.38
373.158	84.38
373.384	75.38
373.61	90.38
373.835	91.38
374.061	80.38
374.287	70.38
374.513	80.38
374.739	81.38
374.965	76.38
375.191	82.38
375.416	88.38
375.642	89.38
375.868	83.38
376.094	79.38
376.319	99.38
376.545	85.38
376.771	80.38
376.997	81.38
377.222	91.38
377.448	87.38
377.674	78.38
377.899	65.38
378.125	74.38
378.35	95.38
378.576	74.38
378.802	79.38
379.027	80.38
379.253	93.38
379.478	97.38
379.704	79.38
379.929	79.38
380.155	79.38
380.38	84.38
380.606	83.38
380.831	93.38
381.057	91.38
381.282	76.38
381.507	79.38
381.733	85.38
381.958	89.38
382.184	82.38
382.409	71.38
382.634	75.38
382.86	84.38
383.085	105.38
383.31	79.38
383.535	86.38
383.761	95.38
383.986	78.38
384.211	98.38
384.436	82.38
384.662	80.38
384.887	83.38
385.112	78.38
385.337	76.38
385.562	93.38
385.787	81.38
386.013	87.38
386.238	86.38
386.463	94.38
386.688	88.38
386.913	88.38
387.138	81.38
387.363	86.38
387.588	75.38
387.813	78.38
388.038	84.38
388.263	86.38
388.488	85.38
388.713	86.38
388.938	86.38
389.163	90.38
389.387	85.38
389.612	77.38
389.837	85.38
390.062	76.38
390.287	93.38
390.512	88.38
390.736	86.38
390.961	84.38
391.186	88.38
391.411	91.38
391.636	83.38
391.86	81.38
392.085	80.38
392.31	79.38
392.534	82.38
392.759	91.38
392.984	82.38
393.208	75.38
393.433	83.38
393.658	84.38
393.882	83.38
394.107	86.38
394.331	80.38
394.556	86.38
394.78	89.38
395.005	84.38
395.229	86.38
395.454	88.38
395.678	80.38
395.903	86.38
396.127	95.38
396.352	82.38
396.576	94.38
396.801	84.38
397.025	86.38
397.249	86.38
397.474	93.38
397.698	94.38
397.922	90.38
398.147	81.38
398.371	90.38
398.595	69.38
398.82	94.38
399.044	89.38
399.268	74.38
399.492	73.38
399.717	102.38
399.941	92.38
400.165	100.38
400.389	96.38
400.613	94.38
400.837	86.38
401.062	100.38
401.286	104.38
401.51	98.38
401.734	90.38
401.958	86.38
402.182	90.38
402.406	90.38
402.63	94.38
402.854	96.38
403.078	85.38
403.302	109.38
403.526	96.38
403.75	88.38
403.974	102.38
404.198	95.38
404.422	91.38
404.645	90.38
404.869	95.38
405.093	84.38
405.317	101.38
405.541	106.38
405.765	103.38
405.988	92.38
406.212	78.38
406.436	91.38
406.66	95.38
406.883	93.38
407.107	94.38
407.331	110.38
407.555	84.38
407.778	98.38
408.002	86.38
408.226	106.38
408.449	98.38
408.673	92.38
408.896	90.38
409.12	95.38
409.344	95.38
409.567	100.38
409.791	97.38
410.014	106.38
410.238	96.38
410.461	91.38
410.685	91.38
410.908	98.38
411.132	94.38
411.355	94.38
411.578	96.38
411.802	86.38
412.025	98.38
412.249	96.38
412.472	107.38
412.695	117.38
412.919	102.38
413.142	95.38
413.365	96.38
413.589	89.38
413.812	98.38
414.035	93.38
414.258	103.38
414.482	75.38
414.705	96.38
414.928	116.38
415.151	98.38
415.374	100.38
415.597	98.38
415.821	90.38
416.044	97.38
416.267	112.38
416.49	109.38
416.713	113.38
416.936	105.38
417.159	103.38
417.382	95.38
417.605	107.38
417.828	90.38
418.051	88.38
418.274	101.38
418.497	95.38
418.72	99.38
418.943	101.38
419.166	94.38
419.389	114.38
419.611	101.38
419.834	101.38
420.057	90.38
420.28	93.38
420.503	109.38
420.726	95.38
420.948	97.38
421.171	98.38
421.394	98.38
421.617	115.38
421.839	97.38
422.062	106.38
422.285	109.38
422.507	96.38
422.73	92.38
422.953	91.38
423.175	103.38
423.398	100.38
423.621	92.38
423.843	99.38
424.066	115.38
424.288	113.38
424.511	101.38
424.733	93.38
424.956	113.38
425.178	95.38
425.401	93.38
425.623	95.38
425.846	97.38
426.068	106.38
426.291	100.38
426.513	86.38
426.735	94.38
426.958	95.38
427.18	90.38
427.402	100.38
427.625	99.38
427.847	82.38
428.069	84.38
428.292	103.38
428.514	91.38
428.736	103.38
428.958	99.38
429.181	104.38
429.403	102.38
429.625	89.38
429.847	97.38
430.069	98.38
430.292	99.38
430.514	88.38
430.736	106.38
430.958	94.38
431.18	110.38
431.402	96.38
431.624	99.38
431.846	89.38
432.068	85.38
432.29	86.38
432.512	88.38
432.734	104.38
432.956	91.38
433.178	98.38
433.4	96.38
433.622	96.38
433.844	118.38
434.066	97.38
434.287	88.38
434.509	77.38
434.731	85.38
434.953	75.38
435.175	92.38
435.397	111.38
435.618	91.38
435.84	82.38
436.062	96.38
436.284	106.38
436.505	98.38
436.727	98.38
436.949	105.38
437.17	95.38
437.392	90.38
437.614	88.38
437.835	96.38
438.057	75.38
438.278	102.38
438.5	79.38
438.721	96.38
438.943	102.38
439.165	116.38
439.386	97.38
439.608	101.38
439.829	100.38
440.05	101.38
440.272	102.38
440.493	121.38
440.715	100.38
440.936	101.38
441.158	110.38
441.379	111.38
441.6	114.38
441.822	117.38
442.043	97.38
442.264	96.38
442.486	100.38
442.707	112.38
442.928	127.38
443.149	114.38
443.371	96.38
443.592	96.38
443.813	93.38
444.034	91.38
444.255	115.38
444.476	113.38
444.698	118.38
444.919	114.38
445.14	232.38
445.361	162.38
445.582	110.38
445.803	90.38
446.024	111.38
446.245	111.38
446.466	111.38
446.687	118.38
446.908	111.38
447.129	110.38
447.35	105.38
447.571	125.38
447.792	116.38
448.013	115.38
448.234	106.38
448.455	85.38
448.675	99.38
448.896	110.38
449.117	105.38
449.338	99.38
449.559	111.38
449.779	104.38
450	103.38
450.221	103.38
450.442	110.38
450.662	106.38
450.883	110.38
451.104	97.38
451.324	102.38
451.545	93.38
451.766	99.38
451.986	104.38
452.207	99.38
452.428	97.38
452.648	102.38
452.869	96.38
453.089	87.38
453.31	80.38
453.53	86.38
453.751	86.38
453.971	82.38
454.192	81.38
454.412	98.38
454.633	85.38
454.853	92.38
455.073	105.38
455.294	115.38
455.514	85.38
455.734	97.38
455.955	92.38
456.175	115.38
456.395	94.38
456.616	94.38
456.836	90.38
457.056	94.38
457.276	92.38
457.497	89.38
457.717	115.38
457.937	103.38
458.157	87.38
458.377	93.38
458.598	95.38
458.818	93.38
459.038	69.38
459.258	74.38
459.478	79.38
459.698	86.38
459.918	89.38
460.138	88.38
460.358	87.38
460.578	89.38
460.798	92.38
461.018	103.38
461.238	96.38
461.458	96.38
461.678	96.38
461.898	88.38
462.118	96.38
462.338	104.38
462.558	98.38
462.777	93.38
462.997	82.38
463.217	88.38
463.437	96.38
463.657	97.38
463.876	91.38
464.096	110.38
464.316	109.38
464.536	88.38
464.755	101.38
464.975	94.38
465.195	80.38
465.414	103.38
465.634	100.38
465.854	86.38
466.073	88.38
466.293	98.38
466.512	105.38
466.732	103.38
466.951	117.38
467.171	109.38
467.391	99.38
467.61	98.38
467.829	105.38
468.049	102.38
468.268	121.38
468.488	102.38
468.707	115.38
468.927	109.38
469.146	110.38
469.365	122.38
469.585	116.38
469.804	103.38
470.023	90.38
470.243	109.38
470.462	127.38
470.681	112.38
470.901	119.38
471.12	109.38
471.339	117.38
471.558	115.38
471.777	105.38
471.997	107.38
472.216	102.38
472.435	94.38
472.654	102.38
472.873	90.38
473.092	95.38
473.311	90.38
473.53	105.38
473.749	110.38
473.968	112.38
474.187	101.38
474.406	105.38
474.625	93.38
474.844	94.38
475.063	108.38
475.282	105.38
475.501	87.38
475.72	112.38
475.939	101.38
476.158	109.38
476.377	103.38
476.596	105.38
476.814	98.38
477.033	85.38
477.252	86.38
477.471	109.38
477.69	104.38
477.908	113.38
478.127	101.38
478.346	113.38
478.564	101.38
478.783	104.38
479.002	101.38
479.22	107.38
479.439	103.38
479.658	97.38
479.876	107.38
480.095	99.38
480.313	117.38
480.532	106.38
480.751	102.38
480.969	97.38
481.188	96.38
481.406	74.38
481.624	80.38
481.843	90.38
482.061	95.38
482.28	90.38
482.498	96.38
482.717	95.38
482.935	95.38
483.153	111.38
483.372	117.38
483.59	111.38
483.808	88.38
484.027	107.38
484.245	100.38
484.463	113.38
484.681	125.38
484.9	116.38
485.118	120.38
485.336	118.38
485.554	88.38
485.772	83.38
485.99	83.38
486.209	87.38
486.427	86.38
486.645	79.38
486.863	104.38
487.081	104.38
487.299	100.38
487.517	106.38
487.735	121.38
487.953	131.38
488.171	129.38
488.389	126.38
488.607	125.38
488.825	98.38
489.043	105.38
489.261	111.38
489.479	90.38
489.696	97.38
489.914	111.38
490.132	109.38
490.35	113.38
490.568	111.38
490.786	105.38
491.003	119.38
491.221	125.38
491.439	116.38
491.657	126.38
491.874	145.38
492.092	157.38
492.31	163.38
492.527	147.38
492.745	120.38
492.963	117.38
493.18	123.38
493.398	120.38
493.615	122.38
493.833	128.38
494.05	139.38
494.268	134.38
494.485	114.38
494.703	141.38
494.92	140.38
495.138	132.38
495.355	129.38
495.573	137.38
495.79	128.38
496.008	119.38
496.225	119.38
496.442	106.38
496.66	131.38
496.877	119.38
497.094	122.38
497.312	118.38
497.529	114.38
497.746	109.38
497.963	107.38
498.181	104.38
498.398	111.38
498.615	101.38
498.832	104.38
499.049	104.38
499.267	95.38
499.484	115.38
499.701	103.38
499.918	106.38
500.135	105.38
500.352	107.38
500.569	109.38
500.786	128.38
501.003	109.38
501.22	122.38
501.437	102.38
501.654	104.38
501.871	103.38
502.088	102.38
502.305	100.38
502.522	113.38
502.739	92.38
502.956	93.38
503.172	102.38
503.389	94.38
503.606	99.38
503.823	100.38
504.04	93.38
504.256	89.38
504.473	95.38
504.69	111.38
504.907	97.38
505.123	97.38
505.34	105.38
505.557	91.38
505.773	106.38
505.99	84.38
506.207	89.38
506.423	90.38
506.64	94.38
506.856	105.38
507.073	101.38
507.289	101.38
507.506	96.38
507.722	83.38
507.939	102.38
508.155	92.38
508.372	96.38
508.588	98.38
508.805	89.38
509.021	97.38
509.238	82.38
509.454	85.38
509.67	80.38
509.887	87.38
510.103	82.38
510.319	81.38
510.536	84.38
510.752	87.38
510.968	82.38
511.184	81.38
511.401	75.38
511.617	83.38
511.833	77.38
512.049	98.38
512.265	59.38
512.481	90.38
512.698	100.38
512.914	87.38
513.13	87.38
513.346	85.38
513.562	93.38
513.778	80.38
513.994	74.38
514.21	74.38
514.426	82.38
514.642	84.38
514.858	81.38
515.074	87.38
515.29	86.38
515.506	93.38
515.721	66.38
