Data from Zn(NO3)2Standard.Agarose3%.GreenCap.LampEnergy10E.O_HRD10591_15-08-53-951.txt Node
Date: Mon Jul 22 15:08:53 EDT 2019
User: cochatt
Spectrometer: HR+D1059
Trigger mode: 1
Integration Time (sec): 1.000000E-1
Scans to average: 1
Electric dark correction enabled: true
Nonlinearity correction enabled: false
Boxcar width: 0
XAxis mode: Wavelengths
Number of Pixels in Spectrum: 2048
>>>>>Begin Spectral Data<<<<<
223.165	-13.75
223.4	-13.75
223.635	-13.75
223.869	-14.75
224.104	-28.75
224.338	-16.75
224.573	-3.75
224.808	-7.75
225.042	-11.75
225.277	-4.75
225.511	-11.75
225.746	-8.75
225.98	9.25
226.215	2.25
226.449	16.25
226.683	20.25
226.918	33.25
227.152	41.25
227.387	27.25
227.621	41.25
227.856	45.25
228.09	35.25
228.324	48.25
228.559	46.25
228.793	55.25
229.027	48.25
229.262	71.25
229.496	64.25
229.73	91.25
229.964	83.25
230.199	79.25
230.433	75.25
230.667	68.25
230.901	73.25
231.136	79.25
231.37	75.25
231.604	84.25
231.838	95.25
232.072	89.25
232.306	94.25
232.541	79.25
232.775	76.25
233.009	83.25
233.243	82.25
233.477	83.25
233.711	85.25
233.945	73.25
234.179	94.25
234.413	64.25
234.647	75.25
234.881	76.25
235.115	96.25
235.349	82.25
235.583	78.25
235.817	73.25
236.051	62.25
236.285	79.25
236.519	87.25
236.753	82.25
236.987	80.25
237.221	80.25
237.455	70.25
237.689	72.25
237.922	85.25
238.156	79.25
238.39	74.25
238.624	50.25
238.858	80.25
239.091	82.25
239.325	72.25
239.559	67.25
239.793	76.25
240.027	74.25
240.26	73.25
240.494	62.25
240.728	75.25
240.961	71.25
241.195	85.25
241.429	75.25
241.662	74.25
241.896	79.25
242.13	64.25
242.363	65.25
242.597	65.25
242.83	89.25
243.064	78.25
243.298	79.25
243.531	61.25
243.765	82.25
243.998	91.25
244.232	71.25
244.465	79.25
244.699	84.25
244.932	77.25
245.166	86.25
245.399	76.25
245.633	86.25
245.866	68.25
246.099	72.25
246.333	70.25
246.566	75.25
246.8	75.25
247.033	74.25
247.266	73.25
247.5	68.25
247.733	74.25
247.966	74.25
248.2	74.25
248.433	76.25
248.666	71.25
248.899	82.25
249.133	75.25
249.366	79.25
249.599	74.25
249.832	72.25
250.066	72.25
250.299	65.25
250.532	78.25
250.765	79.25
250.998	96.25
251.231	77.25
251.465	85.25
251.698	88.25
251.931	76.25
252.164	75.25
252.397	80.25
252.63	65.25
252.863	73.25
253.096	96.25
253.329	81.25
253.562	83.25
253.795	74.25
254.028	87.25
254.261	77.25
254.494	82.25
254.727	90.25
254.96	79.25
255.193	68.25
255.426	72.25
255.659	86.25
255.892	87.25
256.124	57.25
256.357	79.25
256.59	89.25
256.823	83.25
257.056	93.25
257.289	89.25
257.521	97.25
257.754	92.25
257.987	70.25
258.22	67.25
258.452	72.25
258.685	75.25
258.918	70.25
259.151	82.25
259.383	90.25
259.616	79.25
259.849	76.25
260.081	74.25
260.314	78.25
260.547	79.25
260.779	79.25
261.012	76.25
261.244	82.25
261.477	86.25
261.71	85.25
261.942	73.25
262.175	81.25
262.407	82.25
262.64	85.25
262.872	72.25
263.105	77.25
263.337	91.25
263.57	85.25
263.802	75.25
264.035	83.25
264.267	73.25
264.499	71.25
264.732	85.25
264.964	70.25
265.197	94.25
265.429	83.25
265.661	66.25
265.894	83.25
266.126	76.25
266.358	74.25
266.591	84.25
266.823	82.25
267.055	102.25
267.287	82.25
267.52	71.25
267.752	79.25
267.984	80.25
268.216	95.25
268.448	69.25
268.681	79.25
268.913	71.25
269.145	85.25
269.377	90.25
269.609	91.25
269.841	95.25
270.073	69.25
270.306	72.25
270.538	77.25
270.77	80.25
271.002	81.25
271.234	90.25
271.466	97.25
271.698	73.25
271.93	70.25
272.162	77.25
272.394	73.25
272.626	84.25
272.858	74.25
273.09	79.25
273.322	90.25
273.553	86.25
273.785	68.25
274.017	75.25
274.249	90.25
274.481	81.25
274.713	78.25
274.945	75.25
275.176	68.25
275.408	82.25
275.64	80.25
275.872	83.25
276.104	82.25
276.335	96.25
276.567	75.25
276.799	76.25
277.031	93.25
277.262	70.25
277.494	82.25
277.726	90.25
277.957	82.25
278.189	77.25
278.421	76.25
278.652	86.25
278.884	74.25
279.115	84.25
279.347	82.25
279.579	76.25
279.81	87.25
280.042	95.25
280.273	75.25
280.505	70.25
280.736	75.25
280.968	85.25
281.199	92.25
281.431	88.25
281.662	94.25
281.894	75.25
282.125	86.25
282.356	70.25
282.588	76.25
282.819	79.25
283.051	79.25
283.282	68.25
283.513	95.25
283.745	74.25
283.976	90.25
284.207	70.25
284.439	92.25
284.67	79.25
284.901	80.25
285.132	78.25
285.364	81.25
285.595	76.25
285.826	91.25
286.057	97.25
286.288	84.25
286.52	79.25
286.751	80.25
286.982	79.25
287.213	83.25
287.444	70.25
287.675	85.25
287.906	96.25
288.138	74.25
288.369	98.25
288.6	103.25
288.831	84.25
289.062	89.25
289.293	74.25
289.524	80.25
289.755	64.25
289.986	79.25
290.217	87.25
290.448	95.25
290.679	76.25
290.91	84.25
291.141	86.25
291.371	94.25
291.602	87.25
291.833	80.25
292.064	62.25
292.295	90.25
292.526	95.25
292.757	67.25
292.987	73.25
293.218	81.25
293.449	75.25
293.68	103.25
293.91	83.25
294.141	74.25
294.372	89.25
294.603	71.25
294.833	82.25
295.064	86.25
295.295	82.25
295.525	81.25
295.756	96.25
295.987	81.25
296.217	74.25
296.448	86.25
296.679	81.25
296.909	88.25
297.14	102.25
297.37	95.25
297.601	77.25
297.831	82.25
298.062	84.25
298.292	86.25
298.523	91.25
298.753	82.25
298.984	83.25
299.214	90.25
299.445	89.25
299.675	83.25
299.905	76.25
300.136	80.25
300.366	73.25
300.597	90.25
300.827	85.25
301.057	73.25
301.288	84.25
301.518	89.25
301.748	75.25
301.979	85.25
302.209	81.25
302.439	84.25
302.669	80.25
302.9	91.25
303.13	75.25
303.36	81.25
303.59	80.25
303.82	95.25
304.051	74.25
304.281	83.25
304.511	112.25
304.741	91.25
304.971	86.25
305.201	77.25
305.431	68.25
305.661	72.25
305.891	91.25
306.121	94.25
306.352	85.25
306.582	90.25
306.812	99.25
307.042	80.25
307.272	75.25
307.502	80.25
307.731	78.25
307.961	88.25
308.191	84.25
308.421	98.25
308.651	77.25
308.881	75.25
309.111	92.25
309.341	95.25
309.571	87.25
309.8	76.25
310.03	76.25
310.26	90.25
310.49	76.25
310.72	74.25
310.949	87.25
311.179	74.25
311.409	76.25
311.639	67.25
311.868	95.25
312.098	79.25
312.328	80.25
312.557	82.25
312.787	80.25
313.017	86.25
313.246	85.25
313.476	82.25
313.706	88.25
313.935	72.25
314.165	74.25
314.394	95.25
314.624	86.25
314.853	80.25
315.083	77.25
315.312	85.25
315.542	80.25
315.771	76.25
316.001	84.25
316.23	88.25
316.46	81.25
316.689	93.25
316.919	82.25
317.148	84.25
317.377	76.25
317.607	70.25
317.836	73.25
318.065	89.25
318.295	91.25
318.524	80.25
318.753	89.25
318.983	82.25
319.212	76.25
319.441	67.25
319.67	91.25
319.9	76.25
320.129	84.25
320.358	88.25
320.587	63.25
320.816	71.25
321.046	84.25
321.275	83.25
321.504	84.25
321.733	70.25
321.962	92.25
322.191	90.25
322.42	81.25
322.649	80.25
322.878	80.25
323.108	81.25
323.337	78.25
323.566	87.25
323.795	92.25
324.024	76.25
324.253	94.25
324.482	87.25
324.71	80.25
324.939	87.25
325.168	90.25
325.397	94.25
325.626	85.25
325.855	82.25
326.084	78.25
326.313	78.25
326.542	77.25
326.77	73.25
326.999	83.25
327.228	79.25
327.457	95.25
327.686	91.25
327.914	83.25
328.143	89.25
328.372	79.25
328.6	72.25
328.829	87.25
329.058	89.25
329.287	92.25
329.515	73.25
329.744	80.25
329.972	76.25
330.201	94.25
330.43	81.25
330.658	97.25
330.887	80.25
331.115	66.25
331.344	89.25
331.572	71.25
331.801	88.25
332.03	72.25
332.258	82.25
332.486	76.25
332.715	90.25
332.943	76.25
333.172	77.25
333.4	95.25
333.629	70.25
333.857	72.25
334.085	86.25
334.314	79.25
334.542	85.25
334.771	90.25
334.999	91.25
335.227	86.25
335.455	93.25
335.684	90.25
335.912	79.25
336.14	88.25
336.369	89.25
336.597	80.25
336.825	80.25
337.053	69.25
337.281	93.25
337.51	74.25
337.738	76.25
337.966	86.25
338.194	69.25
338.422	77.25
338.65	73.25
338.878	78.25
339.106	67.25
339.334	76.25
339.562	74.25
339.79	84.25
340.018	77.25
340.246	85.25
340.474	67.25
340.702	94.25
340.93	94.25
341.158	93.25
341.386	86.25
341.614	77.25
341.842	82.25
342.07	92.25
342.298	87.25
342.526	87.25
342.754	83.25
342.981	93.25
343.209	76.25
343.437	78.25
343.665	76.25
343.893	81.25
344.12	82.25
344.348	83.25
344.576	81.25
344.804	105.25
345.031	73.25
345.259	80.25
345.487	70.25
345.714	69.25
345.942	53.25
346.17	85.25
346.397	86.25
346.625	88.25
346.853	74.25
347.08	80.25
347.308	74.25
347.535	80.25
347.763	86.25
347.99	91.25
348.218	84.25
348.445	78.25
348.673	70.25
348.9	88.25
349.128	86.25
349.355	74.25
349.583	82.25
349.81	84.25
350.037	90.25
350.265	91.25
350.492	82.25
350.72	83.25
350.947	83.25
351.174	90.25
351.402	88.25
351.629	97.25
351.856	81.25
352.083	81.25
352.311	96.25
352.538	74.25
352.765	80.25
352.992	73.25
353.22	75.25
353.447	84.25
353.674	67.25
353.901	72.25
354.128	72.25
354.355	82.25
354.583	77.25
354.81	77.25
355.037	77.25
355.264	76.25
355.491	87.25
355.718	83.25
355.945	82.25
356.172	90.25
356.399	81.25
356.626	89.25
356.853	81.25
357.08	94.25
357.307	83.25
357.534	88.25
357.761	77.25
357.988	90.25
358.215	84.25
358.441	73.25
358.668	88.25
358.895	85.25
359.122	103.25
359.349	82.25
359.576	87.25
359.802	75.25
360.029	67.25
360.256	77.25
360.483	69.25
360.709	79.25
360.936	81.25
361.163	97.25
361.39	87.25
361.616	86.25
361.843	82.25
362.07	72.25
362.296	87.25
362.523	92.25
362.749	74.25
362.976	81.25
363.203	81.25
363.429	76.25
363.656	84.25
363.882	90.25
364.109	93.25
364.335	83.25
364.562	70.25
364.788	62.25
365.015	82.25
365.241	83.25
365.468	72.25
365.694	71.25
365.92	94.25
366.147	73.25
366.373	68.25
366.599	90.25
366.826	89.25
367.052	95.25
367.278	81.25
367.505	95.25
367.731	90.25
367.957	94.25
368.184	82.25
368.41	98.25
368.636	96.25
368.862	86.25
369.089	85.25
369.315	85.25
369.541	76.25
369.767	87.25
369.993	89.25
370.219	90.25
370.445	77.25
370.672	87.25
370.898	81.25
371.124	89.25
371.35	88.25
371.576	90.25
371.802	69.25
372.028	85.25
372.254	94.25
372.48	95.25
372.706	71.25
372.932	83.25
373.158	86.25
373.384	91.25
373.61	86.25
373.835	85.25
374.061	90.25
374.287	70.25
374.513	87.25
374.739	89.25
374.965	94.25
375.191	100.25
375.416	95.25
375.642	83.25
375.868	83.25
376.094	88.25
376.319	90.25
376.545	90.25
376.771	86.25
376.997	96.25
377.222	87.25
377.448	81.25
377.674	84.25
377.899	79.25
378.125	79.25
378.35	92.25
378.576	98.25
378.802	83.25
379.027	94.25
379.253	96.25
379.478	94.25
379.704	93.25
379.929	79.25
380.155	79.25
380.38	75.25
380.606	100.25
380.831	90.25
381.057	97.25
381.282	100.25
381.507	86.25
381.733	85.25
381.958	72.25
382.184	84.25
382.409	80.25
382.634	96.25
382.86	89.25
383.085	73.25
383.31	86.25
383.535	88.25
383.761	98.25
383.986	79.25
384.211	72.25
384.436	76.25
384.662	79.25
384.887	91.25
385.112	83.25
385.337	91.25
385.562	81.25
385.787	82.25
386.013	88.25
386.238	100.25
386.463	94.25
386.688	73.25
386.913	90.25
387.138	95.25
387.363	75.25
387.588	86.25
387.813	83.25
388.038	86.25
388.263	77.25
388.488	102.25
388.713	103.25
388.938	82.25
389.163	83.25
389.387	91.25
389.612	84.25
389.837	96.25
390.062	94.25
390.287	84.25
390.512	74.25
390.736	89.25
390.961	89.25
391.186	92.25
391.411	89.25
391.636	86.25
391.86	82.25
392.085	95.25
392.31	103.25
392.534	81.25
392.759	72.25
392.984	95.25
393.208	99.25
393.433	92.25
393.658	90.25
393.882	80.25
394.107	87.25
394.331	86.25
394.556	71.25
394.78	79.25
395.005	89.25
395.229	89.25
395.454	103.25
395.678	106.25
395.903	101.25
396.127	89.25
396.352	90.25
396.576	98.25
396.801	96.25
397.025	82.25
397.249	89.25
397.474	101.25
397.698	93.25
397.922	87.25
398.147	95.25
398.371	90.25
398.595	90.25
398.82	88.25
399.044	95.25
399.268	86.25
399.492	107.25
399.717	93.25
399.941	93.25
400.165	107.25
400.389	85.25
400.613	91.25
400.837	106.25
401.062	88.25
401.286	83.25
401.51	84.25
401.734	82.25
401.958	81.25
402.182	83.25
402.406	104.25
402.63	100.25
402.854	103.25
403.078	89.25
403.302	111.25
403.526	96.25
403.75	92.25
403.974	96.25
404.198	85.25
404.422	95.25
404.645	90.25
404.869	91.25
405.093	95.25
405.317	99.25
405.541	105.25
405.765	103.25
405.988	96.25
406.212	85.25
406.436	100.25
406.66	91.25
406.883	103.25
407.107	92.25
407.331	104.25
407.555	100.25
407.778	100.25
408.002	97.25
408.226	93.25
408.449	111.25
408.673	89.25
408.896	113.25
409.12	110.25
409.344	99.25
409.567	85.25
409.791	101.25
410.014	81.25
410.238	97.25
410.461	89.25
410.685	92.25
410.908	101.25
411.132	96.25
411.355	95.25
411.578	100.25
411.802	112.25
412.025	91.25
412.249	98.25
412.472	99.25
412.695	98.25
412.919	88.25
413.142	106.25
413.365	95.25
413.589	101.25
413.812	88.25
414.035	96.25
414.258	100.25
414.482	97.25
414.705	111.25
414.928	95.25
415.151	97.25
415.374	87.25
415.597	97.25
415.821	97.25
416.044	79.25
416.267	106.25
416.49	94.25
416.713	99.25
416.936	105.25
417.159	94.25
417.382	90.25
417.605	102.25
417.828	118.25
418.051	93.25
418.274	113.25
418.497	86.25
418.72	104.25
418.943	105.25
419.166	98.25
419.389	112.25
419.611	108.25
419.834	114.25
420.057	113.25
420.28	95.25
420.503	115.25
420.726	100.25
420.948	104.25
421.171	102.25
421.394	119.25
421.617	95.25
421.839	103.25
422.062	92.25
422.285	89.25
422.507	96.25
422.73	91.25
422.953	99.25
423.175	104.25
423.398	104.25
423.621	103.25
423.843	97.25
424.066	108.25
424.288	112.25
424.511	106.25
424.733	103.25
424.956	108.25
425.178	116.25
425.401	102.25
425.623	102.25
425.846	107.25
426.068	94.25
426.291	96.25
426.513	102.25
426.735	94.25
426.958	98.25
427.18	95.25
427.402	111.25
427.625	96.25
427.847	114.25
428.069	114.25
428.292	98.25
428.514	105.25
428.736	97.25
428.958	103.25
429.181	98.25
429.403	105.25
429.625	83.25
429.847	108.25
430.069	104.25
430.292	95.25
430.514	97.25
430.736	118.25
430.958	101.25
431.18	107.25
431.402	104.25
431.624	101.25
431.846	94.25
432.068	88.25
432.29	83.25
432.512	98.25
432.734	86.25
432.956	94.25
433.178	110.25
433.4	103.25
433.622	122.25
433.844	104.25
434.066	104.25
434.287	107.25
434.509	85.25
434.731	100.25
434.953	96.25
435.175	103.25
435.397	98.25
435.618	108.25
435.84	105.25
436.062	103.25
436.284	88.25
436.505	103.25
436.727	97.25
436.949	101.25
437.17	98.25
437.392	108.25
437.614	95.25
437.835	86.25
438.057	87.25
438.278	101.25
438.5	96.25
438.721	101.25
438.943	117.25
439.165	105.25
439.386	111.25
439.608	122.25
439.829	99.25
440.05	97.25
440.272	102.25
440.493	104.25
440.715	101.25
440.936	125.25
441.158	120.25
441.379	134.25
441.6	112.25
441.822	124.25
442.043	109.25
442.264	116.25
442.486	115.25
442.707	112.25
442.928	111.25
443.149	95.25
443.371	115.25
443.592	94.25
443.813	98.25
444.034	108.25
444.255	91.25
444.476	89.25
444.698	112.25
444.919	117.25
445.14	230.25
445.361	163.25
445.582	96.25
445.803	114.25
446.024	117.25
446.245	114.25
446.466	101.25
446.687	114.25
446.908	116.25
447.129	114.25
447.35	114.25
447.571	105.25
447.792	112.25
448.013	120.25
448.234	124.25
448.455	104.25
448.675	98.25
448.896	118.25
449.117	94.25
449.338	110.25
449.559	101.25
449.779	104.25
450	106.25
450.221	101.25
450.442	110.25
450.662	114.25
450.883	107.25
451.104	100.25
451.324	110.25
451.545	92.25
451.766	103.25
451.986	100.25
452.207	101.25
452.428	101.25
452.648	98.25
452.869	105.25
453.089	99.25
453.31	98.25
453.53	78.25
453.751	86.25
453.971	79.25
454.192	85.25
454.412	100.25
454.633	116.25
454.853	108.25
455.073	103.25
455.294	105.25
455.514	106.25
455.734	110.25
455.955	98.25
456.175	94.25
456.395	89.25
456.616	99.25
456.836	91.25
457.056	87.25
457.276	96.25
457.497	92.25
457.717	92.25
457.937	88.25
458.157	94.25
458.377	86.25
458.598	90.25
458.818	88.25
459.038	91.25
459.258	78.25
459.478	94.25
459.698	89.25
459.918	88.25
460.138	97.25
460.358	99.25
460.578	91.25
460.798	100.25
461.018	97.25
461.238	110.25
461.458	103.25
461.678	94.25
461.898	105.25
462.118	105.25
462.338	91.25
462.558	95.25
462.777	91.25
462.997	97.25
463.217	94.25
463.437	101.25
463.657	96.25
463.876	92.25
464.096	99.25
464.316	98.25
464.536	94.25
464.755	100.25
464.975	94.25
465.195	107.25
465.414	99.25
465.634	108.25
465.854	115.25
466.073	97.25
466.293	110.25
466.512	98.25
466.732	102.25
466.951	100.25
467.171	101.25
467.391	95.25
467.61	111.25
467.829	103.25
468.049	106.25
468.268	96.25
468.488	105.25
468.707	103.25
468.927	90.25
469.146	116.25
469.365	113.25
469.585	98.25
469.804	102.25
470.023	108.25
470.243	93.25
470.462	102.25
470.681	113.25
470.901	104.25
471.12	93.25
471.339	106.25
471.558	107.25
471.777	115.25
471.997	112.25
472.216	104.25
472.435	104.25
472.654	99.25
472.873	87.25
473.092	97.25
473.311	108.25
473.53	92.25
473.749	95.25
473.968	113.25
474.187	96.25
474.406	104.25
474.625	112.25
474.844	112.25
475.063	91.25
475.282	115.25
475.501	95.25
475.72	108.25
475.939	91.25
476.158	103.25
476.377	98.25
476.596	95.25
476.814	91.25
477.033	99.25
477.252	91.25
477.471	88.25
477.69	122.25
477.908	105.25
478.127	111.25
478.346	90.25
478.564	96.25
478.783	102.25
479.002	106.25
479.22	123.25
479.439	124.25
479.658	107.25
479.876	107.25
480.095	99.25
480.313	104.25
480.532	103.25
480.751	93.25
480.969	84.25
481.188	72.25
481.406	73.25
481.624	93.25
481.843	81.25
482.061	88.25
482.28	100.25
482.498	92.25
482.717	104.25
482.935	96.25
483.153	112.25
483.372	106.25
483.59	119.25
483.808	108.25
484.027	100.25
484.245	104.25
484.463	105.25
484.681	120.25
484.9	107.25
485.118	102.25
485.336	93.25
485.554	98.25
485.772	89.25
485.99	76.25
486.209	89.25
486.427	103.25
486.645	98.25
486.863	123.25
487.081	104.25
487.299	95.25
487.517	95.25
487.735	111.25
487.953	124.25
488.171	134.25
488.389	122.25
488.607	103.25
488.825	114.25
489.043	124.25
489.261	112.25
489.479	115.25
489.696	115.25
489.914	111.25
490.132	108.25
490.35	116.25
490.568	116.25
490.786	126.25
491.003	120.25
491.221	128.25
491.439	115.25
491.657	134.25
491.874	130.25
492.092	149.25
492.31	167.25
492.527	150.25
492.745	138.25
492.963	144.25
493.18	133.25
493.398	123.25
493.615	130.25
493.833	123.25
494.05	139.25
494.268	128.25
494.485	130.25
494.703	127.25
494.92	140.25
495.138	132.25
495.355	129.25
495.573	125.25
495.79	121.25
496.008	123.25
496.225	122.25
496.442	130.25
496.66	116.25
496.877	112.25
497.094	119.25
497.312	104.25
497.529	112.25
497.746	122.25
497.963	104.25
498.181	115.25
498.398	106.25
498.615	100.25
498.832	94.25
499.049	100.25
499.267	101.25
499.484	105.25
499.701	114.25
499.918	112.25
500.135	114.25
500.352	97.25
500.569	110.25
500.786	119.25
501.003	112.25
501.22	102.25
501.437	112.25
501.654	117.25
501.871	99.25
502.088	106.25
502.305	116.25
502.522	113.25
502.739	109.25
502.956	99.25
503.172	110.25
503.389	102.25
503.606	108.25
503.823	115.25
504.04	103.25
504.256	102.25
504.473	101.25
504.69	108.25
504.907	103.25
505.123	106.25
505.34	90.25
505.557	103.25
505.773	100.25
505.99	95.25
506.207	100.25
506.423	91.25
506.64	95.25
506.856	98.25
507.073	88.25
507.289	89.25
507.506	99.25
507.722	82.25
507.939	108.25
508.155	105.25
508.372	114.25
508.588	89.25
508.805	92.25
509.021	95.25
509.238	89.25
509.454	91.25
509.67	87.25
509.887	102.25
510.103	92.25
510.319	87.25
510.536	92.25
510.752	94.25
510.968	78.25
511.184	92.25
511.401	81.25
511.617	88.25
511.833	95.25
512.049	87.25
512.265	81.25
512.481	87.25
512.698	91.25
512.914	82.25
513.13	86.25
513.346	84.25
513.562	90.25
513.778	96.25
513.994	91.25
514.21	92.25
514.426	77.25
514.642	88.25
514.858	80.25
515.074	79.25
