Data from Zn(NO3)2Standard.Agarose3%.GreenCap.LampEnergy10E.O_HRD10591_15-06-29-942.txt Node
Date: Mon Jul 22 15:06:29 EDT 2019
User: cochatt
Spectrometer: HR+D1059
Trigger mode: 1
Integration Time (sec): 1.000000E-1
Scans to average: 1
Electric dark correction enabled: true
Nonlinearity correction enabled: false
Boxcar width: 0
XAxis mode: Wavelengths
Number of Pixels in Spectrum: 2048
>>>>>Begin Spectral Data<<<<<
223.165	-14.38
223.4	-14.38
223.635	-14.38
223.869	-4.38
224.104	-17.38
224.338	-13.38
224.573	-9.38
224.808	-13.38
225.042	-1.38
225.277	-11.38
225.511	-7.38
225.746	-2.38
225.98	1.62
226.215	4.62
226.449	14.62
226.683	27.62
226.918	13.62
227.152	32.62
227.387	41.62
227.621	30.62
227.856	39.62
228.09	58.62
228.324	59.62
228.559	50.62
228.793	61.62
229.027	50.62
229.262	79.62
229.496	59.62
229.73	54.62
229.964	65.62
230.199	71.62
230.433	85.62
230.667	75.62
230.901	86.62
231.136	74.62
231.37	75.62
231.604	78.62
231.838	102.62
232.072	69.62
232.306	73.62
232.541	89.62
232.775	82.62
233.009	84.62
233.243	82.62
233.477	75.62
233.711	87.62
233.945	87.62
234.179	85.62
234.413	83.62
234.647	96.62
234.881	78.62
235.115	82.62
235.349	79.62
235.583	80.62
235.817	83.62
236.051	87.62
236.285	84.62
236.519	97.62
236.753	79.62
236.987	75.62
237.221	83.62
237.455	69.62
237.689	78.62
237.922	62.62
238.156	77.62
238.39	85.62
238.624	70.62
238.858	74.62
239.091	78.62
239.325	81.62
239.559	77.62
239.793	82.62
240.027	77.62
240.26	77.62
240.494	84.62
240.728	68.62
240.961	66.62
241.195	82.62
241.429	82.62
241.662	91.62
241.896	76.62
242.13	88.62
242.363	83.62
242.597	83.62
242.83	78.62
243.064	78.62
243.298	57.62
243.531	70.62
243.765	80.62
243.998	86.62
244.232	89.62
244.465	58.62
244.699	65.62
244.932	80.62
245.166	79.62
245.399	70.62
245.633	82.62
245.866	79.62
246.099	81.62
246.333	78.62
246.566	80.62
246.8	74.62
247.033	77.62
247.266	84.62
247.5	82.62
247.733	86.62
247.966	89.62
248.2	77.62
248.433	85.62
248.666	74.62
248.899	66.62
249.133	98.62
249.366	82.62
249.599	67.62
249.832	87.62
250.066	82.62
250.299	68.62
250.532	81.62
250.765	76.62
250.998	84.62
251.231	67.62
251.465	92.62
251.698	81.62
251.931	86.62
252.164	70.62
252.397	80.62
252.63	88.62
252.863	65.62
253.096	76.62
253.329	74.62
253.562	78.62
253.795	83.62
254.028	92.62
254.261	72.62
254.494	67.62
254.727	71.62
254.96	70.62
255.193	90.62
255.426	78.62
255.659	73.62
255.892	75.62
256.124	80.62
256.357	85.62
256.59	82.62
256.823	77.62
257.056	80.62
257.289	83.62
257.521	94.62
257.754	75.62
257.987	77.62
258.22	91.62
258.452	67.62
258.685	86.62
258.918	79.62
259.151	71.62
259.383	72.62
259.616	83.62
259.849	76.62
260.081	93.62
260.314	91.62
260.547	68.62
260.779	71.62
261.012	78.62
261.244	87.62
261.477	90.62
261.71	86.62
261.942	79.62
262.175	84.62
262.407	67.62
262.64	73.62
262.872	73.62
263.105	76.62
263.337	89.62
263.57	89.62
263.802	91.62
264.035	70.62
264.267	73.62
264.499	84.62
264.732	96.62
264.964	76.62
265.197	77.62
265.429	80.62
265.661	84.62
265.894	89.62
266.126	80.62
266.358	84.62
266.591	83.62
266.823	92.62
267.055	85.62
267.287	70.62
267.52	94.62
267.752	82.62
267.984	83.62
268.216	74.62
268.448	67.62
268.681	70.62
268.913	78.62
269.145	71.62
269.377	80.62
269.609	67.62
269.841	83.62
270.073	88.62
270.306	82.62
270.538	68.62
270.77	73.62
271.002	88.62
271.234	78.62
271.466	82.62
271.698	83.62
271.93	75.62
272.162	83.62
272.394	91.62
272.626	76.62
272.858	87.62
273.09	82.62
273.322	84.62
273.553	70.62
273.785	72.62
274.017	80.62
274.249	84.62
274.481	84.62
274.713	76.62
274.945	89.62
275.176	73.62
275.408	64.62
275.64	84.62
275.872	85.62
276.104	85.62
276.335	89.62
276.567	83.62
276.799	76.62
277.031	87.62
277.262	98.62
277.494	81.62
277.726	65.62
277.957	80.62
278.189	95.62
278.421	101.62
278.652	95.62
278.884	92.62
279.115	74.62
279.347	92.62
279.579	87.62
279.81	80.62
280.042	62.62
280.273	72.62
280.505	66.62
280.736	87.62
280.968	87.62
281.199	72.62
281.431	93.62
281.662	83.62
281.894	87.62
282.125	75.62
282.356	88.62
282.588	77.62
282.819	90.62
283.051	85.62
283.282	69.62
283.513	86.62
283.745	78.62
283.976	93.62
284.207	99.62
284.439	73.62
284.67	69.62
284.901	93.62
285.132	79.62
285.364	72.62
285.595	99.62
285.826	79.62
286.057	85.62
286.288	78.62
286.52	80.62
286.751	85.62
286.982	87.62
287.213	87.62
287.444	87.62
287.675	70.62
287.906	80.62
288.138	88.62
288.369	74.62
288.6	72.62
288.831	86.62
289.062	88.62
289.293	72.62
289.524	85.62
289.755	83.62
289.986	73.62
290.217	71.62
290.448	81.62
290.679	92.62
290.91	81.62
291.141	69.62
291.371	76.62
291.602	84.62
291.833	79.62
292.064	76.62
292.295	89.62
292.526	95.62
292.757	84.62
292.987	88.62
293.218	95.62
293.449	91.62
293.68	73.62
293.91	64.62
294.141	88.62
294.372	74.62
294.603	85.62
294.833	77.62
295.064	78.62
295.295	81.62
295.525	88.62
295.756	107.62
295.987	95.62
296.217	82.62
296.448	91.62
296.679	93.62
296.909	89.62
297.14	78.62
297.37	91.62
297.601	87.62
297.831	83.62
298.062	85.62
298.292	73.62
298.523	81.62
298.753	82.62
298.984	85.62
299.214	86.62
299.445	98.62
299.675	84.62
299.905	91.62
300.136	88.62
300.366	77.62
300.597	81.62
300.827	91.62
301.057	77.62
301.288	101.62
301.518	85.62
301.748	91.62
301.979	77.62
302.209	93.62
302.439	75.62
302.669	82.62
302.9	80.62
303.13	75.62
303.36	88.62
303.59	77.62
303.82	88.62
304.051	64.62
304.281	84.62
304.511	83.62
304.741	91.62
304.971	89.62
305.201	77.62
305.431	94.62
305.661	93.62
305.891	78.62
306.121	86.62
306.352	76.62
306.582	77.62
306.812	88.62
307.042	99.62
307.272	79.62
307.502	89.62
307.731	81.62
307.961	74.62
308.191	85.62
308.421	103.62
308.651	91.62
308.881	89.62
309.111	92.62
309.341	91.62
309.571	82.62
309.8	75.62
310.03	80.62
310.26	72.62
310.49	84.62
310.72	92.62
310.949	89.62
311.179	86.62
311.409	82.62
311.639	80.62
311.868	73.62
312.098	88.62
312.328	96.62
312.557	87.62
312.787	81.62
313.017	80.62
313.246	81.62
313.476	87.62
313.706	77.62
313.935	89.62
314.165	82.62
314.394	79.62
314.624	83.62
314.853	69.62
315.083	84.62
315.312	87.62
315.542	87.62
315.771	87.62
316.001	89.62
316.23	97.62
316.46	86.62
316.689	87.62
316.919	92.62
317.148	77.62
317.377	84.62
317.607	77.62
317.836	85.62
318.065	81.62
318.295	91.62
318.524	93.62
318.753	94.62
318.983	94.62
319.212	87.62
319.441	85.62
319.67	94.62
319.9	84.62
320.129	89.62
320.358	89.62
320.587	93.62
320.816	89.62
321.046	84.62
321.275	85.62
321.504	96.62
321.733	80.62
321.962	92.62
322.191	72.62
322.42	91.62
322.649	91.62
322.878	76.62
323.108	86.62
323.337	90.62
323.566	77.62
323.795	80.62
324.024	91.62
324.253	87.62
324.482	88.62
324.71	80.62
324.939	83.62
325.168	81.62
325.397	95.62
325.626	82.62
325.855	86.62
326.084	101.62
326.313	94.62
326.542	76.62
326.77	87.62
326.999	74.62
327.228	82.62
327.457	84.62
327.686	69.62
327.914	88.62
328.143	87.62
328.372	91.62
328.6	81.62
328.829	73.62
329.058	85.62
329.287	80.62
329.515	101.62
329.744	75.62
329.972	71.62
330.201	83.62
330.43	82.62
330.658	71.62
330.887	91.62
331.115	78.62
331.344	88.62
331.572	93.62
331.801	71.62
332.03	82.62
332.258	82.62
332.486	80.62
332.715	79.62
332.943	83.62
333.172	87.62
333.4	89.62
333.629	83.62
333.857	92.62
334.085	102.62
334.314	79.62
334.542	89.62
334.771	81.62
334.999	84.62
335.227	89.62
335.455	84.62
335.684	107.62
335.912	98.62
336.14	89.62
336.369	85.62
336.597	75.62
336.825	96.62
337.053	96.62
337.281	85.62
337.51	77.62
337.738	78.62
337.966	81.62
338.194	90.62
338.422	73.62
338.65	80.62
338.878	82.62
339.106	87.62
339.334	87.62
339.562	82.62
339.79	80.62
340.018	97.62
340.246	93.62
340.474	98.62
340.702	82.62
340.93	74.62
341.158	82.62
341.386	91.62
341.614	86.62
341.842	96.62
342.07	92.62
342.298	96.62
342.526	97.62
342.754	90.62
342.981	83.62
343.209	83.62
343.437	85.62
343.665	91.62
343.893	95.62
344.12	93.62
344.348	80.62
344.576	75.62
344.804	73.62
345.031	73.62
345.259	86.62
345.487	78.62
345.714	82.62
345.942	89.62
346.17	69.62
346.397	77.62
346.625	74.62
346.853	75.62
347.08	86.62
347.308	85.62
347.535	83.62
347.763	82.62
347.99	89.62
348.218	87.62
348.445	88.62
348.673	77.62
348.9	87.62
349.128	82.62
349.355	89.62
349.583	79.62
349.81	85.62
350.037	78.62
350.265	82.62
350.492	72.62
350.72	81.62
350.947	81.62
351.174	93.62
351.402	91.62
351.629	85.62
351.856	78.62
352.083	89.62
352.311	79.62
352.538	72.62
352.765	89.62
352.992	91.62
353.22	85.62
353.447	84.62
353.674	76.62
353.901	77.62
354.128	75.62
354.355	79.62
354.583	78.62
354.81	60.62
355.037	81.62
355.264	83.62
355.491	86.62
355.718	83.62
355.945	76.62
356.172	86.62
356.399	93.62
356.626	87.62
356.853	90.62
357.08	81.62
357.307	90.62
357.534	87.62
357.761	88.62
357.988	84.62
358.215	78.62
358.441	87.62
358.668	82.62
358.895	78.62
359.122	80.62
359.349	82.62
359.576	79.62
359.802	82.62
360.029	79.62
360.256	72.62
360.483	92.62
360.709	76.62
360.936	84.62
361.163	77.62
361.39	61.62
361.616	84.62
361.843	82.62
362.07	83.62
362.296	82.62
362.523	91.62
362.749	82.62
362.976	76.62
363.203	77.62
363.429	88.62
363.656	99.62
363.882	89.62
364.109	85.62
364.335	78.62
364.562	90.62
364.788	69.62
365.015	80.62
365.241	91.62
365.468	71.62
365.694	79.62
365.92	83.62
366.147	71.62
366.373	86.62
366.599	86.62
366.826	81.62
367.052	80.62
367.278	84.62
367.505	84.62
367.731	88.62
367.957	91.62
368.184	90.62
368.41	82.62
368.636	92.62
368.862	96.62
369.089	99.62
369.315	86.62
369.541	96.62
369.767	78.62
369.993	89.62
370.219	101.62
370.445	82.62
370.672	94.62
370.898	81.62
371.124	78.62
371.35	71.62
371.576	94.62
371.802	87.62
372.028	91.62
372.254	81.62
372.48	95.62
372.706	96.62
372.932	83.62
373.158	93.62
373.384	96.62
373.61	83.62
373.835	100.62
374.061	96.62
374.287	76.62
374.513	90.62
374.739	81.62
374.965	91.62
375.191	76.62
375.416	76.62
375.642	82.62
375.868	90.62
376.094	88.62
376.319	85.62
376.545	87.62
376.771	114.62
376.997	91.62
377.222	82.62
377.448	96.62
377.674	81.62
377.899	89.62
378.125	73.62
378.35	92.62
378.576	87.62
378.802	75.62
379.027	81.62
379.253	90.62
379.478	82.62
379.704	94.62
379.929	100.62
380.155	88.62
380.38	84.62
380.606	92.62
380.831	89.62
381.057	98.62
381.282	99.62
381.507	86.62
381.733	82.62
381.958	78.62
382.184	90.62
382.409	78.62
382.634	80.62
382.86	97.62
383.085	82.62
383.31	94.62
383.535	103.62
383.761	79.62
383.986	93.62
384.211	97.62
384.436	95.62
384.662	77.62
384.887	101.62
385.112	77.62
385.337	92.62
385.562	84.62
385.787	68.62
386.013	97.62
386.238	93.62
386.463	89.62
386.688	79.62
386.913	81.62
387.138	77.62
387.363	87.62
387.588	91.62
387.813	88.62
388.038	85.62
388.263	84.62
388.488	75.62
388.713	85.62
388.938	93.62
389.163	96.62
389.387	85.62
389.612	93.62
389.837	97.62
390.062	87.62
390.287	78.62
390.512	79.62
390.736	96.62
390.961	97.62
391.186	78.62
391.411	77.62
391.636	105.62
391.86	107.62
392.085	90.62
392.31	98.62
392.534	107.62
392.759	110.62
392.984	89.62
393.208	96.62
393.433	105.62
393.658	89.62
393.882	88.62
394.107	93.62
394.331	91.62
394.556	105.62
394.78	97.62
395.005	100.62
395.229	97.62
395.454	91.62
395.678	98.62
395.903	101.62
396.127	98.62
396.352	100.62
396.576	86.62
396.801	83.62
397.025	91.62
397.249	92.62
397.474	93.62
397.698	91.62
397.922	99.62
398.147	84.62
398.371	92.62
398.595	95.62
398.82	97.62
399.044	93.62
399.268	100.62
399.492	103.62
399.717	102.62
399.941	105.62
400.165	96.62
400.389	89.62
400.613	100.62
400.837	94.62
401.062	86.62
401.286	94.62
401.51	104.62
401.734	107.62
401.958	87.62
402.182	102.62
402.406	92.62
402.63	97.62
402.854	92.62
403.078	92.62
403.302	97.62
403.526	93.62
403.75	93.62
403.974	100.62
404.198	96.62
404.422	98.62
404.645	104.62
404.869	89.62
405.093	106.62
405.317	95.62
405.541	95.62
405.765	73.62
405.988	79.62
406.212	102.62
406.436	102.62
406.66	107.62
406.883	96.62
407.107	99.62
407.331	99.62
407.555	103.62
407.778	103.62
408.002	115.62
408.226	82.62
408.449	94.62
408.673	111.62
408.896	107.62
409.12	88.62
409.344	84.62
409.567	83.62
409.791	107.62
410.014	98.62
410.238	97.62
410.461	94.62
410.685	96.62
410.908	92.62
411.132	80.62
411.355	99.62
411.578	91.62
411.802	93.62
412.025	97.62
412.249	98.62
412.472	108.62
412.695	99.62
412.919	92.62
413.142	105.62
413.365	114.62
413.589	94.62
413.812	103.62
414.035	96.62
414.258	99.62
414.482	83.62
414.705	98.62
414.928	98.62
415.151	103.62
415.374	99.62
415.597	96.62
415.821	95.62
416.044	108.62
416.267	101.62
416.49	96.62
416.713	93.62
416.936	84.62
417.159	96.62
417.382	105.62
417.605	98.62
417.828	88.62
418.051	104.62
418.274	117.62
418.497	104.62
418.72	105.62
418.943	97.62
419.166	107.62
419.389	105.62
419.611	92.62
419.834	108.62
420.057	122.62
420.28	114.62
420.503	105.62
420.726	91.62
420.948	92.62
421.171	102.62
421.394	101.62
421.617	115.62
421.839	103.62
422.062	114.62
422.285	100.62
422.507	112.62
422.73	94.62
422.953	99.62
423.175	116.62
423.398	119.62
423.621	108.62
423.843	104.62
424.066	117.62
424.288	100.62
424.511	106.62
424.733	120.62
424.956	106.62
425.178	101.62
425.401	109.62
425.623	117.62
425.846	109.62
426.068	118.62
426.291	105.62
426.513	105.62
426.735	103.62
426.958	114.62
427.18	112.62
427.402	113.62
427.625	103.62
427.847	92.62
428.069	109.62
428.292	102.62
428.514	97.62
428.736	99.62
428.958	93.62
429.181	97.62
429.403	98.62
429.625	113.62
429.847	111.62
430.069	103.62
430.292	109.62
430.514	105.62
430.736	106.62
430.958	93.62
431.18	103.62
431.402	107.62
431.624	97.62
431.846	78.62
432.068	82.62
432.29	102.62
432.512	99.62
432.734	103.62
432.956	107.62
433.178	113.62
433.4	105.62
433.622	96.62
433.844	110.62
434.066	101.62
434.287	109.62
434.509	96.62
434.731	99.62
434.953	102.62
435.175	103.62
435.397	95.62
435.618	101.62
435.84	92.62
436.062	100.62
436.284	89.62
436.505	94.62
436.727	95.62
436.949	91.62
437.17	101.62
437.392	106.62
437.614	96.62
437.835	101.62
438.057	102.62
438.278	113.62
438.5	107.62
438.721	107.62
438.943	107.62
439.165	98.62
439.386	96.62
439.608	101.62
439.829	107.62
440.05	111.62
440.272	115.62
440.493	99.62
440.715	103.62
440.936	116.62
441.158	120.62
441.379	114.62
441.6	118.62
441.822	114.62
442.043	100.62
442.264	102.62
442.486	98.62
442.707	109.62
442.928	96.62
443.149	104.62
443.371	115.62
443.592	114.62
443.813	99.62
444.034	97.62
444.255	103.62
444.476	110.62
444.698	114.62
444.919	99.62
445.14	231.62
445.361	173.62
445.582	114.62
445.803	108.62
446.024	105.62
446.245	124.62
446.466	107.62
446.687	131.62
446.908	130.62
447.129	115.62
447.35	101.62
447.571	110.62
447.792	105.62
448.013	104.62
448.234	103.62
448.455	109.62
448.675	111.62
448.896	116.62
449.117	122.62
449.338	108.62
449.559	104.62
449.779	105.62
450	104.62
450.221	115.62
450.442	90.62
450.662	117.62
450.883	106.62
451.104	104.62
451.324	113.62
451.545	120.62
451.766	107.62
451.986	118.62
452.207	102.62
452.428	107.62
452.648	107.62
452.869	96.62
453.089	97.62
453.31	99.62
453.53	80.62
453.751	97.62
453.971	107.62
454.192	93.62
454.412	90.62
454.633	104.62
454.853	94.62
455.073	102.62
455.294	90.62
455.514	120.62
455.734	102.62
455.955	114.62
456.175	101.62
456.395	99.62
456.616	89.62
456.836	97.62
457.056	103.62
457.276	97.62
457.497	89.62
457.717	94.62
457.937	88.62
458.157	93.62
458.377	83.62
458.598	88.62
458.818	101.62
459.038	84.62
459.258	79.62
459.478	98.62
459.698	87.62
459.918	83.62
460.138	92.62
460.358	89.62
460.578	99.62
460.798	102.62
461.018	83.62
461.238	117.62
461.458	91.62
461.678	98.62
461.898	89.62
462.118	80.62
462.338	101.62
462.558	94.62
462.777	88.62
462.997	106.62
463.217	81.62
463.437	99.62
463.657	90.62
463.876	89.62
464.096	105.62
464.316	98.62
464.536	102.62
464.755	101.62
464.975	101.62
465.195	98.62
465.414	108.62
465.634	102.62
465.854	99.62
466.073	90.62
466.293	89.62
466.512	102.62
466.732	98.62
466.951	110.62
467.171	120.62
467.391	110.62
467.61	105.62
467.829	99.62
468.049	106.62
468.268	122.62
468.488	106.62
468.707	108.62
468.927	108.62
469.146	106.62
469.365	122.62
469.585	109.62
469.804	111.62
470.023	123.62
470.243	103.62
470.462	110.62
470.681	110.62
470.901	100.62
471.12	113.62
471.339	102.62
471.558	101.62
471.777	105.62
471.997	114.62
472.216	112.62
472.435	85.62
472.654	98.62
472.873	90.62
473.092	107.62
473.311	100.62
473.53	103.62
473.749	92.62
473.968	100.62
474.187	97.62
474.406	107.62
474.625	108.62
474.844	103.62
475.063	108.62
475.282	87.62
475.501	99.62
475.72	108.62
475.939	104.62
476.158	109.62
476.377	112.62
476.596	111.62
476.814	99.62
477.033	103.62
477.252	102.62
477.471	106.62
477.69	105.62
477.908	114.62
478.127	116.62
478.346	106.62
478.564	111.62
478.783	104.62
479.002	110.62
479.22	113.62
479.439	112.62
479.658	108.62
479.876	97.62
480.095	88.62
480.313	93.62
480.532	101.62
480.751	101.62
480.969	98.62
481.188	87.62
481.406	84.62
481.624	77.62
481.843	75.62
482.061	77.62
482.28	86.62
482.498	82.62
482.717	112.62
482.935	108.62
483.153	118.62
483.372	124.62
483.59	112.62
483.808	115.62
484.027	98.62
484.245	99.62
484.463	110.62
484.681	115.62
484.9	101.62
485.118	116.62
485.336	114.62
485.554	98.62
485.772	90.62
485.99	80.62
486.209	106.62
486.427	98.62
486.645	116.62
486.863	121.62
487.081	122.62
487.299	109.62
487.517	113.62
487.735	121.62
487.953	133.62
488.171	128.62
488.389	119.62
488.607	114.62
488.825	120.62
489.043	109.62
489.261	109.62
489.479	107.62
489.696	123.62
489.914	112.62
490.132	111.62
490.35	114.62
490.568	124.62
490.786	126.62
491.003	126.62
491.221	126.62
491.439	117.62
491.657	130.62
491.874	133.62
492.092	161.62
492.31	161.62
492.527	149.62
492.745	142.62
492.963	149.62
493.18	126.62
493.398	122.62
493.615	132.62
493.833	120.62
494.05	120.62
494.268	135.62
494.485	144.62
494.703	130.62
494.92	137.62
495.138	130.62
495.355	125.62
495.573	126.62
495.79	134.62
496.008	124.62
496.225	126.62
496.442	127.62
496.66	116.62
496.877	120.62
497.094	118.62
497.312	120.62
497.529	106.62
497.746	126.62
497.963	104.62
498.181	103.62
498.398	107.62
498.615	104.62
498.832	101.62
499.049	101.62
499.267	92.62
499.484	98.62
499.701	102.62
499.918	110.62
500.135	116.62
500.352	107.62
500.569	96.62
500.786	124.62
501.003	116.62
501.22	105.62
501.437	119.62
501.654	112.62
501.871	102.62
502.088	113.62
502.305	106.62
502.522	95.62
502.739	90.62
502.956	114.62
503.172	112.62
503.389	101.62
503.606	101.62
503.823	101.62
504.04	108.62
504.256	113.62
504.473	78.62
504.69	113.62
504.907	105.62
505.123	97.62
505.34	103.62
505.557	105.62
505.773	95.62
505.99	115.62
506.207	109.62
506.423	104.62
506.64	102.62
506.856	107.62
507.073	103.62
507.289	83.62
507.506	97.62
507.722	100.62
507.939	109.62
508.155	92.62
508.372	99.62
508.588	94.62
508.805	103.62
509.021	96.62
509.238	105.62
509.454	103.62
509.67	88.62
509.887	93.62
510.103	95.62
510.319	96.62
510.536	91.62
510.752	84.62
510.968	91.62
511.184	70.62
511.401	83.62
511.617	85.62
511.833	86.62
512.049	78.62
512.265	85.62
512.481	86.62
512.698	73.62
512.914	87.62
513.13	99.62
513.346	81.62
513.562	89.62
513.778	93.62
513.994	87.62
514.21	85.62
514.426	90.62
