Data from Zn(NO3)2Standard.Agarose3%.GreenCap.LampEnergy10E.O_HRD10591_15-07-11-943.txt Node
Date: Mon Jul 22 15:07:11 EDT 2019
User: cochatt
Spectrometer: HR+D1059
Trigger mode: 1
Integration Time (sec): 1.000000E-1
Scans to average: 1
Electric dark correction enabled: true
Nonlinearity correction enabled: false
Boxcar width: 0
XAxis mode: Wavelengths
Number of Pixels in Spectrum: 2048
>>>>>Begin Spectral Data<<<<<
223.165	1.44
223.4	1.44
223.635	1.44
223.869	-24.56
224.104	-1.56
224.338	-13.56
224.573	-23.56
224.808	-2.56
225.042	-14.56
225.277	-14.56
225.511	3.44
225.746	7.44
225.98	0.44
226.215	9.44
226.449	5.44
226.683	17.44
226.918	26.44
227.152	23.44
227.387	26.44
227.621	36.44
227.856	51.44
228.09	56.44
228.324	52.44
228.559	48.44
228.793	46.44
229.027	54.44
229.262	58.44
229.496	60.44
229.73	49.44
229.964	49.44
230.199	54.44
230.433	64.44
230.667	74.44
230.901	70.44
231.136	83.44
231.37	64.44
231.604	72.44
231.838	70.44
232.072	81.44
232.306	83.44
232.541	75.44
232.775	89.44
233.009	78.44
233.243	75.44
233.477	73.44
233.711	82.44
233.945	82.44
234.179	86.44
234.413	73.44
234.647	82.44
234.881	79.44
235.115	77.44
235.349	82.44
235.583	79.44
235.817	62.44
236.051	82.44
236.285	82.44
236.519	75.44
236.753	69.44
236.987	67.44
237.221	65.44
237.455	67.44
237.689	80.44
237.922	72.44
238.156	64.44
238.39	75.44
238.624	61.44
238.858	54.44
239.091	78.44
239.325	74.44
239.559	69.44
239.793	73.44
240.027	73.44
240.26	79.44
240.494	75.44
240.728	79.44
240.961	74.44
241.195	62.44
241.429	79.44
241.662	65.44
241.896	61.44
242.13	77.44
242.363	84.44
242.597	68.44
242.83	66.44
243.064	79.44
243.298	88.44
243.531	75.44
243.765	70.44
243.998	62.44
244.232	79.44
244.465	82.44
244.699	77.44
244.932	91.44
245.166	81.44
245.399	81.44
245.633	72.44
245.866	88.44
246.099	61.44
246.333	74.44
246.566	78.44
246.8	86.44
247.033	73.44
247.266	76.44
247.5	67.44
247.733	78.44
247.966	85.44
248.2	72.44
248.433	88.44
248.666	70.44
248.899	75.44
249.133	85.44
249.366	86.44
249.599	81.44
249.832	72.44
250.066	72.44
250.299	74.44
250.532	70.44
250.765	85.44
250.998	82.44
251.231	78.44
251.465	85.44
251.698	75.44
251.931	83.44
252.164	77.44
252.397	86.44
252.63	77.44
252.863	73.44
253.096	74.44
253.329	84.44
253.562	75.44
253.795	92.44
254.028	93.44
254.261	69.44
254.494	66.44
254.727	78.44
254.96	85.44
255.193	83.44
255.426	72.44
255.659	66.44
255.892	68.44
256.124	79.44
256.357	67.44
256.59	75.44
256.823	80.44
257.056	70.44
257.289	80.44
257.521	85.44
257.754	71.44
257.987	76.44
258.22	73.44
258.452	75.44
258.685	73.44
258.918	70.44
259.151	72.44
259.383	71.44
259.616	71.44
259.849	74.44
260.081	58.44
260.314	80.44
260.547	69.44
260.779	80.44
261.012	87.44
261.244	79.44
261.477	83.44
261.71	81.44
261.942	80.44
262.175	63.44
262.407	70.44
262.64	80.44
262.872	81.44
263.105	86.44
263.337	82.44
263.57	67.44
263.802	73.44
264.035	79.44
264.267	74.44
264.499	83.44
264.732	100.44
264.964	65.44
265.197	61.44
265.429	75.44
265.661	94.44
265.894	79.44
266.126	86.44
266.358	73.44
266.591	84.44
266.823	65.44
267.055	83.44
267.287	74.44
267.52	81.44
267.752	80.44
267.984	87.44
268.216	72.44
268.448	87.44
268.681	84.44
268.913	83.44
269.145	77.44
269.377	81.44
269.609	91.44
269.841	90.44
270.073	80.44
270.306	86.44
270.538	77.44
270.77	83.44
271.002	73.44
271.234	72.44
271.466	90.44
271.698	90.44
271.93	72.44
272.162	67.44
272.394	78.44
272.626	73.44
272.858	69.44
273.09	86.44
273.322	86.44
273.553	75.44
273.785	81.44
274.017	99.44
274.249	81.44
274.481	80.44
274.713	76.44
274.945	85.44
275.176	87.44
275.408	72.44
275.64	70.44
275.872	71.44
276.104	84.44
276.335	95.44
276.567	72.44
276.799	85.44
277.031	82.44
277.262	79.44
277.494	76.44
277.726	91.44
277.957	69.44
278.189	69.44
278.421	80.44
278.652	85.44
278.884	73.44
279.115	89.44
279.347	85.44
279.579	86.44
279.81	72.44
280.042	81.44
280.273	88.44
280.505	78.44
280.736	70.44
280.968	69.44
281.199	94.44
281.431	79.44
281.662	90.44
281.894	83.44
282.125	78.44
282.356	84.44
282.588	91.44
282.819	72.44
283.051	69.44
283.282	83.44
283.513	83.44
283.745	75.44
283.976	87.44
284.207	84.44
284.439	84.44
284.67	85.44
284.901	76.44
285.132	76.44
285.364	84.44
285.595	75.44
285.826	90.44
286.057	70.44
286.288	81.44
286.52	74.44
286.751	85.44
286.982	81.44
287.213	83.44
287.444	89.44
287.675	68.44
287.906	74.44
288.138	82.44
288.369	85.44
288.6	83.44
288.831	75.44
289.062	82.44
289.293	70.44
289.524	85.44
289.755	71.44
289.986	81.44
290.217	74.44
290.448	78.44
290.679	73.44
290.91	83.44
291.141	103.44
291.371	81.44
291.602	74.44
291.833	70.44
292.064	97.44
292.295	66.44
292.526	80.44
292.757	90.44
292.987	82.44
293.218	78.44
293.449	89.44
293.68	79.44
293.91	74.44
294.141	81.44
294.372	85.44
294.603	89.44
294.833	83.44
295.064	94.44
295.295	86.44
295.525	77.44
295.756	86.44
295.987	78.44
296.217	79.44
296.448	82.44
296.679	79.44
296.909	87.44
297.14	83.44
297.37	87.44
297.601	72.44
297.831	76.44
298.062	72.44
298.292	76.44
298.523	83.44
298.753	69.44
298.984	85.44
299.214	93.44
299.445	80.44
299.675	71.44
299.905	79.44
300.136	75.44
300.366	83.44
300.597	96.44
300.827	85.44
301.057	80.44
301.288	78.44
301.518	82.44
301.748	72.44
301.979	82.44
302.209	83.44
302.439	81.44
302.669	93.44
302.9	89.44
303.13	90.44
303.36	97.44
303.59	77.44
303.82	73.44
304.051	89.44
304.281	92.44
304.511	89.44
304.741	90.44
304.971	89.44
305.201	91.44
305.431	91.44
305.661	90.44
305.891	83.44
306.121	75.44
306.352	73.44
306.582	85.44
306.812	69.44
307.042	81.44
307.272	63.44
307.502	94.44
307.731	85.44
307.961	87.44
308.191	73.44
308.421	87.44
308.651	81.44
308.881	84.44
309.111	90.44
309.341	76.44
309.571	71.44
309.8	74.44
310.03	88.44
310.26	68.44
310.49	76.44
310.72	96.44
310.949	72.44
311.179	63.44
311.409	70.44
311.639	84.44
311.868	84.44
312.098	85.44
312.328	90.44
312.557	88.44
312.787	83.44
313.017	73.44
313.246	93.44
313.476	88.44
313.706	75.44
313.935	87.44
314.165	67.44
314.394	87.44
314.624	74.44
314.853	72.44
315.083	82.44
315.312	94.44
315.542	91.44
315.771	83.44
316.001	80.44
316.23	71.44
316.46	84.44
316.689	77.44
316.919	87.44
317.148	94.44
317.377	85.44
317.607	91.44
317.836	79.44
318.065	65.44
318.295	92.44
318.524	88.44
318.753	74.44
318.983	76.44
319.212	83.44
319.441	94.44
319.67	68.44
319.9	76.44
320.129	84.44
320.358	79.44
320.587	80.44
320.816	78.44
321.046	74.44
321.275	81.44
321.504	84.44
321.733	74.44
321.962	77.44
322.191	79.44
322.42	82.44
322.649	80.44
322.878	75.44
323.108	84.44
323.337	85.44
323.566	75.44
323.795	81.44
324.024	72.44
324.253	77.44
324.482	76.44
324.71	77.44
324.939	83.44
325.168	76.44
325.397	75.44
325.626	93.44
325.855	80.44
326.084	69.44
326.313	95.44
326.542	80.44
326.77	78.44
326.999	86.44
327.228	83.44
327.457	75.44
327.686	78.44
327.914	78.44
328.143	85.44
328.372	75.44
328.6	79.44
328.829	95.44
329.058	78.44
329.287	87.44
329.515	73.44
329.744	64.44
329.972	74.44
330.201	94.44
330.43	70.44
330.658	82.44
330.887	90.44
331.115	77.44
331.344	93.44
331.572	83.44
331.801	82.44
332.03	95.44
332.258	97.44
332.486	80.44
332.715	83.44
332.943	79.44
333.172	85.44
333.4	72.44
333.629	92.44
333.857	97.44
334.085	83.44
334.314	74.44
334.542	99.44
334.771	89.44
334.999	76.44
335.227	82.44
335.455	75.44
335.684	80.44
335.912	84.44
336.14	61.44
336.369	81.44
336.597	79.44
336.825	84.44
337.053	83.44
337.281	81.44
337.51	78.44
337.738	81.44
337.966	77.44
338.194	68.44
338.422	78.44
338.65	90.44
338.878	89.44
339.106	87.44
339.334	100.44
339.562	75.44
339.79	81.44
340.018	77.44
340.246	72.44
340.474	63.44
340.702	83.44
340.93	82.44
341.158	71.44
341.386	81.44
341.614	90.44
341.842	60.44
342.07	73.44
342.298	97.44
342.526	79.44
342.754	83.44
342.981	81.44
343.209	92.44
343.437	102.44
343.665	98.44
343.893	82.44
344.12	78.44
344.348	85.44
344.576	73.44
344.804	85.44
345.031	87.44
345.259	87.44
345.487	72.44
345.714	70.44
345.942	78.44
346.17	82.44
346.397	73.44
346.625	74.44
346.853	72.44
347.08	79.44
347.308	80.44
347.535	84.44
347.763	68.44
347.99	83.44
348.218	85.44
348.445	86.44
348.673	92.44
348.9	78.44
349.128	81.44
349.355	88.44
349.583	81.44
349.81	93.44
350.037	93.44
350.265	95.44
350.492	95.44
350.72	74.44
350.947	86.44
351.174	95.44
351.402	78.44
351.629	79.44
351.856	91.44
352.083	84.44
352.311	77.44
352.538	80.44
352.765	98.44
352.992	87.44
353.22	81.44
353.447	70.44
353.674	87.44
353.901	81.44
354.128	86.44
354.355	78.44
354.583	70.44
354.81	82.44
355.037	80.44
355.264	88.44
355.491	74.44
355.718	75.44
355.945	73.44
356.172	70.44
356.399	79.44
356.626	73.44
356.853	70.44
357.08	73.44
357.307	74.44
357.534	80.44
357.761	74.44
357.988	86.44
358.215	92.44
358.441	78.44
358.668	72.44
358.895	81.44
359.122	87.44
359.349	73.44
359.576	67.44
359.802	77.44
360.029	81.44
360.256	66.44
360.483	83.44
360.709	71.44
360.936	81.44
361.163	83.44
361.39	76.44
361.616	65.44
361.843	73.44
362.07	80.44
362.296	62.44
362.523	70.44
362.749	92.44
362.976	88.44
363.203	83.44
363.429	79.44
363.656	90.44
363.882	95.44
364.109	87.44
364.335	69.44
364.562	80.44
364.788	76.44
365.015	78.44
365.241	91.44
365.468	93.44
365.694	75.44
365.92	92.44
366.147	79.44
366.373	95.44
366.599	78.44
366.826	83.44
367.052	81.44
367.278	76.44
367.505	87.44
367.731	66.44
367.957	81.44
368.184	95.44
368.41	83.44
368.636	98.44
368.862	80.44
369.089	77.44
369.315	74.44
369.541	74.44
369.767	73.44
369.993	91.44
370.219	89.44
370.445	79.44
370.672	73.44
370.898	83.44
371.124	81.44
371.35	81.44
371.576	92.44
371.802	78.44
372.028	91.44
372.254	73.44
372.48	75.44
372.706	83.44
372.932	85.44
373.158	87.44
373.384	82.44
373.61	80.44
373.835	74.44
374.061	92.44
374.287	80.44
374.513	82.44
374.739	88.44
374.965	79.44
375.191	90.44
375.416	81.44
375.642	82.44
375.868	93.44
376.094	92.44
376.319	76.44
376.545	73.44
376.771	78.44
376.997	72.44
377.222	82.44
377.448	86.44
377.674	91.44
377.899	82.44
378.125	90.44
378.35	89.44
378.576	83.44
378.802	75.44
379.027	85.44
379.253	77.44
379.478	89.44
379.704	78.44
379.929	90.44
380.155	86.44
380.38	88.44
380.606	79.44
380.831	90.44
381.057	85.44
381.282	89.44
381.507	81.44
381.733	84.44
381.958	86.44
382.184	83.44
382.409	85.44
382.634	89.44
382.86	81.44
383.085	103.44
383.31	97.44
383.535	89.44
383.761	94.44
383.986	83.44
384.211	86.44
384.436	84.44
384.662	89.44
384.887	86.44
385.112	82.44
385.337	82.44
385.562	68.44
385.787	84.44
386.013	92.44
386.238	90.44
386.463	88.44
386.688	99.44
386.913	85.44
387.138	90.44
387.363	86.44
387.588	95.44
387.813	90.44
388.038	81.44
388.263	89.44
388.488	76.44
388.713	78.44
388.938	79.44
389.163	89.44
389.387	78.44
389.612	83.44
389.837	88.44
390.062	98.44
390.287	90.44
390.512	95.44
390.736	108.44
390.961	83.44
391.186	89.44
391.411	73.44
391.636	82.44
391.86	77.44
392.085	95.44
392.31	101.44
392.534	94.44
392.759	93.44
392.984	94.44
393.208	106.44
393.433	89.44
393.658	81.44
393.882	85.44
394.107	91.44
394.331	92.44
394.556	97.44
394.78	98.44
395.005	83.44
395.229	68.44
395.454	86.44
395.678	92.44
395.903	79.44
396.127	102.44
396.352	96.44
396.576	80.44
396.801	80.44
397.025	98.44
397.249	99.44
397.474	88.44
397.698	89.44
397.922	80.44
398.147	78.44
398.371	95.44
398.595	98.44
398.82	97.44
399.044	97.44
399.268	91.44
399.492	103.44
399.717	104.44
399.941	83.44
400.165	95.44
400.389	83.44
400.613	96.44
400.837	103.44
401.062	93.44
401.286	75.44
401.51	87.44
401.734	108.44
401.958	85.44
402.182	95.44
402.406	99.44
402.63	88.44
402.854	86.44
403.078	97.44
403.302	90.44
403.526	87.44
403.75	97.44
403.974	103.44
404.198	102.44
404.422	87.44
404.645	75.44
404.869	93.44
405.093	103.44
405.317	85.44
405.541	104.44
405.765	101.44
405.988	94.44
406.212	97.44
406.436	86.44
406.66	106.44
406.883	92.44
407.107	97.44
407.331	94.44
407.555	90.44
407.778	93.44
408.002	94.44
408.226	93.44
408.449	99.44
408.673	93.44
408.896	99.44
409.12	85.44
409.344	97.44
409.567	107.44
409.791	90.44
410.014	95.44
410.238	80.44
410.461	91.44
410.685	104.44
410.908	93.44
411.132	93.44
411.355	82.44
411.578	102.44
411.802	102.44
412.025	98.44
412.249	94.44
412.472	89.44
412.695	86.44
412.919	105.44
413.142	102.44
413.365	98.44
413.589	109.44
413.812	82.44
414.035	95.44
414.258	91.44
414.482	90.44
414.705	97.44
414.928	107.44
415.151	90.44
415.374	97.44
415.597	93.44
415.821	103.44
416.044	90.44
416.267	97.44
416.49	95.44
416.713	96.44
416.936	99.44
417.159	94.44
417.382	88.44
417.605	94.44
417.828	98.44
418.051	88.44
418.274	96.44
418.497	105.44
418.72	107.44
418.943	105.44
419.166	105.44
419.389	104.44
419.611	99.44
419.834	97.44
420.057	117.44
420.28	101.44
420.503	101.44
420.726	81.44
420.948	99.44
421.171	106.44
421.394	106.44
421.617	110.44
421.839	91.44
422.062	108.44
422.285	109.44
422.507	102.44
422.73	77.44
422.953	91.44
423.175	94.44
423.398	101.44
423.621	99.44
423.843	114.44
424.066	118.44
424.288	109.44
424.511	109.44
424.733	112.44
424.956	94.44
425.178	109.44
425.401	109.44
425.623	91.44
425.846	104.44
426.068	106.44
426.291	100.44
426.513	110.44
426.735	109.44
426.958	98.44
427.18	92.44
427.402	94.44
427.625	111.44
427.847	111.44
428.069	91.44
428.292	106.44
428.514	87.44
428.736	101.44
428.958	99.44
429.181	96.44
429.403	104.44
429.625	103.44
429.847	88.44
430.069	88.44
430.292	109.44
430.514	96.44
430.736	117.44
430.958	84.44
431.18	97.44
431.402	94.44
431.624	101.44
431.846	107.44
432.068	81.44
432.29	83.44
432.512	86.44
432.734	109.44
432.956	119.44
433.178	95.44
433.4	92.44
433.622	102.44
433.844	95.44
434.066	96.44
434.287	64.44
434.509	82.44
434.731	90.44
434.953	109.44
435.175	103.44
435.397	119.44
435.618	98.44
435.84	103.44
436.062	85.44
436.284	99.44
436.505	114.44
436.727	107.44
436.949	97.44
437.17	102.44
437.392	105.44
437.614	103.44
437.835	90.44
438.057	86.44
438.278	93.44
438.5	114.44
438.721	101.44
438.943	95.44
439.165	89.44
439.386	105.44
439.608	118.44
439.829	113.44
440.05	103.44
440.272	120.44
440.493	122.44
440.715	105.44
440.936	111.44
441.158	109.44
441.379	99.44
441.6	110.44
441.822	114.44
442.043	101.44
442.264	113.44
442.486	107.44
442.707	113.44
442.928	99.44
443.149	113.44
443.371	119.44
443.592	99.44
443.813	113.44
444.034	103.44
444.255	114.44
444.476	116.44
444.698	110.44
444.919	120.44
445.14	220.44
445.361	154.44
445.582	92.44
445.803	111.44
446.024	110.44
446.245	111.44
446.466	110.44
446.687	99.44
446.908	111.44
447.129	99.44
447.35	115.44
447.571	102.44
447.792	106.44
448.013	103.44
448.234	86.44
448.455	116.44
448.675	118.44
448.896	98.44
449.117	98.44
449.338	105.44
449.559	110.44
449.779	131.44
450	120.44
450.221	98.44
450.442	102.44
450.662	103.44
450.883	102.44
451.104	102.44
451.324	103.44
451.545	87.44
451.766	105.44
451.986	88.44
452.207	84.44
452.428	94.44
452.648	98.44
452.869	89.44
453.089	112.44
453.31	96.44
453.53	101.44
453.751	99.44
453.971	83.44
454.192	74.44
454.412	86.44
454.633	89.44
454.853	88.44
455.073	91.44
455.294	99.44
455.514	93.44
455.734	84.44
455.955	97.44
456.175	96.44
456.395	97.44
456.616	85.44
456.836	85.44
457.056	91.44
457.276	97.44
457.497	98.44
457.717	86.44
457.937	95.44
458.157	84.44
458.377	85.44
458.598	102.44
458.818	87.44
459.038	82.44
459.258	85.44
459.478	85.44
459.698	91.44
459.918	89.44
460.138	88.44
460.358	96.44
460.578	89.44
460.798	94.44
461.018	89.44
461.238	95.44
461.458	96.44
461.678	102.44
461.898	89.44
462.118	97.44
462.338	94.44
462.558	93.44
462.777	84.44
462.997	99.44
463.217	99.44
463.437	84.44
463.657	83.44
463.876	98.44
464.096	84.44
464.316	79.44
464.536	95.44
464.755	97.44
464.975	86.44
465.195	105.44
465.414	94.44
465.634	99.44
465.854	98.44
466.073	97.44
466.293	111.44
466.512	91.44
466.732	96.44
466.951	89.44
467.171	109.44
467.391	106.44
467.61	102.44
467.829	104.44
468.049	104.44
468.268	103.44
468.488	110.44
468.707	86.44
468.927	102.44
469.146	115.44
469.365	111.44
469.585	107.44
469.804	100.44
470.023	106.44
470.243	102.44
470.462	97.44
470.681	115.44
470.901	117.44
471.12	115.44
471.339	105.44
471.558	94.44
471.777	95.44
471.997	97.44
472.216	99.44
472.435	99.44
472.654	79.44
472.873	90.44
473.092	98.44
473.311	101.44
473.53	91.44
473.749	101.44
473.968	104.44
474.187	94.44
474.406	93.44
474.625	109.44
474.844	107.44
475.063	97.44
475.282	96.44
475.501	88.44
475.72	96.44
475.939	90.44
476.158	97.44
476.377	103.44
476.596	105.44
476.814	89.44
477.033	88.44
477.252	103.44
477.471	106.44
477.69	97.44
477.908	98.44
478.127	116.44
478.346	112.44
478.564	104.44
478.783	102.44
479.002	104.44
479.22	128.44
479.439	95.44
479.658	89.44
479.876	91.44
480.095	86.44
480.313	100.44
480.532	88.44
480.751	77.44
480.969	94.44
481.188	93.44
481.406	68.44
481.624	75.44
481.843	81.44
482.061	77.44
482.28	85.44
482.498	92.44
482.717	103.44
482.935	99.44
483.153	126.44
483.372	104.44
483.59	102.44
483.808	111.44
484.027	101.44
484.245	101.44
484.463	103.44
484.681	112.44
484.9	97.44
485.118	105.44
485.336	96.44
485.554	91.44
485.772	92.44
485.99	94.44
486.209	103.44
486.427	102.44
486.645	94.44
486.863	110.44
487.081	115.44
487.299	102.44
487.517	93.44
487.735	122.44
487.953	131.44
488.171	133.44
488.389	118.44
488.607	113.44
488.825	116.44
489.043	99.44
489.261	94.44
489.479	105.44
489.696	99.44
489.914	99.44
490.132	122.44
490.35	124.44
490.568	113.44
490.786	128.44
491.003	112.44
491.221	104.44
491.439	129.44
491.657	130.44
491.874	128.44
492.092	142.44
492.31	154.44
492.527	143.44
492.745	144.44
492.963	132.44
493.18	125.44
493.398	133.44
493.615	126.44
493.833	133.44
494.05	121.44
494.268	118.44
494.485	135.44
494.703	129.44
494.92	129.44
495.138	116.44
495.355	114.44
495.573	131.44
495.79	119.44
496.008	129.44
496.225	125.44
496.442	121.44
496.66	118.44
496.877	114.44
497.094	110.44
497.312	124.44
497.529	128.44
497.746	115.44
497.963	100.44
498.181	109.44
498.398	95.44
498.615	93.44
498.832	107.44
499.049	92.44
499.267	113.44
499.484	100.44
499.701	122.44
499.918	109.44
500.135	111.44
500.352	117.44
500.569	114.44
500.786	111.44
501.003	98.44
501.22	114.44
501.437	109.44
501.654	109.44
501.871	111.44
502.088	113.44
502.305	121.44
502.522	111.44
502.739	95.44
502.956	104.44
503.172	98.44
503.389	97.44
503.606	101.44
503.823	99.44
504.04	115.44
504.256	107.44
504.473	95.44
504.69	93.44
504.907	105.44
505.123	101.44
505.34	104.44
505.557	114.44
505.773	104.44
505.99	101.44
506.207	96.44
506.423	94.44
506.64	92.44
506.856	89.44
507.073	94.44
507.289	110.44
507.506	96.44
507.722	90.44
507.939	89.44
508.155	89.44
508.372	75.44
508.588	94.44
508.805	96.44
509.021	95.44
509.238	93.44
509.454	79.44
509.67	72.44
509.887	103.44
510.103	80.44
510.319	86.44
510.536	89.44
510.752	84.44
510.968	78.44
511.184	89.44
511.401	84.44
511.617	82.44
511.833	80.44
512.049	86.44
512.265	87.44
512.481	91.44
512.698	91.44
512.914	82.44
513.13	79.44
513.346	78.44
513.562	93.44
513.778	84.44
513.994	90.44
514.21	86.44
514.426	87.44
514.642	85.44
514.858	95.44
515.074	74.44
515.29	80.44
515.506	81.44
515.721	86.44
515.937	84.44
