Data from Zn(NO3)2Standard.Agarose3%.GreenCap.LampEnergy5.5.E.O_HRD10591_15-01-02-768.txt Node
Date: Mon Jul 22 15:01:02 EDT 2019
User: cochatt
Spectrometer: HR+D1059
Trigger mode: 1
Integration Time (sec): 1.000000E-1
Scans to average: 1
Electric dark correction enabled: true
Nonlinearity correction enabled: false
Boxcar width: 0
XAxis mode: Wavelengths
Number of Pixels in Spectrum: 2048
>>>>>Begin Spectral Data<<<<<
223.165	-15.5
223.4	-15.5
223.635	-15.5
223.869	-22.5
224.104	-13.5
224.338	-9.5
224.573	-12.5
224.808	-10.5
225.042	-0.5
225.277	-10.5
225.511	3.5
225.746	0.5
225.98	3.5
226.215	-3.5
226.449	13.5
226.683	27.5
226.918	17.5
227.152	32.5
227.387	26.5
227.621	36.5
227.856	41.5
228.09	42.5
228.324	39.5
228.559	50.5
228.793	67.5
229.027	57.5
229.262	55.5
229.496	61.5
229.73	75.5
229.964	75.5
230.199	54.5
230.433	54.5
230.667	73.5
230.901	70.5
231.136	77.5
231.37	76.5
231.604	65.5
231.838	88.5
232.072	77.5
232.306	86.5
232.541	96.5
232.775	88.5
233.009	75.5
233.243	78.5
233.477	74.5
233.711	71.5
233.945	69.5
234.179	79.5
234.413	76.5
234.647	88.5
234.881	76.5
235.115	86.5
235.349	69.5
235.583	75.5
235.817	85.5
236.051	72.5
236.285	72.5
236.519	73.5
236.753	81.5
236.987	81.5
237.221	94.5
237.455	77.5
237.689	67.5
237.922	79.5
238.156	91.5
238.39	71.5
238.624	82.5
238.858	69.5
239.091	65.5
239.325	75.5
239.559	73.5
239.793	73.5
240.027	80.5
240.26	58.5
240.494	74.5
240.728	60.5
240.961	73.5
241.195	91.5
241.429	68.5
241.662	79.5
241.896	70.5
242.13	65.5
242.363	73.5
242.597	78.5
242.83	75.5
243.064	62.5
243.298	61.5
243.531	67.5
243.765	78.5
243.998	84.5
244.232	74.5
244.465	79.5
244.699	67.5
244.932	62.5
245.166	77.5
245.399	88.5
245.633	69.5
245.866	80.5
246.099	75.5
246.333	78.5
246.566	72.5
246.8	70.5
247.033	65.5
247.266	77.5
247.5	81.5
247.733	76.5
247.966	78.5
248.2	81.5
248.433	74.5
248.666	78.5
248.899	79.5
249.133	81.5
249.366	86.5
249.599	96.5
249.832	75.5
250.066	74.5
250.299	68.5
250.532	84.5
250.765	74.5
250.998	86.5
251.231	93.5
251.465	86.5
251.698	65.5
251.931	79.5
252.164	96.5
252.397	80.5
252.63	80.5
252.863	84.5
253.096	84.5
253.329	82.5
253.562	83.5
253.795	62.5
254.028	75.5
254.261	80.5
254.494	77.5
254.727	68.5
254.96	77.5
255.193	78.5
255.426	66.5
255.659	73.5
255.892	79.5
256.124	80.5
256.357	73.5
256.59	67.5
256.823	76.5
257.056	62.5
257.289	66.5
257.521	84.5
257.754	78.5
257.987	72.5
258.22	89.5
258.452	76.5
258.685	75.5
258.918	97.5
259.151	91.5
259.383	84.5
259.616	73.5
259.849	85.5
260.081	73.5
260.314	99.5
260.547	97.5
260.779	84.5
261.012	82.5
261.244	85.5
261.477	57.5
261.71	60.5
261.942	71.5
262.175	89.5
262.407	74.5
262.64	84.5
262.872	75.5
263.105	82.5
263.337	102.5
263.57	74.5
263.802	69.5
264.035	86.5
264.267	77.5
264.499	86.5
264.732	80.5
264.964	76.5
265.197	82.5
265.429	80.5
265.661	81.5
265.894	81.5
266.126	77.5
266.358	77.5
266.591	82.5
266.823	82.5
267.055	81.5
267.287	81.5
267.52	81.5
267.752	71.5
267.984	75.5
268.216	93.5
268.448	88.5
268.681	77.5
268.913	84.5
269.145	81.5
269.377	75.5
269.609	76.5
269.841	87.5
270.073	89.5
270.306	78.5
270.538	77.5
270.77	74.5
271.002	78.5
271.234	96.5
271.466	89.5
271.698	78.5
271.93	85.5
272.162	92.5
272.394	86.5
272.626	65.5
272.858	78.5
273.09	81.5
273.322	80.5
273.553	68.5
273.785	86.5
274.017	93.5
274.249	82.5
274.481	84.5
274.713	86.5
274.945	89.5
275.176	89.5
275.408	80.5
275.64	84.5
275.872	78.5
276.104	76.5
276.335	73.5
276.567	81.5
276.799	86.5
277.031	63.5
277.262	79.5
277.494	97.5
277.726	82.5
277.957	102.5
278.189	89.5
278.421	98.5
278.652	87.5
278.884	88.5
279.115	91.5
279.347	70.5
279.579	90.5
279.81	81.5
280.042	76.5
280.273	82.5
280.505	68.5
280.736	81.5
280.968	96.5
281.199	92.5
281.431	89.5
281.662	82.5
281.894	85.5
282.125	81.5
282.356	81.5
282.588	79.5
282.819	91.5
283.051	93.5
283.282	76.5
283.513	81.5
283.745	79.5
283.976	88.5
284.207	92.5
284.439	96.5
284.67	83.5
284.901	100.5
285.132	85.5
285.364	77.5
285.595	74.5
285.826	87.5
286.057	77.5
286.288	78.5
286.52	78.5
286.751	78.5
286.982	89.5
287.213	87.5
287.444	97.5
287.675	79.5
287.906	82.5
288.138	73.5
288.369	102.5
288.6	82.5
288.831	81.5
289.062	101.5
289.293	98.5
289.524	78.5
289.755	78.5
289.986	73.5
290.217	82.5
290.448	83.5
290.679	84.5
290.91	84.5
291.141	95.5
291.371	93.5
291.602	78.5
291.833	94.5
292.064	76.5
292.295	83.5
292.526	83.5
292.757	76.5
292.987	79.5
293.218	82.5
293.449	77.5
293.68	97.5
293.91	82.5
294.141	84.5
294.372	83.5
294.603	92.5
294.833	74.5
295.064	77.5
295.295	90.5
295.525	73.5
295.756	89.5
295.987	90.5
296.217	74.5
296.448	93.5
296.679	83.5
296.909	92.5
297.14	80.5
297.37	78.5
297.601	85.5
297.831	82.5
298.062	98.5
298.292	81.5
298.523	83.5
298.753	78.5
298.984	88.5
299.214	85.5
299.445	91.5
299.675	87.5
299.905	83.5
300.136	78.5
300.366	76.5
300.597	79.5
300.827	99.5
301.057	73.5
301.288	84.5
301.518	82.5
301.748	90.5
301.979	88.5
302.209	68.5
302.439	74.5
302.669	76.5
302.9	72.5
303.13	74.5
303.36	85.5
303.59	89.5
303.82	85.5
304.051	85.5
304.281	83.5
304.511	95.5
304.741	87.5
304.971	87.5
305.201	82.5
305.431	86.5
305.661	94.5
305.891	78.5
306.121	90.5
306.352	84.5
306.582	80.5
306.812	94.5
307.042	84.5
307.272	91.5
307.502	74.5
307.731	89.5
307.961	81.5
308.191	90.5
308.421	83.5
308.651	87.5
308.881	86.5
309.111	79.5
309.341	84.5
309.571	88.5
309.8	96.5
310.03	81.5
310.26	84.5
310.49	91.5
310.72	93.5
310.949	86.5
311.179	78.5
311.409	91.5
311.639	87.5
311.868	87.5
312.098	76.5
312.328	89.5
312.557	85.5
312.787	77.5
313.017	73.5
313.246	91.5
313.476	92.5
313.706	82.5
313.935	83.5
314.165	93.5
314.394	89.5
314.624	81.5
314.853	94.5
315.083	89.5
315.312	90.5
315.542	85.5
315.771	67.5
316.001	70.5
316.23	91.5
316.46	86.5
316.689	76.5
316.919	79.5
317.148	73.5
317.377	77.5
317.607	87.5
317.836	86.5
318.065	84.5
318.295	85.5
318.524	70.5
318.753	82.5
318.983	74.5
319.212	93.5
319.441	85.5
319.67	75.5
319.9	78.5
320.129	86.5
320.358	100.5
320.587	103.5
320.816	88.5
321.046	93.5
321.275	88.5
321.504	88.5
321.733	95.5
321.962	81.5
322.191	88.5
322.42	86.5
322.649	77.5
322.878	86.5
323.108	88.5
323.337	93.5
323.566	83.5
323.795	80.5
324.024	89.5
324.253	92.5
324.482	97.5
324.71	79.5
324.939	86.5
325.168	101.5
325.397	87.5
325.626	88.5
325.855	96.5
326.084	81.5
326.313	97.5
326.542	100.5
326.77	83.5
326.999	79.5
327.228	81.5
327.457	85.5
327.686	93.5
327.914	88.5
328.143	92.5
328.372	92.5
328.6	87.5
328.829	88.5
329.058	97.5
329.287	73.5
329.515	85.5
329.744	81.5
329.972	86.5
330.201	95.5
330.43	100.5
330.658	78.5
330.887	84.5
331.115	77.5
331.344	85.5
331.572	77.5
331.801	85.5
332.03	77.5
332.258	102.5
332.486	86.5
332.715	85.5
332.943	79.5
333.172	83.5
333.4	87.5
333.629	94.5
333.857	87.5
334.085	80.5
334.314	78.5
334.542	76.5
334.771	93.5
334.999	87.5
335.227	82.5
335.455	76.5
335.684	80.5
335.912	90.5
336.14	85.5
336.369	90.5
336.597	77.5
336.825	78.5
337.053	62.5
337.281	90.5
337.51	84.5
337.738	104.5
337.966	93.5
338.194	86.5
338.422	77.5
338.65	87.5
338.878	81.5
339.106	94.5
339.334	88.5
339.562	77.5
339.79	92.5
340.018	83.5
340.246	97.5
340.474	88.5
340.702	82.5
340.93	86.5
341.158	94.5
341.386	85.5
341.614	85.5
341.842	105.5
342.07	81.5
342.298	85.5
342.526	85.5
342.754	85.5
342.981	84.5
343.209	72.5
343.437	72.5
343.665	68.5
343.893	81.5
344.12	88.5
344.348	88.5
344.576	72.5
344.804	80.5
345.031	87.5
345.259	85.5
345.487	86.5
345.714	93.5
345.942	79.5
346.17	85.5
346.397	83.5
346.625	97.5
346.853	83.5
347.08	82.5
347.308	84.5
347.535	76.5
347.763	88.5
347.99	92.5
348.218	85.5
348.445	82.5
348.673	99.5
348.9	92.5
349.128	95.5
349.355	88.5
349.583	85.5
349.81	68.5
350.037	85.5
350.265	78.5
350.492	92.5
350.72	80.5
350.947	89.5
351.174	90.5
351.402	72.5
351.629	84.5
351.856	77.5
352.083	82.5
352.311	81.5
352.538	88.5
352.765	93.5
352.992	95.5
353.22	91.5
353.447	81.5
353.674	84.5
353.901	79.5
354.128	85.5
354.355	83.5
354.583	75.5
354.81	87.5
355.037	95.5
355.264	84.5
355.491	96.5
355.718	81.5
355.945	87.5
356.172	93.5
356.399	88.5
356.626	106.5
356.853	85.5
357.08	86.5
357.307	88.5
357.534	88.5
357.761	86.5
357.988	92.5
358.215	87.5
358.441	88.5
358.668	78.5
358.895	80.5
359.122	93.5
359.349	89.5
359.576	98.5
359.802	112.5
360.029	84.5
360.256	89.5
360.483	86.5
360.709	89.5
360.936	94.5
361.163	84.5
361.39	81.5
361.616	78.5
361.843	78.5
362.07	96.5
362.296	95.5
362.523	101.5
362.749	71.5
362.976	90.5
363.203	97.5
363.429	89.5
363.656	104.5
363.882	89.5
364.109	98.5
364.335	94.5
364.562	80.5
364.788	92.5
365.015	92.5
365.241	84.5
365.468	73.5
365.694	86.5
365.92	93.5
366.147	84.5
366.373	89.5
366.599	90.5
366.826	82.5
367.052	88.5
367.278	83.5
367.505	80.5
367.731	97.5
367.957	75.5
368.184	86.5
368.41	84.5
368.636	82.5
368.862	87.5
369.089	76.5
369.315	81.5
369.541	93.5
369.767	84.5
369.993	86.5
370.219	83.5
370.445	90.5
370.672	84.5
370.898	80.5
371.124	85.5
371.35	79.5
371.576	85.5
371.802	81.5
372.028	91.5
372.254	103.5
372.48	86.5
372.706	76.5
372.932	83.5
373.158	86.5
373.384	95.5
373.61	88.5
373.835	73.5
374.061	97.5
374.287	84.5
374.513	89.5
374.739	94.5
374.965	92.5
375.191	91.5
375.416	86.5
375.642	71.5
375.868	86.5
376.094	94.5
376.319	77.5
376.545	85.5
376.771	72.5
376.997	94.5
377.222	85.5
377.448	84.5
377.674	89.5
377.899	75.5
378.125	81.5
378.35	83.5
378.576	85.5
378.802	95.5
379.027	80.5
379.253	77.5
379.478	76.5
379.704	85.5
379.929	103.5
380.155	89.5
380.38	78.5
380.606	79.5
380.831	91.5
381.057	89.5
381.282	72.5
381.507	89.5
381.733	97.5
381.958	73.5
382.184	83.5
382.409	92.5
382.634	90.5
382.86	82.5
383.085	96.5
383.31	100.5
383.535	85.5
383.761	76.5
383.986	88.5
384.211	86.5
384.436	83.5
384.662	86.5
384.887	86.5
385.112	75.5
385.337	91.5
385.562	98.5
385.787	73.5
386.013	94.5
386.238	93.5
386.463	87.5
386.688	91.5
386.913	89.5
387.138	88.5
387.363	96.5
387.588	84.5
387.813	79.5
388.038	80.5
388.263	79.5
388.488	83.5
388.713	84.5
388.938	98.5
389.163	76.5
389.387	83.5
389.612	81.5
389.837	86.5
390.062	83.5
390.287	79.5
390.512	79.5
390.736	69.5
390.961	79.5
391.186	78.5
391.411	76.5
391.636	82.5
391.86	82.5
392.085	88.5
392.31	91.5
392.534	86.5
392.759	90.5
392.984	86.5
393.208	96.5
393.433	75.5
393.658	80.5
393.882	70.5
394.107	83.5
394.331	79.5
394.556	88.5
394.78	93.5
395.005	76.5
395.229	90.5
395.454	77.5
395.678	66.5
395.903	83.5
396.127	86.5
396.352	75.5
396.576	76.5
396.801	83.5
397.025	92.5
397.249	87.5
397.474	99.5
397.698	69.5
397.922	78.5
398.147	75.5
398.371	90.5
398.595	78.5
398.82	80.5
399.044	98.5
399.268	85.5
399.492	75.5
399.717	91.5
399.941	78.5
400.165	87.5
400.389	82.5
400.613	79.5
400.837	78.5
401.062	75.5
401.286	89.5
401.51	96.5
401.734	82.5
401.958	104.5
402.182	85.5
402.406	100.5
402.63	84.5
402.854	75.5
403.078	92.5
403.302	85.5
403.526	74.5
403.75	78.5
403.974	78.5
404.198	83.5
404.422	82.5
404.645	81.5
404.869	91.5
405.093	89.5
405.317	88.5
405.541	86.5
405.765	84.5
405.988	82.5
406.212	81.5
406.436	78.5
406.66	107.5
406.883	71.5
407.107	77.5
407.331	92.5
407.555	92.5
407.778	78.5
408.002	74.5
408.226	86.5
408.449	81.5
408.673	90.5
408.896	85.5
409.12	92.5
409.344	81.5
409.567	79.5
409.791	93.5
410.014	83.5
410.238	87.5
410.461	82.5
410.685	88.5
410.908	74.5
411.132	93.5
411.355	90.5
411.578	92.5
411.802	82.5
412.025	86.5
412.249	87.5
412.472	78.5
412.695	89.5
412.919	93.5
413.142	100.5
413.365	91.5
413.589	86.5
413.812	73.5
414.035	91.5
414.258	88.5
414.482	81.5
414.705	94.5
414.928	84.5
415.151	86.5
415.374	94.5
415.597	78.5
415.821	81.5
416.044	86.5
416.267	99.5
416.49	78.5
416.713	111.5
416.936	101.5
417.159	74.5
417.382	84.5
417.605	93.5
417.828	100.5
418.051	93.5
418.274	80.5
418.497	94.5
418.72	81.5
418.943	92.5
419.166	90.5
419.389	86.5
419.611	93.5
419.834	93.5
420.057	83.5
420.28	91.5
420.503	94.5
420.726	89.5
420.948	73.5
421.171	85.5
421.394	94.5
421.617	91.5
421.839	101.5
422.062	85.5
422.285	88.5
422.507	88.5
422.73	95.5
422.953	89.5
423.175	86.5
423.398	84.5
423.621	86.5
423.843	83.5
424.066	83.5
424.288	101.5
424.511	90.5
424.733	92.5
424.956	91.5
425.178	88.5
425.401	77.5
425.623	81.5
425.846	91.5
426.068	78.5
426.291	90.5
426.513	84.5
426.735	91.5
426.958	89.5
427.18	81.5
427.402	93.5
427.625	88.5
427.847	83.5
428.069	90.5
428.292	77.5
428.514	93.5
428.736	93.5
428.958	86.5
429.181	81.5
429.403	86.5
429.625	81.5
429.847	100.5
430.069	91.5
430.292	90.5
430.514	99.5
430.736	85.5
430.958	98.5
431.18	82.5
431.402	98.5
431.624	94.5
431.846	87.5
432.068	73.5
432.29	89.5
432.512	88.5
432.734	83.5
432.956	90.5
433.178	82.5
433.4	84.5
433.622	105.5
433.844	101.5
434.066	85.5
434.287	105.5
434.509	90.5
434.731	84.5
434.953	85.5
435.175	90.5
435.397	88.5
435.618	78.5
435.84	90.5
436.062	92.5
436.284	96.5
436.505	93.5
436.727	77.5
436.949	94.5
437.17	88.5
437.392	79.5
437.614	92.5
437.835	98.5
438.057	93.5
438.278	96.5
438.5	110.5
438.721	90.5
438.943	93.5
439.165	82.5
439.386	97.5
439.608	80.5
439.829	82.5
440.05	87.5
440.272	96.5
440.493	96.5
440.715	75.5
440.936	91.5
441.158	89.5
441.379	90.5
441.6	98.5
441.822	87.5
442.043	85.5
442.264	86.5
442.486	89.5
442.707	83.5
442.928	86.5
443.149	91.5
443.371	99.5
443.592	93.5
443.813	75.5
444.034	82.5
444.255	94.5
444.476	85.5
444.698	88.5
444.919	83.5
445.14	187.5
445.361	123.5
445.582	86.5
445.803	94.5
446.024	97.5
446.245	93.5
446.466	89.5
446.687	99.5
446.908	107.5
447.129	92.5
447.35	90.5
447.571	90.5
447.792	85.5
448.013	91.5
448.234	102.5
448.455	90.5
448.675	84.5
448.896	82.5
449.117	81.5
449.338	81.5
449.559	97.5
449.779	88.5
450	94.5
450.221	100.5
450.442	98.5
450.662	76.5
450.883	81.5
451.104	83.5
451.324	90.5
451.545	90.5
451.766	88.5
451.986	91.5
452.207	82.5
452.428	96.5
452.648	91.5
452.869	86.5
453.089	71.5
453.31	79.5
453.53	92.5
453.751	80.5
453.971	97.5
454.192	89.5
454.412	81.5
454.633	93.5
454.853	93.5
455.073	89.5
455.294	95.5
455.514	84.5
455.734	85.5
455.955	88.5
456.175	86.5
456.395	102.5
456.616	97.5
456.836	85.5
457.056	87.5
457.276	87.5
457.497	78.5
457.717	81.5
457.937	88.5
458.157	84.5
458.377	77.5
458.598	57.5
458.818	83.5
459.038	93.5
459.258	96.5
459.478	80.5
459.698	76.5
459.918	95.5
460.138	90.5
460.358	80.5
460.578	89.5
460.798	82.5
461.018	81.5
461.238	86.5
461.458	95.5
461.678	87.5
461.898	90.5
462.118	88.5
462.338	80.5
462.558	77.5
462.777	92.5
462.997	92.5
463.217	79.5
463.437	78.5
463.657	86.5
463.876	87.5
464.096	66.5
464.316	86.5
464.536	78.5
464.755	86.5
464.975	87.5
465.195	82.5
465.414	85.5
465.634	94.5
465.854	94.5
466.073	102.5
466.293	94.5
466.512	89.5
466.732	98.5
466.951	84.5
467.171	89.5
467.391	85.5
467.61	82.5
467.829	91.5
468.049	88.5
468.268	90.5
468.488	87.5
468.707	78.5
468.927	96.5
469.146	85.5
469.365	82.5
469.585	86.5
469.804	93.5
470.023	82.5
470.243	97.5
470.462	91.5
470.681	89.5
470.901	86.5
471.12	82.5
471.339	94.5
471.558	86.5
471.777	91.5
471.997	86.5
472.216	77.5
472.435	92.5
472.654	77.5
472.873	84.5
473.092	79.5
473.311	80.5
473.53	97.5
473.749	85.5
473.968	98.5
474.187	86.5
474.406	90.5
474.625	98.5
474.844	87.5
475.063	106.5
475.282	78.5
475.501	90.5
475.72	99.5
475.939	95.5
476.158	91.5
476.377	86.5
476.596	105.5
476.814	104.5
477.033	83.5
477.252	89.5
477.471	79.5
477.69	79.5
477.908	91.5
478.127	96.5
478.346	87.5
478.564	95.5
478.783	88.5
479.002	106.5
479.22	103.5
479.439	91.5
479.658	94.5
479.876	82.5
480.095	100.5
480.313	90.5
480.532	99.5
480.751	83.5
480.969	84.5
481.188	83.5
481.406	93.5
481.624	84.5
481.843	91.5
482.061	83.5
482.28	80.5
482.498	84.5
482.717	91.5
482.935	92.5
483.153	78.5
483.372	105.5
483.59	82.5
483.808	93.5
484.027	85.5
484.245	88.5
484.463	86.5
484.681	86.5
484.9	103.5
485.118	98.5
485.336	102.5
485.554	85.5
485.772	79.5
485.99	86.5
486.209	102.5
486.427	75.5
486.645	77.5
486.863	90.5
487.081	93.5
487.299	85.5
487.517	86.5
487.735	76.5
487.953	101.5
488.171	101.5
488.389	86.5
488.607	83.5
488.825	86.5
489.043	91.5
489.261	90.5
489.479	87.5
489.696	92.5
489.914	85.5
490.132	89.5
490.35	95.5
490.568	111.5
490.786	102.5
491.003	87.5
491.221	105.5
491.439	98.5
491.657	99.5
491.874	109.5
492.092	117.5
492.31	114.5
492.527	113.5
492.745	113.5
492.963	95.5
493.18	103.5
493.398	103.5
493.615	88.5
493.833	92.5
494.05	112.5
494.268	109.5
494.485	102.5
494.703	99.5
494.92	102.5
495.138	94.5
495.355	86.5
495.573	91.5
495.79	93.5
496.008	87.5
496.225	90.5
496.442	100.5
496.66	97.5
496.877	88.5
497.094	99.5
497.312	73.5
497.529	102.5
497.746	96.5
497.963	109.5
498.181	104.5
498.398	77.5
498.615	91.5
498.832	81.5
499.049	80.5
499.267	90.5
499.484	83.5
499.701	84.5
499.918	85.5
500.135	99.5
500.352	100.5
500.569	105.5
500.786	99.5
501.003	96.5
501.22	115.5
501.437	80.5
501.654	88.5
501.871	81.5
502.088	99.5
502.305	83.5
502.522	72.5
502.739	78.5
502.956	72.5
503.172	89.5
503.389	79.5
503.606	83.5
503.823	88.5
504.04	81.5
504.256	98.5
504.473	77.5
504.69	82.5
504.907	92.5
505.123	109.5
505.34	94.5
505.557	104.5
505.773	82.5
505.99	93.5
506.207	89.5
506.423	91.5
506.64	108.5
506.856	83.5
507.073	89.5
507.289	80.5
507.506	100.5
507.722	85.5
507.939	89.5
508.155	82.5
508.372	89.5
508.588	89.5
508.805	92.5
509.021	90.5
509.238	82.5
509.454	81.5
509.67	79.5
509.887	82.5
510.103	82.5
510.319	85.5
510.536	89.5
510.752	76.5
510.968	90.5
511.184	82.5
511.401	77.5
511.617	83.5
511.833	66.5
512.049	76.5
512.265	82.5
512.481	74.5
512.698	78.5
512.914	83.5
513.13	88.5
513.346	82.5
513.562	88.5
513.778	87.5
513.994	86.5
514.21	90.5
514.426	89.5
514.642	84.5
514.858	88.5
515.074	87.5
515.29	82.5
515.506	81.5
515.721	78.5
515.937	69.5
516.153	98.5
516.369	88.5
516.585	67.5
516.801	78.5
517.016	91.5
517.232	74.5
517.448	91.5
517.664	84.5
517.879	70.5
518.095	92.5
518.311	90.5
518.527	70.5
518.742	94.5
518.958	87.5
519.173	86.5
519.389	90.5
519.605	79.5
519.82	93.5
520.036	85.5
520.251	84.5
520.467	69.5
520.682	71.5
520.898	69.5
521.113	84.5
521.329	84.5
521.544	91.5
521.76	90.5
521.975	80.5
522.19	75.5
522.406	89.5
522.621	77.5
522.836	84.5
523.052	89.5
523.267	97.5
523.482	97.5
523.698	81.5
523.913	98.5
524.128	94.5
524.343	80.5
524.559	90.5
524.774	96.5
524.989	64.5
525.204	86.5
525.419	88.5
525.634	85.5
525.849	89.5
526.064	85.5
526.28	91.5
526.495	88.5
526.71	87.5
526.925	83.5
527.14	77.5
527.355	77.5
527.57	100.5
527.785	79.5
527.999	83.5
528.214	67.5
528.429	80.5
528.644	78.5
528.859	88.5
529.074	80.5
529.289	100.5
529.503	92.5
529.718	85.5
529.933	81.5
530.148	83.5
530.363	99.5
530.577	85.5
530.792	72.5
531.007	93.5
531.221	88.5
531.436	86.5
531.651	96.5
531.865	81.5
532.08	85.5
532.295	81.5
532.509	67.5
532.724	80.5
532.938	84.5
533.153	109.5
533.367	73.5
533.582	87.5
533.796	86.5
534.011	82.5
534.225	81.5
534.44	83.5
534.654	74.5
534.868	89.5
535.083	76.5
535.297	85.5
535.511	92.5
535.726	98.5
535.94	88.5
536.154	76.5
536.369	77.5
536.583	72.5
536.797	82.5
537.011	87.5
537.225	69.5
537.44	77.5
537.654	102.5
537.868	75.5
538.082	84.5
538.296	94.5
538.51	90.5
