Data from Zn(NO3)2Standard.Agarose3%.GreenCap.LampEnergy10E.O_HRD10591_15-08-17-948.txt Node
Date: Mon Jul 22 15:08:17 EDT 2019
User: cochatt
Spectrometer: HR+D1059
Trigger mode: 1
Integration Time (sec): 1.000000E-1
Scans to average: 1
Electric dark correction enabled: true
Nonlinearity correction enabled: false
Boxcar width: 0
XAxis mode: Wavelengths
Number of Pixels in Spectrum: 2048
>>>>>Begin Spectral Data<<<<<
223.165	-14.5
223.4	-14.5
223.635	-14.5
223.869	-1.5
224.104	-15.5
224.338	-8.5
224.573	-10.5
224.808	-17.5
225.042	-6.5
225.277	4.5
225.511	-6.5
225.746	-11.5
225.98	4.5
226.215	4.5
226.449	7.5
226.683	10.5
226.918	33.5
227.152	27.5
227.387	39.5
227.621	31.5
227.856	40.5
228.09	41.5
228.324	35.5
228.559	54.5
228.793	53.5
229.027	75.5
229.262	54.5
229.496	68.5
229.73	66.5
229.964	73.5
230.199	78.5
230.433	88.5
230.667	86.5
230.901	72.5
231.136	80.5
231.37	71.5
231.604	79.5
231.838	68.5
232.072	76.5
232.306	74.5
232.541	77.5
232.775	73.5
233.009	81.5
233.243	86.5
233.477	86.5
233.711	89.5
233.945	76.5
234.179	93.5
234.413	87.5
234.647	82.5
234.881	91.5
235.115	78.5
235.349	78.5
235.583	95.5
235.817	74.5
236.051	84.5
236.285	82.5
236.519	81.5
236.753	75.5
236.987	79.5
237.221	86.5
237.455	85.5
237.689	72.5
237.922	90.5
238.156	84.5
238.39	72.5
238.624	75.5
238.858	81.5
239.091	81.5
239.325	69.5
239.559	83.5
239.793	88.5
240.027	83.5
240.26	78.5
240.494	74.5
240.728	81.5
240.961	76.5
241.195	78.5
241.429	95.5
241.662	70.5
241.896	73.5
242.13	72.5
242.363	88.5
242.597	82.5
242.83	69.5
243.064	80.5
243.298	81.5
243.531	90.5
243.765	89.5
243.998	83.5
244.232	68.5
244.465	74.5
244.699	86.5
244.932	84.5
245.166	78.5
245.399	73.5
245.633	90.5
245.866	72.5
246.099	76.5
246.333	77.5
246.566	84.5
246.8	72.5
247.033	85.5
247.266	73.5
247.5	97.5
247.733	97.5
247.966	86.5
248.2	65.5
248.433	78.5
248.666	72.5
248.899	95.5
249.133	74.5
249.366	90.5
249.599	63.5
249.832	72.5
250.066	96.5
250.299	78.5
250.532	76.5
250.765	81.5
250.998	73.5
251.231	89.5
251.465	93.5
251.698	87.5
251.931	95.5
252.164	74.5
252.397	76.5
252.63	84.5
252.863	89.5
253.096	82.5
253.329	69.5
253.562	76.5
253.795	86.5
254.028	86.5
254.261	70.5
254.494	77.5
254.727	88.5
254.96	81.5
255.193	78.5
255.426	75.5
255.659	77.5
255.892	85.5
256.124	73.5
256.357	85.5
256.59	71.5
256.823	91.5
257.056	58.5
257.289	83.5
257.521	78.5
257.754	74.5
257.987	62.5
258.22	89.5
258.452	72.5
258.685	67.5
258.918	95.5
259.151	73.5
259.383	78.5
259.616	89.5
259.849	99.5
260.081	94.5
260.314	81.5
260.547	84.5
260.779	76.5
261.012	88.5
261.244	72.5
261.477	84.5
261.71	95.5
261.942	80.5
262.175	65.5
262.407	82.5
262.64	82.5
262.872	88.5
263.105	76.5
263.337	73.5
263.57	82.5
263.802	76.5
264.035	75.5
264.267	79.5
264.499	85.5
264.732	91.5
264.964	68.5
265.197	84.5
265.429	70.5
265.661	90.5
265.894	83.5
266.126	91.5
266.358	78.5
266.591	77.5
266.823	77.5
267.055	79.5
267.287	88.5
267.52	71.5
267.752	96.5
267.984	92.5
268.216	75.5
268.448	66.5
268.681	88.5
268.913	86.5
269.145	76.5
269.377	74.5
269.609	76.5
269.841	97.5
270.073	82.5
270.306	98.5
270.538	88.5
270.77	71.5
271.002	82.5
271.234	83.5
271.466	89.5
271.698	81.5
271.93	77.5
272.162	89.5
272.394	92.5
272.626	89.5
272.858	85.5
273.09	83.5
273.322	83.5
273.553	84.5
273.785	93.5
274.017	84.5
274.249	101.5
274.481	80.5
274.713	78.5
274.945	81.5
275.176	90.5
275.408	72.5
275.64	82.5
275.872	89.5
276.104	85.5
276.335	81.5
276.567	94.5
276.799	83.5
277.031	79.5
277.262	89.5
277.494	81.5
277.726	84.5
277.957	78.5
278.189	75.5
278.421	94.5
278.652	101.5
278.884	87.5
279.115	94.5
279.347	84.5
279.579	81.5
279.81	94.5
280.042	90.5
280.273	101.5
280.505	78.5
280.736	89.5
280.968	87.5
281.199	90.5
281.431	83.5
281.662	86.5
281.894	80.5
282.125	81.5
282.356	78.5
282.588	85.5
282.819	95.5
283.051	72.5
283.282	73.5
283.513	68.5
283.745	78.5
283.976	80.5
284.207	76.5
284.439	79.5
284.67	75.5
284.901	70.5
285.132	91.5
285.364	88.5
285.595	84.5
285.826	87.5
286.057	80.5
286.288	78.5
286.52	83.5
286.751	84.5
286.982	85.5
287.213	83.5
287.444	84.5
287.675	89.5
287.906	87.5
288.138	89.5
288.369	101.5
288.6	85.5
288.831	89.5
289.062	84.5
289.293	88.5
289.524	93.5
289.755	93.5
289.986	83.5
290.217	93.5
290.448	96.5
290.679	84.5
290.91	94.5
291.141	99.5
291.371	91.5
291.602	83.5
291.833	77.5
292.064	67.5
292.295	97.5
292.526	96.5
292.757	89.5
292.987	98.5
293.218	82.5
293.449	82.5
293.68	97.5
293.91	82.5
294.141	81.5
294.372	97.5
294.603	97.5
294.833	81.5
295.064	89.5
295.295	72.5
295.525	92.5
295.756	82.5
295.987	79.5
296.217	89.5
296.448	83.5
296.679	60.5
296.909	75.5
297.14	94.5
297.37	76.5
297.601	85.5
297.831	89.5
298.062	86.5
298.292	83.5
298.523	89.5
298.753	84.5
298.984	82.5
299.214	94.5
299.445	79.5
299.675	94.5
299.905	74.5
300.136	93.5
300.366	87.5
300.597	79.5
300.827	97.5
301.057	93.5
301.288	93.5
301.518	92.5
301.748	87.5
301.979	87.5
302.209	100.5
302.439	67.5
302.669	85.5
302.9	93.5
303.13	90.5
303.36	84.5
303.59	84.5
303.82	80.5
304.051	82.5
304.281	79.5
304.511	83.5
304.741	78.5
304.971	82.5
305.201	92.5
305.431	85.5
305.661	85.5
305.891	89.5
306.121	84.5
306.352	73.5
306.582	96.5
306.812	89.5
307.042	93.5
307.272	88.5
307.502	94.5
307.731	79.5
307.961	85.5
308.191	84.5
308.421	73.5
308.651	89.5
308.881	86.5
309.111	85.5
309.341	93.5
309.571	82.5
309.8	78.5
310.03	96.5
310.26	78.5
310.49	82.5
310.72	89.5
310.949	80.5
311.179	89.5
311.409	97.5
311.639	80.5
311.868	85.5
312.098	91.5
312.328	92.5
312.557	81.5
312.787	74.5
313.017	92.5
313.246	95.5
313.476	87.5
313.706	88.5
313.935	78.5
314.165	86.5
314.394	81.5
314.624	78.5
314.853	92.5
315.083	89.5
315.312	91.5
315.542	86.5
315.771	93.5
316.001	92.5
316.23	87.5
316.46	79.5
316.689	83.5
316.919	84.5
317.148	76.5
317.377	75.5
317.607	93.5
317.836	83.5
318.065	80.5
318.295	89.5
318.524	78.5
318.753	85.5
318.983	87.5
319.212	90.5
319.441	75.5
319.67	86.5
319.9	91.5
320.129	106.5
320.358	90.5
320.587	81.5
320.816	83.5
321.046	78.5
321.275	92.5
321.504	70.5
321.733	80.5
321.962	91.5
322.191	94.5
322.42	82.5
322.649	97.5
322.878	77.5
323.108	96.5
323.337	99.5
323.566	78.5
323.795	77.5
324.024	94.5
324.253	90.5
324.482	78.5
324.71	95.5
324.939	86.5
325.168	84.5
325.397	88.5
325.626	89.5
325.855	78.5
326.084	78.5
326.313	102.5
326.542	79.5
326.77	85.5
326.999	108.5
327.228	109.5
327.457	83.5
327.686	78.5
327.914	94.5
328.143	90.5
328.372	90.5
328.6	87.5
328.829	66.5
329.058	93.5
329.287	87.5
329.515	76.5
329.744	86.5
329.972	82.5
330.201	74.5
330.43	89.5
330.658	100.5
330.887	80.5
331.115	81.5
331.344	98.5
331.572	88.5
331.801	84.5
332.03	85.5
332.258	78.5
332.486	78.5
332.715	100.5
332.943	81.5
333.172	94.5
333.4	86.5
333.629	87.5
333.857	79.5
334.085	78.5
334.314	89.5
334.542	77.5
334.771	73.5
334.999	82.5
335.227	88.5
335.455	85.5
335.684	86.5
335.912	74.5
336.14	91.5
336.369	72.5
336.597	78.5
336.825	88.5
337.053	74.5
337.281	87.5
337.51	89.5
337.738	91.5
337.966	85.5
338.194	80.5
338.422	82.5
338.65	78.5
338.878	74.5
339.106	74.5
339.334	89.5
339.562	82.5
339.79	81.5
340.018	76.5
340.246	83.5
340.474	95.5
340.702	88.5
340.93	91.5
341.158	82.5
341.386	86.5
341.614	81.5
341.842	99.5
342.07	86.5
342.298	75.5
342.526	77.5
342.754	72.5
342.981	81.5
343.209	80.5
343.437	105.5
343.665	82.5
343.893	79.5
344.12	86.5
344.348	84.5
344.576	88.5
344.804	80.5
345.031	72.5
345.259	103.5
345.487	83.5
345.714	89.5
345.942	80.5
346.17	90.5
346.397	74.5
346.625	87.5
346.853	82.5
347.08	92.5
347.308	84.5
347.535	82.5
347.763	91.5
347.99	91.5
348.218	90.5
348.445	83.5
348.673	82.5
348.9	70.5
349.128	84.5
349.355	83.5
349.583	85.5
349.81	89.5
350.037	80.5
350.265	96.5
350.492	87.5
350.72	90.5
350.947	80.5
351.174	76.5
351.402	81.5
351.629	84.5
351.856	85.5
352.083	84.5
352.311	62.5
352.538	70.5
352.765	72.5
352.992	82.5
353.22	94.5
353.447	82.5
353.674	83.5
353.901	80.5
354.128	100.5
354.355	93.5
354.583	76.5
354.81	89.5
355.037	85.5
355.264	78.5
355.491	80.5
355.718	88.5
355.945	90.5
356.172	82.5
356.399	83.5
356.626	87.5
356.853	81.5
357.08	69.5
357.307	94.5
357.534	92.5
357.761	81.5
357.988	76.5
358.215	79.5
358.441	84.5
358.668	77.5
358.895	86.5
359.122	93.5
359.349	96.5
359.576	77.5
359.802	85.5
360.029	94.5
360.256	80.5
360.483	73.5
360.709	84.5
360.936	81.5
361.163	85.5
361.39	94.5
361.616	99.5
361.843	68.5
362.07	77.5
362.296	86.5
362.523	90.5
362.749	75.5
362.976	83.5
363.203	74.5
363.429	91.5
363.656	66.5
363.882	77.5
364.109	79.5
364.335	80.5
364.562	78.5
364.788	97.5
365.015	69.5
365.241	75.5
365.468	82.5
365.694	104.5
365.92	85.5
366.147	98.5
366.373	97.5
366.599	94.5
366.826	92.5
367.052	90.5
367.278	68.5
367.505	84.5
367.731	90.5
367.957	88.5
368.184	81.5
368.41	77.5
368.636	78.5
368.862	98.5
369.089	82.5
369.315	84.5
369.541	99.5
369.767	84.5
369.993	93.5
370.219	72.5
370.445	77.5
370.672	101.5
370.898	86.5
371.124	74.5
371.35	70.5
371.576	90.5
371.802	90.5
372.028	91.5
372.254	82.5
372.48	78.5
372.706	81.5
372.932	76.5
373.158	92.5
373.384	84.5
373.61	88.5
373.835	81.5
374.061	78.5
374.287	83.5
374.513	86.5
374.739	93.5
374.965	93.5
375.191	83.5
375.416	90.5
375.642	91.5
375.868	98.5
376.094	94.5
376.319	73.5
376.545	102.5
376.771	86.5
376.997	74.5
377.222	95.5
377.448	87.5
377.674	85.5
377.899	97.5
378.125	85.5
378.35	75.5
378.576	83.5
378.802	93.5
379.027	86.5
379.253	95.5
379.478	87.5
379.704	87.5
379.929	96.5
380.155	85.5
380.38	93.5
380.606	78.5
380.831	96.5
381.057	81.5
381.282	82.5
381.507	105.5
381.733	94.5
381.958	85.5
382.184	90.5
382.409	85.5
382.634	91.5
382.86	101.5
383.085	91.5
383.31	93.5
383.535	93.5
383.761	76.5
383.986	90.5
384.211	91.5
384.436	88.5
384.662	81.5
384.887	93.5
385.112	79.5
385.337	99.5
385.562	102.5
385.787	95.5
386.013	93.5
386.238	99.5
386.463	98.5
386.688	104.5
386.913	94.5
387.138	85.5
387.363	103.5
387.588	83.5
387.813	80.5
388.038	86.5
388.263	88.5
388.488	87.5
388.713	85.5
388.938	93.5
389.163	81.5
389.387	77.5
389.612	82.5
389.837	80.5
390.062	85.5
390.287	97.5
390.512	87.5
390.736	81.5
390.961	104.5
391.186	81.5
391.411	87.5
391.636	86.5
391.86	92.5
392.085	87.5
392.31	84.5
392.534	96.5
392.759	88.5
392.984	99.5
393.208	78.5
393.433	86.5
393.658	86.5
393.882	92.5
394.107	107.5
394.331	87.5
394.556	89.5
394.78	94.5
395.005	87.5
395.229	93.5
395.454	95.5
395.678	90.5
395.903	94.5
396.127	81.5
396.352	98.5
396.576	83.5
396.801	98.5
397.025	95.5
397.249	96.5
397.474	89.5
397.698	87.5
397.922	105.5
398.147	105.5
398.371	93.5
398.595	90.5
398.82	85.5
399.044	103.5
399.268	76.5
399.492	88.5
399.717	94.5
399.941	102.5
400.165	99.5
400.389	107.5
400.613	97.5
400.837	94.5
401.062	92.5
401.286	84.5
401.51	90.5
401.734	96.5
401.958	99.5
402.182	82.5
402.406	99.5
402.63	105.5
402.854	105.5
403.078	103.5
403.302	94.5
403.526	95.5
403.75	94.5
403.974	114.5
404.198	104.5
404.422	112.5
404.645	109.5
404.869	96.5
405.093	109.5
405.317	98.5
405.541	98.5
405.765	103.5
405.988	96.5
406.212	101.5
406.436	96.5
406.66	104.5
406.883	89.5
407.107	103.5
407.331	91.5
407.555	101.5
407.778	113.5
408.002	95.5
408.226	93.5
408.449	101.5
408.673	96.5
408.896	106.5
409.12	111.5
409.344	97.5
409.567	89.5
409.791	110.5
410.014	97.5
410.238	94.5
410.461	104.5
410.685	115.5
410.908	91.5
411.132	96.5
411.355	112.5
411.578	100.5
411.802	89.5
412.025	96.5
412.249	90.5
412.472	96.5
412.695	101.5
412.919	90.5
413.142	91.5
413.365	107.5
413.589	100.5
413.812	106.5
414.035	104.5
414.258	92.5
414.482	104.5
414.705	87.5
414.928	97.5
415.151	106.5
415.374	101.5
415.597	90.5
415.821	104.5
416.044	108.5
416.267	109.5
416.49	95.5
416.713	110.5
416.936	101.5
417.159	107.5
417.382	113.5
417.605	107.5
417.828	105.5
418.051	96.5
418.274	108.5
418.497	104.5
418.72	98.5
418.943	102.5
419.166	116.5
419.389	98.5
419.611	88.5
419.834	104.5
420.057	80.5
420.28	99.5
420.503	105.5
420.726	116.5
420.948	106.5
421.171	107.5
421.394	125.5
421.617	105.5
421.839	101.5
422.062	113.5
422.285	108.5
422.507	113.5
422.73	109.5
422.953	103.5
423.175	102.5
423.398	92.5
423.621	103.5
423.843	97.5
424.066	112.5
424.288	103.5
424.511	105.5
424.733	122.5
424.956	99.5
425.178	112.5
425.401	119.5
425.623	101.5
425.846	105.5
426.068	109.5
426.291	112.5
426.513	107.5
426.735	119.5
426.958	103.5
427.18	97.5
427.402	121.5
427.625	100.5
427.847	110.5
428.069	101.5
428.292	99.5
428.514	112.5
428.736	100.5
428.958	89.5
429.181	97.5
429.403	113.5
429.625	101.5
429.847	88.5
430.069	110.5
430.292	114.5
430.514	108.5
430.736	103.5
430.958	116.5
431.18	88.5
431.402	83.5
431.624	111.5
431.846	76.5
432.068	85.5
432.29	80.5
432.512	104.5
432.734	99.5
432.956	99.5
433.178	100.5
433.4	111.5
433.622	91.5
433.844	108.5
434.066	105.5
434.287	91.5
434.509	91.5
434.731	90.5
434.953	96.5
435.175	104.5
435.397	106.5
435.618	113.5
435.84	93.5
436.062	98.5
436.284	91.5
436.505	91.5
436.727	130.5
436.949	112.5
437.17	98.5
437.392	99.5
437.614	105.5
437.835	96.5
438.057	92.5
438.278	86.5
438.5	101.5
438.721	110.5
438.943	121.5
439.165	115.5
439.386	99.5
439.608	108.5
439.829	99.5
440.05	122.5
440.272	114.5
440.493	106.5
440.715	110.5
440.936	107.5
441.158	125.5
441.379	98.5
441.6	103.5
441.822	113.5
442.043	126.5
442.264	124.5
442.486	103.5
442.707	104.5
442.928	105.5
443.149	119.5
443.371	118.5
443.592	109.5
443.813	92.5
444.034	94.5
444.255	99.5
444.476	88.5
444.698	99.5
444.919	104.5
445.14	195.5
445.361	148.5
445.582	106.5
445.803	103.5
446.024	99.5
446.245	109.5
446.466	115.5
446.687	129.5
446.908	103.5
447.129	107.5
447.35	122.5
447.571	118.5
447.792	100.5
448.013	107.5
448.234	112.5
448.455	116.5
448.675	119.5
448.896	112.5
449.117	114.5
449.338	105.5
449.559	118.5
449.779	103.5
450	114.5
450.221	98.5
450.442	116.5
450.662	103.5
450.883	121.5
451.104	115.5
451.324	112.5
451.545	101.5
451.766	105.5
451.986	114.5
452.207	98.5
452.428	105.5
452.648	125.5
452.869	112.5
453.089	88.5
453.31	85.5
453.53	85.5
453.751	93.5
453.971	89.5
454.192	101.5
454.412	99.5
454.633	102.5
454.853	97.5
455.073	108.5
455.294	98.5
455.514	95.5
455.734	101.5
455.955	92.5
456.175	86.5
456.395	97.5
456.616	104.5
456.836	100.5
457.056	103.5
457.276	81.5
457.497	84.5
457.717	83.5
457.937	98.5
458.157	117.5
458.377	90.5
458.598	88.5
458.818	93.5
459.038	88.5
459.258	82.5
459.478	77.5
459.698	81.5
459.918	79.5
460.138	108.5
460.358	83.5
460.578	96.5
460.798	100.5
461.018	101.5
461.238	108.5
461.458	110.5
461.678	91.5
461.898	106.5
462.118	103.5
462.338	100.5
462.558	109.5
462.777	101.5
462.997	94.5
463.217	99.5
463.437	80.5
463.657	90.5
463.876	90.5
464.096	109.5
464.316	88.5
464.536	94.5
464.755	113.5
464.975	96.5
465.195	94.5
465.414	99.5
465.634	105.5
465.854	85.5
466.073	98.5
466.293	98.5
466.512	106.5
466.732	110.5
466.951	86.5
467.171	103.5
467.391	125.5
467.61	94.5
467.829	94.5
468.049	108.5
468.268	118.5
468.488	118.5
468.707	116.5
468.927	121.5
469.146	89.5
469.365	100.5
469.585	114.5
469.804	96.5
470.023	104.5
470.243	107.5
470.462	98.5
470.681	109.5
470.901	106.5
471.12	103.5
471.339	116.5
471.558	130.5
471.777	107.5
471.997	107.5
472.216	107.5
472.435	97.5
472.654	98.5
472.873	98.5
473.092	121.5
473.311	95.5
473.53	106.5
473.749	104.5
473.968	95.5
474.187	98.5
474.406	104.5
474.625	102.5
474.844	109.5
475.063	95.5
475.282	100.5
475.501	100.5
475.72	101.5
475.939	118.5
476.158	99.5
476.377	113.5
476.596	105.5
476.814	96.5
477.033	114.5
477.252	100.5
477.471	101.5
477.69	105.5
477.908	108.5
478.127	114.5
478.346	96.5
478.564	103.5
478.783	108.5
479.002	120.5
479.22	114.5
479.439	115.5
479.658	116.5
479.876	100.5
480.095	90.5
480.313	94.5
480.532	98.5
480.751	105.5
480.969	101.5
481.188	90.5
481.406	99.5
481.624	84.5
481.843	88.5
482.061	94.5
482.28	101.5
482.498	88.5
482.717	86.5
482.935	106.5
483.153	114.5
483.372	128.5
483.59	115.5
483.808	108.5
484.027	93.5
484.245	114.5
484.463	125.5
484.681	115.5
484.9	118.5
485.118	134.5
485.336	109.5
485.554	99.5
485.772	89.5
485.99	86.5
486.209	88.5
486.427	92.5
486.645	102.5
486.863	110.5
487.081	110.5
487.299	104.5
487.517	107.5
487.735	132.5
487.953	134.5
488.171	126.5
488.389	127.5
488.607	128.5
488.825	120.5
489.043	102.5
489.261	90.5
489.479	101.5
489.696	121.5
489.914	114.5
490.132	128.5
490.35	127.5
490.568	131.5
490.786	117.5
491.003	109.5
491.221	106.5
491.439	123.5
491.657	121.5
491.874	142.5
492.092	144.5
492.31	156.5
492.527	141.5
492.745	148.5
492.963	151.5
493.18	137.5
493.398	128.5
493.615	127.5
493.833	134.5
494.05	135.5
494.268	128.5
494.485	128.5
494.703	122.5
494.92	120.5
495.138	132.5
495.355	114.5
495.573	125.5
495.79	138.5
496.008	133.5
496.225	118.5
496.442	119.5
496.66	132.5
496.877	126.5
497.094	98.5
497.312	136.5
497.529	116.5
497.746	110.5
497.963	112.5
498.181	110.5
498.398	106.5
498.615	92.5
498.832	114.5
499.049	100.5
499.267	96.5
499.484	105.5
499.701	115.5
499.918	119.5
500.135	99.5
500.352	110.5
500.569	113.5
500.786	100.5
501.003	110.5
501.22	128.5
501.437	114.5
501.654	121.5
501.871	108.5
502.088	101.5
502.305	114.5
502.522	112.5
502.739	119.5
502.956	102.5
503.172	112.5
503.389	103.5
503.606	97.5
503.823	105.5
504.04	113.5
504.256	100.5
504.473	102.5
504.69	89.5
504.907	96.5
505.123	86.5
505.34	112.5
505.557	98.5
505.773	106.5
505.99	99.5
506.207	115.5
506.423	95.5
506.64	102.5
506.856	98.5
507.073	99.5
507.289	102.5
507.506	103.5
507.722	96.5
507.939	103.5
508.155	99.5
508.372	99.5
508.588	106.5
508.805	86.5
509.021	96.5
509.238	98.5
509.454	99.5
509.67	87.5
509.887	89.5
510.103	99.5
510.319	75.5
510.536	73.5
510.752	90.5
510.968	79.5
511.184	81.5
511.401	92.5
511.617	85.5
511.833	93.5
512.049	99.5
512.265	92.5
512.481	99.5
512.698	84.5
512.914	91.5
513.13	89.5
513.346	92.5
513.562	88.5
513.778	96.5
513.994	99.5
514.21	80.5
514.426	101.5
514.642	90.5
514.858	91.5
515.074	85.5
515.29	77.5
515.506	90.5
515.721	77.5
515.937	90.5
516.153	84.5
516.369	78.5
516.585	97.5
516.801	95.5
517.016	82.5
517.232	93.5
517.448	92.5
517.664	80.5
517.879	89.5
518.095	108.5
518.311	84.5
518.527	91.5
518.742	84.5
518.958	99.5
519.173	98.5
519.389	96.5
519.605	89.5
519.82	97.5
520.036	109.5
520.251	94.5
520.467	94.5
520.682	100.5
520.898	86.5
521.113	102.5
521.329	93.5
521.544	94.5
521.76	102.5
521.975	97.5
522.19	71.5
522.406	90.5
522.621	75.5
522.836	93.5
523.052	105.5
523.267	92.5
523.482	103.5
523.698	111.5
523.913	93.5
524.128	87.5
524.343	91.5
524.559	103.5
524.774	95.5
524.989	96.5
525.204	101.5
525.419	103.5
525.634	88.5
525.849	106.5
526.064	90.5
526.28	89.5
526.495	83.5
526.71	97.5
526.925	88.5
527.14	82.5
527.355	86.5
527.57	97.5
527.785	89.5
527.999	86.5
528.214	86.5
528.429	104.5
528.644	106.5
528.859	118.5
529.074	106.5
529.289	124.5
529.503	117.5
529.718	116.5
529.933	98.5
530.148	92.5
530.363	93.5
530.577	93.5
530.792	89.5
531.007	82.5
531.221	91.5
531.436	95.5
531.651	84.5
531.865	89.5
532.08	77.5
532.295	86.5
532.509	90.5
532.724	89.5
532.938	82.5
533.153	100.5
533.367	112.5
533.582	106.5
533.796	103.5
534.011	103.5
534.225	99.5
