Data from Zn(NO3)2Standard.Agarose3%.GreenCap.LampEnergy5.5.E.O_HRD10591_15-02-42-767.txt Node
Date: Mon Jul 22 15:02:42 EDT 2019
User: cochatt
Spectrometer: HR+D1059
Trigger mode: 1
Integration Time (sec): 1.000000E-1
Scans to average: 1
Electric dark correction enabled: true
Nonlinearity correction enabled: false
Boxcar width: 0
XAxis mode: Wavelengths
Number of Pixels in Spectrum: 2048
>>>>>Begin Spectral Data<<<<<
223.165	-13.5
223.4	-13.5
223.635	-13.5
223.869	-15.5
224.104	-31.5
224.338	-8.5
224.573	-16.5
224.808	-19.5
225.042	-4.5
225.277	-9.5
225.511	0.5
225.746	6.5
225.98	8.5
226.215	16.5
226.449	19.5
226.683	19.5
226.918	20.5
227.152	27.5
227.387	32.5
227.621	49.5
227.856	48.5
228.09	58.5
228.324	44.5
228.559	53.5
228.793	66.5
229.027	62.5
229.262	53.5
229.496	72.5
229.73	67.5
229.964	65.5
230.199	58.5
230.433	70.5
230.667	80.5
230.901	77.5
231.136	76.5
231.37	79.5
231.604	83.5
231.838	85.5
232.072	82.5
232.306	80.5
232.541	82.5
232.775	88.5
233.009	74.5
233.243	86.5
233.477	95.5
233.711	91.5
233.945	83.5
234.179	91.5
234.413	70.5
234.647	84.5
234.881	79.5
235.115	81.5
235.349	73.5
235.583	82.5
235.817	86.5
236.051	85.5
236.285	80.5
236.519	69.5
236.753	81.5
236.987	76.5
237.221	70.5
237.455	72.5
237.689	72.5
237.922	72.5
238.156	83.5
238.39	76.5
238.624	70.5
238.858	74.5
239.091	71.5
239.325	60.5
239.559	86.5
239.793	74.5
240.027	86.5
240.26	69.5
240.494	84.5
240.728	58.5
240.961	69.5
241.195	77.5
241.429	91.5
241.662	76.5
241.896	79.5
242.13	70.5
242.363	72.5
242.597	73.5
242.83	80.5
243.064	70.5
243.298	77.5
243.531	82.5
243.765	96.5
243.998	86.5
244.232	77.5
244.465	91.5
244.699	86.5
244.932	83.5
245.166	72.5
245.399	73.5
245.633	82.5
245.866	79.5
246.099	78.5
246.333	85.5
246.566	88.5
246.8	74.5
247.033	79.5
247.266	83.5
247.5	92.5
247.733	79.5
247.966	88.5
248.2	76.5
248.433	64.5
248.666	65.5
248.899	72.5
249.133	74.5
249.366	72.5
249.599	80.5
249.832	94.5
250.066	83.5
250.299	80.5
250.532	84.5
250.765	72.5
250.998	79.5
251.231	65.5
251.465	89.5
251.698	81.5
251.931	80.5
252.164	91.5
252.397	83.5
252.63	72.5
252.863	77.5
253.096	83.5
253.329	78.5
253.562	69.5
253.795	89.5
254.028	80.5
254.261	84.5
254.494	81.5
254.727	80.5
254.96	76.5
255.193	88.5
255.426	61.5
255.659	77.5
255.892	91.5
256.124	82.5
256.357	63.5
256.59	82.5
256.823	83.5
257.056	80.5
257.289	79.5
257.521	87.5
257.754	78.5
257.987	82.5
258.22	81.5
258.452	82.5
258.685	79.5
258.918	76.5
259.151	73.5
259.383	92.5
259.616	69.5
259.849	91.5
260.081	74.5
260.314	74.5
260.547	74.5
260.779	69.5
261.012	80.5
261.244	83.5
261.477	84.5
261.71	87.5
261.942	86.5
262.175	80.5
262.407	74.5
262.64	81.5
262.872	87.5
263.105	86.5
263.337	98.5
263.57	92.5
263.802	79.5
264.035	81.5
264.267	70.5
264.499	74.5
264.732	83.5
264.964	88.5
265.197	88.5
265.429	88.5
265.661	87.5
265.894	70.5
266.126	90.5
266.358	78.5
266.591	83.5
266.823	73.5
267.055	85.5
267.287	90.5
267.52	87.5
267.752	106.5
267.984	72.5
268.216	83.5
268.448	95.5
268.681	90.5
268.913	69.5
269.145	85.5
269.377	88.5
269.609	92.5
269.841	83.5
270.073	86.5
270.306	81.5
270.538	79.5
270.77	68.5
271.002	68.5
271.234	94.5
271.466	78.5
271.698	77.5
271.93	75.5
272.162	77.5
272.394	86.5
272.626	84.5
272.858	87.5
273.09	74.5
273.322	80.5
273.553	75.5
273.785	74.5
274.017	75.5
274.249	88.5
274.481	75.5
274.713	93.5
274.945	96.5
275.176	82.5
275.408	89.5
275.64	81.5
275.872	69.5
276.104	68.5
276.335	88.5
276.567	86.5
276.799	83.5
277.031	78.5
277.262	84.5
277.494	79.5
277.726	72.5
277.957	80.5
278.189	77.5
278.421	78.5
278.652	83.5
278.884	91.5
279.115	93.5
279.347	91.5
279.579	99.5
279.81	78.5
280.042	81.5
280.273	76.5
280.505	102.5
280.736	73.5
280.968	98.5
281.199	90.5
281.431	87.5
281.662	68.5
281.894	73.5
282.125	83.5
282.356	83.5
282.588	85.5
282.819	81.5
283.051	88.5
283.282	103.5
283.513	81.5
283.745	83.5
283.976	89.5
284.207	84.5
284.439	84.5
284.67	84.5
284.901	85.5
285.132	87.5
285.364	73.5
285.595	76.5
285.826	77.5
286.057	77.5
286.288	82.5
286.52	100.5
286.751	96.5
286.982	70.5
287.213	74.5
287.444	99.5
287.675	91.5
287.906	101.5
288.138	95.5
288.369	88.5
288.6	65.5
288.831	80.5
289.062	92.5
289.293	84.5
289.524	95.5
289.755	78.5
289.986	76.5
290.217	87.5
290.448	83.5
290.679	103.5
290.91	87.5
291.141	86.5
291.371	87.5
291.602	73.5
291.833	81.5
292.064	98.5
292.295	95.5
292.526	88.5
292.757	102.5
292.987	77.5
293.218	77.5
293.449	73.5
293.68	85.5
293.91	69.5
294.141	81.5
294.372	90.5
294.603	90.5
294.833	81.5
295.064	79.5
295.295	76.5
295.525	88.5
295.756	81.5
295.987	89.5
296.217	91.5
296.448	82.5
296.679	86.5
296.909	81.5
297.14	89.5
297.37	97.5
297.601	87.5
297.831	96.5
298.062	79.5
298.292	91.5
298.523	82.5
298.753	75.5
298.984	86.5
299.214	92.5
299.445	75.5
299.675	63.5
299.905	81.5
300.136	79.5
300.366	80.5
300.597	75.5
300.827	87.5
301.057	78.5
301.288	80.5
301.518	89.5
301.748	78.5
301.979	87.5
302.209	90.5
302.439	80.5
302.669	81.5
302.9	91.5
303.13	84.5
303.36	79.5
303.59	82.5
303.82	71.5
304.051	73.5
304.281	88.5
304.511	88.5
304.741	76.5
304.971	78.5
305.201	96.5
305.431	69.5
305.661	66.5
305.891	79.5
306.121	88.5
306.352	83.5
306.582	85.5
306.812	74.5
307.042	93.5
307.272	73.5
307.502	87.5
307.731	88.5
307.961	82.5
308.191	84.5
308.421	74.5
308.651	88.5
308.881	103.5
309.111	71.5
309.341	82.5
309.571	86.5
309.8	94.5
310.03	88.5
310.26	89.5
310.49	80.5
310.72	92.5
310.949	76.5
311.179	96.5
311.409	101.5
311.639	72.5
311.868	80.5
312.098	86.5
312.328	85.5
312.557	92.5
312.787	84.5
313.017	88.5
313.246	88.5
313.476	80.5
313.706	78.5
313.935	78.5
314.165	61.5
314.394	88.5
314.624	85.5
314.853	90.5
315.083	83.5
315.312	94.5
315.542	87.5
315.771	85.5
316.001	79.5
316.23	68.5
316.46	86.5
316.689	89.5
316.919	79.5
317.148	92.5
317.377	99.5
317.607	92.5
317.836	91.5
318.065	93.5
318.295	89.5
318.524	85.5
318.753	88.5
318.983	84.5
319.212	75.5
319.441	79.5
319.67	85.5
319.9	75.5
320.129	75.5
320.358	82.5
320.587	78.5
320.816	84.5
321.046	83.5
321.275	93.5
321.504	84.5
321.733	86.5
321.962	78.5
322.191	87.5
322.42	77.5
322.649	96.5
322.878	88.5
323.108	86.5
323.337	81.5
323.566	74.5
323.795	86.5
324.024	85.5
324.253	82.5
324.482	84.5
324.71	75.5
324.939	81.5
325.168	88.5
325.397	107.5
325.626	98.5
325.855	91.5
326.084	76.5
326.313	78.5
326.542	75.5
326.77	91.5
326.999	78.5
327.228	87.5
327.457	85.5
327.686	87.5
327.914	71.5
328.143	89.5
328.372	91.5
328.6	71.5
328.829	76.5
329.058	83.5
329.287	74.5
329.515	83.5
329.744	91.5
329.972	88.5
330.201	85.5
330.43	90.5
330.658	86.5
330.887	92.5
331.115	77.5
331.344	82.5
331.572	83.5
331.801	78.5
332.03	78.5
332.258	90.5
332.486	75.5
332.715	89.5
332.943	76.5
333.172	90.5
333.4	85.5
333.629	89.5
333.857	98.5
334.085	71.5
334.314	84.5
334.542	92.5
334.771	75.5
334.999	86.5
335.227	86.5
335.455	86.5
335.684	81.5
335.912	87.5
336.14	79.5
336.369	90.5
336.597	84.5
336.825	88.5
337.053	76.5
337.281	84.5
337.51	102.5
337.738	72.5
337.966	81.5
338.194	75.5
338.422	73.5
338.65	93.5
338.878	63.5
339.106	79.5
339.334	87.5
339.562	87.5
339.79	88.5
340.018	90.5
340.246	82.5
340.474	77.5
340.702	87.5
340.93	89.5
341.158	88.5
341.386	98.5
341.614	90.5
341.842	95.5
342.07	95.5
342.298	80.5
342.526	72.5
342.754	91.5
342.981	82.5
343.209	89.5
343.437	73.5
343.665	92.5
343.893	73.5
344.12	71.5
344.348	66.5
344.576	87.5
344.804	79.5
345.031	84.5
345.259	86.5
345.487	79.5
345.714	96.5
345.942	65.5
346.17	77.5
346.397	85.5
346.625	83.5
346.853	82.5
347.08	76.5
347.308	90.5
347.535	74.5
347.763	101.5
347.99	73.5
348.218	66.5
348.445	86.5
348.673	87.5
348.9	85.5
349.128	82.5
349.355	92.5
349.583	79.5
349.81	91.5
350.037	77.5
350.265	91.5
350.492	76.5
350.72	87.5
350.947	89.5
351.174	89.5
351.402	87.5
351.629	90.5
351.856	94.5
352.083	91.5
352.311	95.5
352.538	63.5
352.765	80.5
352.992	74.5
353.22	81.5
353.447	82.5
353.674	95.5
353.901	94.5
354.128	95.5
354.355	88.5
354.583	89.5
354.81	81.5
355.037	77.5
355.264	77.5
355.491	80.5
355.718	95.5
355.945	86.5
356.172	92.5
356.399	79.5
356.626	90.5
356.853	91.5
357.08	83.5
357.307	80.5
357.534	79.5
357.761	86.5
357.988	90.5
358.215	90.5
358.441	85.5
358.668	81.5
358.895	76.5
359.122	71.5
359.349	86.5
359.576	83.5
359.802	92.5
360.029	94.5
360.256	84.5
360.483	84.5
360.709	83.5
360.936	81.5
361.163	79.5
361.39	97.5
361.616	83.5
361.843	80.5
362.07	77.5
362.296	86.5
362.523	77.5
362.749	88.5
362.976	80.5
363.203	86.5
363.429	76.5
363.656	78.5
363.882	81.5
364.109	87.5
364.335	88.5
364.562	77.5
364.788	68.5
365.015	76.5
365.241	74.5
365.468	86.5
365.694	80.5
365.92	79.5
366.147	86.5
366.373	81.5
366.599	100.5
366.826	97.5
367.052	74.5
367.278	76.5
367.505	79.5
367.731	99.5
367.957	91.5
368.184	83.5
368.41	84.5
368.636	92.5
368.862	86.5
369.089	92.5
369.315	84.5
369.541	92.5
369.767	94.5
369.993	68.5
370.219	92.5
370.445	73.5
370.672	79.5
370.898	81.5
371.124	85.5
371.35	86.5
371.576	81.5
371.802	85.5
372.028	85.5
372.254	73.5
372.48	77.5
372.706	76.5
372.932	84.5
373.158	94.5
373.384	93.5
373.61	83.5
373.835	78.5
374.061	82.5
374.287	85.5
374.513	81.5
374.739	83.5
374.965	95.5
375.191	74.5
375.416	77.5
375.642	88.5
375.868	86.5
376.094	76.5
376.319	73.5
376.545	76.5
376.771	83.5
376.997	81.5
377.222	81.5
377.448	77.5
377.674	83.5
377.899	91.5
378.125	76.5
378.35	79.5
378.576	83.5
378.802	74.5
379.027	88.5
379.253	85.5
379.478	81.5
379.704	80.5
379.929	74.5
380.155	81.5
380.38	67.5
380.606	73.5
380.831	72.5
381.057	90.5
381.282	82.5
381.507	82.5
381.733	88.5
381.958	75.5
382.184	74.5
382.409	91.5
382.634	90.5
382.86	84.5
383.085	81.5
383.31	84.5
383.535	78.5
383.761	87.5
383.986	96.5
384.211	79.5
384.436	89.5
384.662	82.5
384.887	75.5
385.112	91.5
385.337	84.5
385.562	90.5
385.787	80.5
386.013	95.5
386.238	72.5
386.463	84.5
386.688	78.5
386.913	74.5
387.138	77.5
387.363	85.5
387.588	98.5
387.813	87.5
388.038	91.5
388.263	83.5
388.488	71.5
388.713	74.5
388.938	70.5
389.163	72.5
389.387	85.5
389.612	87.5
389.837	83.5
390.062	90.5
390.287	73.5
390.512	86.5
390.736	77.5
390.961	79.5
391.186	71.5
391.411	79.5
391.636	86.5
391.86	86.5
392.085	81.5
392.31	76.5
392.534	76.5
392.759	77.5
392.984	91.5
393.208	83.5
393.433	89.5
393.658	97.5
393.882	77.5
394.107	87.5
394.331	77.5
394.556	77.5
394.78	89.5
395.005	86.5
395.229	81.5
395.454	73.5
395.678	94.5
395.903	76.5
396.127	80.5
396.352	91.5
396.576	75.5
396.801	84.5
397.025	82.5
397.249	86.5
397.474	93.5
397.698	88.5
397.922	79.5
398.147	97.5
398.371	82.5
398.595	90.5
398.82	71.5
399.044	81.5
399.268	84.5
399.492	83.5
399.717	90.5
399.941	93.5
400.165	93.5
400.389	91.5
400.613	72.5
400.837	82.5
401.062	74.5
401.286	76.5
401.51	80.5
401.734	85.5
401.958	81.5
402.182	84.5
402.406	85.5
402.63	75.5
402.854	81.5
403.078	86.5
403.302	86.5
403.526	77.5
403.75	94.5
403.974	89.5
404.198	87.5
404.422	82.5
404.645	72.5
404.869	71.5
405.093	75.5
405.317	87.5
405.541	93.5
405.765	90.5
405.988	92.5
406.212	83.5
406.436	93.5
406.66	80.5
406.883	76.5
407.107	73.5
407.331	89.5
407.555	90.5
407.778	87.5
408.002	83.5
408.226	81.5
408.449	81.5
408.673	66.5
408.896	86.5
409.12	87.5
409.344	92.5
409.567	78.5
409.791	85.5
410.014	86.5
410.238	87.5
410.461	86.5
410.685	79.5
410.908	81.5
411.132	90.5
411.355	94.5
411.578	84.5
411.802	83.5
412.025	83.5
412.249	100.5
412.472	89.5
412.695	75.5
412.919	87.5
413.142	105.5
413.365	100.5
413.589	86.5
413.812	83.5
414.035	96.5
414.258	90.5
414.482	87.5
414.705	77.5
414.928	92.5
415.151	92.5
415.374	91.5
415.597	87.5
415.821	81.5
416.044	78.5
416.267	97.5
416.49	80.5
416.713	85.5
416.936	77.5
417.159	112.5
417.382	101.5
417.605	88.5
417.828	92.5
418.051	87.5
418.274	98.5
418.497	72.5
418.72	81.5
418.943	92.5
419.166	91.5
419.389	86.5
419.611	80.5
419.834	88.5
420.057	86.5
420.28	83.5
420.503	84.5
420.726	84.5
420.948	89.5
421.171	94.5
421.394	84.5
421.617	81.5
421.839	94.5
422.062	85.5
422.285	74.5
422.507	88.5
422.73	89.5
422.953	86.5
423.175	75.5
423.398	81.5
423.621	93.5
423.843	81.5
424.066	85.5
424.288	94.5
424.511	90.5
424.733	86.5
424.956	89.5
425.178	87.5
425.401	84.5
425.623	82.5
425.846	91.5
426.068	99.5
426.291	99.5
426.513	88.5
426.735	75.5
426.958	98.5
427.18	96.5
427.402	95.5
427.625	88.5
427.847	92.5
428.069	92.5
428.292	80.5
428.514	90.5
428.736	75.5
428.958	82.5
429.181	92.5
429.403	85.5
429.625	91.5
429.847	86.5
430.069	94.5
430.292	96.5
430.514	80.5
430.736	85.5
430.958	96.5
431.18	92.5
431.402	85.5
431.624	82.5
431.846	89.5
432.068	88.5
432.29	76.5
432.512	81.5
432.734	79.5
432.956	78.5
433.178	90.5
433.4	87.5
433.622	96.5
433.844	83.5
434.066	71.5
434.287	79.5
434.509	98.5
434.731	98.5
434.953	82.5
435.175	98.5
435.397	85.5
435.618	79.5
435.84	91.5
436.062	75.5
436.284	93.5
436.505	89.5
436.727	87.5
436.949	87.5
437.17	86.5
437.392	88.5
437.614	93.5
437.835	89.5
438.057	71.5
438.278	85.5
438.5	85.5
438.721	98.5
438.943	90.5
439.165	93.5
439.386	92.5
439.608	83.5
439.829	90.5
440.05	94.5
440.272	100.5
440.493	101.5
440.715	77.5
440.936	96.5
441.158	99.5
441.379	90.5
441.6	82.5
441.822	79.5
442.043	84.5
442.264	85.5
442.486	94.5
442.707	84.5
442.928	86.5
443.149	89.5
443.371	93.5
443.592	81.5
443.813	95.5
444.034	112.5
444.255	95.5
444.476	83.5
444.698	87.5
444.919	83.5
445.14	208.5
445.361	141.5
445.582	99.5
445.803	80.5
446.024	87.5
446.245	88.5
446.466	114.5
446.687	88.5
446.908	81.5
447.129	75.5
447.35	100.5
447.571	101.5
447.792	77.5
448.013	102.5
448.234	87.5
448.455	89.5
448.675	88.5
448.896	89.5
449.117	88.5
449.338	101.5
449.559	91.5
449.779	90.5
450	95.5
450.221	84.5
450.442	91.5
450.662	97.5
450.883	84.5
451.104	95.5
451.324	82.5
451.545	95.5
451.766	87.5
451.986	88.5
452.207	78.5
452.428	85.5
452.648	88.5
452.869	88.5
453.089	76.5
453.31	85.5
453.53	77.5
453.751	87.5
453.971	64.5
454.192	74.5
454.412	91.5
454.633	87.5
454.853	96.5
455.073	84.5
455.294	85.5
455.514	81.5
455.734	76.5
455.955	93.5
456.175	84.5
456.395	87.5
456.616	95.5
456.836	81.5
457.056	79.5
457.276	80.5
457.497	93.5
457.717	73.5
457.937	84.5
458.157	80.5
458.377	85.5
458.598	77.5
458.818	71.5
459.038	85.5
459.258	87.5
459.478	82.5
459.698	83.5
459.918	82.5
460.138	88.5
460.358	88.5
460.578	83.5
460.798	95.5
461.018	83.5
461.238	89.5
461.458	84.5
461.678	59.5
461.898	76.5
462.118	87.5
462.338	91.5
462.558	80.5
462.777	86.5
462.997	96.5
463.217	85.5
463.437	81.5
463.657	89.5
463.876	82.5
464.096	99.5
464.316	72.5
464.536	89.5
464.755	89.5
464.975	70.5
465.195	87.5
465.414	88.5
465.634	88.5
465.854	86.5
466.073	95.5
466.293	90.5
466.512	87.5
466.732	83.5
466.951	92.5
467.171	88.5
467.391	77.5
467.61	87.5
467.829	98.5
468.049	90.5
468.268	88.5
468.488	97.5
468.707	88.5
468.927	78.5
469.146	82.5
469.365	90.5
469.585	88.5
469.804	95.5
470.023	104.5
470.243	87.5
470.462	98.5
470.681	91.5
470.901	88.5
471.12	82.5
471.339	81.5
471.558	82.5
471.777	100.5
471.997	99.5
472.216	92.5
472.435	98.5
472.654	90.5
472.873	90.5
473.092	94.5
473.311	85.5
473.53	93.5
473.749	91.5
473.968	86.5
474.187	82.5
474.406	98.5
474.625	81.5
474.844	101.5
475.063	91.5
475.282	76.5
475.501	85.5
475.72	93.5
475.939	87.5
476.158	105.5
476.377	81.5
476.596	92.5
476.814	88.5
477.033	97.5
477.252	84.5
477.471	82.5
477.69	84.5
477.908	81.5
478.127	76.5
478.346	99.5
478.564	86.5
478.783	73.5
479.002	98.5
479.22	88.5
479.439	79.5
479.658	85.5
479.876	93.5
480.095	78.5
480.313	81.5
480.532	78.5
480.751	76.5
480.969	75.5
481.188	60.5
481.406	95.5
481.624	87.5
481.843	83.5
482.061	81.5
482.28	83.5
482.498	79.5
482.717	90.5
482.935	88.5
483.153	90.5
483.372	93.5
483.59	98.5
483.808	85.5
484.027	86.5
484.245	98.5
484.463	85.5
484.681	90.5
484.9	96.5
485.118	92.5
485.336	96.5
485.554	82.5
485.772	75.5
485.99	80.5
486.209	81.5
486.427	91.5
486.645	96.5
486.863	80.5
487.081	91.5
487.299	96.5
487.517	86.5
487.735	83.5
487.953	94.5
488.171	83.5
488.389	85.5
488.607	86.5
488.825	98.5
489.043	82.5
489.261	89.5
489.479	83.5
489.696	93.5
489.914	102.5
490.132	91.5
490.35	95.5
490.568	109.5
490.786	89.5
491.003	99.5
491.221	110.5
491.439	101.5
491.657	92.5
491.874	104.5
492.092	112.5
492.31	107.5
492.527	111.5
492.745	110.5
492.963	108.5
493.18	101.5
493.398	87.5
493.615	109.5
493.833	92.5
494.05	78.5
494.268	101.5
494.485	113.5
494.703	77.5
494.92	88.5
495.138	101.5
495.355	109.5
495.573	102.5
495.79	100.5
496.008	91.5
496.225	97.5
496.442	95.5
496.66	99.5
496.877	99.5
497.094	107.5
497.312	81.5
497.529	114.5
497.746	95.5
497.963	91.5
498.181	93.5
498.398	104.5
498.615	88.5
498.832	85.5
499.049	83.5
499.267	83.5
499.484	87.5
499.701	84.5
499.918	90.5
500.135	91.5
500.352	99.5
500.569	90.5
500.786	91.5
501.003	97.5
501.22	89.5
501.437	78.5
501.654	105.5
501.871	96.5
502.088	88.5
502.305	96.5
502.522	94.5
502.739	92.5
502.956	81.5
503.172	97.5
503.389	87.5
503.606	82.5
503.823	95.5
504.04	91.5
504.256	76.5
504.473	93.5
504.69	88.5
504.907	81.5
505.123	85.5
505.34	80.5
505.557	88.5
505.773	81.5
505.99	85.5
506.207	77.5
506.423	91.5
506.64	99.5
506.856	86.5
507.073	83.5
507.289	89.5
507.506	91.5
507.722	97.5
507.939	102.5
508.155	90.5
508.372	107.5
508.588	95.5
508.805	86.5
509.021	80.5
509.238	83.5
509.454	81.5
509.67	89.5
509.887	81.5
510.103	83.5
510.319	84.5
510.536	77.5
510.752	80.5
510.968	81.5
511.184	83.5
511.401	89.5
511.617	68.5
511.833	75.5
512.049	97.5
512.265	88.5
512.481	65.5
512.698	93.5
512.914	90.5
513.13	88.5
513.346	86.5
513.562	85.5
513.778	81.5
513.994	86.5
514.21	75.5
514.426	90.5
514.642	90.5
514.858	85.5
515.074	85.5
515.29	94.5
515.506	80.5
515.721	85.5
515.937	89.5
516.153	88.5
516.369	87.5
516.585	82.5
516.801	77.5
517.016	92.5
517.232	80.5
517.448	92.5
517.664	89.5
517.879	88.5
518.095	73.5
518.311	75.5
518.527	98.5
518.742	85.5
518.958	99.5
519.173	85.5
519.389	95.5
519.605	72.5
519.82	73.5
520.036	84.5
520.251	79.5
520.467	85.5
520.682	88.5
520.898	73.5
521.113	79.5
521.329	71.5
521.544	82.5
521.76	74.5
521.975	81.5
522.19	84.5
522.406	90.5
522.621	95.5
522.836	82.5
523.052	77.5
523.267	78.5
523.482	71.5
523.698	99.5
523.913	100.5
524.128	84.5
524.343	97.5
524.559	85.5
524.774	75.5
524.989	88.5
525.204	97.5
525.419	87.5
525.634	70.5
525.849	83.5
526.064	94.5
526.28	82.5
526.495	77.5
526.71	77.5
526.925	73.5
527.14	82.5
527.355	92.5
527.57	95.5
527.785	84.5
527.999	83.5
528.214	86.5
528.429	105.5
528.644	91.5
528.859	87.5
529.074	81.5
529.289	91.5
529.503	83.5
529.718	100.5
529.933	72.5
530.148	85.5
530.363	94.5
530.577	98.5
530.792	87.5
531.007	94.5
531.221	88.5
531.436	82.5
531.651	77.5
531.865	77.5
532.08	100.5
532.295	92.5
532.509	76.5
532.724	93.5
532.938	88.5
533.153	86.5
533.367	95.5
533.582	87.5
533.796	97.5
534.011	93.5
534.225	100.5
534.44	90.5
534.654	90.5
534.868	68.5
535.083	95.5
535.297	86.5
535.511	92.5
535.726	102.5
535.94	86.5
536.154	105.5
536.369	90.5
536.583	105.5
536.797	84.5
537.011	90.5
537.225	72.5
537.44	84.5
537.654	85.5
537.868	85.5
538.082	88.5
538.296	85.5
538.51	77.5
538.724	76.5
538.938	84.5
