Data from Zn(NO3)2Standard.Agarose3%.GreenCap.LampEnergy5.5.E.O_HRD10591_15-01-27-767.txt Node
Date: Mon Jul 22 15:01:27 EDT 2019
User: cochatt
Spectrometer: HR+D1059
Trigger mode: 1
Integration Time (sec): 1.000000E-1
Scans to average: 1
Electric dark correction enabled: true
Nonlinearity correction enabled: false
Boxcar width: 0
XAxis mode: Wavelengths
Number of Pixels in Spectrum: 2048
>>>>>Begin Spectral Data<<<<<
223.165	-19.19
223.4	-19.19
223.635	-19.19
223.869	-15.19
224.104	-14.19
224.338	-13.19
224.573	-9.19
224.808	-14.19
225.042	-8.19
225.277	-1.19
225.511	-7.19
225.746	6.81
225.98	2.81
226.215	11.81
226.449	11.81
226.683	12.81
226.918	24.81
227.152	30.81
227.387	36.81
227.621	43.81
227.856	58.81
228.09	48.81
228.324	52.81
228.559	58.81
228.793	54.81
229.027	49.81
229.262	59.81
229.496	48.81
229.73	73.81
229.964	67.81
230.199	79.81
230.433	77.81
230.667	79.81
230.901	79.81
231.136	76.81
231.37	74.81
231.604	81.81
231.838	76.81
232.072	82.81
232.306	96.81
232.541	85.81
232.775	89.81
233.009	81.81
233.243	72.81
233.477	82.81
233.711	84.81
233.945	85.81
234.179	72.81
234.413	79.81
234.647	77.81
234.881	89.81
235.115	90.81
235.349	68.81
235.583	72.81
235.817	88.81
236.051	68.81
236.285	72.81
236.519	81.81
236.753	75.81
236.987	79.81
237.221	70.81
237.455	77.81
237.689	67.81
237.922	77.81
238.156	85.81
238.39	77.81
238.624	75.81
238.858	80.81
239.091	75.81
239.325	75.81
239.559	73.81
239.793	63.81
240.027	64.81
240.26	84.81
240.494	82.81
240.728	76.81
240.961	77.81
241.195	68.81
241.429	81.81
241.662	72.81
241.896	80.81
242.13	89.81
242.363	75.81
242.597	81.81
242.83	74.81
243.064	77.81
243.298	67.81
243.531	86.81
243.765	68.81
243.998	77.81
244.232	78.81
244.465	71.81
244.699	75.81
244.932	76.81
245.166	85.81
245.399	76.81
245.633	72.81
245.866	71.81
246.099	71.81
246.333	68.81
246.566	96.81
246.8	69.81
247.033	77.81
247.266	79.81
247.5	78.81
247.733	92.81
247.966	72.81
248.2	82.81
248.433	73.81
248.666	84.81
248.899	82.81
249.133	88.81
249.366	90.81
249.599	73.81
249.832	74.81
250.066	76.81
250.299	84.81
250.532	85.81
250.765	73.81
250.998	82.81
251.231	68.81
251.465	83.81
251.698	75.81
251.931	70.81
252.164	79.81
252.397	61.81
252.63	83.81
252.863	93.81
253.096	82.81
253.329	82.81
253.562	82.81
253.795	83.81
254.028	81.81
254.261	73.81
254.494	73.81
254.727	68.81
254.96	68.81
255.193	85.81
255.426	80.81
255.659	88.81
255.892	81.81
256.124	83.81
256.357	81.81
256.59	81.81
256.823	86.81
257.056	77.81
257.289	79.81
257.521	86.81
257.754	73.81
257.987	74.81
258.22	92.81
258.452	71.81
258.685	76.81
258.918	72.81
259.151	75.81
259.383	90.81
259.616	96.81
259.849	76.81
260.081	77.81
260.314	79.81
260.547	87.81
260.779	82.81
261.012	93.81
261.244	81.81
261.477	99.81
261.71	85.81
261.942	75.81
262.175	74.81
262.407	73.81
262.64	80.81
262.872	92.81
263.105	98.81
263.337	83.81
263.57	86.81
263.802	85.81
264.035	83.81
264.267	96.81
264.499	71.81
264.732	84.81
264.964	82.81
265.197	88.81
265.429	98.81
265.661	95.81
265.894	71.81
266.126	85.81
266.358	89.81
266.591	86.81
266.823	84.81
267.055	70.81
267.287	90.81
267.52	65.81
267.752	75.81
267.984	81.81
268.216	78.81
268.448	95.81
268.681	91.81
268.913	79.81
269.145	74.81
269.377	84.81
269.609	89.81
269.841	94.81
270.073	86.81
270.306	90.81
270.538	79.81
270.77	81.81
271.002	106.81
271.234	85.81
271.466	88.81
271.698	96.81
271.93	72.81
272.162	85.81
272.394	87.81
272.626	88.81
272.858	93.81
273.09	92.81
273.322	78.81
273.553	85.81
273.785	89.81
274.017	93.81
274.249	88.81
274.481	80.81
274.713	76.81
274.945	77.81
275.176	85.81
275.408	97.81
275.64	72.81
275.872	78.81
276.104	87.81
276.335	90.81
276.567	91.81
276.799	86.81
277.031	81.81
277.262	83.81
277.494	84.81
277.726	81.81
277.957	83.81
278.189	89.81
278.421	98.81
278.652	91.81
278.884	76.81
279.115	90.81
279.347	82.81
279.579	92.81
279.81	56.81
280.042	87.81
280.273	78.81
280.505	81.81
280.736	87.81
280.968	94.81
281.199	89.81
281.431	73.81
281.662	79.81
281.894	94.81
282.125	100.81
282.356	76.81
282.588	84.81
282.819	85.81
283.051	86.81
283.282	75.81
283.513	82.81
283.745	74.81
283.976	92.81
284.207	83.81
284.439	101.81
284.67	82.81
284.901	86.81
285.132	80.81
285.364	87.81
285.595	94.81
285.826	84.81
286.057	91.81
286.288	90.81
286.52	93.81
286.751	80.81
286.982	79.81
287.213	93.81
287.444	82.81
287.675	83.81
287.906	88.81
288.138	97.81
288.369	85.81
288.6	91.81
288.831	85.81
289.062	83.81
289.293	83.81
289.524	85.81
289.755	80.81
289.986	93.81
290.217	73.81
290.448	91.81
290.679	90.81
290.91	90.81
291.141	78.81
291.371	92.81
291.602	91.81
291.833	86.81
292.064	88.81
292.295	89.81
292.526	81.81
292.757	75.81
292.987	79.81
293.218	82.81
293.449	70.81
293.68	97.81
293.91	81.81
294.141	76.81
294.372	80.81
294.603	88.81
294.833	88.81
295.064	75.81
295.295	85.81
295.525	84.81
295.756	88.81
295.987	80.81
296.217	85.81
296.448	82.81
296.679	78.81
296.909	78.81
297.14	70.81
297.37	74.81
297.601	85.81
297.831	75.81
298.062	83.81
298.292	91.81
298.523	94.81
298.753	86.81
298.984	81.81
299.214	67.81
299.445	85.81
299.675	76.81
299.905	87.81
300.136	88.81
300.366	84.81
300.597	88.81
300.827	83.81
301.057	78.81
301.288	75.81
301.518	86.81
301.748	81.81
301.979	93.81
302.209	92.81
302.439	92.81
302.669	86.81
302.9	83.81
303.13	80.81
303.36	73.81
303.59	84.81
303.82	86.81
304.051	85.81
304.281	98.81
304.511	86.81
304.741	75.81
304.971	81.81
305.201	88.81
305.431	89.81
305.661	94.81
305.891	87.81
306.121	87.81
306.352	92.81
306.582	86.81
306.812	89.81
307.042	76.81
307.272	88.81
307.502	87.81
307.731	92.81
307.961	78.81
308.191	77.81
308.421	70.81
308.651	101.81
308.881	72.81
309.111	82.81
309.341	99.81
309.571	105.81
309.8	79.81
310.03	77.81
310.26	92.81
310.49	93.81
310.72	71.81
310.949	95.81
311.179	99.81
311.409	84.81
311.639	83.81
311.868	86.81
312.098	86.81
312.328	74.81
312.557	86.81
312.787	75.81
313.017	99.81
313.246	87.81
313.476	81.81
313.706	89.81
313.935	86.81
314.165	85.81
314.394	85.81
314.624	84.81
314.853	78.81
315.083	100.81
315.312	81.81
315.542	70.81
315.771	87.81
316.001	88.81
316.23	91.81
316.46	89.81
316.689	61.81
316.919	96.81
317.148	96.81
317.377	77.81
317.607	80.81
317.836	80.81
318.065	84.81
318.295	83.81
318.524	74.81
318.753	88.81
318.983	76.81
319.212	80.81
319.441	76.81
319.67	79.81
319.9	81.81
320.129	78.81
320.358	84.81
320.587	101.81
320.816	91.81
321.046	78.81
321.275	77.81
321.504	82.81
321.733	89.81
321.962	75.81
322.191	85.81
322.42	81.81
322.649	73.81
322.878	89.81
323.108	82.81
323.337	87.81
323.566	78.81
323.795	93.81
324.024	86.81
324.253	85.81
324.482	79.81
324.71	86.81
324.939	74.81
325.168	74.81
325.397	78.81
325.626	90.81
325.855	85.81
326.084	96.81
326.313	85.81
326.542	78.81
326.77	73.81
326.999	91.81
327.228	84.81
327.457	87.81
327.686	76.81
327.914	80.81
328.143	86.81
328.372	90.81
328.6	97.81
328.829	85.81
329.058	92.81
329.287	85.81
329.515	83.81
329.744	79.81
329.972	84.81
330.201	78.81
330.43	96.81
330.658	83.81
330.887	93.81
331.115	71.81
331.344	87.81
331.572	77.81
331.801	59.81
332.03	76.81
332.258	85.81
332.486	80.81
332.715	83.81
332.943	80.81
333.172	82.81
333.4	80.81
333.629	92.81
333.857	75.81
334.085	89.81
334.314	103.81
334.542	98.81
334.771	90.81
334.999	78.81
335.227	88.81
335.455	93.81
335.684	102.81
335.912	78.81
336.14	74.81
336.369	72.81
336.597	81.81
336.825	82.81
337.053	78.81
337.281	84.81
337.51	78.81
337.738	74.81
337.966	81.81
338.194	85.81
338.422	81.81
338.65	87.81
338.878	118.81
339.106	75.81
339.334	80.81
339.562	85.81
339.79	80.81
340.018	81.81
340.246	84.81
340.474	79.81
340.702	89.81
340.93	84.81
341.158	74.81
341.386	88.81
341.614	78.81
341.842	88.81
342.07	90.81
342.298	71.81
342.526	82.81
342.754	84.81
342.981	82.81
343.209	60.81
343.437	84.81
343.665	67.81
343.893	85.81
344.12	81.81
344.348	82.81
344.576	92.81
344.804	92.81
345.031	90.81
345.259	77.81
345.487	97.81
345.714	74.81
345.942	97.81
346.17	81.81
346.397	60.81
346.625	85.81
346.853	81.81
347.08	92.81
347.308	88.81
347.535	82.81
347.763	96.81
347.99	92.81
348.218	86.81
348.445	84.81
348.673	73.81
348.9	82.81
349.128	78.81
349.355	94.81
349.583	75.81
349.81	78.81
350.037	74.81
350.265	88.81
350.492	86.81
350.72	85.81
350.947	102.81
351.174	93.81
351.402	77.81
351.629	80.81
351.856	92.81
352.083	101.81
352.311	101.81
352.538	69.81
352.765	89.81
352.992	86.81
353.22	89.81
353.447	72.81
353.674	84.81
353.901	84.81
354.128	78.81
354.355	78.81
354.583	77.81
354.81	77.81
355.037	81.81
355.264	76.81
355.491	78.81
355.718	63.81
355.945	92.81
356.172	81.81
356.399	84.81
356.626	67.81
356.853	78.81
357.08	91.81
357.307	85.81
357.534	85.81
357.761	86.81
357.988	85.81
358.215	77.81
358.441	85.81
358.668	73.81
358.895	84.81
359.122	90.81
359.349	84.81
359.576	90.81
359.802	86.81
360.029	78.81
360.256	88.81
360.483	86.81
360.709	96.81
360.936	90.81
361.163	83.81
361.39	85.81
361.616	86.81
361.843	97.81
362.07	76.81
362.296	89.81
362.523	84.81
362.749	85.81
362.976	87.81
363.203	85.81
363.429	81.81
363.656	80.81
363.882	77.81
364.109	81.81
364.335	82.81
364.562	78.81
364.788	86.81
365.015	78.81
365.241	93.81
365.468	86.81
365.694	69.81
365.92	80.81
366.147	64.81
366.373	76.81
366.599	92.81
366.826	92.81
367.052	86.81
367.278	71.81
367.505	86.81
367.731	89.81
367.957	83.81
368.184	84.81
368.41	96.81
368.636	80.81
368.862	90.81
369.089	76.81
369.315	95.81
369.541	83.81
369.767	76.81
369.993	93.81
370.219	74.81
370.445	77.81
370.672	76.81
370.898	97.81
371.124	91.81
371.35	78.81
371.576	91.81
371.802	81.81
372.028	80.81
372.254	73.81
372.48	78.81
372.706	74.81
372.932	97.81
373.158	85.81
373.384	85.81
373.61	97.81
373.835	76.81
374.061	79.81
374.287	86.81
374.513	89.81
374.739	82.81
374.965	88.81
375.191	83.81
375.416	77.81
375.642	84.81
375.868	85.81
376.094	72.81
376.319	75.81
376.545	89.81
376.771	88.81
376.997	93.81
377.222	85.81
377.448	81.81
377.674	85.81
377.899	73.81
378.125	90.81
378.35	75.81
378.576	84.81
378.802	76.81
379.027	84.81
379.253	90.81
379.478	104.81
379.704	78.81
379.929	88.81
380.155	85.81
380.38	84.81
380.606	90.81
380.831	97.81
381.057	82.81
381.282	80.81
381.507	86.81
381.733	92.81
381.958	85.81
382.184	74.81
382.409	83.81
382.634	85.81
382.86	76.81
383.085	86.81
383.31	89.81
383.535	80.81
383.761	75.81
383.986	73.81
384.211	77.81
384.436	90.81
384.662	82.81
384.887	85.81
385.112	77.81
385.337	74.81
385.562	84.81
385.787	80.81
386.013	79.81
386.238	81.81
386.463	78.81
386.688	87.81
386.913	91.81
387.138	73.81
387.363	86.81
387.588	76.81
387.813	91.81
388.038	78.81
388.263	80.81
388.488	86.81
388.713	77.81
388.938	82.81
389.163	82.81
389.387	78.81
389.612	74.81
389.837	79.81
390.062	83.81
390.287	68.81
390.512	80.81
390.736	99.81
390.961	72.81
391.186	77.81
391.411	88.81
391.636	90.81
391.86	88.81
392.085	89.81
392.31	70.81
392.534	89.81
392.759	96.81
392.984	77.81
393.208	70.81
393.433	89.81
393.658	87.81
393.882	91.81
394.107	78.81
394.331	104.81
394.556	84.81
394.78	84.81
395.005	88.81
395.229	72.81
395.454	94.81
395.678	97.81
395.903	84.81
396.127	62.81
396.352	94.81
396.576	76.81
396.801	73.81
397.025	77.81
397.249	96.81
397.474	89.81
397.698	89.81
397.922	84.81
398.147	75.81
398.371	79.81
398.595	87.81
398.82	87.81
399.044	88.81
399.268	94.81
399.492	90.81
399.717	81.81
399.941	82.81
400.165	88.81
400.389	83.81
400.613	87.81
400.837	82.81
401.062	82.81
401.286	90.81
401.51	97.81
401.734	73.81
401.958	82.81
402.182	76.81
402.406	78.81
402.63	99.81
402.854	84.81
403.078	88.81
403.302	84.81
403.526	88.81
403.75	77.81
403.974	88.81
404.198	73.81
404.422	82.81
404.645	84.81
404.869	92.81
405.093	88.81
405.317	81.81
405.541	78.81
405.765	81.81
405.988	90.81
406.212	93.81
406.436	91.81
406.66	83.81
406.883	91.81
407.107	81.81
407.331	80.81
407.555	86.81
407.778	99.81
408.002	84.81
408.226	89.81
408.449	81.81
408.673	92.81
408.896	75.81
409.12	73.81
409.344	79.81
409.567	85.81
409.791	72.81
410.014	78.81
410.238	83.81
410.461	76.81
410.685	80.81
410.908	77.81
411.132	88.81
411.355	81.81
411.578	88.81
411.802	77.81
412.025	93.81
412.249	86.81
412.472	89.81
412.695	94.81
412.919	89.81
413.142	85.81
413.365	83.81
413.589	93.81
413.812	95.81
414.035	83.81
414.258	79.81
414.482	81.81
414.705	92.81
414.928	88.81
415.151	88.81
415.374	92.81
415.597	69.81
415.821	86.81
416.044	88.81
416.267	85.81
416.49	79.81
416.713	66.81
416.936	98.81
417.159	89.81
417.382	89.81
417.605	76.81
417.828	74.81
418.051	100.81
418.274	88.81
418.497	100.81
418.72	84.81
418.943	83.81
419.166	95.81
419.389	86.81
419.611	84.81
419.834	76.81
420.057	89.81
420.28	92.81
420.503	95.81
420.726	80.81
420.948	79.81
421.171	93.81
421.394	89.81
421.617	91.81
421.839	74.81
422.062	90.81
422.285	93.81
422.507	77.81
422.73	93.81
422.953	81.81
423.175	88.81
423.398	92.81
423.621	97.81
423.843	91.81
424.066	73.81
424.288	78.81
424.511	93.81
424.733	88.81
424.956	91.81
425.178	90.81
425.401	83.81
425.623	98.81
425.846	85.81
426.068	94.81
426.291	84.81
426.513	67.81
426.735	81.81
426.958	93.81
427.18	88.81
427.402	88.81
427.625	87.81
427.847	87.81
428.069	103.81
428.292	88.81
428.514	77.81
428.736	75.81
428.958	83.81
429.181	85.81
429.403	86.81
429.625	88.81
429.847	84.81
430.069	91.81
430.292	89.81
430.514	102.81
430.736	92.81
430.958	87.81
431.18	87.81
431.402	88.81
431.624	86.81
431.846	76.81
432.068	97.81
432.29	100.81
432.512	92.81
432.734	85.81
432.956	87.81
433.178	98.81
433.4	95.81
433.622	91.81
433.844	85.81
434.066	90.81
434.287	82.81
434.509	79.81
434.731	77.81
434.953	89.81
435.175	89.81
435.397	87.81
435.618	82.81
435.84	95.81
436.062	90.81
436.284	92.81
436.505	79.81
436.727	86.81
436.949	90.81
437.17	94.81
437.392	86.81
437.614	67.81
437.835	92.81
438.057	80.81
438.278	100.81
438.5	93.81
438.721	86.81
438.943	94.81
439.165	90.81
439.386	77.81
439.608	90.81
439.829	90.81
440.05	96.81
440.272	90.81
440.493	86.81
440.715	78.81
440.936	91.81
441.158	86.81
441.379	90.81
441.6	88.81
441.822	100.81
442.043	91.81
442.264	97.81
442.486	99.81
442.707	97.81
442.928	83.81
443.149	97.81
443.371	103.81
443.592	92.81
443.813	101.81
444.034	76.81
444.255	89.81
444.476	86.81
444.698	93.81
444.919	92.81
445.14	195.81
445.361	126.81
445.582	101.81
445.803	99.81
446.024	93.81
446.245	88.81
446.466	93.81
446.687	85.81
446.908	82.81
447.129	95.81
447.35	98.81
447.571	82.81
447.792	98.81
448.013	94.81
448.234	92.81
448.455	98.81
448.675	113.81
448.896	88.81
449.117	73.81
449.338	84.81
449.559	94.81
449.779	81.81
450	80.81
450.221	108.81
450.442	91.81
450.662	92.81
450.883	85.81
451.104	87.81
451.324	83.81
451.545	87.81
451.766	90.81
451.986	93.81
452.207	92.81
452.428	83.81
452.648	103.81
452.869	90.81
453.089	77.81
453.31	71.81
453.53	84.81
453.751	90.81
453.971	88.81
454.192	91.81
454.412	77.81
454.633	97.81
454.853	88.81
455.073	81.81
455.294	85.81
455.514	90.81
455.734	93.81
455.955	83.81
456.175	69.81
456.395	84.81
456.616	77.81
456.836	79.81
457.056	84.81
457.276	103.81
457.497	82.81
457.717	88.81
457.937	78.81
458.157	100.81
458.377	99.81
458.598	78.81
458.818	91.81
459.038	72.81
459.258	66.81
459.478	76.81
459.698	85.81
459.918	94.81
460.138	91.81
460.358	90.81
460.578	100.81
460.798	92.81
461.018	84.81
461.238	92.81
461.458	88.81
461.678	86.81
461.898	75.81
462.118	86.81
462.338	78.81
462.558	73.81
462.777	68.81
462.997	77.81
463.217	72.81
463.437	84.81
463.657	76.81
463.876	95.81
464.096	77.81
464.316	82.81
464.536	87.81
464.755	84.81
464.975	86.81
465.195	81.81
465.414	98.81
465.634	88.81
465.854	80.81
466.073	84.81
466.293	91.81
466.512	90.81
466.732	83.81
466.951	84.81
467.171	85.81
467.391	78.81
467.61	104.81
467.829	92.81
468.049	94.81
468.268	85.81
468.488	84.81
468.707	79.81
468.927	94.81
469.146	77.81
469.365	87.81
469.585	96.81
469.804	97.81
470.023	84.81
470.243	86.81
470.462	89.81
470.681	78.81
470.901	99.81
471.12	89.81
471.339	79.81
471.558	88.81
471.777	90.81
471.997	78.81
472.216	93.81
472.435	88.81
472.654	78.81
472.873	90.81
473.092	88.81
473.311	80.81
473.53	90.81
473.749	91.81
473.968	98.81
474.187	100.81
474.406	83.81
474.625	89.81
474.844	99.81
475.063	92.81
475.282	93.81
475.501	87.81
475.72	99.81
475.939	83.81
476.158	87.81
476.377	76.81
476.596	85.81
476.814	91.81
477.033	83.81
477.252	78.81
477.471	85.81
477.69	95.81
477.908	85.81
478.127	86.81
478.346	91.81
478.564	89.81
478.783	89.81
479.002	76.81
479.22	98.81
479.439	84.81
479.658	85.81
479.876	90.81
480.095	88.81
480.313	84.81
480.532	69.81
480.751	88.81
480.969	89.81
481.188	77.81
481.406	78.81
481.624	85.81
481.843	82.81
482.061	99.81
482.28	81.81
482.498	89.81
482.717	74.81
482.935	79.81
483.153	79.81
483.372	93.81
483.59	81.81
483.808	96.81
484.027	92.81
484.245	89.81
484.463	91.81
484.681	105.81
484.9	83.81
485.118	82.81
485.336	88.81
485.554	102.81
485.772	86.81
485.99	92.81
486.209	92.81
486.427	87.81
486.645	90.81
486.863	87.81
487.081	86.81
487.299	93.81
487.517	94.81
487.735	95.81
487.953	98.81
488.171	89.81
488.389	98.81
488.607	105.81
488.825	93.81
489.043	85.81
489.261	82.81
489.479	82.81
489.696	78.81
489.914	94.81
490.132	98.81
490.35	87.81
490.568	92.81
490.786	92.81
491.003	102.81
491.221	114.81
491.439	97.81
491.657	89.81
491.874	102.81
492.092	104.81
492.31	109.81
492.527	108.81
492.745	96.81
492.963	100.81
493.18	123.81
493.398	110.81
493.615	94.81
493.833	93.81
494.05	84.81
494.268	105.81
494.485	100.81
494.703	95.81
494.92	93.81
495.138	95.81
495.355	86.81
495.573	99.81
495.79	89.81
496.008	101.81
496.225	82.81
496.442	98.81
496.66	118.81
496.877	99.81
497.094	87.81
497.312	104.81
497.529	98.81
497.746	91.81
497.963	95.81
498.181	72.81
498.398	85.81
498.615	73.81
498.832	92.81
499.049	85.81
499.267	75.81
499.484	81.81
499.701	83.81
499.918	84.81
500.135	94.81
500.352	77.81
500.569	81.81
500.786	100.81
501.003	78.81
501.22	85.81
501.437	85.81
501.654	87.81
501.871	84.81
502.088	82.81
502.305	98.81
502.522	89.81
502.739	89.81
502.956	85.81
503.172	97.81
503.389	87.81
503.606	86.81
503.823	92.81
504.04	98.81
504.256	91.81
504.473	98.81
504.69	88.81
504.907	88.81
505.123	78.81
505.34	88.81
505.557	87.81
505.773	75.81
505.99	84.81
506.207	85.81
506.423	100.81
506.64	79.81
506.856	79.81
507.073	91.81
507.289	94.81
507.506	85.81
507.722	90.81
507.939	84.81
508.155	85.81
508.372	77.81
508.588	70.81
508.805	79.81
509.021	90.81
509.238	89.81
509.454	91.81
509.67	80.81
509.887	95.81
510.103	81.81
510.319	97.81
510.536	76.81
510.752	89.81
510.968	93.81
511.184	84.81
511.401	73.81
511.617	74.81
511.833	88.81
512.049	61.81
512.265	86.81
512.481	93.81
512.698	89.81
512.914	76.81
513.13	90.81
513.346	81.81
513.562	79.81
513.778	84.81
513.994	86.81
514.21	81.81
514.426	77.81
514.642	84.81
514.858	87.81
515.074	82.81
515.29	86.81
515.506	78.81
515.721	73.81
515.937	82.81
516.153	78.81
516.369	86.81
516.585	94.81
516.801	95.81
517.016	80.81
517.232	63.81
517.448	87.81
517.664	86.81
517.879	85.81
518.095	83.81
518.311	85.81
518.527	92.81
518.742	86.81
