Data from Zn(NO3)2Standard.Agarose3%.GreenCap.LampEnergy5.5.E.O_HRD10591_15-02-56-768.txt Node
Date: Mon Jul 22 15:02:56 EDT 2019
User: cochatt
Spectrometer: HR+D1059
Trigger mode: 1
Integration Time (sec): 1.000000E-1
Scans to average: 1
Electric dark correction enabled: true
Nonlinearity correction enabled: false
Boxcar width: 0
XAxis mode: Wavelengths
Number of Pixels in Spectrum: 2048
>>>>>Begin Spectral Data<<<<<
223.165	-15.81
223.4	-15.81
223.635	-15.81
223.869	-21.81
224.104	-13.81
224.338	-22.81
224.573	-15.81
224.808	-10.81
225.042	-20.81
225.277	4.19
225.511	4.19
225.746	-4.81
225.98	5.19
226.215	21.19
226.449	8.19
226.683	26.19
226.918	23.19
227.152	34.19
227.387	24.19
227.621	44.19
227.856	59.19
228.09	51.19
228.324	44.19
228.559	67.19
228.793	49.19
229.027	56.19
229.262	72.19
229.496	77.19
229.73	68.19
229.964	72.19
230.199	72.19
230.433	68.19
230.667	72.19
230.901	72.19
231.136	74.19
231.37	67.19
231.604	91.19
231.838	92.19
232.072	76.19
232.306	74.19
232.541	93.19
232.775	80.19
233.009	84.19
233.243	88.19
233.477	79.19
233.711	72.19
233.945	74.19
234.179	83.19
234.413	78.19
234.647	82.19
234.881	80.19
235.115	68.19
235.349	90.19
235.583	81.19
235.817	63.19
236.051	75.19
236.285	76.19
236.519	72.19
236.753	90.19
236.987	85.19
237.221	95.19
237.455	85.19
237.689	75.19
237.922	79.19
238.156	70.19
238.39	90.19
238.624	78.19
238.858	72.19
239.091	77.19
239.325	86.19
239.559	88.19
239.793	77.19
240.027	68.19
240.26	83.19
240.494	86.19
240.728	71.19
240.961	71.19
241.195	74.19
241.429	78.19
241.662	73.19
241.896	83.19
242.13	90.19
242.363	76.19
242.597	74.19
242.83	74.19
243.064	77.19
243.298	76.19
243.531	86.19
243.765	92.19
243.998	92.19
244.232	87.19
244.465	79.19
244.699	83.19
244.932	82.19
245.166	75.19
245.399	82.19
245.633	83.19
245.866	78.19
246.099	88.19
246.333	64.19
246.566	83.19
246.8	76.19
247.033	84.19
247.266	69.19
247.5	80.19
247.733	72.19
247.966	78.19
248.2	81.19
248.433	76.19
248.666	65.19
248.899	84.19
249.133	75.19
249.366	73.19
249.599	92.19
249.832	75.19
250.066	77.19
250.299	91.19
250.532	80.19
250.765	84.19
250.998	72.19
251.231	81.19
251.465	80.19
251.698	95.19
251.931	80.19
252.164	76.19
252.397	82.19
252.63	77.19
252.863	60.19
253.096	78.19
253.329	90.19
253.562	75.19
253.795	85.19
254.028	75.19
254.261	74.19
254.494	75.19
254.727	75.19
254.96	75.19
255.193	90.19
255.426	83.19
255.659	88.19
255.892	91.19
256.124	83.19
256.357	78.19
256.59	81.19
256.823	91.19
257.056	70.19
257.289	83.19
257.521	82.19
257.754	80.19
257.987	78.19
258.22	76.19
258.452	82.19
258.685	70.19
258.918	78.19
259.151	76.19
259.383	69.19
259.616	68.19
259.849	85.19
260.081	72.19
260.314	81.19
260.547	91.19
260.779	82.19
261.012	81.19
261.244	75.19
261.477	97.19
261.71	79.19
261.942	82.19
262.175	84.19
262.407	83.19
262.64	97.19
262.872	75.19
263.105	65.19
263.337	77.19
263.57	79.19
263.802	83.19
264.035	74.19
264.267	86.19
264.499	84.19
264.732	91.19
264.964	84.19
265.197	79.19
265.429	85.19
265.661	71.19
265.894	77.19
266.126	59.19
266.358	92.19
266.591	100.19
266.823	73.19
267.055	82.19
267.287	91.19
267.52	82.19
267.752	72.19
267.984	85.19
268.216	78.19
268.448	83.19
268.681	83.19
268.913	77.19
269.145	83.19
269.377	75.19
269.609	72.19
269.841	73.19
270.073	76.19
270.306	84.19
270.538	70.19
270.77	90.19
271.002	74.19
271.234	83.19
271.466	82.19
271.698	82.19
271.93	88.19
272.162	82.19
272.394	88.19
272.626	72.19
272.858	96.19
273.09	83.19
273.322	85.19
273.553	84.19
273.785	90.19
274.017	84.19
274.249	76.19
274.481	73.19
274.713	89.19
274.945	84.19
275.176	81.19
275.408	84.19
275.64	94.19
275.872	91.19
276.104	91.19
276.335	105.19
276.567	77.19
276.799	80.19
277.031	74.19
277.262	84.19
277.494	91.19
277.726	88.19
277.957	83.19
278.189	79.19
278.421	82.19
278.652	93.19
278.884	97.19
279.115	82.19
279.347	82.19
279.579	67.19
279.81	72.19
280.042	76.19
280.273	86.19
280.505	101.19
280.736	87.19
280.968	83.19
281.199	71.19
281.431	87.19
281.662	87.19
281.894	73.19
282.125	85.19
282.356	95.19
282.588	74.19
282.819	91.19
283.051	83.19
283.282	76.19
283.513	85.19
283.745	82.19
283.976	84.19
284.207	88.19
284.439	85.19
284.67	83.19
284.901	82.19
285.132	73.19
285.364	90.19
285.595	91.19
285.826	77.19
286.057	81.19
286.288	81.19
286.52	80.19
286.751	93.19
286.982	81.19
287.213	79.19
287.444	104.19
287.675	89.19
287.906	80.19
288.138	85.19
288.369	86.19
288.6	95.19
288.831	96.19
289.062	84.19
289.293	67.19
289.524	86.19
289.755	81.19
289.986	83.19
290.217	90.19
290.448	91.19
290.679	78.19
290.91	84.19
291.141	75.19
291.371	87.19
291.602	98.19
291.833	69.19
292.064	75.19
292.295	83.19
292.526	75.19
292.757	76.19
292.987	82.19
293.218	70.19
293.449	84.19
293.68	93.19
293.91	97.19
294.141	98.19
294.372	81.19
294.603	80.19
294.833	89.19
295.064	92.19
295.295	84.19
295.525	77.19
295.756	98.19
295.987	79.19
296.217	71.19
296.448	91.19
296.679	85.19
296.909	89.19
297.14	83.19
297.37	81.19
297.601	85.19
297.831	76.19
298.062	88.19
298.292	82.19
298.523	81.19
298.753	85.19
298.984	76.19
299.214	93.19
299.445	81.19
299.675	82.19
299.905	79.19
300.136	99.19
300.366	82.19
300.597	78.19
300.827	84.19
301.057	94.19
301.288	72.19
301.518	86.19
301.748	89.19
301.979	88.19
302.209	76.19
302.439	81.19
302.669	87.19
302.9	90.19
303.13	83.19
303.36	89.19
303.59	90.19
303.82	83.19
304.051	82.19
304.281	85.19
304.511	78.19
304.741	79.19
304.971	86.19
305.201	81.19
305.431	72.19
305.661	85.19
305.891	87.19
306.121	89.19
306.352	83.19
306.582	95.19
306.812	92.19
307.042	90.19
307.272	92.19
307.502	89.19
307.731	86.19
307.961	91.19
308.191	76.19
308.421	81.19
308.651	85.19
308.881	74.19
309.111	75.19
309.341	81.19
309.571	92.19
309.8	91.19
310.03	100.19
310.26	84.19
310.49	85.19
310.72	81.19
310.949	90.19
311.179	69.19
311.409	89.19
311.639	71.19
311.868	80.19
312.098	95.19
312.328	90.19
312.557	73.19
312.787	91.19
313.017	90.19
313.246	78.19
313.476	91.19
313.706	90.19
313.935	88.19
314.165	90.19
314.394	89.19
314.624	84.19
314.853	74.19
315.083	70.19
315.312	91.19
315.542	95.19
315.771	83.19
316.001	88.19
316.23	96.19
316.46	76.19
316.689	84.19
316.919	76.19
317.148	81.19
317.377	88.19
317.607	81.19
317.836	74.19
318.065	95.19
318.295	96.19
318.524	91.19
318.753	90.19
318.983	86.19
319.212	88.19
319.441	86.19
319.67	77.19
319.9	83.19
320.129	81.19
320.358	84.19
320.587	66.19
320.816	85.19
321.046	77.19
321.275	83.19
321.504	81.19
321.733	86.19
321.962	91.19
322.191	99.19
322.42	92.19
322.649	79.19
322.878	85.19
323.108	87.19
323.337	95.19
323.566	75.19
323.795	85.19
324.024	90.19
324.253	81.19
324.482	85.19
324.71	91.19
324.939	81.19
325.168	85.19
325.397	85.19
325.626	80.19
325.855	88.19
326.084	92.19
326.313	95.19
326.542	89.19
326.77	64.19
326.999	92.19
327.228	72.19
327.457	94.19
327.686	79.19
327.914	88.19
328.143	98.19
328.372	101.19
328.6	79.19
328.829	89.19
329.058	91.19
329.287	102.19
329.515	78.19
329.744	89.19
329.972	90.19
330.201	85.19
330.43	73.19
330.658	85.19
330.887	86.19
331.115	77.19
331.344	83.19
331.572	97.19
331.801	78.19
332.03	90.19
332.258	72.19
332.486	68.19
332.715	75.19
332.943	81.19
333.172	85.19
333.4	83.19
333.629	97.19
333.857	82.19
334.085	79.19
334.314	88.19
334.542	90.19
334.771	82.19
334.999	93.19
335.227	84.19
335.455	91.19
335.684	81.19
335.912	84.19
336.14	90.19
336.369	77.19
336.597	64.19
336.825	80.19
337.053	85.19
337.281	88.19
337.51	68.19
337.738	83.19
337.966	72.19
338.194	91.19
338.422	90.19
338.65	68.19
338.878	79.19
339.106	89.19
339.334	82.19
339.562	83.19
339.79	78.19
340.018	77.19
340.246	76.19
340.474	91.19
340.702	81.19
340.93	82.19
341.158	76.19
341.386	95.19
341.614	71.19
341.842	64.19
342.07	82.19
342.298	101.19
342.526	87.19
342.754	99.19
342.981	81.19
343.209	96.19
343.437	85.19
343.665	76.19
343.893	77.19
344.12	73.19
344.348	82.19
344.576	83.19
344.804	82.19
345.031	90.19
345.259	76.19
345.487	87.19
345.714	82.19
345.942	89.19
346.17	84.19
346.397	77.19
346.625	72.19
346.853	89.19
347.08	84.19
347.308	89.19
347.535	82.19
347.763	87.19
347.99	91.19
348.218	87.19
348.445	85.19
348.673	75.19
348.9	88.19
349.128	83.19
349.355	79.19
349.583	77.19
349.81	84.19
350.037	79.19
350.265	79.19
350.492	84.19
350.72	81.19
350.947	85.19
351.174	88.19
351.402	95.19
351.629	85.19
351.856	82.19
352.083	87.19
352.311	82.19
352.538	67.19
352.765	77.19
352.992	81.19
353.22	74.19
353.447	75.19
353.674	83.19
353.901	75.19
354.128	83.19
354.355	88.19
354.583	87.19
354.81	73.19
355.037	87.19
355.264	84.19
355.491	83.19
355.718	83.19
355.945	87.19
356.172	78.19
356.399	75.19
356.626	90.19
356.853	88.19
357.08	87.19
357.307	87.19
357.534	78.19
357.761	83.19
357.988	83.19
358.215	74.19
358.441	71.19
358.668	91.19
358.895	69.19
359.122	92.19
359.349	88.19
359.576	88.19
359.802	80.19
360.029	85.19
360.256	78.19
360.483	88.19
360.709	77.19
360.936	81.19
361.163	77.19
361.39	78.19
361.616	79.19
361.843	82.19
362.07	82.19
362.296	83.19
362.523	71.19
362.749	75.19
362.976	79.19
363.203	81.19
363.429	83.19
363.656	85.19
363.882	93.19
364.109	87.19
364.335	77.19
364.562	78.19
364.788	81.19
365.015	80.19
365.241	69.19
365.468	84.19
365.694	76.19
365.92	86.19
366.147	77.19
366.373	83.19
366.599	76.19
366.826	85.19
367.052	78.19
367.278	72.19
367.505	77.19
367.731	96.19
367.957	72.19
368.184	86.19
368.41	93.19
368.636	95.19
368.862	80.19
369.089	84.19
369.315	93.19
369.541	79.19
369.767	74.19
369.993	83.19
370.219	79.19
370.445	97.19
370.672	84.19
370.898	87.19
371.124	93.19
371.35	87.19
371.576	82.19
371.802	90.19
372.028	62.19
372.254	87.19
372.48	89.19
372.706	88.19
372.932	73.19
373.158	84.19
373.384	72.19
373.61	90.19
373.835	78.19
374.061	70.19
374.287	84.19
374.513	97.19
374.739	79.19
374.965	75.19
375.191	79.19
375.416	96.19
375.642	87.19
375.868	87.19
376.094	76.19
376.319	74.19
376.545	84.19
376.771	79.19
376.997	84.19
377.222	84.19
377.448	71.19
377.674	93.19
377.899	72.19
378.125	82.19
378.35	71.19
378.576	73.19
378.802	91.19
379.027	77.19
379.253	76.19
379.478	88.19
379.704	82.19
379.929	87.19
380.155	80.19
380.38	59.19
380.606	88.19
380.831	76.19
381.057	81.19
381.282	79.19
381.507	72.19
381.733	86.19
381.958	87.19
382.184	87.19
382.409	85.19
382.634	76.19
382.86	80.19
383.085	87.19
383.31	78.19
383.535	105.19
383.761	80.19
383.986	89.19
384.211	94.19
384.436	69.19
384.662	76.19
384.887	84.19
385.112	91.19
385.337	82.19
385.562	85.19
385.787	86.19
386.013	75.19
386.238	69.19
386.463	71.19
386.688	81.19
386.913	79.19
387.138	95.19
387.363	86.19
387.588	71.19
387.813	99.19
388.038	85.19
388.263	81.19
388.488	77.19
388.713	82.19
388.938	76.19
389.163	83.19
389.387	74.19
389.612	76.19
389.837	82.19
390.062	85.19
390.287	71.19
390.512	76.19
390.736	78.19
390.961	90.19
391.186	76.19
391.411	89.19
391.636	77.19
391.86	87.19
392.085	85.19
392.31	85.19
392.534	85.19
392.759	81.19
392.984	74.19
393.208	81.19
393.433	90.19
393.658	88.19
393.882	74.19
394.107	76.19
394.331	92.19
394.556	77.19
394.78	92.19
395.005	75.19
395.229	74.19
395.454	88.19
395.678	87.19
395.903	73.19
396.127	75.19
396.352	91.19
396.576	80.19
396.801	77.19
397.025	79.19
397.249	88.19
397.474	84.19
397.698	86.19
397.922	79.19
398.147	90.19
398.371	82.19
398.595	79.19
398.82	85.19
399.044	77.19
399.268	81.19
399.492	75.19
399.717	75.19
399.941	87.19
400.165	86.19
400.389	93.19
400.613	84.19
400.837	80.19
401.062	76.19
401.286	73.19
401.51	71.19
401.734	81.19
401.958	70.19
402.182	81.19
402.406	72.19
402.63	78.19
402.854	80.19
403.078	74.19
403.302	86.19
403.526	103.19
403.75	73.19
403.974	96.19
404.198	70.19
404.422	90.19
404.645	93.19
404.869	92.19
405.093	88.19
405.317	94.19
405.541	80.19
405.765	71.19
405.988	82.19
406.212	71.19
406.436	84.19
406.66	95.19
406.883	91.19
407.107	92.19
407.331	80.19
407.555	81.19
407.778	76.19
408.002	91.19
408.226	77.19
408.449	84.19
408.673	83.19
408.896	82.19
409.12	90.19
409.344	72.19
409.567	87.19
409.791	85.19
410.014	91.19
410.238	82.19
410.461	103.19
410.685	99.19
410.908	97.19
411.132	89.19
411.355	87.19
411.578	92.19
411.802	75.19
412.025	82.19
412.249	81.19
412.472	89.19
412.695	77.19
412.919	82.19
413.142	75.19
413.365	85.19
413.589	97.19
413.812	96.19
414.035	94.19
414.258	84.19
414.482	80.19
414.705	98.19
414.928	81.19
415.151	83.19
415.374	97.19
415.597	83.19
415.821	73.19
416.044	70.19
416.267	92.19
416.49	103.19
416.713	67.19
416.936	74.19
417.159	84.19
417.382	79.19
417.605	82.19
417.828	89.19
418.051	92.19
418.274	95.19
418.497	93.19
418.72	95.19
418.943	66.19
419.166	91.19
419.389	100.19
419.611	90.19
419.834	83.19
420.057	76.19
420.28	96.19
420.503	86.19
420.726	94.19
420.948	85.19
421.171	78.19
421.394	82.19
421.617	86.19
421.839	77.19
422.062	69.19
422.285	73.19
422.507	88.19
422.73	90.19
422.953	96.19
423.175	84.19
423.398	90.19
423.621	98.19
423.843	86.19
424.066	75.19
424.288	76.19
424.511	89.19
424.733	92.19
424.956	68.19
425.178	67.19
425.401	88.19
425.623	88.19
425.846	97.19
426.068	91.19
426.291	84.19
426.513	87.19
426.735	90.19
426.958	86.19
427.18	79.19
427.402	96.19
427.625	87.19
427.847	74.19
428.069	89.19
428.292	93.19
428.514	75.19
428.736	79.19
428.958	74.19
429.181	77.19
429.403	96.19
429.625	78.19
429.847	85.19
430.069	81.19
430.292	88.19
430.514	91.19
430.736	74.19
430.958	77.19
431.18	86.19
431.402	86.19
431.624	89.19
431.846	77.19
432.068	96.19
432.29	76.19
432.512	90.19
432.734	95.19
432.956	87.19
433.178	92.19
433.4	77.19
433.622	91.19
433.844	91.19
434.066	99.19
434.287	85.19
434.509	78.19
434.731	81.19
434.953	85.19
435.175	83.19
435.397	87.19
435.618	96.19
435.84	87.19
436.062	97.19
436.284	91.19
436.505	83.19
436.727	72.19
436.949	98.19
437.17	90.19
437.392	74.19
437.614	86.19
437.835	84.19
438.057	86.19
438.278	86.19
438.5	72.19
438.721	80.19
438.943	86.19
439.165	73.19
439.386	66.19
439.608	84.19
439.829	90.19
440.05	100.19
440.272	86.19
440.493	90.19
440.715	96.19
440.936	74.19
441.158	92.19
441.379	85.19
441.6	103.19
441.822	96.19
442.043	75.19
442.264	88.19
442.486	92.19
442.707	94.19
442.928	103.19
443.149	89.19
443.371	87.19
443.592	91.19
443.813	86.19
444.034	84.19
444.255	97.19
444.476	94.19
444.698	93.19
444.919	92.19
445.14	205.19
445.361	135.19
445.582	85.19
445.803	98.19
446.024	106.19
446.245	97.19
446.466	83.19
446.687	86.19
446.908	84.19
447.129	92.19
447.35	95.19
447.571	100.19
447.792	92.19
448.013	81.19
448.234	97.19
448.455	84.19
448.675	109.19
448.896	92.19
449.117	97.19
449.338	91.19
449.559	82.19
449.779	96.19
450	86.19
450.221	94.19
450.442	88.19
450.662	104.19
450.883	84.19
451.104	80.19
451.324	68.19
451.545	101.19
451.766	88.19
451.986	93.19
452.207	82.19
452.428	102.19
452.648	100.19
452.869	85.19
453.089	75.19
453.31	77.19
453.53	93.19
453.751	85.19
453.971	78.19
454.192	83.19
454.412	80.19
454.633	85.19
454.853	93.19
455.073	98.19
455.294	77.19
455.514	96.19
455.734	77.19
455.955	84.19
456.175	91.19
456.395	92.19
456.616	90.19
456.836	91.19
457.056	87.19
457.276	85.19
457.497	87.19
457.717	104.19
457.937	97.19
458.157	73.19
458.377	74.19
458.598	92.19
458.818	80.19
459.038	78.19
459.258	74.19
459.478	75.19
459.698	71.19
459.918	80.19
460.138	94.19
460.358	87.19
460.578	102.19
460.798	88.19
461.018	85.19
461.238	89.19
461.458	82.19
461.678	84.19
461.898	74.19
462.118	77.19
462.338	90.19
462.558	82.19
462.777	77.19
462.997	77.19
463.217	86.19
463.437	89.19
463.657	83.19
463.876	77.19
464.096	79.19
464.316	81.19
464.536	98.19
464.755	96.19
464.975	90.19
465.195	84.19
465.414	84.19
465.634	81.19
465.854	81.19
466.073	81.19
466.293	86.19
466.512	73.19
466.732	93.19
466.951	90.19
467.171	91.19
467.391	88.19
467.61	81.19
467.829	87.19
468.049	89.19
468.268	89.19
468.488	88.19
468.707	77.19
468.927	92.19
469.146	92.19
469.365	102.19
469.585	104.19
469.804	99.19
470.023	81.19
470.243	85.19
470.462	82.19
470.681	81.19
470.901	101.19
471.12	94.19
471.339	99.19
471.558	87.19
471.777	72.19
471.997	90.19
472.216	86.19
472.435	81.19
472.654	99.19
472.873	81.19
473.092	93.19
473.311	94.19
473.53	87.19
473.749	77.19
473.968	93.19
474.187	85.19
474.406	90.19
474.625	84.19
474.844	91.19
475.063	100.19
475.282	96.19
475.501	91.19
475.72	84.19
475.939	96.19
476.158	93.19
476.377	85.19
476.596	88.19
476.814	78.19
477.033	73.19
477.252	91.19
477.471	69.19
477.69	95.19
477.908	83.19
478.127	77.19
478.346	83.19
478.564	85.19
478.783	80.19
479.002	96.19
479.22	98.19
479.439	79.19
479.658	88.19
479.876	89.19
480.095	91.19
480.313	71.19
480.532	87.19
480.751	100.19
480.969	77.19
481.188	71.19
481.406	91.19
481.624	75.19
481.843	91.19
482.061	69.19
482.28	80.19
482.498	92.19
482.717	82.19
482.935	88.19
483.153	96.19
483.372	92.19
483.59	94.19
483.808	91.19
484.027	94.19
484.245	89.19
484.463	79.19
484.681	95.19
484.9	96.19
485.118	77.19
485.336	91.19
485.554	83.19
485.772	85.19
485.99	76.19
486.209	85.19
486.427	88.19
486.645	88.19
486.863	94.19
487.081	91.19
487.299	96.19
487.517	79.19
487.735	85.19
487.953	90.19
488.171	99.19
488.389	111.19
488.607	91.19
488.825	90.19
489.043	90.19
489.261	97.19
489.479	97.19
489.696	102.19
489.914	103.19
490.132	86.19
490.35	98.19
490.568	92.19
490.786	114.19
491.003	84.19
491.221	104.19
491.439	92.19
491.657	92.19
491.874	103.19
492.092	113.19
492.31	111.19
492.527	103.19
492.745	109.19
492.963	92.19
493.18	117.19
493.398	88.19
493.615	84.19
493.833	88.19
494.05	107.19
494.268	89.19
494.485	97.19
494.703	96.19
494.92	95.19
495.138	99.19
495.355	90.19
495.573	96.19
495.79	91.19
496.008	102.19
496.225	108.19
496.442	103.19
496.66	99.19
496.877	112.19
497.094	96.19
497.312	92.19
497.529	100.19
497.746	98.19
497.963	87.19
498.181	98.19
498.398	98.19
498.615	79.19
498.832	85.19
499.049	91.19
499.267	100.19
499.484	85.19
499.701	89.19
499.918	83.19
500.135	89.19
500.352	84.19
500.569	94.19
500.786	90.19
501.003	92.19
501.22	92.19
501.437	89.19
501.654	101.19
501.871	84.19
502.088	88.19
502.305	103.19
502.522	93.19
502.739	83.19
502.956	94.19
503.172	80.19
503.389	75.19
503.606	90.19
503.823	83.19
504.04	91.19
504.256	84.19
504.473	88.19
504.69	94.19
504.907	91.19
505.123	77.19
505.34	84.19
505.557	85.19
505.773	83.19
505.99	83.19
506.207	85.19
506.423	81.19
506.64	79.19
506.856	77.19
507.073	87.19
507.289	91.19
507.506	105.19
507.722	101.19
507.939	82.19
508.155	95.19
508.372	83.19
508.588	79.19
508.805	87.19
509.021	85.19
509.238	78.19
509.454	92.19
509.67	77.19
509.887	95.19
510.103	81.19
510.319	83.19
510.536	91.19
510.752	85.19
510.968	67.19
511.184	78.19
511.401	78.19
511.617	76.19
511.833	78.19
512.049	79.19
512.265	80.19
512.481	89.19
512.698	89.19
512.914	80.19
513.13	76.19
513.346	87.19
513.562	85.19
513.778	82.19
513.994	81.19
514.21	76.19
514.426	90.19
514.642	86.19
514.858	92.19
515.074	78.19
515.29	97.19
515.506	87.19
515.721	74.19
515.937	89.19
516.153	80.19
516.369	82.19
516.585	85.19
516.801	89.19
517.016	95.19
517.232	84.19
517.448	86.19
517.664	89.19
517.879	77.19
518.095	77.19
518.311	81.19
518.527	83.19
518.742	94.19
