Data from Zn(NO3)2Standard.Agarose3%.GreenCap.LampEnergy10E.O_HRD10591_15-06-18-942.txt Node
Date: Mon Jul 22 15:06:18 EDT 2019
User: cochatt
Spectrometer: HR+D1059
Trigger mode: 1
Integration Time (sec): 1.000000E-1
Scans to average: 1
Electric dark correction enabled: true
Nonlinearity correction enabled: false
Boxcar width: 0
XAxis mode: Wavelengths
Number of Pixels in Spectrum: 2048
>>>>>Begin Spectral Data<<<<<
223.165	-4.81
223.4	-4.81
223.635	-4.81
223.869	-21.81
224.104	-28.81
224.338	-22.81
224.573	-13.81
224.808	-11.81
225.042	-2.81
225.277	-3.81
225.511	11.19
225.746	13.19
225.98	5.19
226.215	3.19
226.449	-0.81
226.683	23.19
226.918	20.19
227.152	35.19
227.387	12.19
227.621	26.19
227.856	42.19
228.09	54.19
228.324	57.19
228.559	47.19
228.793	40.19
229.027	57.19
229.262	46.19
229.496	51.19
229.73	63.19
229.964	66.19
230.199	65.19
230.433	61.19
230.667	87.19
230.901	88.19
231.136	90.19
231.37	81.19
231.604	77.19
231.838	77.19
232.072	83.19
232.306	67.19
232.541	91.19
232.775	84.19
233.009	102.19
233.243	83.19
233.477	59.19
233.711	76.19
233.945	73.19
234.179	84.19
234.413	82.19
234.647	78.19
234.881	86.19
235.115	80.19
235.349	83.19
235.583	78.19
235.817	89.19
236.051	83.19
236.285	72.19
236.519	59.19
236.753	67.19
236.987	88.19
237.221	86.19
237.455	75.19
237.689	82.19
237.922	88.19
238.156	73.19
238.39	85.19
238.624	76.19
238.858	64.19
239.091	75.19
239.325	68.19
239.559	62.19
239.793	82.19
240.027	76.19
240.26	68.19
240.494	88.19
240.728	71.19
240.961	72.19
241.195	75.19
241.429	67.19
241.662	87.19
241.896	79.19
242.13	68.19
242.363	79.19
242.597	73.19
242.83	85.19
243.064	74.19
243.298	82.19
243.531	80.19
243.765	65.19
243.998	79.19
244.232	75.19
244.465	78.19
244.699	83.19
244.932	82.19
245.166	70.19
245.399	83.19
245.633	80.19
245.866	71.19
246.099	92.19
246.333	72.19
246.566	88.19
246.8	73.19
247.033	79.19
247.266	69.19
247.5	85.19
247.733	71.19
247.966	76.19
248.2	82.19
248.433	73.19
248.666	85.19
248.899	71.19
249.133	82.19
249.366	66.19
249.599	77.19
249.832	83.19
250.066	78.19
250.299	70.19
250.532	75.19
250.765	76.19
250.998	75.19
251.231	98.19
251.465	76.19
251.698	80.19
251.931	72.19
252.164	97.19
252.397	98.19
252.63	83.19
252.863	83.19
253.096	73.19
253.329	81.19
253.562	80.19
253.795	88.19
254.028	86.19
254.261	76.19
254.494	81.19
254.727	83.19
254.96	77.19
255.193	77.19
255.426	78.19
255.659	69.19
255.892	85.19
256.124	89.19
256.357	86.19
256.59	75.19
256.823	66.19
257.056	70.19
257.289	81.19
257.521	76.19
257.754	67.19
257.987	92.19
258.22	87.19
258.452	88.19
258.685	76.19
258.918	72.19
259.151	79.19
259.383	80.19
259.616	71.19
259.849	75.19
260.081	71.19
260.314	80.19
260.547	99.19
260.779	79.19
261.012	82.19
261.244	81.19
261.477	77.19
261.71	86.19
261.942	80.19
262.175	90.19
262.407	78.19
262.64	77.19
262.872	74.19
263.105	84.19
263.337	77.19
263.57	88.19
263.802	79.19
264.035	90.19
264.267	84.19
264.499	79.19
264.732	85.19
264.964	84.19
265.197	77.19
265.429	81.19
265.661	72.19
265.894	88.19
266.126	75.19
266.358	93.19
266.591	83.19
266.823	72.19
267.055	78.19
267.287	91.19
267.52	81.19
267.752	91.19
267.984	86.19
268.216	96.19
268.448	81.19
268.681	83.19
268.913	77.19
269.145	76.19
269.377	80.19
269.609	81.19
269.841	83.19
270.073	78.19
270.306	84.19
270.538	88.19
270.77	90.19
271.002	76.19
271.234	66.19
271.466	80.19
271.698	75.19
271.93	71.19
272.162	80.19
272.394	83.19
272.626	89.19
272.858	98.19
273.09	76.19
273.322	85.19
273.553	73.19
273.785	96.19
274.017	83.19
274.249	83.19
274.481	69.19
274.713	99.19
274.945	85.19
275.176	77.19
275.408	77.19
275.64	76.19
275.872	80.19
276.104	83.19
276.335	81.19
276.567	88.19
276.799	75.19
277.031	84.19
277.262	83.19
277.494	68.19
277.726	77.19
277.957	82.19
278.189	72.19
278.421	89.19
278.652	77.19
278.884	89.19
279.115	88.19
279.347	77.19
279.579	83.19
279.81	83.19
280.042	76.19
280.273	80.19
280.505	84.19
280.736	78.19
280.968	82.19
281.199	72.19
281.431	72.19
281.662	77.19
281.894	74.19
282.125	88.19
282.356	75.19
282.588	76.19
282.819	90.19
283.051	87.19
283.282	72.19
283.513	92.19
283.745	67.19
283.976	84.19
284.207	89.19
284.439	91.19
284.67	88.19
284.901	84.19
285.132	75.19
285.364	76.19
285.595	87.19
285.826	81.19
286.057	85.19
286.288	90.19
286.52	93.19
286.751	75.19
286.982	79.19
287.213	83.19
287.444	81.19
287.675	84.19
287.906	85.19
288.138	78.19
288.369	78.19
288.6	83.19
288.831	74.19
289.062	84.19
289.293	73.19
289.524	93.19
289.755	91.19
289.986	93.19
290.217	86.19
290.448	81.19
290.679	75.19
290.91	87.19
291.141	80.19
291.371	76.19
291.602	85.19
291.833	89.19
292.064	95.19
292.295	73.19
292.526	101.19
292.757	75.19
292.987	83.19
293.218	83.19
293.449	84.19
293.68	80.19
293.91	79.19
294.141	91.19
294.372	78.19
294.603	89.19
294.833	80.19
295.064	71.19
295.295	87.19
295.525	76.19
295.756	103.19
295.987	92.19
296.217	83.19
296.448	98.19
296.679	85.19
296.909	82.19
297.14	87.19
297.37	71.19
297.601	78.19
297.831	73.19
298.062	83.19
298.292	87.19
298.523	83.19
298.753	96.19
298.984	94.19
299.214	82.19
299.445	82.19
299.675	88.19
299.905	90.19
300.136	83.19
300.366	76.19
300.597	84.19
300.827	95.19
301.057	70.19
301.288	78.19
301.518	78.19
301.748	86.19
301.979	65.19
302.209	90.19
302.439	76.19
302.669	75.19
302.9	84.19
303.13	95.19
303.36	90.19
303.59	76.19
303.82	85.19
304.051	87.19
304.281	78.19
304.511	85.19
304.741	74.19
304.971	88.19
305.201	95.19
305.431	90.19
305.661	104.19
305.891	92.19
306.121	78.19
306.352	88.19
306.582	73.19
306.812	81.19
307.042	80.19
307.272	86.19
307.502	82.19
307.731	81.19
307.961	76.19
308.191	84.19
308.421	80.19
308.651	91.19
308.881	81.19
309.111	90.19
309.341	91.19
309.571	95.19
309.8	98.19
310.03	86.19
310.26	91.19
310.49	96.19
310.72	76.19
310.949	75.19
311.179	89.19
311.409	76.19
311.639	74.19
311.868	78.19
312.098	94.19
312.328	90.19
312.557	100.19
312.787	69.19
313.017	76.19
313.246	86.19
313.476	73.19
313.706	63.19
313.935	85.19
314.165	97.19
314.394	69.19
314.624	85.19
314.853	86.19
315.083	81.19
315.312	95.19
315.542	86.19
315.771	83.19
316.001	76.19
316.23	95.19
316.46	77.19
316.689	83.19
316.919	74.19
317.148	73.19
317.377	89.19
317.607	74.19
317.836	71.19
318.065	88.19
318.295	76.19
318.524	84.19
318.753	80.19
318.983	81.19
319.212	81.19
319.441	89.19
319.67	88.19
319.9	90.19
320.129	89.19
320.358	84.19
320.587	82.19
320.816	86.19
321.046	83.19
321.275	81.19
321.504	91.19
321.733	82.19
321.962	78.19
322.191	90.19
322.42	88.19
322.649	79.19
322.878	89.19
323.108	88.19
323.337	94.19
323.566	83.19
323.795	82.19
324.024	93.19
324.253	78.19
324.482	77.19
324.71	77.19
324.939	87.19
325.168	87.19
325.397	91.19
325.626	97.19
325.855	75.19
326.084	91.19
326.313	91.19
326.542	92.19
326.77	85.19
326.999	79.19
327.228	84.19
327.457	97.19
327.686	88.19
327.914	74.19
328.143	72.19
328.372	90.19
328.6	83.19
328.829	77.19
329.058	83.19
329.287	76.19
329.515	75.19
329.744	91.19
329.972	84.19
330.201	91.19
330.43	85.19
330.658	79.19
330.887	83.19
331.115	77.19
331.344	72.19
331.572	83.19
331.801	87.19
332.03	88.19
332.258	80.19
332.486	77.19
332.715	89.19
332.943	91.19
333.172	92.19
333.4	91.19
333.629	95.19
333.857	93.19
334.085	79.19
334.314	80.19
334.542	88.19
334.771	89.19
334.999	91.19
335.227	82.19
335.455	76.19
335.684	83.19
335.912	96.19
336.14	78.19
336.369	91.19
336.597	84.19
336.825	86.19
337.053	82.19
337.281	80.19
337.51	82.19
337.738	86.19
337.966	103.19
338.194	79.19
338.422	87.19
338.65	78.19
338.878	97.19
339.106	84.19
339.334	71.19
339.562	84.19
339.79	72.19
340.018	72.19
340.246	77.19
340.474	91.19
340.702	78.19
340.93	95.19
341.158	83.19
341.386	81.19
341.614	94.19
341.842	89.19
342.07	82.19
342.298	80.19
342.526	81.19
342.754	78.19
342.981	83.19
343.209	83.19
343.437	78.19
343.665	89.19
343.893	84.19
344.12	100.19
344.348	91.19
344.576	82.19
344.804	73.19
345.031	77.19
345.259	83.19
345.487	76.19
345.714	94.19
345.942	93.19
346.17	80.19
346.397	90.19
346.625	85.19
346.853	81.19
347.08	77.19
347.308	89.19
347.535	88.19
347.763	77.19
347.99	84.19
348.218	84.19
348.445	75.19
348.673	64.19
348.9	74.19
349.128	98.19
349.355	87.19
349.583	76.19
349.81	82.19
350.037	91.19
350.265	75.19
350.492	80.19
350.72	71.19
350.947	91.19
351.174	87.19
351.402	93.19
351.629	83.19
351.856	86.19
352.083	86.19
352.311	92.19
352.538	79.19
352.765	73.19
352.992	87.19
353.22	67.19
353.447	77.19
353.674	88.19
353.901	83.19
354.128	91.19
354.355	79.19
354.583	71.19
354.81	91.19
355.037	90.19
355.264	84.19
355.491	82.19
355.718	70.19
355.945	82.19
356.172	91.19
356.399	67.19
356.626	76.19
356.853	78.19
357.08	77.19
357.307	87.19
357.534	89.19
357.761	82.19
357.988	98.19
358.215	78.19
358.441	84.19
358.668	90.19
358.895	84.19
359.122	66.19
359.349	82.19
359.576	80.19
359.802	76.19
360.029	77.19
360.256	76.19
360.483	95.19
360.709	90.19
360.936	93.19
361.163	84.19
361.39	77.19
361.616	67.19
361.843	84.19
362.07	89.19
362.296	88.19
362.523	95.19
362.749	85.19
362.976	84.19
363.203	89.19
363.429	71.19
363.656	83.19
363.882	80.19
364.109	81.19
364.335	80.19
364.562	81.19
364.788	93.19
365.015	90.19
365.241	81.19
365.468	76.19
365.694	82.19
365.92	79.19
366.147	76.19
366.373	83.19
366.599	68.19
366.826	69.19
367.052	97.19
367.278	81.19
367.505	96.19
367.731	88.19
367.957	81.19
368.184	91.19
368.41	100.19
368.636	83.19
368.862	75.19
369.089	77.19
369.315	75.19
369.541	86.19
369.767	86.19
369.993	83.19
370.219	97.19
370.445	85.19
370.672	97.19
370.898	75.19
371.124	75.19
371.35	80.19
371.576	86.19
371.802	92.19
372.028	79.19
372.254	80.19
372.48	88.19
372.706	80.19
372.932	76.19
373.158	89.19
373.384	74.19
373.61	84.19
373.835	75.19
374.061	81.19
374.287	74.19
374.513	77.19
374.739	89.19
374.965	89.19
375.191	84.19
375.416	74.19
375.642	77.19
375.868	103.19
376.094	81.19
376.319	77.19
376.545	83.19
376.771	83.19
376.997	96.19
377.222	85.19
377.448	72.19
377.674	63.19
377.899	83.19
378.125	77.19
378.35	96.19
378.576	89.19
378.802	83.19
379.027	76.19
379.253	100.19
379.478	86.19
379.704	86.19
379.929	98.19
380.155	75.19
380.38	84.19
380.606	91.19
380.831	70.19
381.057	81.19
381.282	91.19
381.507	82.19
381.733	88.19
381.958	74.19
382.184	88.19
382.409	85.19
382.634	89.19
382.86	92.19
383.085	99.19
383.31	75.19
383.535	97.19
383.761	96.19
383.986	85.19
384.211	87.19
384.436	89.19
384.662	76.19
384.887	83.19
385.112	74.19
385.337	76.19
385.562	94.19
385.787	83.19
386.013	98.19
386.238	85.19
386.463	98.19
386.688	96.19
386.913	92.19
387.138	84.19
387.363	78.19
387.588	84.19
387.813	87.19
388.038	93.19
388.263	83.19
388.488	68.19
388.713	75.19
388.938	91.19
389.163	87.19
389.387	95.19
389.612	92.19
389.837	86.19
390.062	76.19
390.287	85.19
390.512	100.19
390.736	87.19
390.961	109.19
391.186	95.19
391.411	96.19
391.636	85.19
391.86	83.19
392.085	90.19
392.31	83.19
392.534	88.19
392.759	95.19
392.984	96.19
393.208	98.19
393.433	81.19
393.658	97.19
393.882	108.19
394.107	87.19
394.331	100.19
394.556	87.19
394.78	81.19
395.005	101.19
395.229	99.19
395.454	96.19
395.678	94.19
395.903	103.19
396.127	92.19
396.352	102.19
396.576	85.19
396.801	95.19
397.025	87.19
397.249	93.19
397.474	85.19
397.698	87.19
397.922	90.19
398.147	103.19
398.371	75.19
398.595	100.19
398.82	95.19
399.044	94.19
399.268	95.19
399.492	94.19
399.717	101.19
399.941	82.19
400.165	93.19
400.389	92.19
400.613	96.19
400.837	90.19
401.062	96.19
401.286	87.19
401.51	93.19
401.734	103.19
401.958	100.19
402.182	91.19
402.406	96.19
402.63	84.19
402.854	107.19
403.078	90.19
403.302	98.19
403.526	106.19
403.75	88.19
403.974	98.19
404.198	97.19
404.422	94.19
404.645	104.19
404.869	83.19
405.093	100.19
405.317	89.19
405.541	83.19
405.765	93.19
405.988	107.19
406.212	85.19
406.436	92.19
406.66	94.19
406.883	109.19
407.107	104.19
407.331	104.19
407.555	104.19
407.778	101.19
408.002	85.19
408.226	88.19
408.449	89.19
408.673	87.19
408.896	96.19
409.12	81.19
409.344	88.19
409.567	98.19
409.791	95.19
410.014	93.19
410.238	92.19
410.461	97.19
410.685	105.19
410.908	95.19
411.132	98.19
411.355	92.19
411.578	92.19
411.802	100.19
412.025	88.19
412.249	97.19
412.472	102.19
412.695	93.19
412.919	98.19
413.142	103.19
413.365	100.19
413.589	89.19
413.812	104.19
414.035	102.19
414.258	83.19
414.482	112.19
414.705	91.19
414.928	92.19
415.151	105.19
415.374	98.19
415.597	104.19
415.821	106.19
416.044	93.19
416.267	103.19
416.49	77.19
416.713	104.19
416.936	105.19
417.159	96.19
417.382	117.19
417.605	94.19
417.828	100.19
418.051	108.19
418.274	109.19
418.497	103.19
418.72	87.19
418.943	110.19
419.166	102.19
419.389	104.19
419.611	103.19
419.834	102.19
420.057	98.19
420.28	110.19
420.503	100.19
420.726	110.19
420.948	119.19
421.171	119.19
421.394	100.19
421.617	99.19
421.839	123.19
422.062	101.19
422.285	113.19
422.507	121.19
422.73	98.19
422.953	96.19
423.175	84.19
423.398	99.19
423.621	96.19
423.843	100.19
424.066	105.19
424.288	124.19
424.511	105.19
424.733	105.19
424.956	101.19
425.178	112.19
425.401	107.19
425.623	97.19
425.846	107.19
426.068	97.19
426.291	101.19
426.513	91.19
426.735	101.19
426.958	102.19
427.18	104.19
427.402	90.19
427.625	88.19
427.847	113.19
428.069	95.19
428.292	98.19
428.514	112.19
428.736	101.19
428.958	117.19
429.181	98.19
429.403	111.19
429.625	95.19
429.847	93.19
430.069	95.19
430.292	104.19
430.514	116.19
430.736	97.19
430.958	107.19
431.18	99.19
431.402	99.19
431.624	87.19
431.846	107.19
432.068	81.19
432.29	82.19
432.512	90.19
432.734	112.19
432.956	97.19
433.178	111.19
433.4	106.19
433.622	102.19
433.844	83.19
434.066	95.19
434.287	79.19
434.509	75.19
434.731	83.19
434.953	80.19
435.175	90.19
435.397	106.19
435.618	80.19
435.84	93.19
436.062	99.19
436.284	106.19
436.505	108.19
436.727	112.19
436.949	93.19
437.17	100.19
437.392	97.19
437.614	103.19
437.835	85.19
438.057	91.19
438.278	107.19
438.5	105.19
438.721	113.19
438.943	135.19
439.165	104.19
439.386	98.19
439.608	123.19
439.829	100.19
440.05	113.19
440.272	117.19
440.493	116.19
440.715	108.19
440.936	117.19
441.158	107.19
441.379	116.19
441.6	108.19
441.822	104.19
442.043	106.19
442.264	114.19
442.486	96.19
442.707	107.19
442.928	113.19
443.149	90.19
443.371	109.19
443.592	97.19
443.813	117.19
444.034	106.19
444.255	108.19
444.476	101.19
444.698	117.19
444.919	94.19
445.14	218.19
445.361	168.19
445.582	118.19
445.803	124.19
446.024	115.19
446.245	111.19
446.466	92.19
446.687	108.19
446.908	116.19
447.129	115.19
447.35	121.19
447.571	111.19
447.792	107.19
448.013	115.19
448.234	112.19
448.455	101.19
448.675	99.19
448.896	100.19
449.117	104.19
449.338	115.19
449.559	99.19
449.779	113.19
450	97.19
450.221	115.19
450.442	115.19
450.662	112.19
450.883	103.19
451.104	108.19
451.324	105.19
451.545	105.19
451.766	99.19
451.986	115.19
452.207	100.19
452.428	101.19
452.648	101.19
452.869	93.19
453.089	74.19
453.31	96.19
453.53	89.19
453.751	89.19
453.971	112.19
454.192	101.19
454.412	94.19
454.633	88.19
454.853	104.19
455.073	113.19
455.294	104.19
455.514	88.19
455.734	94.19
455.955	114.19
456.175	107.19
456.395	84.19
456.616	100.19
456.836	103.19
457.056	83.19
457.276	84.19
457.497	92.19
457.717	90.19
457.937	94.19
458.157	82.19
458.377	81.19
458.598	99.19
458.818	86.19
459.038	84.19
459.258	92.19
459.478	76.19
459.698	84.19
459.918	94.19
460.138	95.19
460.358	103.19
460.578	89.19
460.798	88.19
461.018	94.19
461.238	93.19
461.458	112.19
461.678	89.19
461.898	93.19
462.118	98.19
462.338	92.19
462.558	89.19
462.777	95.19
462.997	95.19
463.217	89.19
463.437	87.19
463.657	82.19
463.876	82.19
464.096	108.19
464.316	96.19
464.536	80.19
464.755	89.19
464.975	84.19
465.195	85.19
465.414	97.19
465.634	112.19
465.854	106.19
466.073	92.19
466.293	96.19
466.512	96.19
466.732	107.19
466.951	100.19
467.171	97.19
467.391	100.19
467.61	95.19
467.829	106.19
468.049	108.19
468.268	105.19
468.488	111.19
468.707	112.19
468.927	101.19
469.146	101.19
469.365	116.19
469.585	123.19
469.804	106.19
470.023	109.19
470.243	119.19
470.462	113.19
470.681	108.19
470.901	121.19
471.12	107.19
471.339	114.19
471.558	109.19
471.777	105.19
471.997	119.19
472.216	120.19
472.435	96.19
472.654	106.19
472.873	79.19
473.092	106.19
473.311	104.19
473.53	99.19
473.749	116.19
473.968	100.19
474.187	98.19
474.406	90.19
474.625	102.19
474.844	108.19
475.063	102.19
475.282	115.19
475.501	93.19
475.72	80.19
475.939	96.19
476.158	113.19
476.377	94.19
476.596	115.19
476.814	109.19
477.033	92.19
477.252	97.19
477.471	99.19
477.69	104.19
477.908	100.19
478.127	99.19
478.346	103.19
478.564	92.19
478.783	111.19
479.002	103.19
479.22	119.19
479.439	109.19
479.658	95.19
479.876	94.19
480.095	97.19
480.313	94.19
480.532	105.19
480.751	91.19
480.969	85.19
481.188	84.19
481.406	94.19
481.624	83.19
481.843	77.19
482.061	92.19
482.28	100.19
482.498	113.19
482.717	92.19
482.935	98.19
483.153	112.19
483.372	104.19
483.59	109.19
483.808	104.19
484.027	96.19
484.245	99.19
484.463	115.19
484.681	115.19
484.9	120.19
485.118	101.19
485.336	109.19
485.554	94.19
485.772	113.19
485.99	87.19
486.209	101.19
486.427	98.19
486.645	112.19
486.863	101.19
487.081	117.19
487.299	113.19
487.517	100.19
487.735	116.19
487.953	137.19
488.171	130.19
488.389	116.19
488.607	118.19
488.825	114.19
489.043	94.19
489.261	108.19
489.479	122.19
489.696	121.19
489.914	108.19
490.132	106.19
490.35	112.19
490.568	109.19
490.786	123.19
491.003	134.19
491.221	127.19
491.439	142.19
491.657	136.19
491.874	138.19
492.092	147.19
492.31	157.19
492.527	146.19
492.745	150.19
492.963	136.19
493.18	148.19
493.398	122.19
493.615	125.19
493.833	123.19
494.05	115.19
494.268	125.19
494.485	119.19
494.703	129.19
494.92	128.19
495.138	131.19
495.355	127.19
495.573	132.19
495.79	120.19
496.008	129.19
496.225	130.19
496.442	129.19
496.66	111.19
496.877	122.19
497.094	122.19
497.312	112.19
497.529	125.19
497.746	132.19
497.963	105.19
498.181	111.19
498.398	101.19
498.615	109.19
498.832	99.19
499.049	97.19
499.267	95.19
499.484	104.19
499.701	118.19
499.918	104.19
500.135	113.19
500.352	114.19
500.569	108.19
500.786	119.19
501.003	111.19
501.22	104.19
501.437	110.19
501.654	116.19
501.871	120.19
502.088	98.19
502.305	108.19
502.522	88.19
502.739	103.19
502.956	118.19
503.172	89.19
503.389	113.19
503.606	94.19
503.823	87.19
504.04	99.19
504.256	116.19
504.473	115.19
504.69	106.19
504.907	97.19
505.123	98.19
505.34	95.19
505.557	113.19
505.773	106.19
505.99	94.19
506.207	100.19
506.423	93.19
506.64	111.19
506.856	103.19
507.073	102.19
507.289	99.19
507.506	104.19
507.722	106.19
507.939	100.19
508.155	100.19
508.372	94.19
508.588	86.19
508.805	93.19
509.021	114.19
509.238	87.19
509.454	93.19
509.67	89.19
509.887	94.19
510.103	81.19
510.319	95.19
510.536	89.19
510.752	86.19
510.968	91.19
511.184	89.19
511.401	83.19
511.617	81.19
511.833	86.19
512.049	85.19
512.265	78.19
512.481	85.19
512.698	90.19
512.914	86.19
513.13	79.19
513.346	81.19
513.562	73.19
513.778	80.19
513.994	76.19
514.21	89.19
514.426	87.19
514.642	86.19
514.858	80.19
515.074	95.19
