Data from Zn(NO3)2Standard.Agarose3%.GreenCap.LampEnergy5.5.E.O_HRD10591_15-01-32-768.txt Node
Date: Mon Jul 22 15:01:32 EDT 2019
User: cochatt
Spectrometer: HR+D1059
Trigger mode: 1
Integration Time (sec): 1.000000E-1
Scans to average: 1
Electric dark correction enabled: true
Nonlinearity correction enabled: false
Boxcar width: 0
XAxis mode: Wavelengths
Number of Pixels in Spectrum: 2048
>>>>>Begin Spectral Data<<<<<
223.165	-14.5
223.4	-14.5
223.635	-14.5
223.869	-30.5
224.104	-17.5
224.338	-13.5
224.573	-17.5
224.808	-5.5
225.042	-10.5
225.277	-0.5
225.511	-4.5
225.746	2.5
225.98	-1.5
226.215	16.5
226.449	17.5
226.683	24.5
226.918	16.5
227.152	38.5
227.387	29.5
227.621	32.5
227.856	40.5
228.09	47.5
228.324	34.5
228.559	64.5
228.793	59.5
229.027	54.5
229.262	62.5
229.496	54.5
229.73	63.5
229.964	80.5
230.199	59.5
230.433	60.5
230.667	81.5
230.901	73.5
231.136	73.5
231.37	69.5
231.604	91.5
231.838	95.5
232.072	66.5
232.306	63.5
232.541	85.5
232.775	94.5
233.009	75.5
233.243	82.5
233.477	66.5
233.711	77.5
233.945	65.5
234.179	82.5
234.413	88.5
234.647	86.5
234.881	90.5
235.115	81.5
235.349	81.5
235.583	72.5
235.817	84.5
236.051	67.5
236.285	71.5
236.519	89.5
236.753	75.5
236.987	73.5
237.221	72.5
237.455	75.5
237.689	63.5
237.922	59.5
238.156	66.5
238.39	81.5
238.624	81.5
238.858	80.5
239.091	75.5
239.325	57.5
239.559	77.5
239.793	66.5
240.027	80.5
240.26	79.5
240.494	63.5
240.728	79.5
240.961	89.5
241.195	73.5
241.429	62.5
241.662	65.5
241.896	85.5
242.13	74.5
242.363	66.5
242.597	77.5
242.83	85.5
243.064	63.5
243.298	67.5
243.531	63.5
243.765	63.5
243.998	66.5
244.232	75.5
244.465	64.5
244.699	69.5
244.932	85.5
245.166	63.5
245.399	88.5
245.633	86.5
245.866	73.5
246.099	76.5
246.333	77.5
246.566	70.5
246.8	74.5
247.033	66.5
247.266	87.5
247.5	79.5
247.733	71.5
247.966	97.5
248.2	79.5
248.433	75.5
248.666	78.5
248.899	79.5
249.133	82.5
249.366	96.5
249.599	77.5
249.832	75.5
250.066	63.5
250.299	73.5
250.532	91.5
250.765	85.5
250.998	80.5
251.231	84.5
251.465	84.5
251.698	66.5
251.931	73.5
252.164	74.5
252.397	94.5
252.63	71.5
252.863	74.5
253.096	70.5
253.329	82.5
253.562	81.5
253.795	91.5
254.028	74.5
254.261	82.5
254.494	78.5
254.727	86.5
254.96	66.5
255.193	79.5
255.426	82.5
255.659	65.5
255.892	85.5
256.124	77.5
256.357	81.5
256.59	72.5
256.823	85.5
257.056	86.5
257.289	77.5
257.521	87.5
257.754	59.5
257.987	83.5
258.22	98.5
258.452	80.5
258.685	78.5
258.918	67.5
259.151	75.5
259.383	76.5
259.616	88.5
259.849	77.5
260.081	91.5
260.314	91.5
260.547	73.5
260.779	69.5
261.012	80.5
261.244	88.5
261.477	85.5
261.71	97.5
261.942	80.5
262.175	73.5
262.407	80.5
262.64	85.5
262.872	82.5
263.105	85.5
263.337	79.5
263.57	80.5
263.802	74.5
264.035	80.5
264.267	82.5
264.499	70.5
264.732	90.5
264.964	66.5
265.197	75.5
265.429	80.5
265.661	104.5
265.894	72.5
266.126	83.5
266.358	83.5
266.591	69.5
266.823	69.5
267.055	79.5
267.287	71.5
267.52	78.5
267.752	75.5
267.984	87.5
268.216	79.5
268.448	89.5
268.681	71.5
268.913	83.5
269.145	72.5
269.377	83.5
269.609	86.5
269.841	79.5
270.073	78.5
270.306	75.5
270.538	89.5
270.77	94.5
271.002	90.5
271.234	71.5
271.466	95.5
271.698	94.5
271.93	84.5
272.162	93.5
272.394	78.5
272.626	70.5
272.858	84.5
273.09	76.5
273.322	69.5
273.553	76.5
273.785	73.5
274.017	82.5
274.249	78.5
274.481	62.5
274.713	81.5
274.945	82.5
275.176	87.5
275.408	89.5
275.64	88.5
275.872	75.5
276.104	94.5
276.335	83.5
276.567	69.5
276.799	80.5
277.031	95.5
277.262	92.5
277.494	88.5
277.726	90.5
277.957	89.5
278.189	89.5
278.421	79.5
278.652	81.5
278.884	78.5
279.115	85.5
279.347	70.5
279.579	85.5
279.81	90.5
280.042	75.5
280.273	88.5
280.505	90.5
280.736	66.5
280.968	86.5
281.199	86.5
281.431	81.5
281.662	86.5
281.894	92.5
282.125	88.5
282.356	86.5
282.588	72.5
282.819	85.5
283.051	81.5
283.282	95.5
283.513	88.5
283.745	88.5
283.976	86.5
284.207	86.5
284.439	73.5
284.67	82.5
284.901	73.5
285.132	85.5
285.364	77.5
285.595	86.5
285.826	75.5
286.057	81.5
286.288	76.5
286.52	81.5
286.751	87.5
286.982	74.5
287.213	78.5
287.444	72.5
287.675	75.5
287.906	83.5
288.138	80.5
288.369	73.5
288.6	74.5
288.831	83.5
289.062	72.5
289.293	82.5
289.524	82.5
289.755	86.5
289.986	90.5
290.217	96.5
290.448	79.5
290.679	77.5
290.91	96.5
291.141	90.5
291.371	105.5
291.602	73.5
291.833	102.5
292.064	77.5
292.295	83.5
292.526	80.5
292.757	77.5
292.987	87.5
293.218	81.5
293.449	92.5
293.68	82.5
293.91	78.5
294.141	80.5
294.372	81.5
294.603	86.5
294.833	90.5
295.064	101.5
295.295	77.5
295.525	77.5
295.756	95.5
295.987	82.5
296.217	81.5
296.448	78.5
296.679	76.5
296.909	95.5
297.14	80.5
297.37	73.5
297.601	79.5
297.831	87.5
298.062	80.5
298.292	68.5
298.523	80.5
298.753	83.5
298.984	77.5
299.214	80.5
299.445	87.5
299.675	90.5
299.905	79.5
300.136	72.5
300.366	85.5
300.597	82.5
300.827	73.5
301.057	90.5
301.288	76.5
301.518	78.5
301.748	80.5
301.979	83.5
302.209	68.5
302.439	77.5
302.669	81.5
302.9	86.5
303.13	77.5
303.36	89.5
303.59	74.5
303.82	87.5
304.051	77.5
304.281	94.5
304.511	89.5
304.741	93.5
304.971	71.5
305.201	69.5
305.431	64.5
305.661	100.5
305.891	83.5
306.121	81.5
306.352	78.5
306.582	83.5
306.812	83.5
307.042	84.5
307.272	78.5
307.502	85.5
307.731	79.5
307.961	90.5
308.191	93.5
308.421	77.5
308.651	87.5
308.881	92.5
309.111	77.5
309.341	69.5
309.571	84.5
309.8	71.5
310.03	104.5
310.26	91.5
310.49	75.5
310.72	79.5
310.949	86.5
311.179	73.5
311.409	93.5
311.639	80.5
311.868	86.5
312.098	82.5
312.328	82.5
312.557	75.5
312.787	81.5
313.017	75.5
313.246	90.5
313.476	69.5
313.706	77.5
313.935	73.5
314.165	77.5
314.394	92.5
314.624	77.5
314.853	73.5
315.083	86.5
315.312	98.5
315.542	93.5
315.771	85.5
316.001	90.5
316.23	82.5
316.46	83.5
316.689	62.5
316.919	92.5
317.148	95.5
317.377	82.5
317.607	86.5
317.836	87.5
318.065	89.5
318.295	81.5
318.524	88.5
318.753	74.5
318.983	91.5
319.212	76.5
319.441	72.5
319.67	91.5
319.9	81.5
320.129	102.5
320.358	90.5
320.587	75.5
320.816	93.5
321.046	89.5
321.275	83.5
321.504	77.5
321.733	83.5
321.962	79.5
322.191	96.5
322.42	103.5
322.649	89.5
322.878	70.5
323.108	78.5
323.337	89.5
323.566	87.5
323.795	82.5
324.024	89.5
324.253	74.5
324.482	82.5
324.71	71.5
324.939	73.5
325.168	78.5
325.397	69.5
325.626	86.5
325.855	95.5
326.084	94.5
326.313	87.5
326.542	81.5
326.77	73.5
326.999	83.5
327.228	79.5
327.457	78.5
327.686	83.5
327.914	80.5
328.143	95.5
328.372	90.5
328.6	92.5
328.829	78.5
329.058	93.5
329.287	84.5
329.515	64.5
329.744	81.5
329.972	88.5
330.201	75.5
330.43	79.5
330.658	98.5
330.887	95.5
331.115	80.5
331.344	85.5
331.572	94.5
331.801	85.5
332.03	85.5
332.258	83.5
332.486	72.5
332.715	87.5
332.943	88.5
333.172	87.5
333.4	90.5
333.629	87.5
333.857	93.5
334.085	79.5
334.314	79.5
334.542	89.5
334.771	87.5
334.999	94.5
335.227	74.5
335.455	79.5
335.684	85.5
335.912	85.5
336.14	75.5
336.369	85.5
336.597	93.5
336.825	87.5
337.053	75.5
337.281	81.5
337.51	79.5
337.738	80.5
337.966	69.5
338.194	84.5
338.422	86.5
338.65	79.5
338.878	87.5
339.106	82.5
339.334	77.5
339.562	77.5
339.79	73.5
340.018	83.5
340.246	79.5
340.474	88.5
340.702	69.5
340.93	71.5
341.158	91.5
341.386	84.5
341.614	82.5
341.842	66.5
342.07	82.5
342.298	80.5
342.526	89.5
342.754	86.5
342.981	89.5
343.209	85.5
343.437	83.5
343.665	79.5
343.893	80.5
344.12	77.5
344.348	82.5
344.576	85.5
344.804	74.5
345.031	86.5
345.259	78.5
345.487	92.5
345.714	89.5
345.942	83.5
346.17	78.5
346.397	82.5
346.625	75.5
346.853	80.5
347.08	90.5
347.308	86.5
347.535	83.5
347.763	63.5
347.99	80.5
348.218	77.5
348.445	79.5
348.673	86.5
348.9	81.5
349.128	85.5
349.355	92.5
349.583	84.5
349.81	82.5
350.037	69.5
350.265	79.5
350.492	82.5
350.72	93.5
350.947	84.5
351.174	85.5
351.402	82.5
351.629	75.5
351.856	93.5
352.083	83.5
352.311	83.5
352.538	81.5
352.765	84.5
352.992	66.5
353.22	84.5
353.447	66.5
353.674	82.5
353.901	74.5
354.128	72.5
354.355	87.5
354.583	78.5
354.81	67.5
355.037	105.5
355.264	73.5
355.491	79.5
355.718	86.5
355.945	88.5
356.172	83.5
356.399	86.5
356.626	90.5
356.853	90.5
357.08	87.5
357.307	94.5
357.534	71.5
357.761	75.5
357.988	102.5
358.215	90.5
358.441	86.5
358.668	93.5
358.895	77.5
359.122	61.5
359.349	71.5
359.576	82.5
359.802	79.5
360.029	80.5
360.256	72.5
360.483	83.5
360.709	87.5
360.936	88.5
361.163	84.5
361.39	81.5
361.616	79.5
361.843	70.5
362.07	76.5
362.296	73.5
362.523	69.5
362.749	81.5
362.976	77.5
363.203	87.5
363.429	82.5
363.656	91.5
363.882	80.5
364.109	74.5
364.335	75.5
364.562	88.5
364.788	76.5
365.015	89.5
365.241	78.5
365.468	86.5
365.694	80.5
365.92	79.5
366.147	81.5
366.373	77.5
366.599	93.5
366.826	85.5
367.052	78.5
367.278	69.5
367.505	75.5
367.731	89.5
367.957	77.5
368.184	86.5
368.41	77.5
368.636	79.5
368.862	89.5
369.089	79.5
369.315	75.5
369.541	82.5
369.767	84.5
369.993	66.5
370.219	81.5
370.445	73.5
370.672	89.5
370.898	82.5
371.124	88.5
371.35	77.5
371.576	66.5
371.802	88.5
372.028	77.5
372.254	85.5
372.48	82.5
372.706	82.5
372.932	99.5
373.158	80.5
373.384	93.5
373.61	94.5
373.835	73.5
374.061	55.5
374.287	75.5
374.513	75.5
374.739	76.5
374.965	63.5
375.191	79.5
375.416	74.5
375.642	90.5
375.868	87.5
376.094	67.5
376.319	68.5
376.545	85.5
376.771	81.5
376.997	82.5
377.222	90.5
377.448	78.5
377.674	89.5
377.899	90.5
378.125	69.5
378.35	74.5
378.576	76.5
378.802	75.5
379.027	89.5
379.253	83.5
379.478	84.5
379.704	98.5
379.929	73.5
380.155	81.5
380.38	72.5
380.606	81.5
380.831	85.5
381.057	77.5
381.282	95.5
381.507	90.5
381.733	78.5
381.958	85.5
382.184	77.5
382.409	84.5
382.634	78.5
382.86	86.5
383.085	73.5
383.31	72.5
383.535	74.5
383.761	56.5
383.986	80.5
384.211	87.5
384.436	74.5
384.662	84.5
384.887	86.5
385.112	75.5
385.337	94.5
385.562	95.5
385.787	75.5
386.013	78.5
386.238	74.5
386.463	90.5
386.688	77.5
386.913	73.5
387.138	83.5
387.363	91.5
387.588	77.5
387.813	87.5
388.038	92.5
388.263	89.5
388.488	85.5
388.713	78.5
388.938	77.5
389.163	75.5
389.387	83.5
389.612	74.5
389.837	70.5
390.062	64.5
390.287	73.5
390.512	70.5
390.736	82.5
390.961	88.5
391.186	94.5
391.411	95.5
391.636	82.5
391.86	78.5
392.085	94.5
392.31	71.5
392.534	74.5
392.759	91.5
392.984	75.5
393.208	78.5
393.433	83.5
393.658	85.5
393.882	68.5
394.107	89.5
394.331	85.5
394.556	87.5
394.78	84.5
395.005	84.5
395.229	87.5
395.454	88.5
395.678	81.5
395.903	90.5
396.127	89.5
396.352	75.5
396.576	74.5
396.801	86.5
397.025	82.5
397.249	83.5
397.474	72.5
397.698	86.5
397.922	69.5
398.147	75.5
398.371	83.5
398.595	68.5
398.82	89.5
399.044	84.5
399.268	74.5
399.492	81.5
399.717	89.5
399.941	78.5
400.165	80.5
400.389	80.5
400.613	85.5
400.837	89.5
401.062	74.5
401.286	79.5
401.51	100.5
401.734	96.5
401.958	91.5
402.182	88.5
402.406	70.5
402.63	75.5
402.854	95.5
403.078	90.5
403.302	76.5
403.526	88.5
403.75	82.5
403.974	79.5
404.198	102.5
404.422	85.5
404.645	100.5
404.869	76.5
405.093	79.5
405.317	71.5
405.541	86.5
405.765	96.5
405.988	77.5
406.212	77.5
406.436	79.5
406.66	87.5
406.883	78.5
407.107	72.5
407.331	62.5
407.555	85.5
407.778	70.5
408.002	68.5
408.226	80.5
408.449	73.5
408.673	91.5
408.896	79.5
409.12	82.5
409.344	74.5
409.567	83.5
409.791	97.5
410.014	71.5
410.238	77.5
410.461	81.5
410.685	78.5
410.908	78.5
411.132	86.5
411.355	76.5
411.578	79.5
411.802	86.5
412.025	65.5
412.249	90.5
412.472	88.5
412.695	82.5
412.919	75.5
413.142	84.5
413.365	69.5
413.589	83.5
413.812	83.5
414.035	80.5
414.258	71.5
414.482	79.5
414.705	80.5
414.928	93.5
415.151	89.5
415.374	73.5
415.597	75.5
415.821	84.5
416.044	89.5
416.267	95.5
416.49	84.5
416.713	81.5
416.936	81.5
417.159	90.5
417.382	96.5
417.605	75.5
417.828	88.5
418.051	88.5
418.274	87.5
418.497	81.5
418.72	93.5
418.943	80.5
419.166	83.5
419.389	77.5
419.611	85.5
419.834	84.5
420.057	81.5
420.28	91.5
420.503	87.5
420.726	87.5
420.948	90.5
421.171	100.5
421.394	78.5
421.617	87.5
421.839	85.5
422.062	89.5
422.285	86.5
422.507	75.5
422.73	77.5
422.953	86.5
423.175	75.5
423.398	97.5
423.621	87.5
423.843	83.5
424.066	73.5
424.288	72.5
424.511	94.5
424.733	83.5
424.956	96.5
425.178	84.5
425.401	81.5
425.623	77.5
425.846	65.5
426.068	80.5
426.291	93.5
426.513	68.5
426.735	87.5
426.958	78.5
427.18	79.5
427.402	70.5
427.625	82.5
427.847	89.5
428.069	89.5
428.292	83.5
428.514	75.5
428.736	76.5
428.958	77.5
429.181	94.5
429.403	96.5
429.625	79.5
429.847	74.5
430.069	77.5
430.292	95.5
430.514	85.5
430.736	99.5
430.958	89.5
431.18	91.5
431.402	90.5
431.624	84.5
431.846	79.5
432.068	86.5
432.29	85.5
432.512	78.5
432.734	73.5
432.956	78.5
433.178	91.5
433.4	94.5
433.622	91.5
433.844	87.5
434.066	75.5
434.287	82.5
434.509	82.5
434.731	68.5
434.953	85.5
435.175	73.5
435.397	82.5
435.618	85.5
435.84	98.5
436.062	80.5
436.284	91.5
436.505	96.5
436.727	100.5
436.949	99.5
437.17	81.5
437.392	78.5
437.614	79.5
437.835	101.5
438.057	89.5
438.278	83.5
438.5	80.5
438.721	86.5
438.943	89.5
439.165	92.5
439.386	74.5
439.608	87.5
439.829	82.5
440.05	84.5
440.272	80.5
440.493	90.5
440.715	86.5
440.936	99.5
441.158	86.5
441.379	87.5
441.6	78.5
441.822	88.5
442.043	85.5
442.264	82.5
442.486	74.5
442.707	82.5
442.928	85.5
443.149	90.5
443.371	83.5
443.592	86.5
443.813	90.5
444.034	90.5
444.255	89.5
444.476	81.5
444.698	88.5
444.919	87.5
445.14	183.5
445.361	130.5
445.582	84.5
445.803	81.5
446.024	79.5
446.245	105.5
446.466	86.5
446.687	81.5
446.908	87.5
447.129	105.5
447.35	84.5
447.571	78.5
447.792	85.5
448.013	87.5
448.234	87.5
448.455	87.5
448.675	80.5
448.896	86.5
449.117	91.5
449.338	71.5
449.559	81.5
449.779	84.5
450	88.5
450.221	81.5
450.442	88.5
450.662	89.5
450.883	85.5
451.104	82.5
451.324	83.5
451.545	82.5
451.766	93.5
451.986	93.5
452.207	98.5
452.428	83.5
452.648	79.5
452.869	85.5
453.089	74.5
453.31	79.5
453.53	81.5
453.751	74.5
453.971	73.5
454.192	78.5
454.412	91.5
454.633	75.5
454.853	74.5
455.073	79.5
455.294	67.5
455.514	96.5
455.734	88.5
455.955	71.5
456.175	80.5
456.395	79.5
456.616	92.5
456.836	73.5
457.056	78.5
457.276	80.5
457.497	82.5
457.717	74.5
457.937	71.5
458.157	80.5
458.377	66.5
458.598	84.5
458.818	69.5
459.038	87.5
459.258	82.5
459.478	74.5
459.698	86.5
459.918	83.5
460.138	88.5
460.358	72.5
460.578	85.5
460.798	84.5
461.018	68.5
461.238	90.5
461.458	79.5
461.678	67.5
461.898	90.5
462.118	96.5
462.338	82.5
462.558	76.5
462.777	75.5
462.997	66.5
463.217	87.5
463.437	82.5
463.657	81.5
463.876	86.5
464.096	85.5
464.316	79.5
464.536	78.5
464.755	71.5
464.975	71.5
465.195	65.5
465.414	83.5
465.634	83.5
465.854	90.5
466.073	84.5
466.293	85.5
466.512	87.5
466.732	83.5
466.951	77.5
467.171	87.5
467.391	88.5
467.61	75.5
467.829	89.5
468.049	91.5
468.268	86.5
468.488	88.5
468.707	87.5
468.927	79.5
469.146	81.5
469.365	94.5
469.585	83.5
469.804	78.5
470.023	87.5
470.243	96.5
470.462	65.5
470.681	71.5
470.901	93.5
471.12	74.5
471.339	89.5
471.558	97.5
471.777	86.5
471.997	95.5
472.216	82.5
472.435	65.5
472.654	74.5
472.873	80.5
473.092	73.5
473.311	89.5
473.53	87.5
473.749	92.5
473.968	80.5
474.187	78.5
474.406	79.5
474.625	75.5
474.844	78.5
475.063	82.5
475.282	85.5
475.501	88.5
475.72	74.5
475.939	82.5
476.158	81.5
476.377	81.5
476.596	77.5
476.814	65.5
477.033	72.5
477.252	84.5
477.471	92.5
477.69	91.5
477.908	95.5
478.127	90.5
478.346	91.5
478.564	78.5
478.783	86.5
479.002	81.5
479.22	86.5
479.439	88.5
479.658	94.5
479.876	78.5
480.095	78.5
480.313	81.5
480.532	85.5
480.751	87.5
480.969	71.5
481.188	96.5
481.406	74.5
481.624	81.5
481.843	90.5
482.061	74.5
482.28	93.5
482.498	94.5
482.717	74.5
482.935	88.5
483.153	90.5
483.372	86.5
483.59	101.5
483.808	91.5
484.027	81.5
484.245	88.5
484.463	93.5
484.681	109.5
484.9	107.5
485.118	98.5
485.336	82.5
485.554	83.5
485.772	85.5
485.99	81.5
486.209	85.5
486.427	83.5
486.645	90.5
486.863	74.5
487.081	90.5
487.299	90.5
487.517	99.5
487.735	96.5
487.953	94.5
488.171	91.5
488.389	102.5
488.607	94.5
488.825	78.5
489.043	83.5
489.261	107.5
489.479	93.5
489.696	86.5
489.914	79.5
490.132	77.5
490.35	89.5
490.568	104.5
490.786	100.5
491.003	92.5
491.221	106.5
491.439	90.5
491.657	93.5
491.874	91.5
492.092	97.5
492.31	94.5
492.527	98.5
492.745	91.5
492.963	109.5
493.18	85.5
493.398	73.5
493.615	98.5
493.833	105.5
494.05	100.5
494.268	100.5
494.485	107.5
494.703	83.5
494.92	103.5
495.138	87.5
495.355	90.5
495.573	98.5
495.79	87.5
496.008	108.5
496.225	94.5
496.442	105.5
496.66	106.5
496.877	94.5
497.094	88.5
497.312	92.5
497.529	99.5
497.746	99.5
497.963	85.5
498.181	84.5
498.398	70.5
498.615	83.5
498.832	81.5
499.049	82.5
499.267	79.5
499.484	91.5
499.701	89.5
499.918	86.5
500.135	99.5
500.352	84.5
500.569	89.5
500.786	91.5
501.003	89.5
501.22	89.5
501.437	76.5
501.654	94.5
501.871	86.5
502.088	91.5
502.305	96.5
502.522	68.5
502.739	82.5
502.956	77.5
503.172	96.5
503.389	93.5
503.606	90.5
503.823	86.5
504.04	96.5
504.256	84.5
504.473	76.5
504.69	82.5
504.907	99.5
505.123	75.5
505.34	87.5
505.557	90.5
505.773	97.5
505.99	75.5
506.207	83.5
506.423	72.5
506.64	77.5
506.856	88.5
507.073	98.5
507.289	81.5
507.506	82.5
507.722	89.5
507.939	74.5
508.155	91.5
508.372	76.5
508.588	95.5
508.805	93.5
509.021	82.5
509.238	84.5
509.454	79.5
509.67	73.5
509.887	68.5
510.103	76.5
510.319	77.5
510.536	92.5
510.752	71.5
510.968	86.5
511.184	74.5
511.401	75.5
511.617	75.5
511.833	83.5
512.049	81.5
512.265	77.5
512.481	75.5
512.698	72.5
512.914	87.5
513.13	73.5
513.346	73.5
513.562	79.5
513.778	86.5
513.994	87.5
514.21	85.5
514.426	81.5
514.642	77.5
514.858	76.5
515.074	84.5
515.29	78.5
515.506	63.5
515.721	86.5
515.937	85.5
516.153	77.5
516.369	85.5
516.585	82.5
516.801	78.5
517.016	75.5
517.232	82.5
517.448	88.5
517.664	72.5
517.879	74.5
518.095	80.5
518.311	80.5
518.527	82.5
518.742	77.5
518.958	70.5
519.173	74.5
519.389	95.5
519.605	75.5
519.82	81.5
520.036	92.5
520.251	97.5
520.467	83.5
520.682	85.5
520.898	78.5
521.113	85.5
521.329	85.5
521.544	88.5
521.76	77.5
521.975	88.5
522.19	85.5
522.406	92.5
522.621	86.5
522.836	89.5
523.052	85.5
523.267	91.5
523.482	86.5
523.698	89.5
523.913	92.5
524.128	102.5
524.343	97.5
524.559	88.5
524.774	82.5
524.989	92.5
525.204	80.5
525.419	77.5
525.634	83.5
525.849	78.5
526.064	79.5
526.28	103.5
526.495	88.5
526.71	88.5
526.925	72.5
527.14	76.5
527.355	78.5
527.57	71.5
527.785	80.5
527.999	92.5
528.214	88.5
528.429	90.5
528.644	95.5
528.859	90.5
529.074	88.5
529.289	87.5
529.503	91.5
529.718	88.5
529.933	89.5
530.148	89.5
530.363	81.5
530.577	88.5
530.792	78.5
531.007	93.5
531.221	69.5
531.436	86.5
531.651	88.5
531.865	71.5
532.08	72.5
532.295	87.5
532.509	71.5
532.724	71.5
532.938	74.5
533.153	87.5
533.367	79.5
533.582	81.5
533.796	92.5
534.011	82.5
534.225	87.5
534.44	80.5
534.654	89.5
534.868	80.5
535.083	91.5
535.297	75.5
535.511	86.5
535.726	89.5
535.94	81.5
536.154	98.5
536.369	81.5
536.583	90.5
536.797	83.5
537.011	89.5
537.225	97.5
537.44	77.5
537.654	81.5
537.868	95.5
538.082	86.5
538.296	93.5
538.51	92.5
538.724	95.5
538.938	89.5
539.153	95.5
