Data from Zn(NO3)2Standard.Agarose3%.GreenCap.LampEnergy10E.O_HRD10591_15-06-35-942.txt Node
Date: Mon Jul 22 15:06:35 EDT 2019
User: cochatt
Spectrometer: HR+D1059
Trigger mode: 1
Integration Time (sec): 1.000000E-1
Scans to average: 1
Electric dark correction enabled: true
Nonlinearity correction enabled: false
Boxcar width: 0
XAxis mode: Wavelengths
Number of Pixels in Spectrum: 2048
>>>>>Begin Spectral Data<<<<<
223.165	-20.38
223.4	-20.38
223.635	-20.38
223.869	-15.38
224.104	-8.38
224.338	-10.38
224.573	-7.38
224.808	-12.38
225.042	-15.38
225.277	-22.38
225.511	-7.38
225.746	2.62
225.98	8.62
226.215	16.62
226.449	24.62
226.683	15.62
226.918	23.62
227.152	27.62
227.387	28.62
227.621	41.62
227.856	38.62
228.09	43.62
228.324	43.62
228.559	51.62
228.793	52.62
229.027	57.62
229.262	66.62
229.496	64.62
229.73	77.62
229.964	70.62
230.199	65.62
230.433	70.62
230.667	82.62
230.901	76.62
231.136	78.62
231.37	84.62
231.604	90.62
231.838	87.62
232.072	75.62
232.306	81.62
232.541	86.62
232.775	89.62
233.009	76.62
233.243	82.62
233.477	83.62
233.711	82.62
233.945	85.62
234.179	73.62
234.413	71.62
234.647	92.62
234.881	83.62
235.115	79.62
235.349	93.62
235.583	84.62
235.817	78.62
236.051	77.62
236.285	84.62
236.519	74.62
236.753	75.62
236.987	73.62
237.221	86.62
237.455	72.62
237.689	68.62
237.922	82.62
238.156	81.62
238.39	75.62
238.624	76.62
238.858	85.62
239.091	82.62
239.325	73.62
239.559	80.62
239.793	70.62
240.027	68.62
240.26	76.62
240.494	70.62
240.728	73.62
240.961	69.62
241.195	69.62
241.429	80.62
241.662	80.62
241.896	83.62
242.13	51.62
242.363	62.62
242.597	84.62
242.83	83.62
243.064	81.62
243.298	84.62
243.531	77.62
243.765	74.62
243.998	75.62
244.232	76.62
244.465	67.62
244.699	71.62
244.932	71.62
245.166	67.62
245.399	76.62
245.633	88.62
245.866	74.62
246.099	80.62
246.333	77.62
246.566	71.62
246.8	79.62
247.033	80.62
247.266	73.62
247.5	82.62
247.733	74.62
247.966	79.62
248.2	78.62
248.433	62.62
248.666	71.62
248.899	86.62
249.133	79.62
249.366	85.62
249.599	73.62
249.832	86.62
250.066	84.62
250.299	84.62
250.532	87.62
250.765	76.62
250.998	71.62
251.231	95.62
251.465	72.62
251.698	75.62
251.931	73.62
252.164	78.62
252.397	78.62
252.63	85.62
252.863	88.62
253.096	54.62
253.329	85.62
253.562	80.62
253.795	83.62
254.028	91.62
254.261	80.62
254.494	64.62
254.727	74.62
254.96	89.62
255.193	73.62
255.426	71.62
255.659	84.62
255.892	77.62
256.124	77.62
256.357	88.62
256.59	88.62
256.823	74.62
257.056	75.62
257.289	87.62
257.521	92.62
257.754	70.62
257.987	80.62
258.22	70.62
258.452	62.62
258.685	90.62
258.918	79.62
259.151	88.62
259.383	82.62
259.616	74.62
259.849	77.62
260.081	76.62
260.314	75.62
260.547	64.62
260.779	86.62
261.012	94.62
261.244	71.62
261.477	84.62
261.71	77.62
261.942	89.62
262.175	84.62
262.407	89.62
262.64	80.62
262.872	72.62
263.105	83.62
263.337	97.62
263.57	75.62
263.802	93.62
264.035	84.62
264.267	88.62
264.499	86.62
264.732	85.62
264.964	91.62
265.197	82.62
265.429	76.62
265.661	80.62
265.894	82.62
266.126	74.62
266.358	85.62
266.591	68.62
266.823	78.62
267.055	87.62
267.287	75.62
267.52	70.62
267.752	77.62
267.984	83.62
268.216	81.62
268.448	84.62
268.681	92.62
268.913	86.62
269.145	86.62
269.377	82.62
269.609	84.62
269.841	79.62
270.073	74.62
270.306	79.62
270.538	82.62
270.77	95.62
271.002	91.62
271.234	77.62
271.466	80.62
271.698	80.62
271.93	74.62
272.162	84.62
272.394	76.62
272.626	73.62
272.858	81.62
273.09	74.62
273.322	82.62
273.553	76.62
273.785	76.62
274.017	87.62
274.249	80.62
274.481	83.62
274.713	81.62
274.945	90.62
275.176	84.62
275.408	77.62
275.64	79.62
275.872	79.62
276.104	65.62
276.335	90.62
276.567	80.62
276.799	94.62
277.031	76.62
277.262	78.62
277.494	86.62
277.726	83.62
277.957	88.62
278.189	90.62
278.421	89.62
278.652	87.62
278.884	86.62
279.115	92.62
279.347	82.62
279.579	71.62
279.81	66.62
280.042	81.62
280.273	90.62
280.505	63.62
280.736	72.62
280.968	90.62
281.199	75.62
281.431	89.62
281.662	81.62
281.894	88.62
282.125	83.62
282.356	82.62
282.588	82.62
282.819	85.62
283.051	89.62
283.282	89.62
283.513	85.62
283.745	72.62
283.976	91.62
284.207	91.62
284.439	87.62
284.67	83.62
284.901	88.62
285.132	88.62
285.364	83.62
285.595	87.62
285.826	77.62
286.057	76.62
286.288	84.62
286.52	73.62
286.751	78.62
286.982	83.62
287.213	69.62
287.444	82.62
287.675	81.62
287.906	83.62
288.138	91.62
288.369	87.62
288.6	90.62
288.831	85.62
289.062	89.62
289.293	92.62
289.524	76.62
289.755	71.62
289.986	71.62
290.217	79.62
290.448	82.62
290.679	84.62
290.91	88.62
291.141	72.62
291.371	72.62
291.602	72.62
291.833	91.62
292.064	78.62
292.295	76.62
292.526	81.62
292.757	95.62
292.987	88.62
293.218	80.62
293.449	95.62
293.68	84.62
293.91	68.62
294.141	68.62
294.372	87.62
294.603	78.62
294.833	89.62
295.064	83.62
295.295	82.62
295.525	79.62
295.756	98.62
295.987	91.62
296.217	86.62
296.448	82.62
296.679	84.62
296.909	83.62
297.14	86.62
297.37	80.62
297.601	81.62
297.831	79.62
298.062	88.62
298.292	77.62
298.523	85.62
298.753	89.62
298.984	92.62
299.214	78.62
299.445	96.62
299.675	83.62
299.905	87.62
300.136	87.62
300.366	86.62
300.597	86.62
300.827	82.62
301.057	82.62
301.288	92.62
301.518	99.62
301.748	84.62
301.979	86.62
302.209	92.62
302.439	78.62
302.669	82.62
302.9	102.62
303.13	90.62
303.36	70.62
303.59	77.62
303.82	84.62
304.051	90.62
304.281	77.62
304.511	76.62
304.741	80.62
304.971	96.62
305.201	84.62
305.431	79.62
305.661	81.62
305.891	87.62
306.121	79.62
306.352	83.62
306.582	88.62
306.812	105.62
307.042	78.62
307.272	94.62
307.502	76.62
307.731	66.62
307.961	86.62
308.191	74.62
308.421	83.62
308.651	79.62
308.881	80.62
309.111	74.62
309.341	68.62
309.571	80.62
309.8	83.62
310.03	89.62
310.26	105.62
310.49	82.62
310.72	68.62
310.949	79.62
311.179	86.62
311.409	81.62
311.639	105.62
311.868	73.62
312.098	77.62
312.328	94.62
312.557	90.62
312.787	77.62
313.017	82.62
313.246	84.62
313.476	91.62
313.706	88.62
313.935	78.62
314.165	90.62
314.394	86.62
314.624	76.62
314.853	84.62
315.083	80.62
315.312	89.62
315.542	93.62
315.771	85.62
316.001	94.62
316.23	81.62
316.46	75.62
316.689	98.62
316.919	80.62
317.148	75.62
317.377	86.62
317.607	83.62
317.836	76.62
318.065	82.62
318.295	70.62
318.524	74.62
318.753	83.62
318.983	71.62
319.212	86.62
319.441	96.62
319.67	82.62
319.9	94.62
320.129	90.62
320.358	89.62
320.587	72.62
320.816	81.62
321.046	81.62
321.275	85.62
321.504	78.62
321.733	77.62
321.962	84.62
322.191	97.62
322.42	97.62
322.649	79.62
322.878	87.62
323.108	89.62
323.337	83.62
323.566	95.62
323.795	86.62
324.024	83.62
324.253	83.62
324.482	87.62
324.71	91.62
324.939	92.62
325.168	84.62
325.397	85.62
325.626	86.62
325.855	85.62
326.084	82.62
326.313	69.62
326.542	94.62
326.77	79.62
326.999	93.62
327.228	90.62
327.457	96.62
327.686	75.62
327.914	88.62
328.143	87.62
328.372	91.62
328.6	85.62
328.829	86.62
329.058	81.62
329.287	84.62
329.515	88.62
329.744	94.62
329.972	89.62
330.201	90.62
330.43	72.62
330.658	83.62
330.887	75.62
331.115	101.62
331.344	82.62
331.572	96.62
331.801	84.62
332.03	79.62
332.258	80.62
332.486	80.62
332.715	86.62
332.943	77.62
333.172	96.62
333.4	95.62
333.629	96.62
333.857	87.62
334.085	82.62
334.314	85.62
334.542	92.62
334.771	82.62
334.999	73.62
335.227	72.62
335.455	90.62
335.684	95.62
335.912	78.62
336.14	83.62
336.369	80.62
336.597	80.62
336.825	92.62
337.053	79.62
337.281	77.62
337.51	75.62
337.738	86.62
337.966	75.62
338.194	84.62
338.422	90.62
338.65	96.62
338.878	88.62
339.106	83.62
339.334	92.62
339.562	83.62
339.79	84.62
340.018	78.62
340.246	87.62
340.474	104.62
340.702	88.62
340.93	64.62
341.158	68.62
341.386	88.62
341.614	80.62
341.842	78.62
342.07	94.62
342.298	84.62
342.526	82.62
342.754	98.62
342.981	87.62
343.209	85.62
343.437	88.62
343.665	71.62
343.893	90.62
344.12	95.62
344.348	87.62
344.576	85.62
344.804	92.62
345.031	89.62
345.259	73.62
345.487	81.62
345.714	92.62
345.942	86.62
346.17	86.62
346.397	77.62
346.625	71.62
346.853	83.62
347.08	84.62
347.308	72.62
347.535	85.62
347.763	82.62
347.99	86.62
348.218	75.62
348.445	86.62
348.673	91.62
348.9	78.62
349.128	93.62
349.355	80.62
349.583	74.62
349.81	85.62
350.037	85.62
350.265	84.62
350.492	93.62
350.72	73.62
350.947	84.62
351.174	78.62
351.402	83.62
351.629	84.62
351.856	76.62
352.083	73.62
352.311	85.62
352.538	82.62
352.765	83.62
352.992	89.62
353.22	85.62
353.447	79.62
353.674	89.62
353.901	90.62
354.128	82.62
354.355	93.62
354.583	74.62
354.81	83.62
355.037	96.62
355.264	83.62
355.491	87.62
355.718	70.62
355.945	90.62
356.172	96.62
356.399	93.62
356.626	86.62
356.853	74.62
357.08	94.62
357.307	86.62
357.534	84.62
357.761	86.62
357.988	85.62
358.215	81.62
358.441	79.62
358.668	96.62
358.895	74.62
359.122	90.62
359.349	89.62
359.576	75.62
359.802	88.62
360.029	76.62
360.256	79.62
360.483	70.62
360.709	74.62
360.936	84.62
361.163	78.62
361.39	69.62
361.616	94.62
361.843	77.62
362.07	90.62
362.296	82.62
362.523	91.62
362.749	88.62
362.976	85.62
363.203	85.62
363.429	82.62
363.656	84.62
363.882	89.62
364.109	85.62
364.335	86.62
364.562	81.62
364.788	82.62
365.015	86.62
365.241	100.62
365.468	94.62
365.694	82.62
365.92	94.62
366.147	85.62
366.373	89.62
366.599	93.62
366.826	90.62
367.052	80.62
367.278	72.62
367.505	77.62
367.731	83.62
367.957	86.62
368.184	77.62
368.41	84.62
368.636	75.62
368.862	94.62
369.089	78.62
369.315	90.62
369.541	98.62
369.767	74.62
369.993	94.62
370.219	86.62
370.445	89.62
370.672	84.62
370.898	84.62
371.124	79.62
371.35	83.62
371.576	90.62
371.802	92.62
372.028	91.62
372.254	94.62
372.48	86.62
372.706	78.62
372.932	77.62
373.158	76.62
373.384	90.62
373.61	76.62
373.835	83.62
374.061	75.62
374.287	98.62
374.513	91.62
374.739	84.62
374.965	93.62
375.191	98.62
375.416	70.62
375.642	96.62
375.868	84.62
376.094	86.62
376.319	74.62
376.545	72.62
376.771	88.62
376.997	84.62
377.222	91.62
377.448	85.62
377.674	89.62
377.899	80.62
378.125	96.62
378.35	100.62
378.576	78.62
378.802	97.62
379.027	97.62
379.253	84.62
379.478	76.62
379.704	74.62
379.929	84.62
380.155	91.62
380.38	72.62
380.606	84.62
380.831	86.62
381.057	92.62
381.282	79.62
381.507	94.62
381.733	89.62
381.958	90.62
382.184	81.62
382.409	85.62
382.634	93.62
382.86	94.62
383.085	82.62
383.31	93.62
383.535	92.62
383.761	82.62
383.986	103.62
384.211	86.62
384.436	105.62
384.662	88.62
384.887	92.62
385.112	88.62
385.337	83.62
385.562	96.62
385.787	80.62
386.013	83.62
386.238	93.62
386.463	92.62
386.688	82.62
386.913	98.62
387.138	91.62
387.363	86.62
387.588	104.62
387.813	90.62
388.038	74.62
388.263	77.62
388.488	99.62
388.713	96.62
388.938	88.62
389.163	86.62
389.387	89.62
389.612	93.62
389.837	95.62
390.062	90.62
390.287	84.62
390.512	102.62
390.736	82.62
390.961	81.62
391.186	100.62
391.411	85.62
391.636	78.62
391.86	98.62
392.085	100.62
392.31	92.62
392.534	87.62
392.759	85.62
392.984	91.62
393.208	82.62
393.433	94.62
393.658	85.62
393.882	91.62
394.107	85.62
394.331	75.62
394.556	92.62
394.78	87.62
395.005	83.62
395.229	88.62
395.454	93.62
395.678	92.62
395.903	94.62
396.127	103.62
396.352	90.62
396.576	100.62
396.801	109.62
397.025	105.62
397.249	99.62
397.474	96.62
397.698	102.62
397.922	94.62
398.147	98.62
398.371	101.62
398.595	98.62
398.82	97.62
399.044	87.62
399.268	94.62
399.492	110.62
399.717	102.62
399.941	96.62
400.165	80.62
400.389	88.62
400.613	94.62
400.837	83.62
401.062	105.62
401.286	88.62
401.51	95.62
401.734	88.62
401.958	97.62
402.182	89.62
402.406	82.62
402.63	92.62
402.854	86.62
403.078	91.62
403.302	93.62
403.526	87.62
403.75	90.62
403.974	94.62
404.198	101.62
404.422	101.62
404.645	90.62
404.869	95.62
405.093	91.62
405.317	87.62
405.541	87.62
405.765	88.62
405.988	92.62
406.212	86.62
406.436	89.62
406.66	102.62
406.883	110.62
407.107	95.62
407.331	106.62
407.555	98.62
407.778	97.62
408.002	96.62
408.226	99.62
408.449	96.62
408.673	106.62
408.896	94.62
409.12	92.62
409.344	93.62
409.567	102.62
409.791	84.62
410.014	90.62
410.238	99.62
410.461	98.62
410.685	86.62
410.908	105.62
411.132	101.62
411.355	104.62
411.578	119.62
411.802	100.62
412.025	107.62
412.249	93.62
412.472	102.62
412.695	99.62
412.919	106.62
413.142	93.62
413.365	92.62
413.589	98.62
413.812	114.62
414.035	92.62
414.258	94.62
414.482	88.62
414.705	98.62
414.928	92.62
415.151	96.62
415.374	94.62
415.597	98.62
415.821	98.62
416.044	108.62
416.267	107.62
416.49	109.62
416.713	110.62
416.936	84.62
417.159	99.62
417.382	104.62
417.605	102.62
417.828	97.62
418.051	94.62
418.274	102.62
418.497	106.62
418.72	99.62
418.943	98.62
419.166	94.62
419.389	105.62
419.611	102.62
419.834	109.62
420.057	110.62
420.28	105.62
420.503	112.62
420.726	95.62
420.948	93.62
421.171	102.62
421.394	114.62
421.617	109.62
421.839	108.62
422.062	109.62
422.285	110.62
422.507	119.62
422.73	95.62
422.953	95.62
423.175	99.62
423.398	110.62
423.621	99.62
423.843	97.62
424.066	101.62
424.288	104.62
424.511	113.62
424.733	107.62
424.956	105.62
425.178	106.62
425.401	101.62
425.623	109.62
425.846	102.62
426.068	101.62
426.291	99.62
426.513	99.62
426.735	106.62
426.958	100.62
427.18	108.62
427.402	103.62
427.625	110.62
427.847	110.62
428.069	95.62
428.292	86.62
428.514	102.62
428.736	109.62
428.958	104.62
429.181	95.62
429.403	100.62
429.625	101.62
429.847	99.62
430.069	97.62
430.292	101.62
430.514	94.62
430.736	98.62
430.958	93.62
431.18	98.62
431.402	122.62
431.624	103.62
431.846	92.62
432.068	84.62
432.29	88.62
432.512	96.62
432.734	105.62
432.956	96.62
433.178	115.62
433.4	100.62
433.622	109.62
433.844	94.62
434.066	95.62
434.287	92.62
434.509	93.62
434.731	94.62
434.953	78.62
435.175	94.62
435.397	102.62
435.618	105.62
435.84	100.62
436.062	95.62
436.284	100.62
436.505	107.62
436.727	101.62
436.949	105.62
437.17	115.62
437.392	100.62
437.614	92.62
437.835	94.62
438.057	90.62
438.278	101.62
438.5	113.62
438.721	118.62
438.943	123.62
439.165	108.62
439.386	100.62
439.608	120.62
439.829	113.62
440.05	103.62
440.272	115.62
440.493	98.62
440.715	108.62
440.936	110.62
441.158	99.62
441.379	123.62
441.6	111.62
441.822	100.62
442.043	108.62
442.264	109.62
442.486	108.62
442.707	112.62
442.928	94.62
443.149	107.62
443.371	106.62
443.592	101.62
443.813	112.62
444.034	114.62
444.255	94.62
444.476	114.62
444.698	114.62
444.919	130.62
445.14	236.62
445.361	176.62
445.582	118.62
445.803	116.62
446.024	104.62
446.245	112.62
446.466	98.62
446.687	117.62
446.908	123.62
447.129	132.62
447.35	121.62
447.571	109.62
447.792	104.62
448.013	97.62
448.234	100.62
448.455	118.62
448.675	107.62
448.896	104.62
449.117	108.62
449.338	114.62
449.559	117.62
449.779	100.62
450	108.62
450.221	109.62
450.442	101.62
450.662	104.62
450.883	99.62
451.104	117.62
451.324	100.62
451.545	98.62
451.766	93.62
451.986	89.62
452.207	112.62
452.428	112.62
452.648	100.62
452.869	112.62
453.089	108.62
453.31	90.62
453.53	103.62
453.751	89.62
453.971	96.62
454.192	94.62
454.412	104.62
454.633	89.62
454.853	88.62
455.073	78.62
455.294	106.62
455.514	122.62
455.734	120.62
455.955	117.62
456.175	92.62
456.395	86.62
456.616	92.62
456.836	96.62
457.056	89.62
457.276	89.62
457.497	101.62
457.717	81.62
457.937	102.62
458.157	97.62
458.377	97.62
458.598	75.62
458.818	90.62
459.038	74.62
459.258	88.62
459.478	78.62
459.698	83.62
459.918	103.62
460.138	97.62
460.358	85.62
460.578	97.62
460.798	90.62
461.018	99.62
461.238	95.62
461.458	103.62
461.678	88.62
461.898	95.62
462.118	88.62
462.338	97.62
462.558	96.62
462.777	92.62
462.997	96.62
463.217	83.62
463.437	90.62
463.657	101.62
463.876	91.62
464.096	89.62
464.316	91.62
464.536	91.62
464.755	103.62
464.975	102.62
465.195	93.62
465.414	104.62
465.634	100.62
465.854	103.62
466.073	110.62
466.293	116.62
466.512	104.62
466.732	106.62
466.951	98.62
467.171	107.62
467.391	101.62
467.61	110.62
467.829	104.62
468.049	115.62
468.268	87.62
468.488	99.62
468.707	109.62
468.927	103.62
469.146	113.62
469.365	104.62
469.585	124.62
469.804	113.62
470.023	114.62
470.243	108.62
470.462	125.62
470.681	114.62
470.901	104.62
471.12	123.62
471.339	112.62
471.558	110.62
471.777	107.62
471.997	108.62
472.216	99.62
472.435	103.62
472.654	105.62
472.873	93.62
473.092	103.62
473.311	96.62
473.53	114.62
473.749	102.62
473.968	120.62
474.187	97.62
474.406	85.62
474.625	104.62
474.844	116.62
475.063	107.62
475.282	112.62
475.501	104.62
475.72	115.62
475.939	122.62
476.158	74.62
476.377	105.62
476.596	89.62
476.814	101.62
477.033	98.62
477.252	105.62
477.471	92.62
477.69	100.62
477.908	103.62
478.127	113.62
478.346	109.62
478.564	124.62
478.783	101.62
479.002	107.62
479.22	102.62
479.439	117.62
479.658	105.62
479.876	88.62
480.095	71.62
480.313	101.62
480.532	101.62
480.751	96.62
480.969	86.62
481.188	97.62
481.406	83.62
481.624	84.62
481.843	85.62
482.061	86.62
482.28	99.62
482.498	99.62
482.717	91.62
482.935	88.62
483.153	118.62
483.372	112.62
483.59	117.62
483.808	97.62
484.027	118.62
484.245	106.62
484.463	126.62
484.681	116.62
484.9	107.62
485.118	105.62
485.336	114.62
485.554	91.62
485.772	101.62
485.99	85.62
486.209	107.62
486.427	86.62
486.645	99.62
486.863	111.62
487.081	116.62
487.299	99.62
487.517	114.62
487.735	120.62
487.953	136.62
488.171	134.62
488.389	120.62
488.607	109.62
488.825	122.62
489.043	112.62
489.261	111.62
489.479	105.62
489.696	110.62
489.914	101.62
490.132	118.62
490.35	105.62
490.568	124.62
490.786	112.62
491.003	130.62
491.221	132.62
491.439	128.62
491.657	139.62
491.874	146.62
492.092	130.62
492.31	146.62
492.527	153.62
492.745	139.62
492.963	123.62
493.18	122.62
493.398	118.62
493.615	125.62
493.833	124.62
494.05	137.62
494.268	126.62
494.485	123.62
494.703	127.62
494.92	122.62
495.138	133.62
495.355	121.62
495.573	126.62
495.79	132.62
496.008	134.62
496.225	126.62
496.442	122.62
496.66	134.62
496.877	122.62
497.094	123.62
497.312	112.62
497.529	113.62
497.746	106.62
497.963	106.62
498.181	94.62
498.398	105.62
498.615	81.62
498.832	104.62
499.049	105.62
499.267	89.62
499.484	102.62
499.701	106.62
499.918	118.62
500.135	109.62
500.352	124.62
500.569	122.62
500.786	118.62
501.003	118.62
501.22	117.62
501.437	107.62
501.654	108.62
501.871	106.62
502.088	101.62
502.305	106.62
502.522	104.62
502.739	100.62
502.956	105.62
503.172	104.62
503.389	109.62
503.606	113.62
503.823	107.62
504.04	103.62
504.256	104.62
504.473	96.62
504.69	102.62
504.907	102.62
505.123	89.62
505.34	95.62
505.557	102.62
505.773	106.62
505.99	113.62
506.207	105.62
506.423	91.62
506.64	101.62
506.856	101.62
507.073	88.62
507.289	109.62
507.506	102.62
507.722	84.62
507.939	102.62
508.155	113.62
508.372	93.62
508.588	81.62
508.805	115.62
509.021	95.62
509.238	95.62
509.454	97.62
509.67	105.62
509.887	82.62
510.103	80.62
510.319	100.62
510.536	91.62
510.752	70.62
510.968	78.62
511.184	88.62
511.401	92.62
511.617	78.62
511.833	84.62
512.049	85.62
512.265	79.62
512.481	97.62
512.698	100.62
512.914	88.62
513.13	83.62
513.346	90.62
513.562	82.62
513.778	102.62
513.994	96.62
514.21	101.62
514.426	88.62
514.642	89.62
