Data from Zn(NO3)2Standard.Agarose3%.GreenCap.LampEnergy5.5.E.O_HRD10591_15-02-00-767.txt Node
Date: Mon Jul 22 15:02:00 EDT 2019
User: cochatt
Spectrometer: HR+D1059
Trigger mode: 1
Integration Time (sec): 1.000000E-1
Scans to average: 1
Electric dark correction enabled: true
Nonlinearity correction enabled: false
Boxcar width: 0
XAxis mode: Wavelengths
Number of Pixels in Spectrum: 2048
>>>>>Begin Spectral Data<<<<<
223.165	-27.38
223.4	-27.38
223.635	-27.38
223.869	-6.38
224.104	-6.38
224.338	-16.38
224.573	-10.38
224.808	-6.38
225.042	-12.38
225.277	-8.38
225.511	-6.38
225.746	-8.38
225.98	7.62
226.215	10.62
226.449	2.62
226.683	22.62
226.918	35.62
227.152	29.62
227.387	25.62
227.621	38.62
227.856	15.62
228.09	49.62
228.324	47.62
228.559	38.62
228.793	46.62
229.027	46.62
229.262	46.62
229.496	67.62
229.73	73.62
229.964	63.62
230.199	74.62
230.433	70.62
230.667	61.62
230.901	71.62
231.136	73.62
231.37	70.62
231.604	79.62
231.838	81.62
232.072	71.62
232.306	82.62
232.541	68.62
232.775	77.62
233.009	67.62
233.243	77.62
233.477	71.62
233.711	79.62
233.945	81.62
234.179	82.62
234.413	87.62
234.647	84.62
234.881	79.62
235.115	80.62
235.349	60.62
235.583	79.62
235.817	76.62
236.051	75.62
236.285	84.62
236.519	83.62
236.753	71.62
236.987	80.62
237.221	69.62
237.455	65.62
237.689	79.62
237.922	70.62
238.156	78.62
238.39	73.62
238.624	72.62
238.858	68.62
239.091	65.62
239.325	71.62
239.559	86.62
239.793	84.62
240.027	80.62
240.26	71.62
240.494	66.62
240.728	70.62
240.961	65.62
241.195	71.62
241.429	79.62
241.662	74.62
241.896	80.62
242.13	72.62
242.363	79.62
242.597	87.62
242.83	71.62
243.064	85.62
243.298	74.62
243.531	72.62
243.765	67.62
243.998	73.62
244.232	65.62
244.465	76.62
244.699	62.62
244.932	77.62
245.166	69.62
245.399	53.62
245.633	75.62
245.866	74.62
246.099	94.62
246.333	73.62
246.566	76.62
246.8	85.62
247.033	79.62
247.266	84.62
247.5	79.62
247.733	71.62
247.966	75.62
248.2	74.62
248.433	81.62
248.666	77.62
248.899	83.62
249.133	65.62
249.366	69.62
249.599	70.62
249.832	76.62
250.066	79.62
250.299	79.62
250.532	91.62
250.765	68.62
250.998	74.62
251.231	73.62
251.465	81.62
251.698	71.62
251.931	86.62
252.164	86.62
252.397	72.62
252.63	88.62
252.863	79.62
253.096	88.62
253.329	97.62
253.562	74.62
253.795	69.62
254.028	71.62
254.261	78.62
254.494	90.62
254.727	70.62
254.96	80.62
255.193	86.62
255.426	81.62
255.659	77.62
255.892	77.62
256.124	81.62
256.357	76.62
256.59	83.62
256.823	59.62
257.056	81.62
257.289	87.62
257.521	78.62
257.754	83.62
257.987	78.62
258.22	78.62
258.452	76.62
258.685	89.62
258.918	89.62
259.151	82.62
259.383	82.62
259.616	72.62
259.849	81.62
260.081	87.62
260.314	75.62
260.547	76.62
260.779	85.62
261.012	79.62
261.244	77.62
261.477	74.62
261.71	72.62
261.942	70.62
262.175	79.62
262.407	79.62
262.64	82.62
262.872	79.62
263.105	85.62
263.337	72.62
263.57	73.62
263.802	73.62
264.035	83.62
264.267	73.62
264.499	75.62
264.732	79.62
264.964	94.62
265.197	76.62
265.429	79.62
265.661	84.62
265.894	72.62
266.126	64.62
266.358	66.62
266.591	70.62
266.823	85.62
267.055	79.62
267.287	84.62
267.52	73.62
267.752	83.62
267.984	80.62
268.216	89.62
268.448	79.62
268.681	86.62
268.913	86.62
269.145	80.62
269.377	81.62
269.609	75.62
269.841	84.62
270.073	85.62
270.306	86.62
270.538	83.62
270.77	86.62
271.002	94.62
271.234	79.62
271.466	69.62
271.698	86.62
271.93	83.62
272.162	86.62
272.394	77.62
272.626	75.62
272.858	88.62
273.09	79.62
273.322	69.62
273.553	88.62
273.785	89.62
274.017	81.62
274.249	55.62
274.481	69.62
274.713	67.62
274.945	90.62
275.176	91.62
275.408	87.62
275.64	75.62
275.872	83.62
276.104	75.62
276.335	74.62
276.567	83.62
276.799	83.62
277.031	76.62
277.262	79.62
277.494	76.62
277.726	85.62
277.957	81.62
278.189	67.62
278.421	83.62
278.652	84.62
278.884	85.62
279.115	79.62
279.347	75.62
279.579	81.62
279.81	71.62
280.042	72.62
280.273	89.62
280.505	95.62
280.736	78.62
280.968	68.62
281.199	75.62
281.431	83.62
281.662	89.62
281.894	91.62
282.125	79.62
282.356	78.62
282.588	82.62
282.819	87.62
283.051	77.62
283.282	76.62
283.513	80.62
283.745	85.62
283.976	87.62
284.207	83.62
284.439	88.62
284.67	71.62
284.901	87.62
285.132	73.62
285.364	73.62
285.595	81.62
285.826	94.62
286.057	95.62
286.288	75.62
286.52	83.62
286.751	84.62
286.982	83.62
287.213	80.62
287.444	83.62
287.675	71.62
287.906	89.62
288.138	69.62
288.369	71.62
288.6	87.62
288.831	77.62
289.062	94.62
289.293	73.62
289.524	78.62
289.755	68.62
289.986	78.62
290.217	70.62
290.448	74.62
290.679	85.62
290.91	102.62
291.141	88.62
291.371	96.62
291.602	77.62
291.833	82.62
292.064	88.62
292.295	83.62
292.526	78.62
292.757	89.62
292.987	75.62
293.218	92.62
293.449	86.62
293.68	82.62
293.91	89.62
294.141	81.62
294.372	83.62
294.603	72.62
294.833	77.62
295.064	87.62
295.295	85.62
295.525	76.62
295.756	83.62
295.987	83.62
296.217	78.62
296.448	86.62
296.679	79.62
296.909	76.62
297.14	75.62
297.37	95.62
297.601	86.62
297.831	77.62
298.062	93.62
298.292	69.62
298.523	78.62
298.753	70.62
298.984	84.62
299.214	93.62
299.445	92.62
299.675	63.62
299.905	94.62
300.136	85.62
300.366	88.62
300.597	89.62
300.827	80.62
301.057	87.62
301.288	83.62
301.518	72.62
301.748	83.62
301.979	86.62
302.209	80.62
302.439	79.62
302.669	78.62
302.9	86.62
303.13	81.62
303.36	78.62
303.59	86.62
303.82	88.62
304.051	85.62
304.281	71.62
304.511	85.62
304.741	76.62
304.971	91.62
305.201	77.62
305.431	83.62
305.661	85.62
305.891	92.62
306.121	91.62
306.352	87.62
306.582	75.62
306.812	87.62
307.042	83.62
307.272	86.62
307.502	97.62
307.731	75.62
307.961	83.62
308.191	85.62
308.421	85.62
308.651	82.62
308.881	93.62
309.111	78.62
309.341	71.62
309.571	95.62
309.8	91.62
310.03	78.62
310.26	90.62
310.49	85.62
310.72	88.62
310.949	76.62
311.179	84.62
311.409	74.62
311.639	86.62
311.868	76.62
312.098	71.62
312.328	83.62
312.557	90.62
312.787	91.62
313.017	78.62
313.246	90.62
313.476	83.62
313.706	90.62
313.935	87.62
314.165	81.62
314.394	94.62
314.624	90.62
314.853	80.62
315.083	90.62
315.312	76.62
315.542	75.62
315.771	80.62
316.001	89.62
316.23	78.62
316.46	87.62
316.689	81.62
316.919	84.62
317.148	79.62
317.377	85.62
317.607	88.62
317.836	82.62
318.065	89.62
318.295	85.62
318.524	84.62
318.753	77.62
318.983	73.62
319.212	86.62
319.441	69.62
319.67	82.62
319.9	88.62
320.129	80.62
320.358	79.62
320.587	75.62
320.816	75.62
321.046	84.62
321.275	85.62
321.504	92.62
321.733	89.62
321.962	86.62
322.191	67.62
322.42	84.62
322.649	93.62
322.878	85.62
323.108	70.62
323.337	72.62
323.566	72.62
323.795	87.62
324.024	82.62
324.253	90.62
324.482	82.62
324.71	81.62
324.939	76.62
325.168	80.62
325.397	91.62
325.626	87.62
325.855	86.62
326.084	89.62
326.313	84.62
326.542	72.62
326.77	86.62
326.999	82.62
327.228	81.62
327.457	72.62
327.686	76.62
327.914	81.62
328.143	77.62
328.372	79.62
328.6	78.62
328.829	78.62
329.058	90.62
329.287	77.62
329.515	85.62
329.744	94.62
329.972	72.62
330.201	87.62
330.43	88.62
330.658	91.62
330.887	94.62
331.115	75.62
331.344	80.62
331.572	97.62
331.801	79.62
332.03	82.62
332.258	74.62
332.486	87.62
332.715	78.62
332.943	63.62
333.172	73.62
333.4	78.62
333.629	81.62
333.857	78.62
334.085	76.62
334.314	71.62
334.542	83.62
334.771	83.62
334.999	76.62
335.227	88.62
335.455	80.62
335.684	78.62
335.912	83.62
336.14	79.62
336.369	86.62
336.597	94.62
336.825	78.62
337.053	76.62
337.281	71.62
337.51	95.62
337.738	82.62
337.966	85.62
338.194	94.62
338.422	84.62
338.65	90.62
338.878	67.62
339.106	76.62
339.334	91.62
339.562	83.62
339.79	97.62
340.018	85.62
340.246	84.62
340.474	78.62
340.702	79.62
340.93	89.62
341.158	79.62
341.386	68.62
341.614	70.62
341.842	84.62
342.07	77.62
342.298	89.62
342.526	75.62
342.754	79.62
342.981	81.62
343.209	83.62
343.437	82.62
343.665	78.62
343.893	74.62
344.12	93.62
344.348	78.62
344.576	76.62
344.804	75.62
345.031	81.62
345.259	86.62
345.487	80.62
345.714	81.62
345.942	81.62
346.17	74.62
346.397	82.62
346.625	88.62
346.853	83.62
347.08	74.62
347.308	71.62
347.535	88.62
347.763	85.62
347.99	97.62
348.218	85.62
348.445	78.62
348.673	76.62
348.9	90.62
349.128	88.62
349.355	73.62
349.583	93.62
349.81	75.62
350.037	89.62
350.265	104.62
350.492	71.62
350.72	77.62
350.947	90.62
351.174	87.62
351.402	82.62
351.629	72.62
351.856	77.62
352.083	80.62
352.311	88.62
352.538	86.62
352.765	73.62
352.992	75.62
353.22	76.62
353.447	71.62
353.674	66.62
353.901	81.62
354.128	94.62
354.355	92.62
354.583	77.62
354.81	82.62
355.037	87.62
355.264	77.62
355.491	89.62
355.718	70.62
355.945	66.62
356.172	88.62
356.399	92.62
356.626	85.62
356.853	89.62
357.08	73.62
357.307	83.62
357.534	63.62
357.761	85.62
357.988	88.62
358.215	80.62
358.441	82.62
358.668	82.62
358.895	68.62
359.122	75.62
359.349	73.62
359.576	70.62
359.802	78.62
360.029	81.62
360.256	71.62
360.483	87.62
360.709	93.62
360.936	82.62
361.163	84.62
361.39	90.62
361.616	83.62
361.843	97.62
362.07	81.62
362.296	83.62
362.523	79.62
362.749	87.62
362.976	77.62
363.203	76.62
363.429	73.62
363.656	56.62
363.882	64.62
364.109	78.62
364.335	68.62
364.562	73.62
364.788	74.62
365.015	93.62
365.241	83.62
365.468	83.62
365.694	80.62
365.92	77.62
366.147	78.62
366.373	86.62
366.599	80.62
366.826	88.62
367.052	83.62
367.278	82.62
367.505	92.62
367.731	83.62
367.957	75.62
368.184	68.62
368.41	70.62
368.636	79.62
368.862	93.62
369.089	81.62
369.315	72.62
369.541	86.62
369.767	85.62
369.993	80.62
370.219	87.62
370.445	73.62
370.672	75.62
370.898	86.62
371.124	80.62
371.35	83.62
371.576	90.62
371.802	94.62
372.028	73.62
372.254	76.62
372.48	93.62
372.706	80.62
372.932	66.62
373.158	90.62
373.384	85.62
373.61	78.62
373.835	88.62
374.061	78.62
374.287	78.62
374.513	83.62
374.739	77.62
374.965	77.62
375.191	66.62
375.416	85.62
375.642	69.62
375.868	76.62
376.094	82.62
376.319	81.62
376.545	83.62
376.771	82.62
376.997	86.62
377.222	64.62
377.448	88.62
377.674	91.62
377.899	90.62
378.125	70.62
378.35	88.62
378.576	81.62
378.802	85.62
379.027	74.62
379.253	70.62
379.478	78.62
379.704	82.62
379.929	79.62
380.155	87.62
380.38	88.62
380.606	72.62
380.831	83.62
381.057	85.62
381.282	75.62
381.507	79.62
381.733	91.62
381.958	78.62
382.184	69.62
382.409	73.62
382.634	80.62
382.86	76.62
383.085	80.62
383.31	90.62
383.535	71.62
383.761	82.62
383.986	87.62
384.211	84.62
384.436	75.62
384.662	80.62
384.887	74.62
385.112	85.62
385.337	65.62
385.562	86.62
385.787	85.62
386.013	82.62
386.238	74.62
386.463	75.62
386.688	88.62
386.913	93.62
387.138	95.62
387.363	73.62
387.588	87.62
387.813	74.62
388.038	73.62
388.263	87.62
388.488	76.62
388.713	65.62
388.938	85.62
389.163	81.62
389.387	79.62
389.612	85.62
389.837	87.62
390.062	91.62
390.287	95.62
390.512	87.62
390.736	82.62
390.961	82.62
391.186	96.62
391.411	82.62
391.636	85.62
391.86	73.62
392.085	83.62
392.31	109.62
392.534	84.62
392.759	95.62
392.984	80.62
393.208	81.62
393.433	81.62
393.658	66.62
393.882	74.62
394.107	76.62
394.331	87.62
394.556	70.62
394.78	80.62
395.005	72.62
395.229	84.62
395.454	75.62
395.678	75.62
395.903	83.62
396.127	85.62
396.352	83.62
396.576	83.62
396.801	82.62
397.025	86.62
397.249	87.62
397.474	96.62
397.698	72.62
397.922	79.62
398.147	81.62
398.371	80.62
398.595	86.62
398.82	85.62
399.044	69.62
399.268	67.62
399.492	90.62
399.717	75.62
399.941	86.62
400.165	73.62
400.389	76.62
400.613	85.62
400.837	90.62
401.062	75.62
401.286	74.62
401.51	92.62
401.734	75.62
401.958	88.62
402.182	82.62
402.406	96.62
402.63	92.62
402.854	77.62
403.078	86.62
403.302	75.62
403.526	85.62
403.75	70.62
403.974	90.62
404.198	80.62
404.422	77.62
404.645	78.62
404.869	81.62
405.093	78.62
405.317	79.62
405.541	70.62
405.765	67.62
405.988	75.62
406.212	88.62
406.436	92.62
406.66	72.62
406.883	85.62
407.107	85.62
407.331	80.62
407.555	93.62
407.778	78.62
408.002	77.62
408.226	72.62
408.449	90.62
408.673	88.62
408.896	88.62
409.12	89.62
409.344	75.62
409.567	78.62
409.791	86.62
410.014	84.62
410.238	94.62
410.461	86.62
410.685	83.62
410.908	91.62
411.132	90.62
411.355	85.62
411.578	76.62
411.802	82.62
412.025	83.62
412.249	85.62
412.472	88.62
412.695	88.62
412.919	81.62
413.142	86.62
413.365	79.62
413.589	71.62
413.812	74.62
414.035	78.62
414.258	71.62
414.482	82.62
414.705	69.62
414.928	92.62
415.151	95.62
415.374	85.62
415.597	88.62
415.821	86.62
416.044	89.62
416.267	85.62
416.49	82.62
416.713	90.62
416.936	91.62
417.159	82.62
417.382	75.62
417.605	88.62
417.828	74.62
418.051	85.62
418.274	96.62
418.497	82.62
418.72	81.62
418.943	83.62
419.166	76.62
419.389	86.62
419.611	78.62
419.834	71.62
420.057	90.62
420.28	93.62
420.503	89.62
420.726	83.62
420.948	72.62
421.171	74.62
421.394	71.62
421.617	75.62
421.839	73.62
422.062	76.62
422.285	90.62
422.507	88.62
422.73	71.62
422.953	94.62
423.175	70.62
423.398	83.62
423.621	104.62
423.843	79.62
424.066	78.62
424.288	102.62
424.511	83.62
424.733	87.62
424.956	91.62
425.178	70.62
425.401	70.62
425.623	71.62
425.846	85.62
426.068	80.62
426.291	84.62
426.513	74.62
426.735	96.62
426.958	92.62
427.18	81.62
427.402	77.62
427.625	95.62
427.847	91.62
428.069	78.62
428.292	86.62
428.514	88.62
428.736	84.62
428.958	68.62
429.181	85.62
429.403	86.62
429.625	81.62
429.847	91.62
430.069	83.62
430.292	100.62
430.514	76.62
430.736	88.62
430.958	93.62
431.18	72.62
431.402	79.62
431.624	95.62
431.846	82.62
432.068	91.62
432.29	85.62
432.512	79.62
432.734	85.62
432.956	82.62
433.178	83.62
433.4	88.62
433.622	101.62
433.844	89.62
434.066	84.62
434.287	82.62
434.509	74.62
434.731	76.62
434.953	85.62
435.175	84.62
435.397	90.62
435.618	89.62
435.84	80.62
436.062	87.62
436.284	84.62
436.505	91.62
436.727	95.62
436.949	81.62
437.17	90.62
437.392	78.62
437.614	84.62
437.835	73.62
438.057	85.62
438.278	73.62
438.5	91.62
438.721	89.62
438.943	88.62
439.165	75.62
439.386	74.62
439.608	86.62
439.829	87.62
440.05	82.62
440.272	77.62
440.493	84.62
440.715	84.62
440.936	83.62
441.158	85.62
441.379	89.62
441.6	83.62
441.822	84.62
442.043	99.62
442.264	89.62
442.486	92.62
442.707	98.62
442.928	82.62
443.149	90.62
443.371	83.62
443.592	81.62
443.813	73.62
444.034	100.62
444.255	81.62
444.476	98.62
444.698	94.62
444.919	86.62
445.14	221.62
445.361	147.62
445.582	105.62
445.803	100.62
446.024	90.62
446.245	112.62
446.466	89.62
446.687	90.62
446.908	90.62
447.129	86.62
447.35	97.62
447.571	91.62
447.792	93.62
448.013	101.62
448.234	98.62
448.455	79.62
448.675	100.62
448.896	92.62
449.117	81.62
449.338	81.62
449.559	79.62
449.779	98.62
450	84.62
450.221	82.62
450.442	92.62
450.662	85.62
450.883	78.62
451.104	92.62
451.324	79.62
451.545	85.62
451.766	87.62
451.986	82.62
452.207	79.62
452.428	102.62
452.648	82.62
452.869	65.62
453.089	63.62
453.31	82.62
453.53	95.62
453.751	95.62
453.971	74.62
454.192	72.62
454.412	82.62
454.633	84.62
454.853	79.62
455.073	90.62
455.294	73.62
455.514	93.62
455.734	83.62
455.955	75.62
456.175	86.62
456.395	102.62
456.616	87.62
456.836	81.62
457.056	79.62
457.276	76.62
457.497	92.62
457.717	86.62
457.937	82.62
458.157	73.62
458.377	81.62
458.598	79.62
458.818	82.62
459.038	67.62
459.258	86.62
459.478	68.62
459.698	73.62
459.918	78.62
460.138	72.62
460.358	81.62
460.578	84.62
460.798	77.62
461.018	90.62
461.238	81.62
461.458	90.62
461.678	77.62
461.898	87.62
462.118	80.62
462.338	96.62
462.558	92.62
462.777	70.62
462.997	84.62
463.217	85.62
463.437	99.62
463.657	87.62
463.876	90.62
464.096	64.62
464.316	78.62
464.536	80.62
464.755	87.62
464.975	95.62
465.195	89.62
465.414	81.62
465.634	87.62
465.854	85.62
466.073	91.62
466.293	102.62
466.512	96.62
466.732	82.62
466.951	63.62
467.171	67.62
467.391	83.62
467.61	89.62
467.829	95.62
468.049	89.62
468.268	79.62
468.488	82.62
468.707	82.62
468.927	101.62
469.146	84.62
469.365	96.62
469.585	82.62
469.804	95.62
470.023	74.62
470.243	81.62
470.462	85.62
470.681	93.62
470.901	82.62
471.12	99.62
471.339	86.62
471.558	88.62
471.777	94.62
471.997	95.62
472.216	75.62
472.435	85.62
472.654	74.62
472.873	91.62
473.092	89.62
473.311	87.62
473.53	92.62
473.749	86.62
473.968	96.62
474.187	95.62
474.406	83.62
474.625	75.62
474.844	90.62
475.063	67.62
475.282	73.62
475.501	88.62
475.72	89.62
475.939	80.62
476.158	78.62
476.377	74.62
476.596	86.62
476.814	83.62
477.033	88.62
477.252	85.62
477.471	83.62
477.69	88.62
477.908	92.62
478.127	93.62
478.346	92.62
478.564	95.62
478.783	84.62
479.002	89.62
479.22	85.62
479.439	90.62
479.658	85.62
479.876	91.62
480.095	84.62
480.313	79.62
480.532	86.62
480.751	86.62
480.969	80.62
481.188	81.62
481.406	84.62
481.624	82.62
481.843	99.62
482.061	86.62
482.28	87.62
482.498	79.62
482.717	77.62
482.935	93.62
483.153	89.62
483.372	93.62
483.59	95.62
483.808	99.62
484.027	85.62
484.245	87.62
484.463	102.62
484.681	100.62
484.9	86.62
485.118	81.62
485.336	87.62
485.554	93.62
485.772	72.62
485.99	83.62
486.209	73.62
486.427	92.62
486.645	87.62
486.863	95.62
487.081	89.62
487.299	76.62
487.517	80.62
487.735	83.62
487.953	87.62
488.171	99.62
488.389	88.62
488.607	87.62
488.825	79.62
489.043	81.62
489.261	80.62
489.479	92.62
489.696	85.62
489.914	78.62
490.132	104.62
490.35	96.62
490.568	97.62
490.786	93.62
491.003	91.62
491.221	95.62
491.439	100.62
491.657	99.62
491.874	99.62
492.092	99.62
492.31	130.62
492.527	116.62
492.745	82.62
492.963	99.62
493.18	104.62
493.398	81.62
493.615	92.62
493.833	85.62
494.05	97.62
494.268	88.62
494.485	91.62
494.703	90.62
494.92	100.62
495.138	93.62
495.355	94.62
495.573	99.62
495.79	86.62
496.008	76.62
496.225	89.62
496.442	93.62
496.66	97.62
496.877	100.62
497.094	101.62
497.312	103.62
497.529	92.62
497.746	92.62
497.963	84.62
498.181	83.62
498.398	90.62
498.615	81.62
498.832	97.62
499.049	74.62
499.267	85.62
499.484	86.62
499.701	94.62
499.918	83.62
500.135	93.62
500.352	93.62
500.569	94.62
500.786	97.62
501.003	85.62
501.22	91.62
501.437	99.62
501.654	83.62
501.871	98.62
502.088	90.62
502.305	93.62
502.522	79.62
502.739	85.62
502.956	90.62
503.172	92.62
503.389	84.62
503.606	77.62
503.823	83.62
504.04	94.62
504.256	91.62
504.473	88.62
504.69	92.62
504.907	95.62
505.123	84.62
505.34	74.62
505.557	88.62
505.773	76.62
505.99	87.62
506.207	79.62
506.423	96.62
506.64	84.62
506.856	86.62
507.073	79.62
507.289	97.62
507.506	87.62
507.722	95.62
507.939	75.62
508.155	80.62
508.372	78.62
508.588	73.62
508.805	89.62
509.021	81.62
509.238	76.62
509.454	63.62
509.67	71.62
509.887	90.62
510.103	78.62
510.319	89.62
510.536	81.62
510.752	76.62
510.968	78.62
511.184	94.62
511.401	75.62
511.617	71.62
511.833	71.62
512.049	100.62
512.265	83.62
512.481	89.62
512.698	82.62
512.914	65.62
513.13	66.62
513.346	83.62
513.562	78.62
513.778	82.62
513.994	95.62
514.21	79.62
514.426	76.62
514.642	89.62
514.858	79.62
515.074	96.62
515.29	91.62
515.506	80.62
515.721	95.62
515.937	90.62
516.153	67.62
516.369	79.62
516.585	80.62
516.801	70.62
517.016	67.62
517.232	81.62
517.448	82.62
517.664	72.62
517.879	75.62
518.095	80.62
518.311	80.62
518.527	81.62
518.742	78.62
518.958	75.62
519.173	89.62
