Data from Zn(NO3)2Standard.Agarose3%.GreenCap.LampEnergy10E.O_HRD10591_15-06-55-942.txt Node
Date: Mon Jul 22 15:06:55 EDT 2019
User: cochatt
Spectrometer: HR+D1059
Trigger mode: 1
Integration Time (sec): 1.000000E-1
Scans to average: 1
Electric dark correction enabled: true
Nonlinearity correction enabled: false
Boxcar width: 0
XAxis mode: Wavelengths
Number of Pixels in Spectrum: 2048
>>>>>Begin Spectral Data<<<<<
223.165	-15
223.4	-15
223.635	-15
223.869	-26
224.104	-15
224.338	-7
224.573	-15
224.808	-21
225.042	8
225.277	5
225.511	-12
225.746	10
225.98	2
226.215	5
226.449	22
226.683	12
226.918	22
227.152	25
227.387	41
227.621	26
227.856	40
228.09	50
228.324	57
228.559	61
228.793	58
229.027	69
229.262	69
229.496	56
229.73	57
229.964	64
230.199	74
230.433	83
230.667	74
230.901	91
231.136	88
231.37	80
231.604	81
231.838	85
232.072	74
232.306	72
232.541	90
232.775	93
233.009	94
233.243	78
233.477	86
233.711	71
233.945	52
234.179	64
234.413	69
234.647	73
234.881	77
235.115	88
235.349	72
235.583	91
235.817	87
236.051	81
236.285	81
236.519	78
236.753	82
236.987	87
237.221	77
237.455	81
237.689	84
237.922	80
238.156	63
238.39	84
238.624	72
238.858	76
239.091	74
239.325	85
239.559	72
239.793	77
240.027	81
240.26	78
240.494	73
240.728	83
240.961	73
241.195	77
241.429	80
241.662	69
241.896	92
242.13	78
242.363	63
242.597	64
242.83	78
243.064	78
243.298	74
243.531	87
243.765	75
243.998	88
244.232	86
244.465	87
244.699	81
244.932	85
245.166	96
245.399	64
245.633	72
245.866	81
246.099	85
246.333	75
246.566	89
246.8	88
247.033	66
247.266	76
247.5	74
247.733	81
247.966	76
248.2	74
248.433	73
248.666	75
248.899	72
249.133	86
249.366	88
249.599	84
249.832	93
250.066	87
250.299	66
250.532	86
250.765	84
250.998	85
251.231	77
251.465	74
251.698	78
251.931	92
252.164	68
252.397	71
252.63	85
252.863	77
253.096	72
253.329	88
253.562	72
253.795	82
254.028	78
254.261	74
254.494	76
254.727	84
254.96	78
255.193	78
255.426	95
255.659	73
255.892	89
256.124	72
256.357	68
256.59	77
256.823	80
257.056	80
257.289	61
257.521	83
257.754	74
257.987	75
258.22	76
258.452	83
258.685	92
258.918	86
259.151	82
259.383	72
259.616	72
259.849	77
260.081	79
260.314	78
260.547	88
260.779	88
261.012	76
261.244	74
261.477	83
261.71	72
261.942	94
262.175	94
262.407	90
262.64	93
262.872	76
263.105	78
263.337	84
263.57	79
263.802	82
264.035	85
264.267	87
264.499	85
264.732	101
264.964	78
265.197	83
265.429	81
265.661	81
265.894	83
266.126	93
266.358	83
266.591	73
266.823	74
267.055	80
267.287	89
267.52	93
267.752	81
267.984	90
268.216	72
268.448	76
268.681	90
268.913	65
269.145	91
269.377	84
269.609	88
269.841	88
270.073	73
270.306	84
270.538	88
270.77	89
271.002	86
271.234	69
271.466	85
271.698	88
271.93	95
272.162	75
272.394	75
272.626	78
272.858	89
273.09	93
273.322	78
273.553	83
273.785	97
274.017	78
274.249	81
274.481	73
274.713	87
274.945	78
275.176	92
275.408	83
275.64	82
275.872	91
276.104	80
276.335	89
276.567	85
276.799	82
277.031	72
277.262	82
277.494	78
277.726	97
277.957	83
278.189	92
278.421	83
278.652	93
278.884	77
279.115	70
279.347	89
279.579	90
279.81	93
280.042	76
280.273	75
280.505	76
280.736	84
280.968	89
281.199	87
281.431	83
281.662	80
281.894	89
282.125	97
282.356	91
282.588	82
282.819	87
283.051	92
283.282	83
283.513	76
283.745	88
283.976	102
284.207	84
284.439	81
284.67	90
284.901	85
285.132	81
285.364	78
285.595	81
285.826	82
286.057	92
286.288	92
286.52	75
286.751	82
286.982	89
287.213	83
287.444	80
287.675	89
287.906	96
288.138	85
288.369	76
288.6	83
288.831	88
289.062	87
289.293	72
289.524	80
289.755	96
289.986	92
290.217	98
290.448	88
290.679	89
290.91	93
291.141	82
291.371	98
291.602	77
291.833	94
292.064	83
292.295	90
292.526	79
292.757	77
292.987	92
293.218	84
293.449	102
293.68	90
293.91	85
294.141	84
294.372	84
294.603	78
294.833	84
295.064	78
295.295	81
295.525	76
295.756	71
295.987	78
296.217	89
296.448	87
296.679	90
296.909	97
297.14	68
297.37	80
297.601	97
297.831	88
298.062	79
298.292	85
298.523	88
298.753	84
298.984	87
299.214	82
299.445	95
299.675	90
299.905	83
300.136	82
300.366	78
300.597	70
300.827	75
301.057	85
301.288	85
301.518	98
301.748	85
301.979	92
302.209	78
302.439	78
302.669	83
302.9	95
303.13	88
303.36	90
303.59	97
303.82	83
304.051	85
304.281	90
304.511	87
304.741	82
304.971	97
305.201	86
305.431	88
305.661	88
305.891	78
306.121	81
306.352	85
306.582	89
306.812	79
307.042	96
307.272	72
307.502	84
307.731	82
307.961	75
308.191	80
308.421	77
308.651	87
308.881	88
309.111	69
309.341	80
309.571	80
309.8	85
310.03	88
310.26	91
310.49	89
310.72	81
310.949	109
311.179	91
311.409	73
311.639	80
311.868	84
312.098	97
312.328	71
312.557	86
312.787	86
313.017	90
313.246	96
313.476	88
313.706	86
313.935	88
314.165	100
314.394	94
314.624	93
314.853	92
315.083	75
315.312	90
315.542	86
315.771	88
316.001	74
316.23	89
316.46	84
316.689	93
316.919	78
317.148	90
317.377	94
317.607	80
317.836	87
318.065	76
318.295	82
318.524	72
318.753	89
318.983	84
319.212	74
319.441	78
319.67	93
319.9	89
320.129	90
320.358	84
320.587	88
320.816	86
321.046	84
321.275	84
321.504	86
321.733	91
321.962	96
322.191	92
322.42	89
322.649	93
322.878	92
323.108	75
323.337	71
323.566	76
323.795	94
324.024	84
324.253	81
324.482	85
324.71	83
324.939	75
325.168	85
325.397	91
325.626	98
325.855	88
326.084	99
326.313	87
326.542	82
326.77	90
326.999	82
327.228	80
327.457	85
327.686	90
327.914	72
328.143	78
328.372	73
328.6	85
328.829	81
329.058	86
329.287	84
329.515	96
329.744	89
329.972	77
330.201	87
330.43	88
330.658	88
330.887	75
331.115	92
331.344	104
331.572	82
331.801	77
332.03	87
332.258	90
332.486	87
332.715	77
332.943	85
333.172	74
333.4	84
333.629	85
333.857	85
334.085	86
334.314	81
334.542	77
334.771	83
334.999	84
335.227	97
335.455	88
335.684	86
335.912	84
336.14	98
336.369	81
336.597	98
336.825	100
337.053	90
337.281	65
337.51	84
337.738	75
337.966	86
338.194	91
338.422	89
338.65	88
338.878	96
339.106	91
339.334	78
339.562	86
339.79	86
340.018	89
340.246	92
340.474	84
340.702	81
340.93	86
341.158	78
341.386	91
341.614	80
341.842	89
342.07	82
342.298	79
342.526	87
342.754	77
342.981	86
343.209	78
343.437	83
343.665	90
343.893	94
344.12	77
344.348	88
344.576	83
344.804	97
345.031	88
345.259	91
345.487	77
345.714	92
345.942	93
346.17	77
346.397	90
346.625	76
346.853	85
347.08	99
347.308	104
347.535	89
347.763	84
347.99	95
348.218	85
348.445	90
348.673	77
348.9	93
349.128	89
349.355	84
349.583	87
349.81	85
350.037	97
350.265	90
350.492	91
350.72	85
350.947	76
351.174	82
351.402	78
351.629	78
351.856	95
352.083	74
352.311	90
352.538	90
352.765	93
352.992	96
353.22	97
353.447	96
353.674	66
353.901	68
354.128	72
354.355	82
354.583	82
354.81	88
355.037	75
355.264	105
355.491	84
355.718	82
355.945	81
356.172	84
356.399	82
356.626	78
356.853	86
357.08	82
357.307	89
357.534	82
357.761	86
357.988	73
358.215	88
358.441	83
358.668	86
358.895	81
359.122	76
359.349	88
359.576	90
359.802	89
360.029	77
360.256	81
360.483	88
360.709	74
360.936	90
361.163	78
361.39	91
361.616	88
361.843	96
362.07	76
362.296	92
362.523	77
362.749	75
362.976	80
363.203	90
363.429	78
363.656	90
363.882	82
364.109	103
364.335	85
364.562	73
364.788	84
365.015	89
365.241	87
365.468	82
365.694	92
365.92	83
366.147	71
366.373	90
366.599	97
366.826	86
367.052	90
367.278	82
367.505	97
367.731	93
367.957	97
368.184	92
368.41	103
368.636	100
368.862	81
369.089	89
369.315	82
369.541	89
369.767	89
369.993	93
370.219	79
370.445	91
370.672	92
370.898	101
371.124	86
371.35	77
371.576	84
371.802	84
372.028	72
372.254	83
372.48	91
372.706	83
372.932	76
373.158	85
373.384	89
373.61	84
373.835	92
374.061	82
374.287	73
374.513	95
374.739	77
374.965	80
375.191	87
375.416	81
375.642	83
375.868	96
376.094	91
376.319	91
376.545	98
376.771	79
376.997	79
377.222	88
377.448	84
377.674	85
377.899	86
378.125	91
378.35	88
378.576	102
378.802	80
379.027	80
379.253	102
379.478	95
379.704	98
379.929	102
380.155	80
380.38	79
380.606	89
380.831	87
381.057	102
381.282	100
381.507	81
381.733	83
381.958	87
382.184	81
382.409	75
382.634	86
382.86	98
383.085	86
383.31	105
383.535	86
383.761	83
383.986	96
384.211	75
384.436	88
384.662	88
384.887	86
385.112	92
385.337	82
385.562	80
385.787	94
386.013	104
386.238	93
386.463	96
386.688	90
386.913	97
387.138	91
387.363	94
387.588	86
387.813	95
388.038	97
388.263	86
388.488	81
388.713	88
388.938	93
389.163	75
389.387	99
389.612	90
389.837	97
390.062	105
390.287	92
390.512	90
390.736	75
390.961	84
391.186	90
391.411	96
391.636	99
391.86	90
392.085	94
392.31	97
392.534	99
392.759	77
392.984	94
393.208	81
393.433	85
393.658	90
393.882	97
394.107	86
394.331	106
394.556	89
394.78	94
395.005	96
395.229	100
395.454	93
395.678	94
395.903	92
396.127	98
396.352	88
396.576	84
396.801	95
397.025	98
397.249	86
397.474	80
397.698	101
397.922	92
398.147	96
398.371	97
398.595	95
398.82	89
399.044	86
399.268	95
399.492	95
399.717	104
399.941	98
400.165	107
400.389	101
400.613	88
400.837	98
401.062	81
401.286	100
401.51	88
401.734	98
401.958	103
402.182	87
402.406	109
402.63	100
402.854	90
403.078	84
403.302	106
403.526	94
403.75	104
403.974	97
404.198	91
404.422	103
404.645	107
404.869	97
405.093	93
405.317	101
405.541	93
405.765	95
405.988	98
406.212	95
406.436	107
406.66	98
406.883	91
407.107	100
407.331	93
407.555	116
407.778	100
408.002	109
408.226	105
408.449	92
408.673	92
408.896	98
409.12	108
409.344	101
409.567	101
409.791	86
410.014	106
410.238	105
410.461	111
410.685	107
410.908	95
411.132	85
411.355	89
411.578	103
411.802	115
412.025	101
412.249	103
412.472	100
412.695	107
412.919	117
413.142	107
413.365	109
413.589	107
413.812	119
414.035	89
414.258	112
414.482	116
414.705	119
414.928	107
415.151	107
415.374	97
415.597	107
415.821	95
416.044	98
416.267	89
416.49	99
416.713	103
416.936	110
417.159	100
417.382	98
417.605	106
417.828	122
418.051	102
418.274	100
418.497	114
418.72	105
418.943	116
419.166	114
419.389	115
419.611	117
419.834	98
420.057	93
420.28	114
420.503	112
420.726	122
420.948	98
421.171	118
421.394	100
421.617	107
421.839	124
422.062	100
422.285	99
422.507	105
422.73	109
422.953	93
423.175	113
423.398	113
423.621	120
423.843	94
424.066	113
424.288	100
424.511	116
424.733	122
424.956	121
425.178	106
425.401	109
425.623	102
425.846	105
426.068	124
426.291	101
426.513	96
426.735	92
426.958	102
427.18	95
427.402	98
427.625	108
427.847	102
428.069	109
428.292	93
428.514	114
428.736	95
428.958	89
429.181	107
429.403	114
429.625	112
429.847	113
430.069	125
430.292	113
430.514	98
430.736	108
430.958	88
431.18	104
431.402	101
431.624	107
431.846	105
432.068	112
432.29	101
432.512	102
432.734	109
432.956	108
433.178	99
433.4	108
433.622	115
433.844	117
434.066	107
434.287	116
434.509	97
434.731	100
434.953	96
435.175	112
435.397	103
435.618	103
435.84	100
436.062	122
436.284	102
436.505	108
436.727	111
436.949	100
437.17	117
437.392	109
437.614	97
437.835	94
438.057	89
438.278	107
438.5	116
438.721	112
438.943	108
439.165	122
439.386	119
439.608	108
439.829	107
440.05	122
440.272	102
440.493	109
440.715	116
440.936	118
441.158	122
441.379	111
441.6	92
441.822	101
442.043	132
442.264	116
442.486	103
442.707	117
442.928	119
443.149	110
443.371	120
443.592	100
443.813	116
444.034	114
444.255	114
444.476	111
444.698	120
444.919	108
445.14	220
445.361	152
445.582	114
445.803	126
446.024	121
446.245	102
446.466	106
446.687	113
446.908	116
447.129	115
447.35	125
447.571	109
447.792	103
448.013	116
448.234	96
448.455	120
448.675	114
448.896	106
449.117	115
449.338	106
449.559	105
449.779	110
450	105
450.221	114
450.442	108
450.662	114
450.883	116
451.104	106
451.324	119
451.545	104
451.766	112
451.986	112
452.207	109
452.428	96
452.648	100
452.869	109
453.089	102
453.31	89
453.53	102
453.751	96
453.971	89
454.192	88
454.412	104
454.633	96
454.853	124
455.073	112
455.294	101
455.514	97
455.734	104
455.955	80
456.175	97
456.395	73
456.616	93
456.836	93
457.056	96
457.276	112
457.497	104
457.717	91
457.937	106
458.157	88
458.377	92
458.598	99
458.818	99
459.038	77
459.258	94
459.478	96
459.698	97
459.918	87
460.138	90
460.358	91
460.578	98
460.798	91
461.018	97
461.238	96
461.458	85
461.678	90
461.898	101
462.118	95
462.338	102
462.558	101
462.777	86
462.997	92
463.217	88
463.437	87
463.657	90
463.876	116
464.096	101
464.316	109
464.536	95
464.755	106
464.975	99
465.195	107
465.414	104
465.634	93
465.854	100
466.073	94
466.293	96
466.512	109
466.732	100
466.951	115
467.171	110
467.391	115
467.61	94
467.829	91
468.049	106
468.268	119
468.488	112
468.707	97
468.927	108
469.146	104
469.365	122
469.585	119
469.804	115
470.023	109
470.243	112
470.462	112
470.681	112
470.901	105
471.12	112
471.339	109
471.558	106
471.777	113
471.997	103
472.216	96
472.435	98
472.654	92
472.873	110
473.092	107
473.311	107
473.53	96
473.749	102
473.968	92
474.187	87
474.406	101
474.625	89
474.844	117
475.063	112
475.282	114
475.501	106
475.72	119
475.939	112
476.158	103
476.377	109
476.596	101
476.814	90
477.033	105
477.252	104
477.471	114
477.69	109
477.908	108
478.127	107
478.346	105
478.564	122
478.783	116
479.002	116
479.22	117
479.439	113
479.658	100
479.876	115
480.095	102
480.313	95
480.532	102
480.751	111
480.969	83
481.188	97
481.406	104
481.624	90
481.843	91
482.061	101
482.28	104
482.498	90
482.717	93
482.935	101
483.153	118
483.372	114
483.59	117
483.808	120
484.027	107
484.245	109
484.463	131
484.681	133
484.9	133
485.118	115
485.336	96
485.554	93
485.772	96
485.99	84
486.209	85
486.427	90
486.645	99
486.863	102
487.081	118
487.299	117
487.517	101
487.735	115
487.953	128
488.171	126
488.389	123
488.607	122
488.825	103
489.043	109
489.261	105
489.479	93
489.696	110
489.914	109
490.132	111
490.35	124
490.568	124
490.786	130
491.003	124
491.221	122
491.439	119
491.657	131
491.874	151
492.092	148
492.31	146
492.527	145
492.745	135
492.963	143
493.18	124
493.398	118
493.615	124
493.833	122
494.05	124
494.268	136
494.485	129
494.703	122
494.92	131
495.138	122
495.355	128
495.573	132
495.79	146
496.008	123
496.225	120
496.442	108
496.66	124
496.877	119
497.094	124
497.312	114
497.529	132
497.746	117
497.963	109
498.181	110
498.398	113
498.615	111
498.832	99
499.049	102
499.267	105
499.484	124
499.701	107
499.918	100
500.135	99
500.352	110
500.569	115
500.786	100
501.003	111
501.22	115
501.437	105
501.654	96
501.871	117
502.088	114
502.305	109
502.522	106
502.739	96
502.956	106
503.172	120
503.389	111
503.606	104
503.823	110
504.04	105
504.256	115
504.473	106
504.69	101
504.907	125
505.123	96
505.34	112
505.557	92
505.773	112
505.99	104
506.207	97
506.423	89
506.64	97
506.856	100
507.073	98
507.289	102
507.506	108
507.722	97
507.939	91
508.155	111
508.372	99
508.588	94
508.805	102
509.021	95
509.238	101
509.454	83
509.67	108
509.887	95
510.103	87
510.319	104
510.536	98
510.752	92
510.968	84
511.184	75
511.401	72
511.617	90
511.833	92
512.049	82
512.265	100
512.481	92
512.698	97
512.914	92
513.13	98
513.346	87
513.562	91
513.778	89
513.994	86
514.21	102
514.426	106
514.642	91
514.858	78
515.074	92
515.29	88
515.506	96
515.721	95
515.937	94
516.153	98
516.369	81
516.585	91
516.801	97
517.016	77
517.232	92
517.448	92
517.664	85
517.879	108
518.095	84
518.311	65
518.527	76
518.742	96
518.958	104
519.173	92
519.389	97
519.605	104
519.82	97
520.036	94
520.251	91
520.467	110
520.682	89
520.898	83
521.113	87
521.329	105
521.544	84
521.76	105
521.975	93
522.19	87
522.406	81
522.621	92
522.836	93
523.052	75
523.267	95
523.482	101
523.698	96
523.913	96
524.128	93
524.343	99
524.559	103
524.774	108
524.989	89
525.204	114
525.419	87
525.634	96
525.849	98
526.064	87
526.28	109
526.495	81
526.71	81
526.925	94
527.14	82
527.355	73
527.57	77
527.785	98
527.999	93
528.214	94
528.429	104
528.644	105
528.859	106
529.074	114
529.289	140
529.503	105
529.718	124
529.933	100
530.148	92
530.363	93
530.577	88
530.792	85
531.007	76
531.221	74
531.436	84
531.651	74
531.865	89
532.08	78
532.295	80
532.509	77
532.724	88
532.938	84
533.153	91
533.367	100
533.582	91
533.796	98
534.011	98
534.225	99
534.44	82
534.654	90
534.868	93
535.083	89
535.297	92
535.511	101
535.726	93
535.94	94
536.154	104
536.369	88
536.583	83
536.797	85
537.011	87
537.225	85
537.44	86
537.654	87
537.868	85
538.082	89
538.296	78
538.51	86
538.724	92
538.938	93
539.153	115
539.367	114
539.581	86
539.795	104
540.009	90
540.222	75
540.436	107
540.65	110
540.864	96
541.078	125
541.292	125
541.506	102
541.72	140
541.934	130
542.147	156
542.361	150
542.575	126
542.789	117
543.002	116
543.216	100
543.43	100
543.644	103
543.857	111
544.071	125
544.285	115
544.498	126
544.712	128
544.925	121
545.139	124
545.352	120
545.566	134
545.779	132
545.993	122
546.206	127
546.42	128
546.633	130
546.847	126
547.06	118
547.274	123
547.487	129
547.7	139
547.914	130
548.127	117
548.34	120
548.554	111
548.767	115
548.98	114
549.193	122
549.407	119
549.62	122
549.833	108
550.046	126
550.259	122
550.473	108
550.686	130
550.899	105
551.112	120
551.325	122
551.538	120
551.751	105
551.964	96
552.177	108
552.39	99
552.603	125
552.816	110
553.029	106
553.242	101
553.455	123
553.667	115
553.88	123
554.093	128
554.306	114
554.519	106
554.732	116
554.944	117
555.157	116
555.37	114
555.583	112
555.795	111
556.008	118
556.221	113
556.433	108
556.646	112
556.859	120
557.071	109
557.284	112
557.496	112
557.709	126
557.921	102
558.134	104
558.346	109
558.559	111
558.771	107
558.984	97
559.196	122
559.409	96
559.621	106
559.833	100
560.046	113
560.258	124
560.47	110
560.683	114
560.895	116
561.107	101
561.32	119
561.532	98
561.744	114
561.956	118
562.168	108
562.381	102
562.593	106
562.805	90
563.017	110
563.229	112
563.441	116
563.653	125
563.865	102
564.077	98
564.289	111
564.501	123
564.713	112
564.925	105
565.137	102
565.349	99
565.561	109
565.773	104
565.985	100
566.197	94
566.408	106
566.62	95
566.832	103
567.044	115
567.255	93
567.467	103
567.679	112
567.891	91
568.102	100
568.314	85
568.526	91
568.737	89
568.949	90
569.161	84
569.372	83
569.584	89
569.795	87
570.007	82
570.218	92
570.43	92
570.641	92
570.853	96
571.064	89
571.276	88
571.487	94
571.698	98
571.91	98
572.121	105
572.333	96
572.544	86
572.755	87
572.966	85
573.178	87
573.389	98
573.6	88
573.811	71
574.023	82
574.234	77
574.445	93
574.656	84
574.867	84
575.078	100
575.289	94
575.501	104
575.712	96
575.923	85
576.134	80
576.345	101
576.556	96
576.767	100
576.978	100
577.188	113
577.399	88
577.61	98
577.821	88
578.032	100
578.243	104
578.454	83
578.665	93
578.875	92
579.086	83
579.297	79
579.508	72
579.718	82
579.929	94
580.14	97
580.35	82
580.561	89
580.772	86
