Data from Zn(NO3)2Standard.Agarose3%.GreenCap.LampEnergy5.5.E.O_HRD10591_15-00-56-768.txt Node
Date: Mon Jul 22 15:00:56 EDT 2019
User: cochatt
Spectrometer: HR+D1059
Trigger mode: 1
Integration Time (sec): 1.000000E-1
Scans to average: 1
Electric dark correction enabled: true
Nonlinearity correction enabled: false
Boxcar width: 0
XAxis mode: Wavelengths
Number of Pixels in Spectrum: 2048
>>>>>Begin Spectral Data<<<<<
223.165	-26.5
223.4	-26.5
223.635	-26.5
223.869	-1.5
224.104	-20.5
224.338	-12.5
224.573	-13.5
224.808	-11.5
225.042	4.5
225.277	-10.5
225.511	5.5
225.746	-0.5
225.98	-3.5
226.215	8.5
226.449	21.5
226.683	19.5
226.918	19.5
227.152	21.5
227.387	33.5
227.621	39.5
227.856	35.5
228.09	51.5
228.324	43.5
228.559	53.5
228.793	44.5
229.027	48.5
229.262	67.5
229.496	62.5
229.73	67.5
229.964	59.5
230.199	69.5
230.433	84.5
230.667	77.5
230.901	85.5
231.136	71.5
231.37	91.5
231.604	82.5
231.838	90.5
232.072	78.5
232.306	83.5
232.541	80.5
232.775	76.5
233.009	86.5
233.243	85.5
233.477	73.5
233.711	80.5
233.945	77.5
234.179	75.5
234.413	93.5
234.647	82.5
234.881	74.5
235.115	75.5
235.349	91.5
235.583	97.5
235.817	79.5
236.051	73.5
236.285	67.5
236.519	79.5
236.753	58.5
236.987	71.5
237.221	70.5
237.455	75.5
237.689	77.5
237.922	76.5
238.156	86.5
238.39	84.5
238.624	75.5
238.858	71.5
239.091	68.5
239.325	67.5
239.559	59.5
239.793	83.5
240.027	88.5
240.26	74.5
240.494	61.5
240.728	81.5
240.961	69.5
241.195	73.5
241.429	87.5
241.662	75.5
241.896	72.5
242.13	59.5
242.363	80.5
242.597	71.5
242.83	84.5
243.064	68.5
243.298	71.5
243.531	65.5
243.765	73.5
243.998	72.5
244.232	82.5
244.465	87.5
244.699	70.5
244.932	71.5
245.166	74.5
245.399	78.5
245.633	81.5
245.866	91.5
246.099	77.5
246.333	78.5
246.566	71.5
246.8	67.5
247.033	75.5
247.266	73.5
247.5	70.5
247.733	70.5
247.966	73.5
248.2	66.5
248.433	66.5
248.666	76.5
248.899	74.5
249.133	68.5
249.366	77.5
249.599	79.5
249.832	78.5
250.066	84.5
250.299	84.5
250.532	88.5
250.765	80.5
250.998	76.5
251.231	79.5
251.465	74.5
251.698	75.5
251.931	69.5
252.164	85.5
252.397	76.5
252.63	75.5
252.863	77.5
253.096	86.5
253.329	69.5
253.562	82.5
253.795	84.5
254.028	82.5
254.261	87.5
254.494	83.5
254.727	82.5
254.96	86.5
255.193	75.5
255.426	75.5
255.659	85.5
255.892	82.5
256.124	90.5
256.357	76.5
256.59	84.5
256.823	83.5
257.056	69.5
257.289	80.5
257.521	82.5
257.754	81.5
257.987	66.5
258.22	76.5
258.452	89.5
258.685	93.5
258.918	72.5
259.151	77.5
259.383	89.5
259.616	65.5
259.849	85.5
260.081	74.5
260.314	71.5
260.547	68.5
260.779	90.5
261.012	73.5
261.244	87.5
261.477	80.5
261.71	72.5
261.942	76.5
262.175	79.5
262.407	83.5
262.64	80.5
262.872	94.5
263.105	82.5
263.337	82.5
263.57	79.5
263.802	70.5
264.035	87.5
264.267	64.5
264.499	76.5
264.732	80.5
264.964	79.5
265.197	74.5
265.429	89.5
265.661	76.5
265.894	88.5
266.126	87.5
266.358	81.5
266.591	81.5
266.823	96.5
267.055	84.5
267.287	80.5
267.52	81.5
267.752	73.5
267.984	80.5
268.216	75.5
268.448	80.5
268.681	81.5
268.913	91.5
269.145	68.5
269.377	75.5
269.609	77.5
269.841	89.5
270.073	87.5
270.306	73.5
270.538	76.5
270.77	86.5
271.002	89.5
271.234	85.5
271.466	93.5
271.698	90.5
271.93	82.5
272.162	77.5
272.394	88.5
272.626	90.5
272.858	73.5
273.09	90.5
273.322	75.5
273.553	82.5
273.785	74.5
274.017	72.5
274.249	70.5
274.481	76.5
274.713	85.5
274.945	87.5
275.176	76.5
275.408	71.5
275.64	92.5
275.872	76.5
276.104	75.5
276.335	76.5
276.567	85.5
276.799	93.5
277.031	81.5
277.262	82.5
277.494	95.5
277.726	92.5
277.957	87.5
278.189	81.5
278.421	68.5
278.652	85.5
278.884	72.5
279.115	87.5
279.347	95.5
279.579	77.5
279.81	65.5
280.042	81.5
280.273	77.5
280.505	71.5
280.736	68.5
280.968	64.5
281.199	81.5
281.431	73.5
281.662	79.5
281.894	84.5
282.125	81.5
282.356	92.5
282.588	71.5
282.819	80.5
283.051	60.5
283.282	86.5
283.513	97.5
283.745	98.5
283.976	77.5
284.207	85.5
284.439	83.5
284.67	86.5
284.901	76.5
285.132	90.5
285.364	69.5
285.595	83.5
285.826	76.5
286.057	78.5
286.288	79.5
286.52	92.5
286.751	99.5
286.982	89.5
287.213	82.5
287.444	84.5
287.675	88.5
287.906	87.5
288.138	84.5
288.369	83.5
288.6	74.5
288.831	75.5
289.062	80.5
289.293	81.5
289.524	80.5
289.755	85.5
289.986	93.5
290.217	87.5
290.448	95.5
290.679	89.5
290.91	74.5
291.141	80.5
291.371	81.5
291.602	73.5
291.833	85.5
292.064	95.5
292.295	95.5
292.526	96.5
292.757	83.5
292.987	84.5
293.218	85.5
293.449	92.5
293.68	86.5
293.91	81.5
294.141	84.5
294.372	92.5
294.603	71.5
294.833	87.5
295.064	72.5
295.295	65.5
295.525	77.5
295.756	98.5
295.987	81.5
296.217	90.5
296.448	71.5
296.679	84.5
296.909	95.5
297.14	90.5
297.37	101.5
297.601	91.5
297.831	80.5
298.062	82.5
298.292	85.5
298.523	92.5
298.753	84.5
298.984	97.5
299.214	96.5
299.445	86.5
299.675	86.5
299.905	80.5
300.136	77.5
300.366	68.5
300.597	65.5
300.827	68.5
301.057	71.5
301.288	83.5
301.518	83.5
301.748	93.5
301.979	94.5
302.209	61.5
302.439	84.5
302.669	89.5
302.9	85.5
303.13	91.5
303.36	69.5
303.59	79.5
303.82	86.5
304.051	106.5
304.281	74.5
304.511	104.5
304.741	85.5
304.971	82.5
305.201	83.5
305.431	66.5
305.661	83.5
305.891	89.5
306.121	89.5
306.352	91.5
306.582	91.5
306.812	81.5
307.042	79.5
307.272	78.5
307.502	77.5
307.731	92.5
307.961	83.5
308.191	89.5
308.421	100.5
308.651	88.5
308.881	91.5
309.111	79.5
309.341	91.5
309.571	75.5
309.8	71.5
310.03	83.5
310.26	86.5
310.49	80.5
310.72	67.5
310.949	79.5
311.179	101.5
311.409	84.5
311.639	78.5
311.868	77.5
312.098	81.5
312.328	83.5
312.557	86.5
312.787	98.5
313.017	88.5
313.246	71.5
313.476	65.5
313.706	94.5
313.935	82.5
314.165	80.5
314.394	87.5
314.624	77.5
314.853	92.5
315.083	82.5
315.312	74.5
315.542	100.5
315.771	96.5
316.001	80.5
316.23	85.5
316.46	83.5
316.689	80.5
316.919	82.5
317.148	104.5
317.377	102.5
317.607	74.5
317.836	78.5
318.065	83.5
318.295	87.5
318.524	75.5
318.753	73.5
318.983	75.5
319.212	91.5
319.441	81.5
319.67	83.5
319.9	74.5
320.129	75.5
320.358	76.5
320.587	83.5
320.816	83.5
321.046	83.5
321.275	87.5
321.504	93.5
321.733	83.5
321.962	92.5
322.191	79.5
322.42	84.5
322.649	83.5
322.878	89.5
323.108	85.5
323.337	81.5
323.566	75.5
323.795	80.5
324.024	77.5
324.253	80.5
324.482	84.5
324.71	80.5
324.939	76.5
325.168	77.5
325.397	72.5
325.626	79.5
325.855	81.5
326.084	83.5
326.313	89.5
326.542	92.5
326.77	81.5
326.999	87.5
327.228	75.5
327.457	89.5
327.686	84.5
327.914	80.5
328.143	90.5
328.372	79.5
328.6	80.5
328.829	81.5
329.058	85.5
329.287	85.5
329.515	80.5
329.744	79.5
329.972	84.5
330.201	76.5
330.43	81.5
330.658	77.5
330.887	78.5
331.115	82.5
331.344	82.5
331.572	91.5
331.801	78.5
332.03	73.5
332.258	89.5
332.486	85.5
332.715	83.5
332.943	83.5
333.172	84.5
333.4	82.5
333.629	88.5
333.857	80.5
334.085	81.5
334.314	85.5
334.542	70.5
334.771	83.5
334.999	97.5
335.227	83.5
335.455	75.5
335.684	85.5
335.912	82.5
336.14	84.5
336.369	81.5
336.597	94.5
336.825	91.5
337.053	75.5
337.281	85.5
337.51	72.5
337.738	81.5
337.966	74.5
338.194	81.5
338.422	92.5
338.65	77.5
338.878	84.5
339.106	81.5
339.334	96.5
339.562	87.5
339.79	86.5
340.018	70.5
340.246	82.5
340.474	81.5
340.702	91.5
340.93	69.5
341.158	77.5
341.386	77.5
341.614	79.5
341.842	89.5
342.07	75.5
342.298	82.5
342.526	80.5
342.754	85.5
342.981	86.5
343.209	99.5
343.437	78.5
343.665	67.5
343.893	81.5
344.12	80.5
344.348	80.5
344.576	85.5
344.804	77.5
345.031	88.5
345.259	89.5
345.487	65.5
345.714	73.5
345.942	70.5
346.17	68.5
346.397	85.5
346.625	81.5
346.853	89.5
347.08	95.5
347.308	89.5
347.535	83.5
347.763	73.5
347.99	86.5
348.218	78.5
348.445	82.5
348.673	85.5
348.9	96.5
349.128	73.5
349.355	74.5
349.583	76.5
349.81	79.5
350.037	87.5
350.265	84.5
350.492	83.5
350.72	74.5
350.947	80.5
351.174	77.5
351.402	79.5
351.629	82.5
351.856	79.5
352.083	81.5
352.311	75.5
352.538	81.5
352.765	76.5
352.992	93.5
353.22	77.5
353.447	74.5
353.674	99.5
353.901	84.5
354.128	82.5
354.355	77.5
354.583	82.5
354.81	81.5
355.037	91.5
355.264	73.5
355.491	91.5
355.718	84.5
355.945	72.5
356.172	87.5
356.399	76.5
356.626	91.5
356.853	85.5
357.08	77.5
357.307	87.5
357.534	82.5
357.761	83.5
357.988	79.5
358.215	88.5
358.441	83.5
358.668	80.5
358.895	86.5
359.122	101.5
359.349	87.5
359.576	79.5
359.802	76.5
360.029	88.5
360.256	75.5
360.483	85.5
360.709	83.5
360.936	75.5
361.163	88.5
361.39	69.5
361.616	81.5
361.843	83.5
362.07	84.5
362.296	80.5
362.523	86.5
362.749	86.5
362.976	80.5
363.203	71.5
363.429	75.5
363.656	85.5
363.882	84.5
364.109	84.5
364.335	70.5
364.562	67.5
364.788	91.5
365.015	80.5
365.241	77.5
365.468	77.5
365.694	89.5
365.92	85.5
366.147	78.5
366.373	71.5
366.599	89.5
366.826	103.5
367.052	93.5
367.278	73.5
367.505	89.5
367.731	86.5
367.957	84.5
368.184	90.5
368.41	69.5
368.636	81.5
368.862	86.5
369.089	83.5
369.315	73.5
369.541	65.5
369.767	68.5
369.993	88.5
370.219	67.5
370.445	76.5
370.672	71.5
370.898	80.5
371.124	90.5
371.35	80.5
371.576	68.5
371.802	57.5
372.028	81.5
372.254	87.5
372.48	83.5
372.706	81.5
372.932	64.5
373.158	81.5
373.384	79.5
373.61	79.5
373.835	74.5
374.061	81.5
374.287	103.5
374.513	85.5
374.739	89.5
374.965	76.5
375.191	80.5
375.416	72.5
375.642	91.5
375.868	89.5
376.094	96.5
376.319	83.5
376.545	78.5
376.771	82.5
376.997	85.5
377.222	69.5
377.448	85.5
377.674	89.5
377.899	56.5
378.125	81.5
378.35	88.5
378.576	89.5
378.802	84.5
379.027	78.5
379.253	77.5
379.478	92.5
379.704	77.5
379.929	89.5
380.155	81.5
380.38	81.5
380.606	81.5
380.831	78.5
381.057	112.5
381.282	81.5
381.507	89.5
381.733	78.5
381.958	60.5
382.184	72.5
382.409	72.5
382.634	84.5
382.86	98.5
383.085	105.5
383.31	87.5
383.535	85.5
383.761	84.5
383.986	72.5
384.211	84.5
384.436	67.5
384.662	76.5
384.887	78.5
385.112	78.5
385.337	97.5
385.562	90.5
385.787	74.5
386.013	85.5
386.238	76.5
386.463	68.5
386.688	93.5
386.913	70.5
387.138	93.5
387.363	85.5
387.588	69.5
387.813	85.5
388.038	87.5
388.263	63.5
388.488	64.5
388.713	84.5
388.938	77.5
389.163	76.5
389.387	77.5
389.612	78.5
389.837	86.5
390.062	80.5
390.287	82.5
390.512	82.5
390.736	70.5
390.961	79.5
391.186	101.5
391.411	80.5
391.636	84.5
391.86	80.5
392.085	81.5
392.31	76.5
392.534	79.5
392.759	87.5
392.984	78.5
393.208	88.5
393.433	77.5
393.658	83.5
393.882	76.5
394.107	75.5
394.331	88.5
394.556	79.5
394.78	76.5
395.005	82.5
395.229	88.5
395.454	89.5
395.678	100.5
395.903	92.5
396.127	71.5
396.352	72.5
396.576	79.5
396.801	87.5
397.025	90.5
397.249	103.5
397.474	75.5
397.698	81.5
397.922	86.5
398.147	85.5
398.371	85.5
398.595	84.5
398.82	86.5
399.044	92.5
399.268	79.5
399.492	83.5
399.717	71.5
399.941	96.5
400.165	85.5
400.389	84.5
400.613	80.5
400.837	96.5
401.062	74.5
401.286	94.5
401.51	74.5
401.734	81.5
401.958	73.5
402.182	82.5
402.406	94.5
402.63	81.5
402.854	87.5
403.078	87.5
403.302	88.5
403.526	83.5
403.75	81.5
403.974	80.5
404.198	84.5
404.422	76.5
404.645	79.5
404.869	82.5
405.093	97.5
405.317	86.5
405.541	71.5
405.765	79.5
405.988	71.5
406.212	84.5
406.436	83.5
406.66	91.5
406.883	92.5
407.107	89.5
407.331	81.5
407.555	90.5
407.778	88.5
408.002	83.5
408.226	89.5
408.449	82.5
408.673	100.5
408.896	85.5
409.12	74.5
409.344	69.5
409.567	84.5
409.791	81.5
410.014	75.5
410.238	100.5
410.461	78.5
410.685	88.5
410.908	87.5
411.132	89.5
411.355	88.5
411.578	72.5
411.802	81.5
412.025	80.5
412.249	72.5
412.472	90.5
412.695	78.5
412.919	74.5
413.142	81.5
413.365	81.5
413.589	85.5
413.812	87.5
414.035	96.5
414.258	81.5
414.482	73.5
414.705	90.5
414.928	92.5
415.151	80.5
415.374	82.5
415.597	82.5
415.821	72.5
416.044	85.5
416.267	67.5
416.49	75.5
416.713	85.5
416.936	99.5
417.159	80.5
417.382	73.5
417.605	88.5
417.828	88.5
418.051	82.5
418.274	85.5
418.497	79.5
418.72	88.5
418.943	91.5
419.166	97.5
419.389	86.5
419.611	99.5
419.834	73.5
420.057	86.5
420.28	77.5
420.503	101.5
420.726	88.5
420.948	88.5
421.171	84.5
421.394	85.5
421.617	79.5
421.839	82.5
422.062	82.5
422.285	80.5
422.507	99.5
422.73	82.5
422.953	86.5
423.175	93.5
423.398	84.5
423.621	86.5
423.843	86.5
424.066	74.5
424.288	83.5
424.511	103.5
424.733	86.5
424.956	94.5
425.178	103.5
425.401	87.5
425.623	85.5
425.846	79.5
426.068	84.5
426.291	72.5
426.513	93.5
426.735	84.5
426.958	94.5
427.18	104.5
427.402	90.5
427.625	95.5
427.847	85.5
428.069	84.5
428.292	86.5
428.514	85.5
428.736	84.5
428.958	95.5
429.181	88.5
429.403	75.5
429.625	92.5
429.847	76.5
430.069	86.5
430.292	98.5
430.514	82.5
430.736	94.5
430.958	99.5
431.18	93.5
431.402	80.5
431.624	88.5
431.846	72.5
432.068	77.5
432.29	63.5
432.512	90.5
432.734	95.5
432.956	85.5
433.178	106.5
433.4	76.5
433.622	93.5
433.844	90.5
434.066	105.5
434.287	97.5
434.509	85.5
434.731	88.5
434.953	90.5
435.175	92.5
435.397	87.5
435.618	95.5
435.84	92.5
436.062	91.5
436.284	77.5
436.505	85.5
436.727	105.5
436.949	92.5
437.17	92.5
437.392	72.5
437.614	71.5
437.835	83.5
438.057	80.5
438.278	85.5
438.5	81.5
438.721	89.5
438.943	100.5
439.165	98.5
439.386	74.5
439.608	86.5
439.829	91.5
440.05	87.5
440.272	96.5
440.493	83.5
440.715	77.5
440.936	87.5
441.158	83.5
441.379	75.5
441.6	75.5
441.822	82.5
442.043	79.5
442.264	92.5
442.486	79.5
442.707	82.5
442.928	88.5
443.149	76.5
443.371	84.5
443.592	95.5
443.813	84.5
444.034	93.5
444.255	95.5
444.476	89.5
444.698	86.5
444.919	82.5
445.14	181.5
445.361	137.5
445.582	85.5
445.803	78.5
446.024	93.5
446.245	92.5
446.466	102.5
446.687	84.5
446.908	85.5
447.129	85.5
447.35	96.5
447.571	87.5
447.792	89.5
448.013	82.5
448.234	87.5
448.455	81.5
448.675	81.5
448.896	94.5
449.117	89.5
449.338	70.5
449.559	83.5
449.779	108.5
450	90.5
450.221	86.5
450.442	90.5
450.662	87.5
450.883	94.5
451.104	92.5
451.324	112.5
451.545	104.5
451.766	86.5
451.986	84.5
452.207	88.5
452.428	75.5
452.648	75.5
452.869	78.5
453.089	82.5
453.31	101.5
453.53	93.5
453.751	82.5
453.971	87.5
454.192	97.5
454.412	92.5
454.633	79.5
454.853	76.5
455.073	72.5
455.294	85.5
455.514	100.5
455.734	85.5
455.955	80.5
456.175	88.5
456.395	90.5
456.616	76.5
456.836	83.5
457.056	93.5
457.276	79.5
457.497	89.5
457.717	69.5
457.937	77.5
458.157	94.5
458.377	84.5
458.598	72.5
458.818	76.5
459.038	85.5
459.258	81.5
459.478	84.5
459.698	88.5
459.918	84.5
460.138	75.5
460.358	102.5
460.578	81.5
460.798	72.5
461.018	90.5
461.238	72.5
461.458	90.5
461.678	69.5
461.898	82.5
462.118	91.5
462.338	81.5
462.558	88.5
462.777	96.5
462.997	70.5
463.217	67.5
463.437	96.5
463.657	86.5
463.876	76.5
464.096	73.5
464.316	89.5
464.536	88.5
464.755	92.5
464.975	87.5
465.195	72.5
465.414	76.5
465.634	85.5
465.854	83.5
466.073	83.5
466.293	84.5
466.512	75.5
466.732	80.5
466.951	77.5
467.171	79.5
467.391	82.5
467.61	80.5
467.829	83.5
468.049	79.5
468.268	103.5
468.488	80.5
468.707	77.5
468.927	78.5
469.146	84.5
469.365	85.5
469.585	69.5
469.804	109.5
470.023	93.5
470.243	95.5
470.462	93.5
470.681	89.5
470.901	96.5
471.12	92.5
471.339	79.5
471.558	86.5
471.777	97.5
471.997	93.5
472.216	83.5
472.435	80.5
472.654	73.5
472.873	79.5
473.092	78.5
473.311	77.5
473.53	89.5
473.749	86.5
473.968	85.5
474.187	76.5
474.406	76.5
474.625	80.5
474.844	78.5
475.063	70.5
475.282	99.5
475.501	96.5
475.72	94.5
475.939	82.5
476.158	92.5
476.377	89.5
476.596	65.5
476.814	77.5
477.033	84.5
477.252	87.5
477.471	69.5
477.69	88.5
477.908	81.5
478.127	104.5
478.346	97.5
478.564	91.5
478.783	79.5
479.002	89.5
479.22	89.5
479.439	77.5
479.658	83.5
479.876	75.5
480.095	84.5
480.313	91.5
480.532	83.5
480.751	77.5
480.969	65.5
481.188	84.5
481.406	77.5
481.624	74.5
481.843	74.5
482.061	88.5
482.28	81.5
482.498	78.5
482.717	84.5
482.935	86.5
483.153	93.5
483.372	69.5
483.59	89.5
483.808	84.5
484.027	106.5
484.245	81.5
484.463	104.5
484.681	99.5
484.9	99.5
485.118	72.5
485.336	92.5
485.554	75.5
485.772	78.5
485.99	87.5
486.209	90.5
486.427	76.5
486.645	80.5
486.863	82.5
487.081	89.5
487.299	109.5
487.517	111.5
487.735	88.5
487.953	81.5
488.171	99.5
488.389	112.5
488.607	88.5
488.825	100.5
489.043	95.5
489.261	83.5
489.479	89.5
489.696	96.5
489.914	96.5
490.132	102.5
490.35	98.5
490.568	109.5
490.786	91.5
491.003	87.5
491.221	95.5
491.439	93.5
491.657	95.5
491.874	106.5
492.092	105.5
492.31	111.5
492.527	97.5
492.745	97.5
492.963	103.5
493.18	108.5
493.398	94.5
493.615	92.5
493.833	96.5
494.05	106.5
494.268	84.5
494.485	91.5
494.703	84.5
494.92	108.5
495.138	104.5
495.355	96.5
495.573	91.5
495.79	101.5
496.008	96.5
496.225	91.5
496.442	92.5
496.66	95.5
496.877	88.5
497.094	88.5
497.312	97.5
497.529	106.5
497.746	92.5
497.963	95.5
498.181	90.5
498.398	83.5
498.615	84.5
498.832	78.5
499.049	77.5
499.267	90.5
499.484	84.5
499.701	86.5
499.918	85.5
500.135	76.5
500.352	85.5
500.569	103.5
500.786	84.5
501.003	91.5
501.22	99.5
501.437	87.5
501.654	83.5
501.871	98.5
502.088	88.5
502.305	101.5
502.522	86.5
502.739	84.5
502.956	91.5
503.172	100.5
503.389	86.5
503.606	82.5
503.823	91.5
504.04	95.5
504.256	95.5
504.473	81.5
504.69	90.5
504.907	92.5
505.123	89.5
505.34	84.5
505.557	89.5
505.773	92.5
505.99	82.5
506.207	86.5
506.423	89.5
506.64	92.5
506.856	83.5
507.073	89.5
507.289	90.5
507.506	86.5
507.722	86.5
507.939	84.5
508.155	90.5
508.372	80.5
508.588	78.5
508.805	84.5
509.021	81.5
509.238	99.5
509.454	88.5
509.67	72.5
509.887	80.5
510.103	89.5
510.319	84.5
510.536	73.5
510.752	92.5
510.968	83.5
511.184	74.5
511.401	84.5
511.617	80.5
511.833	76.5
512.049	72.5
512.265	91.5
512.481	94.5
512.698	76.5
512.914	87.5
513.13	93.5
513.346	75.5
513.562	85.5
513.778	74.5
513.994	83.5
514.21	86.5
514.426	95.5
514.642	78.5
514.858	92.5
515.074	86.5
515.29	69.5
515.506	67.5
515.721	96.5
515.937	84.5
516.153	71.5
516.369	88.5
516.585	81.5
516.801	92.5
517.016	79.5
517.232	68.5
517.448	89.5
517.664	84.5
517.879	74.5
518.095	80.5
518.311	97.5
518.527	84.5
518.742	87.5
518.958	89.5
519.173	77.5
519.389	103.5
519.605	80.5
519.82	78.5
520.036	72.5
520.251	91.5
520.467	81.5
520.682	71.5
520.898	88.5
521.113	76.5
521.329	84.5
521.544	80.5
521.76	79.5
521.975	87.5
522.19	85.5
522.406	84.5
522.621	98.5
522.836	76.5
523.052	77.5
523.267	87.5
523.482	84.5
523.698	80.5
523.913	92.5
524.128	88.5
524.343	74.5
524.559	97.5
524.774	97.5
524.989	92.5
525.204	104.5
525.419	77.5
525.634	86.5
525.849	85.5
526.064	92.5
526.28	107.5
526.495	72.5
526.71	87.5
526.925	89.5
527.14	75.5
527.355	72.5
527.57	74.5
527.785	82.5
527.999	87.5
528.214	68.5
528.429	89.5
528.644	85.5
528.859	96.5
529.074	91.5
529.289	90.5
529.503	95.5
529.718	87.5
529.933	85.5
530.148	71.5
530.363	85.5
530.577	74.5
530.792	74.5
531.007	73.5
531.221	83.5
531.436	75.5
531.651	69.5
531.865	75.5
532.08	84.5
532.295	94.5
532.509	83.5
532.724	96.5
532.938	65.5
533.153	74.5
533.367	79.5
533.582	80.5
533.796	83.5
534.011	75.5
534.225	88.5
534.44	81.5
534.654	77.5
534.868	81.5
535.083	81.5
535.297	88.5
535.511	95.5
535.726	87.5
535.94	77.5
536.154	83.5
536.369	72.5
536.583	87.5
536.797	83.5
537.011	89.5
537.225	70.5
537.44	93.5
537.654	93.5
537.868	88.5
538.082	77.5
538.296	79.5
538.51	90.5
538.724	96.5
538.938	95.5
