Data from Zn(NO3)2Standard.Agarose3%.GreenCap.LampEnergy5.5.E.O_HRD10591_15-02-03-767.txt Node
Date: Mon Jul 22 15:02:03 EDT 2019
User: cochatt
Spectrometer: HR+D1059
Trigger mode: 1
Integration Time (sec): 1.000000E-1
Scans to average: 1
Electric dark correction enabled: true
Nonlinearity correction enabled: false
Boxcar width: 0
XAxis mode: Wavelengths
Number of Pixels in Spectrum: 2048
>>>>>Begin Spectral Data<<<<<
223.165	-12.56
223.4	-12.56
223.635	-12.56
223.869	-15.56
224.104	-12.56
224.338	9.44
224.573	-23.56
224.808	-15.56
225.042	-17.56
225.277	-11.56
225.511	-9.56
225.746	-6.56
225.98	-3.56
226.215	25.44
226.449	18.44
226.683	25.44
226.918	20.44
227.152	29.44
227.387	28.44
227.621	24.44
227.856	37.44
228.09	47.44
228.324	36.44
228.559	56.44
228.793	48.44
229.027	56.44
229.262	56.44
229.496	63.44
229.73	73.44
229.964	66.44
230.199	90.44
230.433	81.44
230.667	78.44
230.901	67.44
231.136	79.44
231.37	83.44
231.604	78.44
231.838	81.44
232.072	78.44
232.306	82.44
232.541	78.44
232.775	92.44
233.009	75.44
233.243	88.44
233.477	72.44
233.711	78.44
233.945	84.44
234.179	74.44
234.413	83.44
234.647	80.44
234.881	72.44
235.115	85.44
235.349	82.44
235.583	88.44
235.817	79.44
236.051	75.44
236.285	68.44
236.519	92.44
236.753	77.44
236.987	81.44
237.221	76.44
237.455	70.44
237.689	84.44
237.922	67.44
238.156	67.44
238.39	64.44
238.624	75.44
238.858	72.44
239.091	64.44
239.325	58.44
239.559	69.44
239.793	82.44
240.027	69.44
240.26	69.44
240.494	78.44
240.728	76.44
240.961	72.44
241.195	77.44
241.429	71.44
241.662	84.44
241.896	85.44
242.13	70.44
242.363	70.44
242.597	76.44
242.83	67.44
243.064	72.44
243.298	83.44
243.531	71.44
243.765	70.44
243.998	78.44
244.232	80.44
244.465	71.44
244.699	75.44
244.932	59.44
245.166	74.44
245.399	67.44
245.633	75.44
245.866	68.44
246.099	81.44
246.333	76.44
246.566	53.44
246.8	71.44
247.033	70.44
247.266	70.44
247.5	80.44
247.733	77.44
247.966	78.44
248.2	83.44
248.433	75.44
248.666	78.44
248.899	74.44
249.133	75.44
249.366	73.44
249.599	73.44
249.832	76.44
250.066	58.44
250.299	78.44
250.532	70.44
250.765	66.44
250.998	79.44
251.231	76.44
251.465	78.44
251.698	79.44
251.931	72.44
252.164	76.44
252.397	81.44
252.63	85.44
252.863	80.44
253.096	71.44
253.329	80.44
253.562	78.44
253.795	80.44
254.028	83.44
254.261	75.44
254.494	75.44
254.727	78.44
254.96	59.44
255.193	92.44
255.426	77.44
255.659	66.44
255.892	80.44
256.124	79.44
256.357	83.44
256.59	70.44
256.823	84.44
257.056	75.44
257.289	76.44
257.521	74.44
257.754	90.44
257.987	69.44
258.22	83.44
258.452	79.44
258.685	63.44
258.918	81.44
259.151	80.44
259.383	81.44
259.616	85.44
259.849	86.44
260.081	82.44
260.314	68.44
260.547	71.44
260.779	63.44
261.012	72.44
261.244	83.44
261.477	76.44
261.71	78.44
261.942	90.44
262.175	85.44
262.407	78.44
262.64	83.44
262.872	78.44
263.105	72.44
263.337	86.44
263.57	96.44
263.802	75.44
264.035	83.44
264.267	70.44
264.499	75.44
264.732	95.44
264.964	87.44
265.197	72.44
265.429	79.44
265.661	78.44
265.894	82.44
266.126	77.44
266.358	85.44
266.591	91.44
266.823	79.44
267.055	80.44
267.287	86.44
267.52	82.44
267.752	78.44
267.984	90.44
268.216	74.44
268.448	78.44
268.681	75.44
268.913	93.44
269.145	74.44
269.377	81.44
269.609	96.44
269.841	83.44
270.073	86.44
270.306	81.44
270.538	75.44
270.77	86.44
271.002	84.44
271.234	79.44
271.466	77.44
271.698	72.44
271.93	73.44
272.162	77.44
272.394	79.44
272.626	80.44
272.858	72.44
273.09	93.44
273.322	78.44
273.553	71.44
273.785	75.44
274.017	76.44
274.249	88.44
274.481	77.44
274.713	75.44
274.945	62.44
275.176	78.44
275.408	69.44
275.64	80.44
275.872	73.44
276.104	68.44
276.335	84.44
276.567	68.44
276.799	93.44
277.031	78.44
277.262	80.44
277.494	81.44
277.726	82.44
277.957	87.44
278.189	75.44
278.421	72.44
278.652	86.44
278.884	71.44
279.115	85.44
279.347	84.44
279.579	100.44
279.81	89.44
280.042	76.44
280.273	70.44
280.505	82.44
280.736	66.44
280.968	72.44
281.199	74.44
281.431	89.44
281.662	99.44
281.894	77.44
282.125	77.44
282.356	82.44
282.588	75.44
282.819	74.44
283.051	83.44
283.282	92.44
283.513	88.44
283.745	76.44
283.976	81.44
284.207	62.44
284.439	87.44
284.67	79.44
284.901	85.44
285.132	74.44
285.364	70.44
285.595	68.44
285.826	75.44
286.057	90.44
286.288	80.44
286.52	82.44
286.751	75.44
286.982	78.44
287.213	81.44
287.444	86.44
287.675	79.44
287.906	101.44
288.138	74.44
288.369	86.44
288.6	92.44
288.831	79.44
289.062	95.44
289.293	75.44
289.524	86.44
289.755	91.44
289.986	87.44
290.217	96.44
290.448	91.44
290.679	85.44
290.91	82.44
291.141	77.44
291.371	90.44
291.602	87.44
291.833	73.44
292.064	74.44
292.295	83.44
292.526	75.44
292.757	103.44
292.987	91.44
293.218	81.44
293.449	86.44
293.68	79.44
293.91	84.44
294.141	92.44
294.372	73.44
294.603	92.44
294.833	80.44
295.064	77.44
295.295	87.44
295.525	73.44
295.756	75.44
295.987	95.44
296.217	72.44
296.448	89.44
296.679	75.44
296.909	88.44
297.14	67.44
297.37	71.44
297.601	79.44
297.831	97.44
298.062	88.44
298.292	85.44
298.523	91.44
298.753	72.44
298.984	78.44
299.214	86.44
299.445	79.44
299.675	75.44
299.905	81.44
300.136	86.44
300.366	89.44
300.597	78.44
300.827	86.44
301.057	80.44
301.288	78.44
301.518	78.44
301.748	79.44
301.979	77.44
302.209	84.44
302.439	73.44
302.669	86.44
302.9	76.44
303.13	92.44
303.36	82.44
303.59	91.44
303.82	90.44
304.051	75.44
304.281	88.44
304.511	87.44
304.741	83.44
304.971	67.44
305.201	80.44
305.431	73.44
305.661	75.44
305.891	67.44
306.121	88.44
306.352	92.44
306.582	95.44
306.812	94.44
307.042	80.44
307.272	79.44
307.502	71.44
307.731	85.44
307.961	85.44
308.191	84.44
308.421	82.44
308.651	78.44
308.881	78.44
309.111	85.44
309.341	75.44
309.571	85.44
309.8	76.44
310.03	82.44
310.26	76.44
310.49	81.44
310.72	80.44
310.949	81.44
311.179	90.44
311.409	89.44
311.639	88.44
311.868	85.44
312.098	75.44
312.328	93.44
312.557	81.44
312.787	75.44
313.017	83.44
313.246	77.44
313.476	76.44
313.706	81.44
313.935	88.44
314.165	77.44
314.394	75.44
314.624	73.44
314.853	76.44
315.083	85.44
315.312	81.44
315.542	84.44
315.771	80.44
316.001	82.44
316.23	81.44
316.46	77.44
316.689	89.44
316.919	76.44
317.148	76.44
317.377	87.44
317.607	84.44
317.836	71.44
318.065	84.44
318.295	94.44
318.524	76.44
318.753	89.44
318.983	85.44
319.212	78.44
319.441	75.44
319.67	84.44
319.9	76.44
320.129	76.44
320.358	79.44
320.587	86.44
320.816	73.44
321.046	88.44
321.275	82.44
321.504	89.44
321.733	82.44
321.962	77.44
322.191	84.44
322.42	87.44
322.649	76.44
322.878	86.44
323.108	74.44
323.337	85.44
323.566	67.44
323.795	74.44
324.024	91.44
324.253	86.44
324.482	75.44
324.71	85.44
324.939	80.44
325.168	82.44
325.397	77.44
325.626	69.44
325.855	85.44
326.084	80.44
326.313	83.44
326.542	85.44
326.77	84.44
326.999	82.44
327.228	79.44
327.457	75.44
327.686	94.44
327.914	96.44
328.143	83.44
328.372	88.44
328.6	80.44
328.829	88.44
329.058	84.44
329.287	70.44
329.515	76.44
329.744	83.44
329.972	77.44
330.201	98.44
330.43	87.44
330.658	73.44
330.887	74.44
331.115	83.44
331.344	79.44
331.572	95.44
331.801	88.44
332.03	73.44
332.258	92.44
332.486	69.44
332.715	78.44
332.943	88.44
333.172	69.44
333.4	87.44
333.629	80.44
333.857	89.44
334.085	91.44
334.314	73.44
334.542	81.44
334.771	82.44
334.999	72.44
335.227	82.44
335.455	89.44
335.684	76.44
335.912	83.44
336.14	80.44
336.369	81.44
336.597	65.44
336.825	85.44
337.053	84.44
337.281	87.44
337.51	77.44
337.738	83.44
337.966	86.44
338.194	84.44
338.422	95.44
338.65	82.44
338.878	81.44
339.106	88.44
339.334	94.44
339.562	82.44
339.79	87.44
340.018	83.44
340.246	73.44
340.474	84.44
340.702	75.44
340.93	90.44
341.158	87.44
341.386	79.44
341.614	86.44
341.842	92.44
342.07	98.44
342.298	78.44
342.526	82.44
342.754	82.44
342.981	73.44
343.209	76.44
343.437	78.44
343.665	80.44
343.893	86.44
344.12	97.44
344.348	86.44
344.576	83.44
344.804	85.44
345.031	99.44
345.259	76.44
345.487	78.44
345.714	86.44
345.942	83.44
346.17	91.44
346.397	81.44
346.625	97.44
346.853	81.44
347.08	81.44
347.308	75.44
347.535	80.44
347.763	70.44
347.99	93.44
348.218	92.44
348.445	81.44
348.673	83.44
348.9	82.44
349.128	91.44
349.355	74.44
349.583	79.44
349.81	82.44
350.037	86.44
350.265	73.44
350.492	78.44
350.72	86.44
350.947	83.44
351.174	84.44
351.402	82.44
351.629	66.44
351.856	74.44
352.083	71.44
352.311	71.44
352.538	80.44
352.765	78.44
352.992	88.44
353.22	96.44
353.447	76.44
353.674	79.44
353.901	82.44
354.128	87.44
354.355	65.44
354.583	66.44
354.81	76.44
355.037	82.44
355.264	72.44
355.491	77.44
355.718	71.44
355.945	78.44
356.172	87.44
356.399	58.44
356.626	87.44
356.853	74.44
357.08	70.44
357.307	72.44
357.534	87.44
357.761	90.44
357.988	91.44
358.215	85.44
358.441	80.44
358.668	74.44
358.895	92.44
359.122	73.44
359.349	73.44
359.576	88.44
359.802	74.44
360.029	91.44
360.256	90.44
360.483	76.44
360.709	89.44
360.936	75.44
361.163	84.44
361.39	74.44
361.616	91.44
361.843	86.44
362.07	94.44
362.296	97.44
362.523	99.44
362.749	81.44
362.976	89.44
363.203	80.44
363.429	78.44
363.656	87.44
363.882	82.44
364.109	63.44
364.335	77.44
364.562	76.44
364.788	87.44
365.015	92.44
365.241	89.44
365.468	66.44
365.694	76.44
365.92	83.44
366.147	73.44
366.373	90.44
366.599	74.44
366.826	85.44
367.052	77.44
367.278	76.44
367.505	85.44
367.731	88.44
367.957	63.44
368.184	79.44
368.41	78.44
368.636	84.44
368.862	74.44
369.089	69.44
369.315	82.44
369.541	78.44
369.767	80.44
369.993	90.44
370.219	77.44
370.445	95.44
370.672	87.44
370.898	76.44
371.124	75.44
371.35	83.44
371.576	95.44
371.802	95.44
372.028	86.44
372.254	75.44
372.48	93.44
372.706	87.44
372.932	71.44
373.158	91.44
373.384	80.44
373.61	86.44
373.835	98.44
374.061	83.44
374.287	86.44
374.513	85.44
374.739	80.44
374.965	60.44
375.191	86.44
375.416	82.44
375.642	75.44
375.868	84.44
376.094	80.44
376.319	81.44
376.545	80.44
376.771	86.44
376.997	77.44
377.222	83.44
377.448	65.44
377.674	78.44
377.899	81.44
378.125	82.44
378.35	77.44
378.576	78.44
378.802	77.44
379.027	68.44
379.253	79.44
379.478	77.44
379.704	76.44
379.929	80.44
380.155	99.44
380.38	81.44
380.606	84.44
380.831	88.44
381.057	89.44
381.282	77.44
381.507	70.44
381.733	95.44
381.958	92.44
382.184	84.44
382.409	69.44
382.634	71.44
382.86	63.44
383.085	73.44
383.31	90.44
383.535	98.44
383.761	86.44
383.986	87.44
384.211	87.44
384.436	80.44
384.662	70.44
384.887	81.44
385.112	69.44
385.337	75.44
385.562	75.44
385.787	61.44
386.013	86.44
386.238	71.44
386.463	84.44
386.688	75.44
386.913	80.44
387.138	76.44
387.363	76.44
387.588	88.44
387.813	80.44
388.038	86.44
388.263	91.44
388.488	87.44
388.713	97.44
388.938	83.44
389.163	81.44
389.387	82.44
389.612	72.44
389.837	83.44
390.062	89.44
390.287	72.44
390.512	86.44
390.736	80.44
390.961	75.44
391.186	84.44
391.411	88.44
391.636	89.44
391.86	80.44
392.085	90.44
392.31	92.44
392.534	92.44
392.759	78.44
392.984	72.44
393.208	70.44
393.433	81.44
393.658	88.44
393.882	72.44
394.107	68.44
394.331	98.44
394.556	86.44
394.78	82.44
395.005	79.44
395.229	86.44
395.454	88.44
395.678	79.44
395.903	83.44
396.127	87.44
396.352	87.44
396.576	82.44
396.801	75.44
397.025	82.44
397.249	76.44
397.474	75.44
397.698	79.44
397.922	64.44
398.147	82.44
398.371	84.44
398.595	70.44
398.82	80.44
399.044	86.44
399.268	94.44
399.492	81.44
399.717	90.44
399.941	80.44
400.165	90.44
400.389	87.44
400.613	91.44
400.837	78.44
401.062	76.44
401.286	88.44
401.51	70.44
401.734	84.44
401.958	86.44
402.182	86.44
402.406	82.44
402.63	95.44
402.854	72.44
403.078	88.44
403.302	81.44
403.526	90.44
403.75	92.44
403.974	86.44
404.198	81.44
404.422	82.44
404.645	86.44
404.869	76.44
405.093	87.44
405.317	82.44
405.541	76.44
405.765	97.44
405.988	84.44
406.212	75.44
406.436	86.44
406.66	85.44
406.883	88.44
407.107	95.44
407.331	84.44
407.555	83.44
407.778	96.44
408.002	91.44
408.226	96.44
408.449	82.44
408.673	97.44
408.896	75.44
409.12	88.44
409.344	76.44
409.567	73.44
409.791	96.44
410.014	83.44
410.238	83.44
410.461	83.44
410.685	75.44
410.908	91.44
411.132	73.44
411.355	86.44
411.578	90.44
411.802	77.44
412.025	76.44
412.249	78.44
412.472	84.44
412.695	91.44
412.919	83.44
413.142	92.44
413.365	85.44
413.589	89.44
413.812	79.44
414.035	95.44
414.258	72.44
414.482	69.44
414.705	94.44
414.928	78.44
415.151	85.44
415.374	82.44
415.597	86.44
415.821	81.44
416.044	87.44
416.267	83.44
416.49	72.44
416.713	77.44
416.936	73.44
417.159	83.44
417.382	82.44
417.605	82.44
417.828	89.44
418.051	82.44
418.274	95.44
418.497	71.44
418.72	103.44
418.943	77.44
419.166	84.44
419.389	97.44
419.611	91.44
419.834	87.44
420.057	84.44
420.28	95.44
420.503	77.44
420.726	86.44
420.948	101.44
421.171	100.44
421.394	86.44
421.617	89.44
421.839	93.44
422.062	90.44
422.285	77.44
422.507	94.44
422.73	96.44
422.953	97.44
423.175	81.44
423.398	85.44
423.621	90.44
423.843	91.44
424.066	82.44
424.288	87.44
424.511	78.44
424.733	87.44
424.956	101.44
425.178	102.44
425.401	79.44
425.623	86.44
425.846	96.44
426.068	88.44
426.291	83.44
426.513	85.44
426.735	87.44
426.958	80.44
427.18	88.44
427.402	98.44
427.625	96.44
427.847	81.44
428.069	82.44
428.292	87.44
428.514	97.44
428.736	78.44
428.958	76.44
429.181	101.44
429.403	88.44
429.625	100.44
429.847	88.44
430.069	89.44
430.292	90.44
430.514	85.44
430.736	84.44
430.958	82.44
431.18	96.44
431.402	75.44
431.624	100.44
431.846	82.44
432.068	56.44
432.29	82.44
432.512	85.44
432.734	87.44
432.956	94.44
433.178	85.44
433.4	90.44
433.622	89.44
433.844	88.44
434.066	86.44
434.287	108.44
434.509	68.44
434.731	79.44
434.953	81.44
435.175	90.44
435.397	83.44
435.618	70.44
435.84	82.44
436.062	85.44
436.284	88.44
436.505	94.44
436.727	107.44
436.949	83.44
437.17	77.44
437.392	94.44
437.614	81.44
437.835	87.44
438.057	102.44
438.278	96.44
438.5	79.44
438.721	93.44
438.943	79.44
439.165	91.44
439.386	79.44
439.608	96.44
439.829	97.44
440.05	88.44
440.272	84.44
440.493	100.44
440.715	97.44
440.936	96.44
441.158	85.44
441.379	103.44
441.6	113.44
441.822	83.44
442.043	86.44
442.264	98.44
442.486	66.44
442.707	91.44
442.928	90.44
443.149	85.44
443.371	99.44
443.592	100.44
443.813	94.44
444.034	93.44
444.255	89.44
444.476	100.44
444.698	95.44
444.919	75.44
445.14	199.44
445.361	146.44
445.582	110.44
445.803	95.44
446.024	77.44
446.245	88.44
446.466	82.44
446.687	99.44
446.908	85.44
447.129	96.44
447.35	89.44
447.571	92.44
447.792	100.44
448.013	84.44
448.234	84.44
448.455	81.44
448.675	88.44
448.896	77.44
449.117	83.44
449.338	88.44
449.559	94.44
449.779	79.44
450	84.44
450.221	90.44
450.442	88.44
450.662	92.44
450.883	94.44
451.104	90.44
451.324	88.44
451.545	103.44
451.766	90.44
451.986	83.44
452.207	75.44
452.428	81.44
452.648	83.44
452.869	83.44
453.089	85.44
453.31	75.44
453.53	93.44
453.751	85.44
453.971	88.44
454.192	89.44
454.412	86.44
454.633	83.44
454.853	75.44
455.073	87.44
455.294	79.44
455.514	93.44
455.734	78.44
455.955	71.44
456.175	95.44
456.395	81.44
456.616	71.44
456.836	76.44
457.056	68.44
457.276	75.44
457.497	78.44
457.717	89.44
457.937	81.44
458.157	102.44
458.377	92.44
458.598	65.44
458.818	80.44
459.038	69.44
459.258	85.44
459.478	95.44
459.698	78.44
459.918	84.44
460.138	94.44
460.358	74.44
460.578	85.44
460.798	102.44
461.018	75.44
461.238	85.44
461.458	83.44
461.678	81.44
461.898	80.44
462.118	85.44
462.338	86.44
462.558	78.44
462.777	95.44
462.997	87.44
463.217	75.44
463.437	84.44
463.657	86.44
463.876	68.44
464.096	76.44
464.316	67.44
464.536	86.44
464.755	84.44
464.975	73.44
465.195	90.44
465.414	74.44
465.634	86.44
465.854	87.44
466.073	91.44
466.293	76.44
466.512	94.44
466.732	90.44
466.951	101.44
467.171	97.44
467.391	79.44
467.61	94.44
467.829	72.44
468.049	86.44
468.268	79.44
468.488	84.44
468.707	89.44
468.927	90.44
469.146	95.44
469.365	92.44
469.585	86.44
469.804	93.44
470.023	105.44
470.243	87.44
470.462	89.44
470.681	90.44
470.901	92.44
471.12	96.44
471.339	104.44
471.558	79.44
471.777	80.44
471.997	87.44
472.216	86.44
472.435	95.44
472.654	87.44
472.873	86.44
473.092	92.44
473.311	88.44
473.53	97.44
473.749	80.44
473.968	83.44
474.187	94.44
474.406	78.44
474.625	102.44
474.844	104.44
475.063	91.44
475.282	84.44
475.501	96.44
475.72	82.44
475.939	99.44
476.158	78.44
476.377	74.44
476.596	74.44
476.814	82.44
477.033	95.44
477.252	80.44
477.471	71.44
477.69	89.44
477.908	99.44
478.127	111.44
478.346	98.44
478.564	81.44
478.783	78.44
479.002	91.44
479.22	94.44
479.439	77.44
479.658	84.44
479.876	83.44
480.095	76.44
480.313	86.44
480.532	94.44
480.751	92.44
480.969	91.44
481.188	90.44
481.406	81.44
481.624	75.44
481.843	91.44
482.061	87.44
482.28	92.44
482.498	83.44
482.717	91.44
482.935	94.44
483.153	76.44
483.372	107.44
483.59	95.44
483.808	94.44
484.027	93.44
484.245	99.44
484.463	96.44
484.681	97.44
484.9	80.44
485.118	106.44
485.336	89.44
485.554	78.44
485.772	78.44
485.99	87.44
486.209	81.44
486.427	82.44
486.645	104.44
486.863	87.44
487.081	105.44
487.299	102.44
487.517	89.44
487.735	81.44
487.953	79.44
488.171	106.44
488.389	99.44
488.607	93.44
488.825	98.44
489.043	95.44
489.261	74.44
489.479	96.44
489.696	82.44
489.914	97.44
490.132	96.44
490.35	79.44
490.568	85.44
490.786	112.44
491.003	86.44
491.221	97.44
491.439	94.44
491.657	127.44
491.874	110.44
492.092	116.44
492.31	105.44
492.527	112.44
492.745	109.44
492.963	89.44
493.18	96.44
493.398	89.44
493.615	105.44
493.833	96.44
494.05	90.44
494.268	90.44
494.485	92.44
494.703	100.44
494.92	102.44
495.138	89.44
495.355	84.44
495.573	98.44
495.79	86.44
496.008	98.44
496.225	88.44
496.442	85.44
496.66	89.44
496.877	101.44
497.094	101.44
497.312	83.44
497.529	87.44
497.746	96.44
497.963	90.44
498.181	84.44
498.398	104.44
498.615	79.44
498.832	96.44
499.049	102.44
499.267	92.44
499.484	97.44
499.701	86.44
499.918	83.44
500.135	100.44
500.352	83.44
500.569	97.44
500.786	96.44
501.003	82.44
501.22	100.44
501.437	90.44
501.654	87.44
501.871	98.44
502.088	100.44
502.305	87.44
502.522	75.44
502.739	87.44
502.956	85.44
503.172	76.44
503.389	97.44
503.606	94.44
503.823	84.44
504.04	92.44
504.256	84.44
504.473	86.44
504.69	73.44
504.907	75.44
505.123	80.44
505.34	86.44
505.557	86.44
505.773	100.44
505.99	94.44
506.207	86.44
506.423	93.44
506.64	94.44
506.856	88.44
507.073	89.44
507.289	90.44
507.506	90.44
507.722	90.44
507.939	92.44
508.155	89.44
508.372	90.44
508.588	73.44
508.805	87.44
509.021	91.44
509.238	85.44
509.454	71.44
509.67	74.44
509.887	78.44
510.103	80.44
510.319	89.44
510.536	78.44
510.752	82.44
510.968	80.44
511.184	89.44
511.401	86.44
511.617	94.44
511.833	70.44
512.049	82.44
512.265	90.44
512.481	82.44
512.698	79.44
512.914	90.44
513.13	95.44
513.346	76.44
513.562	81.44
513.778	81.44
513.994	82.44
514.21	80.44
514.426	90.44
514.642	76.44
514.858	91.44
515.074	80.44
515.29	87.44
515.506	94.44
515.721	93.44
515.937	80.44
516.153	96.44
516.369	64.44
516.585	93.44
516.801	84.44
517.016	87.44
517.232	89.44
517.448	80.44
517.664	95.44
517.879	79.44
518.095	78.44
518.311	76.44
518.527	86.44
518.742	68.44
