Data from Zn(NO3)2Standard.Agarose3%.GreenCap.LampEnergy10E.O_HRD10591_15-06-33-942.txt Node
Date: Mon Jul 22 15:06:33 EDT 2019
User: cochatt
Spectrometer: HR+D1059
Trigger mode: 1
Integration Time (sec): 1.000000E-1
Scans to average: 1
Electric dark correction enabled: true
Nonlinearity correction enabled: false
Boxcar width: 0
XAxis mode: Wavelengths
Number of Pixels in Spectrum: 2048
>>>>>Begin Spectral Data<<<<<
223.165	-20.38
223.4	-20.38
223.635	-20.38
223.869	-21.38
224.104	-12.38
224.338	-22.38
224.573	-17.38
224.808	-3.38
225.042	-6.38
225.277	-13.38
225.511	-1.38
225.746	5.62
225.98	-4.38
226.215	9.62
226.449	20.62
226.683	47.62
226.918	23.62
227.152	15.62
227.387	35.62
227.621	39.62
227.856	36.62
228.09	49.62
228.324	55.62
228.559	55.62
228.793	49.62
229.027	55.62
229.262	63.62
229.496	51.62
229.73	67.62
229.964	73.62
230.199	63.62
230.433	67.62
230.667	82.62
230.901	71.62
231.136	64.62
231.37	97.62
231.604	68.62
231.838	76.62
232.072	83.62
232.306	75.62
232.541	60.62
232.775	77.62
233.009	78.62
233.243	96.62
233.477	79.62
233.711	72.62
233.945	68.62
234.179	89.62
234.413	79.62
234.647	67.62
234.881	59.62
235.115	75.62
235.349	63.62
235.583	70.62
235.817	68.62
236.051	75.62
236.285	79.62
236.519	76.62
236.753	79.62
236.987	76.62
237.221	93.62
237.455	68.62
237.689	53.62
237.922	78.62
238.156	78.62
238.39	65.62
238.624	65.62
238.858	82.62
239.091	71.62
239.325	75.62
239.559	59.62
239.793	78.62
240.027	73.62
240.26	63.62
240.494	70.62
240.728	74.62
240.961	59.62
241.195	81.62
241.429	72.62
241.662	83.62
241.896	85.62
242.13	77.62
242.363	64.62
242.597	60.62
242.83	69.62
243.064	61.62
243.298	80.62
243.531	74.62
243.765	80.62
243.998	66.62
244.232	67.62
244.465	70.62
244.699	67.62
244.932	73.62
245.166	75.62
245.399	72.62
245.633	75.62
245.866	83.62
246.099	72.62
246.333	60.62
246.566	70.62
246.8	81.62
247.033	64.62
247.266	72.62
247.5	64.62
247.733	80.62
247.966	75.62
248.2	83.62
248.433	61.62
248.666	66.62
248.899	83.62
249.133	83.62
249.366	70.62
249.599	69.62
249.832	81.62
250.066	84.62
250.299	85.62
250.532	72.62
250.765	80.62
250.998	69.62
251.231	73.62
251.465	68.62
251.698	84.62
251.931	73.62
252.164	56.62
252.397	77.62
252.63	86.62
252.863	68.62
253.096	59.62
253.329	72.62
253.562	73.62
253.795	69.62
254.028	66.62
254.261	66.62
254.494	69.62
254.727	67.62
254.96	81.62
255.193	66.62
255.426	70.62
255.659	66.62
255.892	70.62
256.124	68.62
256.357	85.62
256.59	89.62
256.823	87.62
257.056	83.62
257.289	67.62
257.521	70.62
257.754	75.62
257.987	68.62
258.22	88.62
258.452	76.62
258.685	85.62
258.918	69.62
259.151	63.62
259.383	69.62
259.616	78.62
259.849	77.62
260.081	90.62
260.314	79.62
260.547	84.62
260.779	92.62
261.012	73.62
261.244	60.62
261.477	81.62
261.71	71.62
261.942	73.62
262.175	73.62
262.407	73.62
262.64	76.62
262.872	76.62
263.105	87.62
263.337	91.62
263.57	73.62
263.802	79.62
264.035	67.62
264.267	79.62
264.499	73.62
264.732	85.62
264.964	91.62
265.197	71.62
265.429	72.62
265.661	69.62
265.894	80.62
266.126	89.62
266.358	73.62
266.591	71.62
266.823	79.62
267.055	87.62
267.287	79.62
267.52	87.62
267.752	76.62
267.984	80.62
268.216	79.62
268.448	72.62
268.681	91.62
268.913	68.62
269.145	65.62
269.377	88.62
269.609	66.62
269.841	81.62
270.073	68.62
270.306	76.62
270.538	74.62
270.77	77.62
271.002	75.62
271.234	77.62
271.466	81.62
271.698	73.62
271.93	76.62
272.162	84.62
272.394	84.62
272.626	62.62
272.858	74.62
273.09	71.62
273.322	82.62
273.553	77.62
273.785	79.62
274.017	78.62
274.249	63.62
274.481	89.62
274.713	86.62
274.945	73.62
275.176	78.62
275.408	63.62
275.64	76.62
275.872	79.62
276.104	79.62
276.335	86.62
276.567	72.62
276.799	80.62
277.031	82.62
277.262	86.62
277.494	91.62
277.726	75.62
277.957	84.62
278.189	88.62
278.421	87.62
278.652	77.62
278.884	73.62
279.115	79.62
279.347	79.62
279.579	73.62
279.81	64.62
280.042	83.62
280.273	60.62
280.505	73.62
280.736	82.62
280.968	67.62
281.199	87.62
281.431	80.62
281.662	85.62
281.894	82.62
282.125	81.62
282.356	78.62
282.588	71.62
282.819	83.62
283.051	69.62
283.282	77.62
283.513	57.62
283.745	77.62
283.976	76.62
284.207	74.62
284.439	73.62
284.67	85.62
284.901	82.62
285.132	88.62
285.364	75.62
285.595	81.62
285.826	72.62
286.057	74.62
286.288	91.62
286.52	80.62
286.751	73.62
286.982	71.62
287.213	68.62
287.444	85.62
287.675	80.62
287.906	78.62
288.138	87.62
288.369	72.62
288.6	83.62
288.831	91.62
289.062	88.62
289.293	84.62
289.524	79.62
289.755	91.62
289.986	75.62
290.217	81.62
290.448	81.62
290.679	78.62
290.91	85.62
291.141	73.62
291.371	70.62
291.602	80.62
291.833	66.62
292.064	81.62
292.295	70.62
292.526	65.62
292.757	79.62
292.987	68.62
293.218	94.62
293.449	73.62
293.68	79.62
293.91	87.62
294.141	84.62
294.372	77.62
294.603	82.62
294.833	80.62
295.064	77.62
295.295	69.62
295.525	93.62
295.756	85.62
295.987	95.62
296.217	81.62
296.448	78.62
296.679	76.62
296.909	82.62
297.14	87.62
297.37	80.62
297.601	73.62
297.831	87.62
298.062	76.62
298.292	84.62
298.523	69.62
298.753	87.62
298.984	81.62
299.214	84.62
299.445	83.62
299.675	65.62
299.905	70.62
300.136	88.62
300.366	85.62
300.597	95.62
300.827	75.62
301.057	79.62
301.288	78.62
301.518	76.62
301.748	97.62
301.979	80.62
302.209	85.62
302.439	92.62
302.669	73.62
302.9	70.62
303.13	73.62
303.36	70.62
303.59	85.62
303.82	77.62
304.051	82.62
304.281	75.62
304.511	79.62
304.741	81.62
304.971	80.62
305.201	73.62
305.431	84.62
305.661	77.62
305.891	73.62
306.121	78.62
306.352	76.62
306.582	76.62
306.812	81.62
307.042	76.62
307.272	80.62
307.502	68.62
307.731	77.62
307.961	71.62
308.191	71.62
308.421	88.62
308.651	75.62
308.881	65.62
309.111	71.62
309.341	65.62
309.571	77.62
309.8	80.62
310.03	86.62
310.26	67.62
310.49	91.62
310.72	66.62
310.949	78.62
311.179	77.62
311.409	88.62
311.639	83.62
311.868	83.62
312.098	85.62
312.328	80.62
312.557	81.62
312.787	86.62
313.017	93.62
313.246	72.62
313.476	86.62
313.706	84.62
313.935	75.62
314.165	71.62
314.394	71.62
314.624	72.62
314.853	79.62
315.083	92.62
315.312	95.62
315.542	82.62
315.771	94.62
316.001	84.62
316.23	82.62
316.46	90.62
316.689	62.62
316.919	73.62
317.148	83.62
317.377	95.62
317.607	84.62
317.836	78.62
318.065	83.62
318.295	74.62
318.524	80.62
318.753	77.62
318.983	77.62
319.212	96.62
319.441	81.62
319.67	74.62
319.9	86.62
320.129	83.62
320.358	66.62
320.587	83.62
320.816	77.62
321.046	80.62
321.275	73.62
321.504	72.62
321.733	93.62
321.962	92.62
322.191	74.62
322.42	73.62
322.649	75.62
322.878	85.62
323.108	77.62
323.337	92.62
323.566	79.62
323.795	77.62
324.024	86.62
324.253	78.62
324.482	75.62
324.71	93.62
324.939	89.62
325.168	79.62
325.397	75.62
325.626	88.62
325.855	79.62
326.084	70.62
326.313	81.62
326.542	84.62
326.77	84.62
326.999	81.62
327.228	78.62
327.457	96.62
327.686	81.62
327.914	72.62
328.143	76.62
328.372	83.62
328.6	81.62
328.829	72.62
329.058	85.62
329.287	91.62
329.515	77.62
329.744	100.62
329.972	82.62
330.201	83.62
330.43	78.62
330.658	82.62
330.887	67.62
331.115	69.62
331.344	67.62
331.572	86.62
331.801	79.62
332.03	84.62
332.258	78.62
332.486	86.62
332.715	91.62
332.943	77.62
333.172	85.62
333.4	89.62
333.629	83.62
333.857	82.62
334.085	82.62
334.314	91.62
334.542	72.62
334.771	76.62
334.999	72.62
335.227	73.62
335.455	82.62
335.684	88.62
335.912	87.62
336.14	85.62
336.369	82.62
336.597	79.62
336.825	74.62
337.053	80.62
337.281	73.62
337.51	88.62
337.738	92.62
337.966	78.62
338.194	77.62
338.422	84.62
338.65	85.62
338.878	91.62
339.106	69.62
339.334	66.62
339.562	79.62
339.79	79.62
340.018	63.62
340.246	79.62
340.474	67.62
340.702	81.62
340.93	71.62
341.158	85.62
341.386	91.62
341.614	76.62
341.842	74.62
342.07	63.62
342.298	72.62
342.526	86.62
342.754	89.62
342.981	80.62
343.209	76.62
343.437	86.62
343.665	87.62
343.893	80.62
344.12	79.62
344.348	81.62
344.576	83.62
344.804	77.62
345.031	86.62
345.259	74.62
345.487	82.62
345.714	87.62
345.942	72.62
346.17	78.62
346.397	76.62
346.625	80.62
346.853	89.62
347.08	84.62
347.308	69.62
347.535	77.62
347.763	84.62
347.99	65.62
348.218	86.62
348.445	84.62
348.673	76.62
348.9	74.62
349.128	79.62
349.355	79.62
349.583	82.62
349.81	80.62
350.037	84.62
350.265	73.62
350.492	77.62
350.72	66.62
350.947	75.62
351.174	80.62
351.402	67.62
351.629	75.62
351.856	95.62
352.083	90.62
352.311	91.62
352.538	78.62
352.765	81.62
352.992	96.62
353.22	71.62
353.447	62.62
353.674	82.62
353.901	90.62
354.128	81.62
354.355	78.62
354.583	77.62
354.81	76.62
355.037	92.62
355.264	75.62
355.491	81.62
355.718	78.62
355.945	77.62
356.172	71.62
356.399	76.62
356.626	77.62
356.853	76.62
357.08	80.62
357.307	90.62
357.534	81.62
357.761	69.62
357.988	85.62
358.215	84.62
358.441	81.62
358.668	80.62
358.895	94.62
359.122	78.62
359.349	76.62
359.576	59.62
359.802	70.62
360.029	72.62
360.256	75.62
360.483	76.62
360.709	72.62
360.936	73.62
361.163	72.62
361.39	87.62
361.616	69.62
361.843	90.62
362.07	80.62
362.296	67.62
362.523	67.62
362.749	79.62
362.976	84.62
363.203	83.62
363.429	63.62
363.656	78.62
363.882	80.62
364.109	100.62
364.335	92.62
364.562	87.62
364.788	81.62
365.015	81.62
365.241	76.62
365.468	76.62
365.694	63.62
365.92	67.62
366.147	84.62
366.373	84.62
366.599	92.62
366.826	80.62
367.052	86.62
367.278	76.62
367.505	68.62
367.731	69.62
367.957	94.62
368.184	93.62
368.41	74.62
368.636	70.62
368.862	80.62
369.089	83.62
369.315	73.62
369.541	81.62
369.767	64.62
369.993	77.62
370.219	84.62
370.445	67.62
370.672	68.62
370.898	82.62
371.124	86.62
371.35	73.62
371.576	73.62
371.802	71.62
372.028	72.62
372.254	73.62
372.48	72.62
372.706	71.62
372.932	94.62
373.158	83.62
373.384	77.62
373.61	75.62
373.835	90.62
374.061	89.62
374.287	95.62
374.513	80.62
374.739	72.62
374.965	79.62
375.191	84.62
375.416	69.62
375.642	71.62
375.868	92.62
376.094	80.62
376.319	81.62
376.545	74.62
376.771	64.62
376.997	80.62
377.222	75.62
377.448	75.62
377.674	92.62
377.899	79.62
378.125	72.62
378.35	93.62
378.576	82.62
378.802	89.62
379.027	91.62
379.253	83.62
379.478	91.62
379.704	90.62
379.929	77.62
380.155	95.62
380.38	77.62
380.606	84.62
380.831	87.62
381.057	80.62
381.282	81.62
381.507	86.62
381.733	91.62
381.958	91.62
382.184	88.62
382.409	87.62
382.634	79.62
382.86	89.62
383.085	87.62
383.31	87.62
383.535	76.62
383.761	76.62
383.986	87.62
384.211	85.62
384.436	85.62
384.662	75.62
384.887	66.62
385.112	94.62
385.337	87.62
385.562	79.62
385.787	86.62
386.013	95.62
386.238	75.62
386.463	92.62
386.688	94.62
386.913	74.62
387.138	72.62
387.363	86.62
387.588	82.62
387.813	95.62
388.038	80.62
388.263	85.62
388.488	80.62
388.713	86.62
388.938	76.62
389.163	83.62
389.387	93.62
389.612	79.62
389.837	88.62
390.062	94.62
390.287	85.62
390.512	88.62
390.736	80.62
390.961	91.62
391.186	100.62
391.411	84.62
391.636	72.62
391.86	86.62
392.085	93.62
392.31	79.62
392.534	84.62
392.759	81.62
392.984	81.62
393.208	81.62
393.433	75.62
393.658	88.62
393.882	83.62
394.107	74.62
394.331	73.62
394.556	81.62
394.78	89.62
395.005	93.62
395.229	85.62
395.454	94.62
395.678	81.62
395.903	92.62
396.127	73.62
396.352	89.62
396.576	96.62
396.801	95.62
397.025	98.62
397.249	77.62
397.474	83.62
397.698	69.62
397.922	89.62
398.147	100.62
398.371	81.62
398.595	79.62
398.82	94.62
399.044	93.62
399.268	67.62
399.492	88.62
399.717	94.62
399.941	98.62
400.165	104.62
400.389	100.62
400.613	91.62
400.837	79.62
401.062	94.62
401.286	87.62
401.51	93.62
401.734	93.62
401.958	89.62
402.182	76.62
402.406	96.62
402.63	81.62
402.854	96.62
403.078	90.62
403.302	96.62
403.526	95.62
403.75	93.62
403.974	85.62
404.198	88.62
404.422	79.62
404.645	91.62
404.869	87.62
405.093	93.62
405.317	88.62
405.541	99.62
405.765	89.62
405.988	78.62
406.212	83.62
406.436	91.62
406.66	114.62
406.883	108.62
407.107	97.62
407.331	81.62
407.555	95.62
407.778	77.62
408.002	81.62
408.226	82.62
408.449	84.62
408.673	85.62
408.896	96.62
409.12	85.62
409.344	99.62
409.567	95.62
409.791	96.62
410.014	93.62
410.238	101.62
410.461	95.62
410.685	89.62
410.908	102.62
411.132	100.62
411.355	87.62
411.578	98.62
411.802	87.62
412.025	103.62
412.249	103.62
412.472	91.62
412.695	104.62
412.919	93.62
413.142	92.62
413.365	91.62
413.589	91.62
413.812	94.62
414.035	97.62
414.258	92.62
414.482	93.62
414.705	96.62
414.928	93.62
415.151	100.62
415.374	96.62
415.597	79.62
415.821	85.62
416.044	110.62
416.267	102.62
416.49	89.62
416.713	87.62
416.936	95.62
417.159	95.62
417.382	92.62
417.605	100.62
417.828	85.62
418.051	92.62
418.274	105.62
418.497	97.62
418.72	95.62
418.943	98.62
419.166	83.62
419.389	96.62
419.611	103.62
419.834	97.62
420.057	80.62
420.28	96.62
420.503	101.62
420.726	93.62
420.948	107.62
421.171	95.62
421.394	113.62
421.617	117.62
421.839	107.62
422.062	103.62
422.285	103.62
422.507	111.62
422.73	102.62
422.953	97.62
423.175	105.62
423.398	103.62
423.621	103.62
423.843	83.62
424.066	90.62
424.288	115.62
424.511	114.62
424.733	109.62
424.956	107.62
425.178	100.62
425.401	107.62
425.623	105.62
425.846	107.62
426.068	116.62
426.291	108.62
426.513	96.62
426.735	95.62
426.958	87.62
427.18	105.62
427.402	99.62
427.625	94.62
427.847	96.62
428.069	109.62
428.292	91.62
428.514	92.62
428.736	103.62
428.958	100.62
429.181	100.62
429.403	84.62
429.625	95.62
429.847	100.62
430.069	98.62
430.292	99.62
430.514	95.62
430.736	101.62
430.958	113.62
431.18	107.62
431.402	95.62
431.624	108.62
431.846	109.62
432.068	99.62
432.29	87.62
432.512	109.62
432.734	92.62
432.956	88.62
433.178	105.62
433.4	96.62
433.622	101.62
433.844	104.62
434.066	87.62
434.287	95.62
434.509	77.62
434.731	91.62
434.953	100.62
435.175	89.62
435.397	104.62
435.618	83.62
435.84	105.62
436.062	91.62
436.284	79.62
436.505	101.62
436.727	96.62
436.949	93.62
437.17	92.62
437.392	98.62
437.614	87.62
437.835	88.62
438.057	86.62
438.278	100.62
438.5	86.62
438.721	96.62
438.943	86.62
439.165	97.62
439.386	104.62
439.608	100.62
439.829	114.62
440.05	103.62
440.272	114.62
440.493	109.62
440.715	116.62
440.936	102.62
441.158	100.62
441.379	93.62
441.6	110.62
441.822	123.62
442.043	113.62
442.264	96.62
442.486	107.62
442.707	95.62
442.928	91.62
443.149	104.62
443.371	107.62
443.592	104.62
443.813	96.62
444.034	108.62
444.255	110.62
444.476	96.62
444.698	101.62
444.919	104.62
445.14	235.62
445.361	145.62
445.582	117.62
445.803	110.62
446.024	132.62
446.245	105.62
446.466	104.62
446.687	95.62
446.908	107.62
447.129	110.62
447.35	102.62
447.571	118.62
447.792	94.62
448.013	95.62
448.234	105.62
448.455	104.62
448.675	107.62
448.896	113.62
449.117	102.62
449.338	96.62
449.559	108.62
449.779	93.62
450	89.62
450.221	99.62
450.442	103.62
450.662	102.62
450.883	97.62
451.104	103.62
451.324	97.62
451.545	105.62
451.766	91.62
451.986	104.62
452.207	113.62
452.428	103.62
452.648	89.62
452.869	82.62
453.089	92.62
453.31	100.62
453.53	95.62
453.751	88.62
453.971	83.62
454.192	87.62
454.412	102.62
454.633	98.62
454.853	103.62
455.073	94.62
455.294	104.62
455.514	107.62
455.734	95.62
455.955	97.62
456.175	97.62
456.395	84.62
456.616	103.62
456.836	87.62
457.056	92.62
457.276	91.62
457.497	107.62
457.717	96.62
457.937	95.62
458.157	114.62
458.377	98.62
458.598	94.62
458.818	75.62
459.038	93.62
459.258	74.62
459.478	78.62
459.698	74.62
459.918	84.62
460.138	95.62
460.358	103.62
460.578	88.62
460.798	87.62
461.018	99.62
461.238	107.62
461.458	87.62
461.678	94.62
461.898	88.62
462.118	95.62
462.338	83.62
462.558	91.62
462.777	102.62
462.997	81.62
463.217	86.62
463.437	97.62
463.657	99.62
463.876	94.62
464.096	71.62
464.316	90.62
464.536	87.62
464.755	92.62
464.975	85.62
465.195	95.62
465.414	121.62
465.634	89.62
465.854	99.62
466.073	101.62
466.293	88.62
466.512	97.62
466.732	93.62
466.951	99.62
467.171	108.62
467.391	94.62
467.61	100.62
467.829	105.62
468.049	115.62
468.268	102.62
468.488	108.62
468.707	91.62
468.927	94.62
469.146	107.62
469.365	102.62
469.585	116.62
469.804	109.62
470.023	115.62
470.243	93.62
470.462	104.62
470.681	112.62
470.901	96.62
471.12	95.62
471.339	102.62
471.558	108.62
471.777	107.62
471.997	97.62
472.216	96.62
472.435	96.62
472.654	80.62
472.873	85.62
473.092	110.62
473.311	86.62
473.53	95.62
473.749	101.62
473.968	110.62
474.187	93.62
474.406	98.62
474.625	92.62
474.844	107.62
475.063	97.62
475.282	108.62
475.501	103.62
475.72	91.62
475.939	96.62
476.158	97.62
476.377	85.62
476.596	99.62
476.814	84.62
477.033	87.62
477.252	95.62
477.471	95.62
477.69	109.62
477.908	107.62
478.127	103.62
478.346	99.62
478.564	93.62
478.783	100.62
479.002	100.62
479.22	115.62
479.439	101.62
479.658	107.62
479.876	103.62
480.095	93.62
480.313	90.62
480.532	109.62
480.751	95.62
480.969	82.62
481.188	87.62
481.406	79.62
481.624	78.62
481.843	68.62
482.061	81.62
482.28	83.62
482.498	107.62
482.717	93.62
482.935	89.62
483.153	108.62
483.372	94.62
483.59	118.62
483.808	107.62
484.027	102.62
484.245	96.62
484.463	115.62
484.681	119.62
484.9	112.62
485.118	104.62
485.336	109.62
485.554	97.62
485.772	85.62
485.99	99.62
486.209	92.62
486.427	91.62
486.645	81.62
486.863	112.62
487.081	122.62
487.299	94.62
487.517	109.62
487.735	121.62
487.953	123.62
488.171	135.62
488.389	116.62
488.607	107.62
488.825	109.62
489.043	93.62
489.261	105.62
489.479	105.62
489.696	122.62
489.914	117.62
490.132	110.62
490.35	125.62
490.568	118.62
490.786	128.62
491.003	129.62
491.221	116.62
491.439	104.62
491.657	129.62
491.874	134.62
492.092	134.62
492.31	146.62
492.527	145.62
492.745	137.62
492.963	136.62
493.18	127.62
493.398	124.62
493.615	126.62
493.833	115.62
494.05	123.62
494.268	112.62
494.485	119.62
494.703	113.62
494.92	123.62
495.138	107.62
495.355	112.62
495.573	128.62
495.79	125.62
496.008	106.62
496.225	123.62
496.442	129.62
496.66	123.62
496.877	107.62
497.094	123.62
497.312	113.62
497.529	111.62
497.746	110.62
497.963	97.62
498.181	100.62
498.398	101.62
498.615	102.62
498.832	90.62
499.049	103.62
499.267	89.62
499.484	100.62
499.701	113.62
499.918	118.62
500.135	103.62
500.352	112.62
500.569	103.62
500.786	94.62
501.003	99.62
501.22	98.62
501.437	117.62
501.654	109.62
501.871	100.62
502.088	107.62
502.305	108.62
502.522	107.62
502.739	95.62
502.956	101.62
503.172	96.62
503.389	97.62
503.606	96.62
503.823	99.62
504.04	102.62
504.256	103.62
504.473	109.62
504.69	91.62
504.907	109.62
505.123	106.62
505.34	100.62
505.557	95.62
505.773	96.62
505.99	91.62
506.207	89.62
506.423	96.62
506.64	104.62
506.856	104.62
507.073	95.62
507.289	104.62
507.506	92.62
507.722	92.62
507.939	90.62
508.155	93.62
508.372	88.62
508.588	95.62
508.805	108.62
509.021	77.62
509.238	92.62
509.454	95.62
509.67	90.62
509.887	91.62
510.103	85.62
510.319	102.62
510.536	89.62
510.752	76.62
510.968	76.62
511.184	76.62
511.401	94.62
511.617	81.62
511.833	83.62
512.049	89.62
512.265	72.62
512.481	92.62
512.698	85.62
512.914	94.62
513.13	93.62
513.346	89.62
513.562	71.62
513.778	72.62
513.994	77.62
514.21	85.62
514.426	99.62
514.642	91.62
514.858	81.62
515.074	91.62
515.29	79.62
515.506	91.62
515.721	79.62
515.937	84.62
516.153	82.62
