Data from Zn(NO3)2Standard.Agarose3%.GreenCap.LampEnergy5.5.E.O_HRD10591_15-03-11-768.txt Node
Date: Mon Jul 22 15:03:11 EDT 2019
User: cochatt
Spectrometer: HR+D1059
Trigger mode: 1
Integration Time (sec): 1.000000E-1
Scans to average: 1
Electric dark correction enabled: true
Nonlinearity correction enabled: false
Boxcar width: 0
XAxis mode: Wavelengths
Number of Pixels in Spectrum: 2048
>>>>>Begin Spectral Data<<<<<
223.165	-31.25
223.4	-31.25
223.635	-31.25
223.869	-6.25
224.104	-14.25
224.338	-14.25
224.573	-9.25
224.808	-16.25
225.042	-10.25
225.277	-2.25
225.511	-8.25
225.746	6.75
225.98	13.75
226.215	7.75
226.449	17.75
226.683	23.75
226.918	11.75
227.152	30.75
227.387	44.75
227.621	47.75
227.856	43.75
228.09	41.75
228.324	54.75
228.559	53.75
228.793	44.75
229.027	51.75
229.262	62.75
229.496	63.75
229.73	77.75
229.964	75.75
230.199	76.75
230.433	82.75
230.667	65.75
230.901	72.75
231.136	78.75
231.37	78.75
231.604	78.75
231.838	81.75
232.072	81.75
232.306	79.75
232.541	77.75
232.775	83.75
233.009	87.75
233.243	76.75
233.477	76.75
233.711	71.75
233.945	86.75
234.179	84.75
234.413	93.75
234.647	76.75
234.881	82.75
235.115	81.75
235.349	77.75
235.583	87.75
235.817	89.75
236.051	69.75
236.285	82.75
236.519	93.75
236.753	71.75
236.987	76.75
237.221	77.75
237.455	85.75
237.689	87.75
237.922	83.75
238.156	82.75
238.39	72.75
238.624	84.75
238.858	73.75
239.091	82.75
239.325	75.75
239.559	79.75
239.793	82.75
240.027	76.75
240.26	78.75
240.494	78.75
240.728	82.75
240.961	69.75
241.195	59.75
241.429	93.75
241.662	79.75
241.896	79.75
242.13	85.75
242.363	85.75
242.597	74.75
242.83	87.75
243.064	65.75
243.298	87.75
243.531	59.75
243.765	89.75
243.998	83.75
244.232	66.75
244.465	75.75
244.699	74.75
244.932	81.75
245.166	88.75
245.399	70.75
245.633	78.75
245.866	82.75
246.099	89.75
246.333	87.75
246.566	88.75
246.8	68.75
247.033	79.75
247.266	81.75
247.5	74.75
247.733	84.75
247.966	63.75
248.2	77.75
248.433	71.75
248.666	94.75
248.899	75.75
249.133	84.75
249.366	88.75
249.599	69.75
249.832	88.75
250.066	90.75
250.299	77.75
250.532	80.75
250.765	87.75
250.998	78.75
251.231	83.75
251.465	76.75
251.698	87.75
251.931	90.75
252.164	77.75
252.397	77.75
252.63	86.75
252.863	88.75
253.096	85.75
253.329	81.75
253.562	84.75
253.795	83.75
254.028	86.75
254.261	74.75
254.494	83.75
254.727	86.75
254.96	66.75
255.193	90.75
255.426	70.75
255.659	85.75
255.892	75.75
256.124	79.75
256.357	78.75
256.59	83.75
256.823	78.75
257.056	79.75
257.289	76.75
257.521	83.75
257.754	72.75
257.987	74.75
258.22	73.75
258.452	74.75
258.685	69.75
258.918	82.75
259.151	91.75
259.383	69.75
259.616	80.75
259.849	77.75
260.081	79.75
260.314	79.75
260.547	75.75
260.779	74.75
261.012	64.75
261.244	90.75
261.477	93.75
261.71	83.75
261.942	73.75
262.175	78.75
262.407	85.75
262.64	78.75
262.872	86.75
263.105	82.75
263.337	84.75
263.57	75.75
263.802	71.75
264.035	79.75
264.267	69.75
264.499	91.75
264.732	78.75
264.964	75.75
265.197	85.75
265.429	86.75
265.661	100.75
265.894	79.75
266.126	84.75
266.358	67.75
266.591	76.75
266.823	89.75
267.055	75.75
267.287	81.75
267.52	80.75
267.752	98.75
267.984	85.75
268.216	84.75
268.448	87.75
268.681	76.75
268.913	81.75
269.145	90.75
269.377	83.75
269.609	75.75
269.841	81.75
270.073	80.75
270.306	79.75
270.538	78.75
270.77	84.75
271.002	84.75
271.234	84.75
271.466	98.75
271.698	79.75
271.93	91.75
272.162	70.75
272.394	92.75
272.626	76.75
272.858	93.75
273.09	73.75
273.322	87.75
273.553	75.75
273.785	82.75
274.017	96.75
274.249	83.75
274.481	85.75
274.713	97.75
274.945	86.75
275.176	99.75
275.408	97.75
275.64	97.75
275.872	82.75
276.104	88.75
276.335	58.75
276.567	94.75
276.799	71.75
277.031	71.75
277.262	98.75
277.494	76.75
277.726	77.75
277.957	84.75
278.189	85.75
278.421	74.75
278.652	77.75
278.884	89.75
279.115	74.75
279.347	82.75
279.579	75.75
279.81	72.75
280.042	77.75
280.273	76.75
280.505	71.75
280.736	98.75
280.968	73.75
281.199	83.75
281.431	92.75
281.662	90.75
281.894	83.75
282.125	80.75
282.356	83.75
282.588	73.75
282.819	88.75
283.051	92.75
283.282	82.75
283.513	93.75
283.745	90.75
283.976	88.75
284.207	72.75
284.439	79.75
284.67	82.75
284.901	79.75
285.132	92.75
285.364	89.75
285.595	89.75
285.826	94.75
286.057	102.75
286.288	87.75
286.52	102.75
286.751	83.75
286.982	81.75
287.213	97.75
287.444	83.75
287.675	93.75
287.906	93.75
288.138	68.75
288.369	90.75
288.6	90.75
288.831	101.75
289.062	94.75
289.293	81.75
289.524	79.75
289.755	72.75
289.986	94.75
290.217	79.75
290.448	82.75
290.679	82.75
290.91	89.75
291.141	91.75
291.371	93.75
291.602	77.75
291.833	73.75
292.064	79.75
292.295	93.75
292.526	86.75
292.757	92.75
292.987	76.75
293.218	85.75
293.449	87.75
293.68	98.75
293.91	81.75
294.141	88.75
294.372	84.75
294.603	76.75
294.833	88.75
295.064	86.75
295.295	82.75
295.525	92.75
295.756	85.75
295.987	98.75
296.217	77.75
296.448	88.75
296.679	85.75
296.909	85.75
297.14	73.75
297.37	83.75
297.601	74.75
297.831	77.75
298.062	82.75
298.292	99.75
298.523	79.75
298.753	89.75
298.984	83.75
299.214	85.75
299.445	70.75
299.675	73.75
299.905	78.75
300.136	86.75
300.366	87.75
300.597	82.75
300.827	70.75
301.057	82.75
301.288	73.75
301.518	79.75
301.748	85.75
301.979	93.75
302.209	99.75
302.439	83.75
302.669	89.75
302.9	70.75
303.13	79.75
303.36	81.75
303.59	69.75
303.82	87.75
304.051	103.75
304.281	86.75
304.511	99.75
304.741	87.75
304.971	80.75
305.201	77.75
305.431	86.75
305.661	93.75
305.891	97.75
306.121	93.75
306.352	75.75
306.582	87.75
306.812	98.75
307.042	77.75
307.272	87.75
307.502	79.75
307.731	91.75
307.961	79.75
308.191	91.75
308.421	71.75
308.651	89.75
308.881	92.75
309.111	87.75
309.341	70.75
309.571	92.75
309.8	71.75
310.03	83.75
310.26	89.75
310.49	95.75
310.72	83.75
310.949	85.75
311.179	70.75
311.409	83.75
311.639	83.75
311.868	77.75
312.098	85.75
312.328	97.75
312.557	74.75
312.787	81.75
313.017	75.75
313.246	73.75
313.476	81.75
313.706	88.75
313.935	93.75
314.165	87.75
314.394	84.75
314.624	83.75
314.853	80.75
315.083	65.75
315.312	93.75
315.542	88.75
315.771	71.75
316.001	83.75
316.23	96.75
316.46	78.75
316.689	81.75
316.919	96.75
317.148	107.75
317.377	85.75
317.607	92.75
317.836	95.75
318.065	83.75
318.295	86.75
318.524	93.75
318.753	90.75
318.983	84.75
319.212	91.75
319.441	92.75
319.67	78.75
319.9	95.75
320.129	82.75
320.358	89.75
320.587	88.75
320.816	85.75
321.046	74.75
321.275	94.75
321.504	76.75
321.733	76.75
321.962	93.75
322.191	93.75
322.42	90.75
322.649	79.75
322.878	89.75
323.108	79.75
323.337	78.75
323.566	79.75
323.795	89.75
324.024	79.75
324.253	91.75
324.482	70.75
324.71	88.75
324.939	84.75
325.168	92.75
325.397	81.75
325.626	73.75
325.855	80.75
326.084	93.75
326.313	84.75
326.542	74.75
326.77	91.75
326.999	67.75
327.228	101.75
327.457	78.75
327.686	71.75
327.914	97.75
328.143	89.75
328.372	96.75
328.6	81.75
328.829	83.75
329.058	82.75
329.287	79.75
329.515	97.75
329.744	84.75
329.972	92.75
330.201	91.75
330.43	67.75
330.658	87.75
330.887	87.75
331.115	87.75
331.344	83.75
331.572	87.75
331.801	68.75
332.03	90.75
332.258	89.75
332.486	79.75
332.715	87.75
332.943	82.75
333.172	93.75
333.4	78.75
333.629	91.75
333.857	91.75
334.085	80.75
334.314	84.75
334.542	77.75
334.771	82.75
334.999	90.75
335.227	100.75
335.455	80.75
335.684	98.75
335.912	86.75
336.14	90.75
336.369	104.75
336.597	90.75
336.825	91.75
337.053	94.75
337.281	71.75
337.51	77.75
337.738	68.75
337.966	95.75
338.194	86.75
338.422	87.75
338.65	69.75
338.878	91.75
339.106	78.75
339.334	78.75
339.562	91.75
339.79	85.75
340.018	80.75
340.246	83.75
340.474	79.75
340.702	86.75
340.93	88.75
341.158	74.75
341.386	90.75
341.614	72.75
341.842	82.75
342.07	89.75
342.298	90.75
342.526	90.75
342.754	97.75
342.981	74.75
343.209	74.75
343.437	84.75
343.665	95.75
343.893	90.75
344.12	87.75
344.348	79.75
344.576	91.75
344.804	75.75
345.031	87.75
345.259	81.75
345.487	75.75
345.714	85.75
345.942	89.75
346.17	97.75
346.397	86.75
346.625	95.75
346.853	78.75
347.08	87.75
347.308	88.75
347.535	83.75
347.763	79.75
347.99	87.75
348.218	83.75
348.445	78.75
348.673	74.75
348.9	77.75
349.128	93.75
349.355	79.75
349.583	99.75
349.81	98.75
350.037	94.75
350.265	92.75
350.492	79.75
350.72	73.75
350.947	91.75
351.174	83.75
351.402	94.75
351.629	85.75
351.856	78.75
352.083	81.75
352.311	86.75
352.538	81.75
352.765	78.75
352.992	91.75
353.22	69.75
353.447	86.75
353.674	92.75
353.901	75.75
354.128	81.75
354.355	92.75
354.583	81.75
354.81	85.75
355.037	86.75
355.264	84.75
355.491	74.75
355.718	83.75
355.945	98.75
356.172	86.75
356.399	79.75
356.626	75.75
356.853	76.75
357.08	93.75
357.307	103.75
357.534	82.75
357.761	86.75
357.988	77.75
358.215	85.75
358.441	81.75
358.668	78.75
358.895	88.75
359.122	85.75
359.349	80.75
359.576	83.75
359.802	78.75
360.029	79.75
360.256	86.75
360.483	100.75
360.709	86.75
360.936	85.75
361.163	93.75
361.39	79.75
361.616	86.75
361.843	78.75
362.07	68.75
362.296	83.75
362.523	90.75
362.749	84.75
362.976	78.75
363.203	93.75
363.429	87.75
363.656	78.75
363.882	87.75
364.109	79.75
364.335	80.75
364.562	96.75
364.788	80.75
365.015	93.75
365.241	75.75
365.468	88.75
365.694	87.75
365.92	83.75
366.147	81.75
366.373	77.75
366.599	99.75
366.826	74.75
367.052	87.75
367.278	84.75
367.505	63.75
367.731	84.75
367.957	83.75
368.184	75.75
368.41	94.75
368.636	101.75
368.862	92.75
369.089	92.75
369.315	85.75
369.541	89.75
369.767	84.75
369.993	79.75
370.219	93.75
370.445	87.75
370.672	88.75
370.898	84.75
371.124	93.75
371.35	88.75
371.576	77.75
371.802	88.75
372.028	85.75
372.254	83.75
372.48	74.75
372.706	72.75
372.932	79.75
373.158	81.75
373.384	97.75
373.61	89.75
373.835	86.75
374.061	86.75
374.287	86.75
374.513	93.75
374.739	79.75
374.965	87.75
375.191	73.75
375.416	79.75
375.642	94.75
375.868	73.75
376.094	78.75
376.319	78.75
376.545	91.75
376.771	78.75
376.997	101.75
377.222	75.75
377.448	79.75
377.674	83.75
377.899	84.75
378.125	76.75
378.35	85.75
378.576	88.75
378.802	84.75
379.027	79.75
379.253	88.75
379.478	81.75
379.704	84.75
379.929	85.75
380.155	85.75
380.38	95.75
380.606	92.75
380.831	89.75
381.057	97.75
381.282	79.75
381.507	82.75
381.733	79.75
381.958	73.75
382.184	89.75
382.409	81.75
382.634	85.75
382.86	71.75
383.085	82.75
383.31	85.75
383.535	73.75
383.761	93.75
383.986	81.75
384.211	90.75
384.436	76.75
384.662	86.75
384.887	79.75
385.112	93.75
385.337	78.75
385.562	90.75
385.787	78.75
386.013	87.75
386.238	91.75
386.463	83.75
386.688	79.75
386.913	84.75
387.138	79.75
387.363	78.75
387.588	86.75
387.813	85.75
388.038	87.75
388.263	82.75
388.488	83.75
388.713	92.75
388.938	83.75
389.163	69.75
389.387	82.75
389.612	87.75
389.837	80.75
390.062	84.75
390.287	82.75
390.512	97.75
390.736	85.75
390.961	90.75
391.186	87.75
391.411	101.75
391.636	97.75
391.86	87.75
392.085	85.75
392.31	89.75
392.534	82.75
392.759	83.75
392.984	82.75
393.208	96.75
393.433	88.75
393.658	83.75
393.882	88.75
394.107	90.75
394.331	78.75
394.556	92.75
394.78	77.75
395.005	81.75
395.229	77.75
395.454	91.75
395.678	81.75
395.903	82.75
396.127	85.75
396.352	88.75
396.576	83.75
396.801	83.75
397.025	89.75
397.249	87.75
397.474	92.75
397.698	72.75
397.922	80.75
398.147	85.75
398.371	89.75
398.595	83.75
398.82	83.75
399.044	88.75
399.268	112.75
399.492	79.75
399.717	86.75
399.941	81.75
400.165	91.75
400.389	87.75
400.613	86.75
400.837	80.75
401.062	84.75
401.286	85.75
401.51	86.75
401.734	87.75
401.958	88.75
402.182	80.75
402.406	82.75
402.63	94.75
402.854	81.75
403.078	97.75
403.302	87.75
403.526	85.75
403.75	87.75
403.974	90.75
404.198	92.75
404.422	85.75
404.645	83.75
404.869	78.75
405.093	88.75
405.317	75.75
405.541	98.75
405.765	96.75
405.988	95.75
406.212	96.75
406.436	75.75
406.66	87.75
406.883	88.75
407.107	85.75
407.331	92.75
407.555	86.75
407.778	95.75
408.002	91.75
408.226	107.75
408.449	82.75
408.673	93.75
408.896	94.75
409.12	83.75
409.344	85.75
409.567	76.75
409.791	60.75
410.014	103.75
410.238	88.75
410.461	80.75
410.685	69.75
410.908	97.75
411.132	89.75
411.355	85.75
411.578	88.75
411.802	87.75
412.025	90.75
412.249	94.75
412.472	100.75
412.695	105.75
412.919	95.75
413.142	91.75
413.365	80.75
413.589	87.75
413.812	89.75
414.035	81.75
414.258	90.75
414.482	100.75
414.705	89.75
414.928	94.75
415.151	87.75
415.374	84.75
415.597	79.75
415.821	100.75
416.044	86.75
416.267	89.75
416.49	81.75
416.713	80.75
416.936	86.75
417.159	87.75
417.382	87.75
417.605	94.75
417.828	71.75
418.051	89.75
418.274	90.75
418.497	89.75
418.72	96.75
418.943	88.75
419.166	89.75
419.389	85.75
419.611	98.75
419.834	85.75
420.057	102.75
420.28	92.75
420.503	84.75
420.726	77.75
420.948	97.75
421.171	85.75
421.394	92.75
421.617	97.75
421.839	75.75
422.062	90.75
422.285	83.75
422.507	89.75
422.73	88.75
422.953	84.75
423.175	80.75
423.398	78.75
423.621	84.75
423.843	81.75
424.066	90.75
424.288	101.75
424.511	78.75
424.733	90.75
424.956	88.75
425.178	85.75
425.401	79.75
425.623	78.75
425.846	90.75
426.068	81.75
426.291	103.75
426.513	94.75
426.735	90.75
426.958	103.75
427.18	97.75
427.402	71.75
427.625	88.75
427.847	87.75
428.069	95.75
428.292	79.75
428.514	103.75
428.736	89.75
428.958	98.75
429.181	100.75
429.403	78.75
429.625	94.75
429.847	88.75
430.069	100.75
430.292	94.75
430.514	89.75
430.736	83.75
430.958	98.75
431.18	85.75
431.402	83.75
431.624	93.75
431.846	85.75
432.068	89.75
432.29	86.75
432.512	83.75
432.734	88.75
432.956	91.75
433.178	85.75
433.4	88.75
433.622	97.75
433.844	91.75
434.066	90.75
434.287	98.75
434.509	82.75
434.731	78.75
434.953	98.75
435.175	93.75
435.397	84.75
435.618	80.75
435.84	86.75
436.062	87.75
436.284	94.75
436.505	86.75
436.727	96.75
436.949	86.75
437.17	93.75
437.392	90.75
437.614	82.75
437.835	87.75
438.057	93.75
438.278	81.75
438.5	99.75
438.721	91.75
438.943	106.75
439.165	94.75
439.386	77.75
439.608	88.75
439.829	95.75
440.05	94.75
440.272	90.75
440.493	93.75
440.715	90.75
440.936	76.75
441.158	80.75
441.379	86.75
441.6	100.75
441.822	89.75
442.043	87.75
442.264	86.75
442.486	93.75
442.707	95.75
442.928	100.75
443.149	82.75
443.371	74.75
443.592	93.75
443.813	86.75
444.034	80.75
444.255	97.75
444.476	85.75
444.698	94.75
444.919	87.75
445.14	211.75
445.361	143.75
445.582	83.75
445.803	100.75
446.024	98.75
446.245	97.75
446.466	89.75
446.687	89.75
446.908	102.75
447.129	86.75
447.35	88.75
447.571	85.75
447.792	85.75
448.013	85.75
448.234	95.75
448.455	83.75
448.675	77.75
448.896	92.75
449.117	104.75
449.338	71.75
449.559	95.75
449.779	89.75
450	98.75
450.221	78.75
450.442	95.75
450.662	99.75
450.883	77.75
451.104	99.75
451.324	77.75
451.545	94.75
451.766	82.75
451.986	92.75
452.207	86.75
452.428	97.75
452.648	77.75
452.869	76.75
453.089	92.75
453.31	88.75
453.53	79.75
453.751	77.75
453.971	80.75
454.192	92.75
454.412	79.75
454.633	90.75
454.853	78.75
455.073	87.75
455.294	90.75
455.514	83.75
455.734	87.75
455.955	83.75
456.175	92.75
456.395	98.75
456.616	94.75
456.836	87.75
457.056	78.75
457.276	77.75
457.497	81.75
457.717	81.75
457.937	60.75
458.157	87.75
458.377	96.75
458.598	80.75
458.818	89.75
459.038	84.75
459.258	74.75
459.478	80.75
459.698	86.75
459.918	89.75
460.138	86.75
460.358	90.75
460.578	88.75
460.798	87.75
461.018	82.75
461.238	87.75
461.458	73.75
461.678	92.75
461.898	89.75
462.118	97.75
462.338	95.75
462.558	89.75
462.777	76.75
462.997	81.75
463.217	78.75
463.437	96.75
463.657	87.75
463.876	85.75
464.096	77.75
464.316	89.75
464.536	62.75
464.755	74.75
464.975	90.75
465.195	84.75
465.414	115.75
465.634	68.75
465.854	83.75
466.073	98.75
466.293	78.75
466.512	93.75
466.732	84.75
466.951	79.75
467.171	83.75
467.391	87.75
467.61	82.75
467.829	106.75
468.049	89.75
468.268	106.75
468.488	84.75
468.707	94.75
468.927	102.75
469.146	86.75
469.365	92.75
469.585	95.75
469.804	101.75
470.023	88.75
470.243	97.75
470.462	88.75
470.681	94.75
470.901	85.75
471.12	94.75
471.339	85.75
471.558	99.75
471.777	93.75
471.997	78.75
472.216	85.75
472.435	81.75
472.654	86.75
472.873	95.75
473.092	89.75
473.311	98.75
473.53	107.75
473.749	103.75
473.968	84.75
474.187	84.75
474.406	85.75
474.625	84.75
474.844	72.75
475.063	87.75
475.282	87.75
475.501	94.75
475.72	81.75
475.939	87.75
476.158	89.75
476.377	93.75
476.596	81.75
476.814	93.75
477.033	93.75
477.252	83.75
477.471	87.75
477.69	100.75
477.908	91.75
478.127	100.75
478.346	102.75
478.564	72.75
478.783	98.75
479.002	69.75
479.22	93.75
479.439	95.75
479.658	88.75
479.876	92.75
480.095	80.75
480.313	84.75
480.532	90.75
480.751	95.75
480.969	85.75
481.188	88.75
481.406	81.75
481.624	87.75
481.843	86.75
482.061	78.75
482.28	82.75
482.498	94.75
482.717	95.75
482.935	94.75
483.153	101.75
483.372	88.75
483.59	95.75
483.808	98.75
484.027	79.75
484.245	82.75
484.463	86.75
484.681	93.75
484.9	88.75
485.118	91.75
485.336	89.75
485.554	84.75
485.772	90.75
485.99	88.75
486.209	90.75
486.427	79.75
486.645	85.75
486.863	92.75
487.081	93.75
487.299	85.75
487.517	91.75
487.735	90.75
487.953	93.75
488.171	89.75
488.389	98.75
488.607	93.75
488.825	104.75
489.043	94.75
489.261	96.75
489.479	103.75
489.696	89.75
489.914	85.75
490.132	75.75
490.35	98.75
490.568	97.75
490.786	92.75
491.003	104.75
491.221	84.75
491.439	99.75
491.657	99.75
491.874	108.75
492.092	103.75
492.31	109.75
492.527	87.75
492.745	122.75
492.963	99.75
493.18	101.75
493.398	111.75
493.615	93.75
493.833	81.75
494.05	93.75
494.268	93.75
494.485	100.75
494.703	100.75
494.92	107.75
495.138	94.75
495.355	104.75
495.573	101.75
495.79	103.75
496.008	106.75
496.225	96.75
496.442	102.75
496.66	89.75
496.877	84.75
497.094	99.75
497.312	103.75
497.529	96.75
497.746	100.75
497.963	88.75
498.181	82.75
498.398	102.75
498.615	93.75
498.832	89.75
499.049	105.75
499.267	99.75
499.484	83.75
499.701	91.75
499.918	88.75
500.135	96.75
500.352	101.75
500.569	83.75
500.786	95.75
501.003	89.75
501.22	85.75
501.437	93.75
501.654	90.75
501.871	85.75
502.088	88.75
502.305	70.75
502.522	92.75
502.739	93.75
502.956	91.75
503.172	98.75
503.389	103.75
503.606	83.75
503.823	78.75
504.04	101.75
504.256	78.75
504.473	78.75
504.69	92.75
504.907	94.75
505.123	94.75
505.34	82.75
505.557	91.75
505.773	86.75
505.99	86.75
506.207	89.75
506.423	97.75
506.64	87.75
506.856	93.75
507.073	98.75
507.289	92.75
507.506	70.75
507.722	82.75
507.939	82.75
508.155	105.75
508.372	88.75
508.588	97.75
508.805	86.75
509.021	80.75
509.238	73.75
509.454	73.75
509.67	79.75
509.887	87.75
510.103	84.75
510.319	99.75
510.536	83.75
510.752	77.75
510.968	85.75
511.184	91.75
511.401	83.75
511.617	87.75
511.833	83.75
512.049	97.75
512.265	89.75
512.481	91.75
512.698	78.75
512.914	81.75
513.13	75.75
513.346	81.75
513.562	78.75
513.778	78.75
513.994	101.75
514.21	84.75
514.426	70.75
514.642	85.75
514.858	87.75
515.074	87.75
515.29	90.75
515.506	101.75
515.721	83.75
515.937	87.75
516.153	76.75
516.369	95.75
516.585	78.75
516.801	93.75
517.016	82.75
517.232	91.75
517.448	91.75
517.664	97.75
517.879	79.75
518.095	88.75
518.311	82.75
518.527	83.75
