Data from Zn(NO3)2Standard.Agarose3%.GreenCap.LampEnergy10E.O_HRD10591_15-08-14-948.txt Node
Date: Mon Jul 22 15:08:14 EDT 2019
User: cochatt
Spectrometer: HR+D1059
Trigger mode: 1
Integration Time (sec): 1.000000E-1
Scans to average: 1
Electric dark correction enabled: true
Nonlinearity correction enabled: false
Boxcar width: 0
XAxis mode: Wavelengths
Number of Pixels in Spectrum: 2048
>>>>>Begin Spectral Data<<<<<
223.165	-20.38
223.4	-20.38
223.635	-20.38
223.869	-14.38
224.104	-12.38
224.338	-14.38
224.573	-22.38
224.808	-4.38
225.042	-1.38
225.277	-8.38
225.511	-1.38
225.746	4.62
225.98	3.62
226.215	10.62
226.449	14.62
226.683	18.62
226.918	21.62
227.152	25.62
227.387	39.62
227.621	36.62
227.856	55.62
228.09	46.62
228.324	49.62
228.559	50.62
228.793	51.62
229.027	62.62
229.262	64.62
229.496	78.62
229.73	59.62
229.964	83.62
230.199	75.62
230.433	69.62
230.667	78.62
230.901	68.62
231.136	86.62
231.37	67.62
231.604	78.62
231.838	80.62
232.072	84.62
232.306	79.62
232.541	81.62
232.775	83.62
233.009	84.62
233.243	78.62
233.477	81.62
233.711	77.62
233.945	78.62
234.179	86.62
234.413	74.62
234.647	71.62
234.881	87.62
235.115	100.62
235.349	84.62
235.583	101.62
235.817	68.62
236.051	88.62
236.285	83.62
236.519	77.62
236.753	85.62
236.987	70.62
237.221	92.62
237.455	83.62
237.689	90.62
237.922	71.62
238.156	70.62
238.39	84.62
238.624	77.62
238.858	83.62
239.091	88.62
239.325	74.62
239.559	85.62
239.793	88.62
240.027	80.62
240.26	58.62
240.494	88.62
240.728	87.62
240.961	90.62
241.195	68.62
241.429	76.62
241.662	86.62
241.896	78.62
242.13	73.62
242.363	80.62
242.597	75.62
242.83	84.62
243.064	83.62
243.298	86.62
243.531	82.62
243.765	83.62
243.998	72.62
244.232	75.62
244.465	62.62
244.699	81.62
244.932	57.62
245.166	85.62
245.399	74.62
245.633	83.62
245.866	79.62
246.099	88.62
246.333	67.62
246.566	78.62
246.8	81.62
247.033	75.62
247.266	76.62
247.5	79.62
247.733	76.62
247.966	79.62
248.2	76.62
248.433	92.62
248.666	70.62
248.899	83.62
249.133	86.62
249.366	78.62
249.599	85.62
249.832	91.62
250.066	77.62
250.299	83.62
250.532	81.62
250.765	86.62
250.998	88.62
251.231	77.62
251.465	86.62
251.698	95.62
251.931	90.62
252.164	81.62
252.397	79.62
252.63	76.62
252.863	79.62
253.096	90.62
253.329	81.62
253.562	78.62
253.795	91.62
254.028	79.62
254.261	65.62
254.494	75.62
254.727	83.62
254.96	95.62
255.193	86.62
255.426	69.62
255.659	85.62
255.892	81.62
256.124	74.62
256.357	86.62
256.59	73.62
256.823	88.62
257.056	83.62
257.289	82.62
257.521	76.62
257.754	84.62
257.987	80.62
258.22	92.62
258.452	81.62
258.685	82.62
258.918	81.62
259.151	77.62
259.383	82.62
259.616	94.62
259.849	78.62
260.081	72.62
260.314	94.62
260.547	84.62
260.779	75.62
261.012	81.62
261.244	90.62
261.477	84.62
261.71	101.62
261.942	80.62
262.175	100.62
262.407	93.62
262.64	82.62
262.872	93.62
263.105	87.62
263.337	94.62
263.57	81.62
263.802	78.62
264.035	85.62
264.267	79.62
264.499	89.62
264.732	82.62
264.964	86.62
265.197	73.62
265.429	81.62
265.661	85.62
265.894	73.62
266.126	93.62
266.358	85.62
266.591	68.62
266.823	80.62
267.055	86.62
267.287	86.62
267.52	83.62
267.752	76.62
267.984	75.62
268.216	69.62
268.448	83.62
268.681	82.62
268.913	85.62
269.145	80.62
269.377	98.62
269.609	89.62
269.841	91.62
270.073	90.62
270.306	95.62
270.538	76.62
270.77	84.62
271.002	77.62
271.234	91.62
271.466	83.62
271.698	76.62
271.93	103.62
272.162	79.62
272.394	89.62
272.626	83.62
272.858	83.62
273.09	87.62
273.322	87.62
273.553	82.62
273.785	77.62
274.017	73.62
274.249	85.62
274.481	76.62
274.713	81.62
274.945	70.62
275.176	79.62
275.408	85.62
275.64	88.62
275.872	86.62
276.104	92.62
276.335	97.62
276.567	93.62
276.799	87.62
277.031	102.62
277.262	78.62
277.494	83.62
277.726	80.62
277.957	73.62
278.189	79.62
278.421	97.62
278.652	96.62
278.884	92.62
279.115	91.62
279.347	86.62
279.579	88.62
279.81	91.62
280.042	89.62
280.273	63.62
280.505	79.62
280.736	78.62
280.968	85.62
281.199	86.62
281.431	85.62
281.662	75.62
281.894	91.62
282.125	88.62
282.356	80.62
282.588	76.62
282.819	97.62
283.051	83.62
283.282	87.62
283.513	94.62
283.745	83.62
283.976	90.62
284.207	78.62
284.439	90.62
284.67	90.62
284.901	88.62
285.132	97.62
285.364	88.62
285.595	98.62
285.826	93.62
286.057	92.62
286.288	98.62
286.52	96.62
286.751	94.62
286.982	88.62
287.213	90.62
287.444	87.62
287.675	84.62
287.906	83.62
288.138	97.62
288.369	86.62
288.6	83.62
288.831	74.62
289.062	92.62
289.293	81.62
289.524	83.62
289.755	79.62
289.986	86.62
290.217	77.62
290.448	87.62
290.679	76.62
290.91	83.62
291.141	89.62
291.371	104.62
291.602	92.62
291.833	80.62
292.064	89.62
292.295	76.62
292.526	78.62
292.757	82.62
292.987	91.62
293.218	85.62
293.449	88.62
293.68	99.62
293.91	92.62
294.141	80.62
294.372	96.62
294.603	90.62
294.833	84.62
295.064	84.62
295.295	83.62
295.525	87.62
295.756	75.62
295.987	79.62
296.217	79.62
296.448	88.62
296.679	79.62
296.909	95.62
297.14	78.62
297.37	91.62
297.601	88.62
297.831	93.62
298.062	92.62
298.292	77.62
298.523	93.62
298.753	85.62
298.984	100.62
299.214	87.62
299.445	82.62
299.675	90.62
299.905	99.62
300.136	86.62
300.366	93.62
300.597	83.62
300.827	74.62
301.057	85.62
301.288	85.62
301.518	91.62
301.748	69.62
301.979	86.62
302.209	94.62
302.439	74.62
302.669	104.62
302.9	106.62
303.13	94.62
303.36	92.62
303.59	94.62
303.82	94.62
304.051	102.62
304.281	87.62
304.511	92.62
304.741	78.62
304.971	82.62
305.201	80.62
305.431	95.62
305.661	74.62
305.891	94.62
306.121	85.62
306.352	99.62
306.582	79.62
306.812	85.62
307.042	86.62
307.272	77.62
307.502	81.62
307.731	93.62
307.961	92.62
308.191	97.62
308.421	89.62
308.651	92.62
308.881	91.62
309.111	80.62
309.341	89.62
309.571	90.62
309.8	77.62
310.03	76.62
310.26	82.62
310.49	85.62
310.72	88.62
310.949	95.62
311.179	78.62
311.409	92.62
311.639	78.62
311.868	72.62
312.098	91.62
312.328	76.62
312.557	91.62
312.787	108.62
313.017	84.62
313.246	91.62
313.476	91.62
313.706	75.62
313.935	89.62
314.165	86.62
314.394	94.62
314.624	92.62
314.853	94.62
315.083	79.62
315.312	95.62
315.542	72.62
315.771	87.62
316.001	98.62
316.23	89.62
316.46	87.62
316.689	90.62
316.919	74.62
317.148	74.62
317.377	94.62
317.607	86.62
317.836	78.62
318.065	90.62
318.295	84.62
318.524	77.62
318.753	88.62
318.983	89.62
319.212	95.62
319.441	89.62
319.67	85.62
319.9	83.62
320.129	89.62
320.358	88.62
320.587	89.62
320.816	86.62
321.046	98.62
321.275	83.62
321.504	91.62
321.733	83.62
321.962	84.62
322.191	99.62
322.42	82.62
322.649	78.62
322.878	97.62
323.108	81.62
323.337	91.62
323.566	98.62
323.795	95.62
324.024	98.62
324.253	85.62
324.482	91.62
324.71	82.62
324.939	82.62
325.168	97.62
325.397	83.62
325.626	91.62
325.855	85.62
326.084	82.62
326.313	88.62
326.542	87.62
326.77	82.62
326.999	83.62
327.228	76.62
327.457	70.62
327.686	86.62
327.914	93.62
328.143	93.62
328.372	88.62
328.6	81.62
328.829	85.62
329.058	93.62
329.287	87.62
329.515	89.62
329.744	76.62
329.972	79.62
330.201	95.62
330.43	91.62
330.658	94.62
330.887	75.62
331.115	86.62
331.344	79.62
331.572	89.62
331.801	95.62
332.03	86.62
332.258	86.62
332.486	82.62
332.715	74.62
332.943	96.62
333.172	83.62
333.4	95.62
333.629	90.62
333.857	89.62
334.085	89.62
334.314	75.62
334.542	77.62
334.771	98.62
334.999	81.62
335.227	89.62
335.455	85.62
335.684	100.62
335.912	83.62
336.14	85.62
336.369	89.62
336.597	93.62
336.825	79.62
337.053	83.62
337.281	97.62
337.51	92.62
337.738	77.62
337.966	76.62
338.194	100.62
338.422	79.62
338.65	101.62
338.878	93.62
339.106	90.62
339.334	91.62
339.562	88.62
339.79	95.62
340.018	91.62
340.246	83.62
340.474	75.62
340.702	102.62
340.93	91.62
341.158	87.62
341.386	101.62
341.614	90.62
341.842	91.62
342.07	75.62
342.298	86.62
342.526	86.62
342.754	89.62
342.981	81.62
343.209	77.62
343.437	81.62
343.665	80.62
343.893	76.62
344.12	82.62
344.348	80.62
344.576	93.62
344.804	85.62
345.031	88.62
345.259	96.62
345.487	93.62
345.714	81.62
345.942	85.62
346.17	83.62
346.397	77.62
346.625	83.62
346.853	68.62
347.08	95.62
347.308	95.62
347.535	90.62
347.763	86.62
347.99	92.62
348.218	87.62
348.445	91.62
348.673	84.62
348.9	79.62
349.128	77.62
349.355	99.62
349.583	88.62
349.81	83.62
350.037	91.62
350.265	83.62
350.492	99.62
350.72	95.62
350.947	96.62
351.174	84.62
351.402	80.62
351.629	73.62
351.856	94.62
352.083	85.62
352.311	86.62
352.538	77.62
352.765	83.62
352.992	85.62
353.22	100.62
353.447	76.62
353.674	89.62
353.901	87.62
354.128	95.62
354.355	94.62
354.583	88.62
354.81	92.62
355.037	91.62
355.264	75.62
355.491	90.62
355.718	83.62
355.945	87.62
356.172	82.62
356.399	73.62
356.626	91.62
356.853	76.62
357.08	87.62
357.307	81.62
357.534	92.62
357.761	87.62
357.988	85.62
358.215	78.62
358.441	87.62
358.668	82.62
358.895	80.62
359.122	89.62
359.349	83.62
359.576	94.62
359.802	96.62
360.029	88.62
360.256	79.62
360.483	83.62
360.709	72.62
360.936	90.62
361.163	85.62
361.39	98.62
361.616	104.62
361.843	78.62
362.07	82.62
362.296	89.62
362.523	71.62
362.749	83.62
362.976	82.62
363.203	82.62
363.429	80.62
363.656	84.62
363.882	78.62
364.109	92.62
364.335	84.62
364.562	85.62
364.788	78.62
365.015	70.62
365.241	86.62
365.468	87.62
365.694	94.62
365.92	84.62
366.147	85.62
366.373	85.62
366.599	91.62
366.826	91.62
367.052	77.62
367.278	89.62
367.505	81.62
367.731	83.62
367.957	81.62
368.184	90.62
368.41	91.62
368.636	93.62
368.862	92.62
369.089	97.62
369.315	81.62
369.541	93.62
369.767	83.62
369.993	76.62
370.219	75.62
370.445	91.62
370.672	93.62
370.898	86.62
371.124	83.62
371.35	79.62
371.576	98.62
371.802	92.62
372.028	82.62
372.254	94.62
372.48	87.62
372.706	86.62
372.932	84.62
373.158	88.62
373.384	87.62
373.61	69.62
373.835	86.62
374.061	101.62
374.287	82.62
374.513	87.62
374.739	93.62
374.965	79.62
375.191	96.62
375.416	76.62
375.642	81.62
375.868	84.62
376.094	76.62
376.319	82.62
376.545	73.62
376.771	93.62
376.997	85.62
377.222	87.62
377.448	97.62
377.674	91.62
377.899	86.62
378.125	79.62
378.35	87.62
378.576	93.62
378.802	75.62
379.027	86.62
379.253	84.62
379.478	83.62
379.704	75.62
379.929	93.62
380.155	90.62
380.38	93.62
380.606	83.62
380.831	85.62
381.057	90.62
381.282	87.62
381.507	99.62
381.733	85.62
381.958	94.62
382.184	101.62
382.409	91.62
382.634	108.62
382.86	89.62
383.085	95.62
383.31	98.62
383.535	78.62
383.761	83.62
383.986	85.62
384.211	81.62
384.436	67.62
384.662	83.62
384.887	87.62
385.112	88.62
385.337	102.62
385.562	93.62
385.787	75.62
386.013	80.62
386.238	93.62
386.463	90.62
386.688	93.62
386.913	88.62
387.138	88.62
387.363	82.62
387.588	92.62
387.813	100.62
388.038	95.62
388.263	96.62
388.488	93.62
388.713	96.62
388.938	94.62
389.163	85.62
389.387	93.62
389.612	92.62
389.837	92.62
390.062	88.62
390.287	92.62
390.512	97.62
390.736	78.62
390.961	97.62
391.186	69.62
391.411	102.62
391.636	97.62
391.86	92.62
392.085	99.62
392.31	106.62
392.534	94.62
392.759	102.62
392.984	90.62
393.208	105.62
393.433	86.62
393.658	93.62
393.882	83.62
394.107	88.62
394.331	77.62
394.556	95.62
394.78	90.62
395.005	99.62
395.229	76.62
395.454	84.62
395.678	98.62
395.903	98.62
396.127	103.62
396.352	105.62
396.576	102.62
396.801	97.62
397.025	87.62
397.249	94.62
397.474	75.62
397.698	95.62
397.922	98.62
398.147	89.62
398.371	101.62
398.595	94.62
398.82	89.62
399.044	87.62
399.268	98.62
399.492	99.62
399.717	85.62
399.941	94.62
400.165	97.62
400.389	93.62
400.613	105.62
400.837	98.62
401.062	93.62
401.286	89.62
401.51	94.62
401.734	91.62
401.958	89.62
402.182	93.62
402.406	103.62
402.63	83.62
402.854	108.62
403.078	98.62
403.302	98.62
403.526	96.62
403.75	93.62
403.974	100.62
404.198	98.62
404.422	95.62
404.645	78.62
404.869	83.62
405.093	111.62
405.317	102.62
405.541	99.62
405.765	108.62
405.988	107.62
406.212	90.62
406.436	90.62
406.66	86.62
406.883	97.62
407.107	89.62
407.331	94.62
407.555	98.62
407.778	105.62
408.002	105.62
408.226	106.62
408.449	101.62
408.673	91.62
408.896	83.62
409.12	108.62
409.344	86.62
409.567	96.62
409.791	101.62
410.014	94.62
410.238	96.62
410.461	94.62
410.685	94.62
410.908	102.62
411.132	108.62
411.355	108.62
411.578	102.62
411.802	105.62
412.025	108.62
412.249	107.62
412.472	114.62
412.695	99.62
412.919	92.62
413.142	102.62
413.365	98.62
413.589	111.62
413.812	105.62
414.035	108.62
414.258	101.62
414.482	105.62
414.705	93.62
414.928	100.62
415.151	87.62
415.374	109.62
415.597	98.62
415.821	100.62
416.044	85.62
416.267	93.62
416.49	121.62
416.713	110.62
416.936	108.62
417.159	95.62
417.382	97.62
417.605	104.62
417.828	109.62
418.051	102.62
418.274	103.62
418.497	115.62
418.72	105.62
418.943	93.62
419.166	107.62
419.389	108.62
419.611	107.62
419.834	93.62
420.057	101.62
420.28	105.62
420.503	104.62
420.726	101.62
420.948	110.62
421.171	109.62
421.394	109.62
421.617	112.62
421.839	100.62
422.062	117.62
422.285	94.62
422.507	94.62
422.73	103.62
422.953	99.62
423.175	97.62
423.398	105.62
423.621	93.62
423.843	105.62
424.066	93.62
424.288	116.62
424.511	119.62
424.733	109.62
424.956	101.62
425.178	106.62
425.401	103.62
425.623	99.62
425.846	100.62
426.068	95.62
426.291	102.62
426.513	113.62
426.735	100.62
426.958	109.62
427.18	96.62
427.402	102.62
427.625	106.62
427.847	107.62
428.069	97.62
428.292	109.62
428.514	114.62
428.736	104.62
428.958	96.62
429.181	102.62
429.403	114.62
429.625	91.62
429.847	113.62
430.069	115.62
430.292	106.62
430.514	109.62
430.736	110.62
430.958	111.62
431.18	95.62
431.402	97.62
431.624	107.62
431.846	91.62
432.068	88.62
432.29	87.62
432.512	94.62
432.734	96.62
432.956	115.62
433.178	110.62
433.4	113.62
433.622	94.62
433.844	100.62
434.066	107.62
434.287	95.62
434.509	98.62
434.731	80.62
434.953	101.62
435.175	86.62
435.397	113.62
435.618	103.62
435.84	102.62
436.062	92.62
436.284	110.62
436.505	103.62
436.727	95.62
436.949	108.62
437.17	108.62
437.392	92.62
437.614	117.62
437.835	104.62
438.057	103.62
438.278	83.62
438.5	99.62
438.721	106.62
438.943	108.62
439.165	102.62
439.386	108.62
439.608	125.62
439.829	99.62
440.05	112.62
440.272	105.62
440.493	105.62
440.715	118.62
440.936	117.62
441.158	128.62
441.379	94.62
441.6	117.62
441.822	105.62
442.043	107.62
442.264	118.62
442.486	104.62
442.707	103.62
442.928	115.62
443.149	105.62
443.371	127.62
443.592	104.62
443.813	104.62
444.034	111.62
444.255	114.62
444.476	119.62
444.698	132.62
444.919	110.62
445.14	203.62
445.361	137.62
445.582	110.62
445.803	109.62
446.024	110.62
446.245	122.62
446.466	113.62
446.687	114.62
446.908	121.62
447.129	120.62
447.35	110.62
447.571	121.62
447.792	119.62
448.013	115.62
448.234	103.62
448.455	111.62
448.675	119.62
448.896	110.62
449.117	105.62
449.338	102.62
449.559	126.62
449.779	110.62
450	113.62
450.221	112.62
450.442	112.62
450.662	123.62
450.883	113.62
451.104	113.62
451.324	107.62
451.545	92.62
451.766	91.62
451.986	101.62
452.207	100.62
452.428	93.62
452.648	90.62
452.869	87.62
453.089	113.62
453.31	95.62
453.53	99.62
453.751	91.62
453.971	105.62
454.192	97.62
454.412	101.62
454.633	108.62
454.853	101.62
455.073	97.62
455.294	97.62
455.514	95.62
455.734	85.62
455.955	102.62
456.175	106.62
456.395	94.62
456.616	86.62
456.836	101.62
457.056	98.62
457.276	101.62
457.497	97.62
457.717	90.62
457.937	96.62
458.157	93.62
458.377	77.62
458.598	85.62
458.818	91.62
459.038	93.62
459.258	90.62
459.478	86.62
459.698	82.62
459.918	97.62
460.138	84.62
460.358	96.62
460.578	97.62
460.798	110.62
461.018	101.62
461.238	103.62
461.458	107.62
461.678	90.62
461.898	104.62
462.118	89.62
462.338	79.62
462.558	95.62
462.777	95.62
462.997	100.62
463.217	87.62
463.437	90.62
463.657	90.62
463.876	81.62
464.096	102.62
464.316	97.62
464.536	104.62
464.755	102.62
464.975	82.62
465.195	94.62
465.414	96.62
465.634	106.62
465.854	97.62
466.073	92.62
466.293	95.62
466.512	113.62
466.732	103.62
466.951	115.62
467.171	102.62
467.391	113.62
467.61	116.62
467.829	98.62
468.049	109.62
468.268	93.62
468.488	110.62
468.707	100.62
468.927	122.62
469.146	95.62
469.365	93.62
469.585	106.62
469.804	113.62
470.023	110.62
470.243	101.62
470.462	114.62
470.681	117.62
470.901	109.62
471.12	109.62
471.339	108.62
471.558	119.62
471.777	117.62
471.997	103.62
472.216	116.62
472.435	105.62
472.654	97.62
472.873	97.62
473.092	102.62
473.311	111.62
473.53	97.62
473.749	92.62
473.968	107.62
474.187	102.62
474.406	109.62
474.625	105.62
474.844	108.62
475.063	117.62
475.282	122.62
475.501	97.62
475.72	106.62
475.939	107.62
476.158	97.62
476.377	101.62
476.596	98.62
476.814	100.62
477.033	98.62
477.252	82.62
477.471	109.62
477.69	103.62
477.908	110.62
478.127	109.62
478.346	116.62
478.564	108.62
478.783	103.62
479.002	93.62
479.22	111.62
479.439	119.62
479.658	112.62
479.876	105.62
480.095	92.62
480.313	102.62
480.532	122.62
480.751	99.62
480.969	84.62
481.188	96.62
481.406	97.62
481.624	89.62
481.843	69.62
482.061	99.62
482.28	94.62
482.498	99.62
482.717	101.62
482.935	107.62
483.153	122.62
483.372	125.62
483.59	124.62
483.808	119.62
484.027	118.62
484.245	109.62
484.463	110.62
484.681	122.62
484.9	109.62
485.118	108.62
485.336	107.62
485.554	102.62
485.772	82.62
485.99	89.62
486.209	101.62
486.427	98.62
486.645	90.62
486.863	109.62
487.081	103.62
487.299	120.62
487.517	100.62
487.735	129.62
487.953	126.62
488.171	133.62
488.389	109.62
488.607	110.62
488.825	104.62
489.043	106.62
489.261	124.62
489.479	108.62
489.696	105.62
489.914	108.62
490.132	115.62
490.35	126.62
490.568	133.62
490.786	126.62
491.003	130.62
491.221	133.62
491.439	125.62
491.657	137.62
491.874	140.62
492.092	136.62
492.31	146.62
492.527	153.62
492.745	147.62
492.963	146.62
493.18	122.62
493.398	137.62
493.615	137.62
493.833	130.62
494.05	129.62
494.268	126.62
494.485	129.62
494.703	124.62
494.92	133.62
495.138	123.62
495.355	107.62
495.573	135.62
495.79	127.62
496.008	133.62
496.225	141.62
496.442	125.62
496.66	122.62
496.877	128.62
497.094	127.62
497.312	129.62
497.529	123.62
497.746	116.62
497.963	110.62
498.181	103.62
498.398	111.62
498.615	105.62
498.832	101.62
499.049	97.62
499.267	86.62
499.484	92.62
499.701	102.62
499.918	114.62
500.135	111.62
500.352	115.62
500.569	116.62
500.786	110.62
501.003	119.62
501.22	97.62
501.437	113.62
501.654	119.62
501.871	122.62
502.088	108.62
502.305	105.62
502.522	100.62
502.739	103.62
502.956	108.62
503.172	109.62
503.389	104.62
503.606	95.62
503.823	101.62
504.04	110.62
504.256	93.62
504.473	100.62
504.69	111.62
504.907	109.62
505.123	110.62
505.34	106.62
505.557	103.62
505.773	98.62
505.99	109.62
506.207	109.62
506.423	89.62
506.64	90.62
506.856	96.62
507.073	113.62
507.289	113.62
507.506	98.62
507.722	95.62
507.939	98.62
508.155	109.62
508.372	94.62
508.588	91.62
508.805	102.62
509.021	90.62
509.238	90.62
509.454	94.62
509.67	100.62
509.887	80.62
510.103	87.62
510.319	93.62
510.536	91.62
510.752	95.62
510.968	94.62
511.184	75.62
511.401	78.62
511.617	81.62
511.833	106.62
512.049	95.62
512.265	89.62
512.481	95.62
512.698	87.62
512.914	92.62
513.13	94.62
513.346	77.62
513.562	95.62
513.778	96.62
513.994	79.62
514.21	88.62
514.426	97.62
