Data from Zn(NO3)2Standard.Agarose3%.GreenCap.LampEnergy10E.O_HRD10591_15-06-14-942.txt Node
Date: Mon Jul 22 15:06:14 EDT 2019
User: cochatt
Spectrometer: HR+D1059
Trigger mode: 1
Integration Time (sec): 1.000000E-1
Scans to average: 1
Electric dark correction enabled: true
Nonlinearity correction enabled: false
Boxcar width: 0
XAxis mode: Wavelengths
Number of Pixels in Spectrum: 2048
>>>>>Begin Spectral Data<<<<<
223.165	-14.5
223.4	-14.5
223.635	-14.5
223.869	-15.5
224.104	-7.5
224.338	-24.5
224.573	-24.5
224.808	-21.5
225.042	5.5
225.277	-4.5
225.511	-12.5
225.746	7.5
225.98	12.5
226.215	6.5
226.449	25.5
226.683	26.5
226.918	19.5
227.152	21.5
227.387	32.5
227.621	40.5
227.856	25.5
228.09	54.5
228.324	45.5
228.559	65.5
228.793	55.5
229.027	51.5
229.262	65.5
229.496	68.5
229.73	67.5
229.964	79.5
230.199	78.5
230.433	72.5
230.667	78.5
230.901	83.5
231.136	73.5
231.37	73.5
231.604	73.5
231.838	84.5
232.072	86.5
232.306	83.5
232.541	87.5
232.775	88.5
233.009	89.5
233.243	67.5
233.477	66.5
233.711	66.5
233.945	83.5
234.179	70.5
234.413	85.5
234.647	80.5
234.881	78.5
235.115	81.5
235.349	82.5
235.583	75.5
235.817	90.5
236.051	86.5
236.285	77.5
236.519	61.5
236.753	75.5
236.987	76.5
237.221	79.5
237.455	86.5
237.689	78.5
237.922	72.5
238.156	74.5
238.39	67.5
238.624	62.5
238.858	88.5
239.091	74.5
239.325	68.5
239.559	74.5
239.793	75.5
240.027	86.5
240.26	78.5
240.494	69.5
240.728	84.5
240.961	74.5
241.195	84.5
241.429	75.5
241.662	77.5
241.896	79.5
242.13	73.5
242.363	77.5
242.597	83.5
242.83	84.5
243.064	77.5
243.298	85.5
243.531	89.5
243.765	69.5
243.998	75.5
244.232	66.5
244.465	74.5
244.699	76.5
244.932	77.5
245.166	75.5
245.399	75.5
245.633	80.5
245.866	76.5
246.099	89.5
246.333	69.5
246.566	72.5
246.8	80.5
247.033	86.5
247.266	90.5
247.5	70.5
247.733	71.5
247.966	81.5
248.2	63.5
248.433	73.5
248.666	73.5
248.899	88.5
249.133	74.5
249.366	68.5
249.599	75.5
249.832	80.5
250.066	71.5
250.299	78.5
250.532	77.5
250.765	77.5
250.998	63.5
251.231	80.5
251.465	60.5
251.698	78.5
251.931	76.5
252.164	79.5
252.397	71.5
252.63	74.5
252.863	72.5
253.096	82.5
253.329	85.5
253.562	109.5
253.795	85.5
254.028	88.5
254.261	73.5
254.494	75.5
254.727	87.5
254.96	82.5
255.193	78.5
255.426	78.5
255.659	84.5
255.892	90.5
256.124	73.5
256.357	78.5
256.59	84.5
256.823	74.5
257.056	73.5
257.289	74.5
257.521	76.5
257.754	66.5
257.987	82.5
258.22	94.5
258.452	84.5
258.685	86.5
258.918	72.5
259.151	86.5
259.383	71.5
259.616	77.5
259.849	73.5
260.081	84.5
260.314	82.5
260.547	71.5
260.779	82.5
261.012	77.5
261.244	73.5
261.477	85.5
261.71	87.5
261.942	73.5
262.175	86.5
262.407	96.5
262.64	80.5
262.872	85.5
263.105	93.5
263.337	86.5
263.57	94.5
263.802	94.5
264.035	90.5
264.267	83.5
264.499	81.5
264.732	91.5
264.964	92.5
265.197	77.5
265.429	72.5
265.661	77.5
265.894	88.5
266.126	79.5
266.358	81.5
266.591	87.5
266.823	86.5
267.055	82.5
267.287	77.5
267.52	97.5
267.752	93.5
267.984	81.5
268.216	81.5
268.448	76.5
268.681	87.5
268.913	82.5
269.145	94.5
269.377	80.5
269.609	73.5
269.841	70.5
270.073	87.5
270.306	89.5
270.538	81.5
270.77	71.5
271.002	84.5
271.234	86.5
271.466	89.5
271.698	89.5
271.93	84.5
272.162	80.5
272.394	74.5
272.626	82.5
272.858	80.5
273.09	92.5
273.322	84.5
273.553	87.5
273.785	89.5
274.017	84.5
274.249	78.5
274.481	84.5
274.713	104.5
274.945	106.5
275.176	93.5
275.408	91.5
275.64	92.5
275.872	77.5
276.104	76.5
276.335	105.5
276.567	91.5
276.799	83.5
277.031	98.5
277.262	84.5
277.494	112.5
277.726	68.5
277.957	92.5
278.189	81.5
278.421	86.5
278.652	70.5
278.884	71.5
279.115	98.5
279.347	93.5
279.579	87.5
279.81	85.5
280.042	86.5
280.273	79.5
280.505	77.5
280.736	87.5
280.968	91.5
281.199	86.5
281.431	80.5
281.662	75.5
281.894	81.5
282.125	67.5
282.356	79.5
282.588	80.5
282.819	81.5
283.051	84.5
283.282	71.5
283.513	77.5
283.745	77.5
283.976	78.5
284.207	73.5
284.439	89.5
284.67	88.5
284.901	89.5
285.132	76.5
285.364	80.5
285.595	78.5
285.826	93.5
286.057	77.5
286.288	90.5
286.52	100.5
286.751	79.5
286.982	84.5
287.213	91.5
287.444	81.5
287.675	87.5
287.906	67.5
288.138	73.5
288.369	77.5
288.6	96.5
288.831	74.5
289.062	80.5
289.293	96.5
289.524	70.5
289.755	102.5
289.986	84.5
290.217	82.5
290.448	93.5
290.679	76.5
290.91	84.5
291.141	85.5
291.371	81.5
291.602	82.5
291.833	81.5
292.064	90.5
292.295	83.5
292.526	99.5
292.757	72.5
292.987	82.5
293.218	86.5
293.449	38.5
293.68	61.5
293.91	85.5
294.141	92.5
294.372	78.5
294.603	81.5
294.833	84.5
295.064	94.5
295.295	78.5
295.525	79.5
295.756	76.5
295.987	91.5
296.217	79.5
296.448	89.5
296.679	90.5
296.909	80.5
297.14	82.5
297.37	81.5
297.601	75.5
297.831	88.5
298.062	74.5
298.292	91.5
298.523	85.5
298.753	86.5
298.984	89.5
299.214	88.5
299.445	83.5
299.675	88.5
299.905	95.5
300.136	93.5
300.366	76.5
300.597	93.5
300.827	89.5
301.057	78.5
301.288	83.5
301.518	82.5
301.748	84.5
301.979	74.5
302.209	84.5
302.439	86.5
302.669	73.5
302.9	82.5
303.13	88.5
303.36	74.5
303.59	83.5
303.82	72.5
304.051	78.5
304.281	87.5
304.511	88.5
304.741	95.5
304.971	88.5
305.201	77.5
305.431	80.5
305.661	81.5
305.891	80.5
306.121	73.5
306.352	90.5
306.582	97.5
306.812	83.5
307.042	88.5
307.272	82.5
307.502	95.5
307.731	69.5
307.961	76.5
308.191	80.5
308.421	97.5
308.651	94.5
308.881	80.5
309.111	79.5
309.341	91.5
309.571	81.5
309.8	96.5
310.03	86.5
310.26	87.5
310.49	83.5
310.72	91.5
310.949	80.5
311.179	87.5
311.409	84.5
311.639	78.5
311.868	90.5
312.098	91.5
312.328	77.5
312.557	87.5
312.787	95.5
313.017	82.5
313.246	84.5
313.476	88.5
313.706	68.5
313.935	94.5
314.165	74.5
314.394	77.5
314.624	93.5
314.853	83.5
315.083	89.5
315.312	80.5
315.542	88.5
315.771	82.5
316.001	79.5
316.23	81.5
316.46	92.5
316.689	93.5
316.919	89.5
317.148	95.5
317.377	97.5
317.607	88.5
317.836	85.5
318.065	86.5
318.295	93.5
318.524	77.5
318.753	86.5
318.983	70.5
319.212	91.5
319.441	91.5
319.67	83.5
319.9	72.5
320.129	75.5
320.358	79.5
320.587	89.5
320.816	92.5
321.046	86.5
321.275	89.5
321.504	76.5
321.733	78.5
321.962	74.5
322.191	82.5
322.42	78.5
322.649	75.5
322.878	95.5
323.108	96.5
323.337	90.5
323.566	83.5
323.795	68.5
324.024	80.5
324.253	81.5
324.482	78.5
324.71	78.5
324.939	82.5
325.168	85.5
325.397	84.5
325.626	81.5
325.855	90.5
326.084	89.5
326.313	90.5
326.542	84.5
326.77	69.5
326.999	89.5
327.228	84.5
327.457	82.5
327.686	96.5
327.914	79.5
328.143	61.5
328.372	93.5
328.6	80.5
328.829	93.5
329.058	86.5
329.287	79.5
329.515	80.5
329.744	90.5
329.972	84.5
330.201	83.5
330.43	75.5
330.658	79.5
330.887	78.5
331.115	85.5
331.344	90.5
331.572	84.5
331.801	91.5
332.03	74.5
332.258	81.5
332.486	82.5
332.715	88.5
332.943	78.5
333.172	93.5
333.4	92.5
333.629	82.5
333.857	87.5
334.085	93.5
334.314	83.5
334.542	72.5
334.771	93.5
334.999	77.5
335.227	75.5
335.455	83.5
335.684	84.5
335.912	80.5
336.14	91.5
336.369	88.5
336.597	73.5
336.825	90.5
337.053	92.5
337.281	91.5
337.51	88.5
337.738	79.5
337.966	90.5
338.194	88.5
338.422	72.5
338.65	74.5
338.878	78.5
339.106	95.5
339.334	89.5
339.562	88.5
339.79	77.5
340.018	84.5
340.246	89.5
340.474	79.5
340.702	96.5
340.93	85.5
341.158	66.5
341.386	73.5
341.614	90.5
341.842	82.5
342.07	77.5
342.298	84.5
342.526	67.5
342.754	85.5
342.981	77.5
343.209	78.5
343.437	74.5
343.665	85.5
343.893	78.5
344.12	65.5
344.348	75.5
344.576	77.5
344.804	81.5
345.031	80.5
345.259	95.5
345.487	84.5
345.714	90.5
345.942	84.5
346.17	83.5
346.397	85.5
346.625	80.5
346.853	82.5
347.08	75.5
347.308	109.5
347.535	89.5
347.763	61.5
347.99	82.5
348.218	91.5
348.445	71.5
348.673	81.5
348.9	76.5
349.128	90.5
349.355	92.5
349.583	80.5
349.81	75.5
350.037	88.5
350.265	99.5
350.492	87.5
350.72	66.5
350.947	89.5
351.174	83.5
351.402	92.5
351.629	92.5
351.856	81.5
352.083	75.5
352.311	81.5
352.538	80.5
352.765	90.5
352.992	93.5
353.22	86.5
353.447	92.5
353.674	76.5
353.901	88.5
354.128	81.5
354.355	85.5
354.583	83.5
354.81	83.5
355.037	92.5
355.264	82.5
355.491	93.5
355.718	85.5
355.945	81.5
356.172	78.5
356.399	76.5
356.626	76.5
356.853	85.5
357.08	82.5
357.307	82.5
357.534	88.5
357.761	85.5
357.988	81.5
358.215	88.5
358.441	82.5
358.668	83.5
358.895	77.5
359.122	93.5
359.349	93.5
359.576	78.5
359.802	86.5
360.029	81.5
360.256	77.5
360.483	80.5
360.709	80.5
360.936	93.5
361.163	85.5
361.39	103.5
361.616	78.5
361.843	86.5
362.07	81.5
362.296	89.5
362.523	81.5
362.749	85.5
362.976	81.5
363.203	93.5
363.429	67.5
363.656	87.5
363.882	83.5
364.109	83.5
364.335	79.5
364.562	80.5
364.788	77.5
365.015	87.5
365.241	87.5
365.468	88.5
365.694	73.5
365.92	81.5
366.147	77.5
366.373	96.5
366.599	68.5
366.826	85.5
367.052	71.5
367.278	81.5
367.505	87.5
367.731	87.5
367.957	89.5
368.184	91.5
368.41	95.5
368.636	75.5
368.862	84.5
369.089	88.5
369.315	81.5
369.541	73.5
369.767	77.5
369.993	89.5
370.219	90.5
370.445	84.5
370.672	69.5
370.898	80.5
371.124	76.5
371.35	88.5
371.576	79.5
371.802	87.5
372.028	79.5
372.254	90.5
372.48	94.5
372.706	96.5
372.932	82.5
373.158	86.5
373.384	85.5
373.61	92.5
373.835	85.5
374.061	93.5
374.287	76.5
374.513	82.5
374.739	73.5
374.965	84.5
375.191	86.5
375.416	88.5
375.642	92.5
375.868	89.5
376.094	94.5
376.319	90.5
376.545	88.5
376.771	84.5
376.997	82.5
377.222	73.5
377.448	88.5
377.674	82.5
377.899	77.5
378.125	93.5
378.35	88.5
378.576	88.5
378.802	81.5
379.027	90.5
379.253	86.5
379.478	74.5
379.704	91.5
379.929	89.5
380.155	90.5
380.38	92.5
380.606	87.5
380.831	90.5
381.057	92.5
381.282	93.5
381.507	86.5
381.733	79.5
381.958	69.5
382.184	79.5
382.409	82.5
382.634	84.5
382.86	76.5
383.085	89.5
383.31	85.5
383.535	87.5
383.761	89.5
383.986	97.5
384.211	102.5
384.436	89.5
384.662	92.5
384.887	96.5
385.112	78.5
385.337	88.5
385.562	88.5
385.787	86.5
386.013	93.5
386.238	83.5
386.463	91.5
386.688	91.5
386.913	83.5
387.138	88.5
387.363	94.5
387.588	93.5
387.813	97.5
388.038	102.5
388.263	96.5
388.488	82.5
388.713	87.5
388.938	88.5
389.163	100.5
389.387	98.5
389.612	96.5
389.837	103.5
390.062	87.5
390.287	104.5
390.512	87.5
390.736	98.5
390.961	84.5
391.186	85.5
391.411	89.5
391.636	81.5
391.86	78.5
392.085	103.5
392.31	91.5
392.534	95.5
392.759	101.5
392.984	94.5
393.208	97.5
393.433	94.5
393.658	90.5
393.882	84.5
394.107	94.5
394.331	91.5
394.556	108.5
394.78	100.5
395.005	83.5
395.229	94.5
395.454	90.5
395.678	97.5
395.903	92.5
396.127	103.5
396.352	93.5
396.576	105.5
396.801	90.5
397.025	89.5
397.249	82.5
397.474	102.5
397.698	105.5
397.922	102.5
398.147	94.5
398.371	82.5
398.595	86.5
398.82	85.5
399.044	96.5
399.268	92.5
399.492	92.5
399.717	95.5
399.941	90.5
400.165	90.5
400.389	92.5
400.613	79.5
400.837	84.5
401.062	92.5
401.286	93.5
401.51	84.5
401.734	89.5
401.958	102.5
402.182	100.5
402.406	89.5
402.63	92.5
402.854	103.5
403.078	93.5
403.302	96.5
403.526	97.5
403.75	91.5
403.974	107.5
404.198	77.5
404.422	98.5
404.645	98.5
404.869	104.5
405.093	100.5
405.317	92.5
405.541	88.5
405.765	100.5
405.988	103.5
406.212	93.5
406.436	99.5
406.66	96.5
406.883	124.5
407.107	86.5
407.331	97.5
407.555	108.5
407.778	91.5
408.002	80.5
408.226	95.5
408.449	92.5
408.673	96.5
408.896	88.5
409.12	106.5
409.344	77.5
409.567	107.5
409.791	103.5
410.014	98.5
410.238	107.5
410.461	93.5
410.685	99.5
410.908	90.5
411.132	98.5
411.355	90.5
411.578	108.5
411.802	96.5
412.025	100.5
412.249	97.5
412.472	100.5
412.695	104.5
412.919	99.5
413.142	91.5
413.365	99.5
413.589	118.5
413.812	101.5
414.035	112.5
414.258	100.5
414.482	110.5
414.705	87.5
414.928	104.5
415.151	102.5
415.374	121.5
415.597	98.5
415.821	112.5
416.044	105.5
416.267	84.5
416.49	93.5
416.713	92.5
416.936	107.5
417.159	99.5
417.382	99.5
417.605	100.5
417.828	104.5
418.051	96.5
418.274	94.5
418.497	112.5
418.72	103.5
418.943	90.5
419.166	102.5
419.389	105.5
419.611	89.5
419.834	100.5
420.057	115.5
420.28	101.5
420.503	109.5
420.726	106.5
420.948	96.5
421.171	102.5
421.394	104.5
421.617	105.5
421.839	109.5
422.062	105.5
422.285	97.5
422.507	106.5
422.73	109.5
422.953	95.5
423.175	104.5
423.398	97.5
423.621	103.5
423.843	110.5
424.066	108.5
424.288	98.5
424.511	100.5
424.733	115.5
424.956	100.5
425.178	96.5
425.401	118.5
425.623	99.5
425.846	115.5
426.068	108.5
426.291	97.5
426.513	101.5
426.735	107.5
426.958	104.5
427.18	97.5
427.402	98.5
427.625	100.5
427.847	113.5
428.069	109.5
428.292	95.5
428.514	104.5
428.736	113.5
428.958	113.5
429.181	107.5
429.403	97.5
429.625	100.5
429.847	100.5
430.069	102.5
430.292	100.5
430.514	99.5
430.736	88.5
430.958	97.5
431.18	101.5
431.402	97.5
431.624	96.5
431.846	99.5
432.068	88.5
432.29	80.5
432.512	98.5
432.734	99.5
432.956	100.5
433.178	109.5
433.4	97.5
433.622	101.5
433.844	96.5
434.066	96.5
434.287	90.5
434.509	89.5
434.731	88.5
434.953	91.5
435.175	93.5
435.397	121.5
435.618	100.5
435.84	103.5
436.062	90.5
436.284	99.5
436.505	110.5
436.727	96.5
436.949	105.5
437.17	121.5
437.392	100.5
437.614	116.5
437.835	82.5
438.057	86.5
438.278	93.5
438.5	98.5
438.721	105.5
438.943	93.5
439.165	115.5
439.386	118.5
439.608	111.5
439.829	107.5
440.05	120.5
440.272	116.5
440.493	115.5
440.715	123.5
440.936	115.5
441.158	106.5
441.379	122.5
441.6	110.5
441.822	102.5
442.043	112.5
442.264	113.5
442.486	106.5
442.707	109.5
442.928	124.5
443.149	111.5
443.371	108.5
443.592	112.5
443.813	89.5
444.034	114.5
444.255	98.5
444.476	112.5
444.698	123.5
444.919	101.5
445.14	223.5
445.361	168.5
445.582	120.5
445.803	101.5
446.024	94.5
446.245	113.5
446.466	118.5
446.687	109.5
446.908	110.5
447.129	128.5
447.35	116.5
447.571	103.5
447.792	123.5
448.013	110.5
448.234	114.5
448.455	105.5
448.675	114.5
448.896	98.5
449.117	105.5
449.338	112.5
449.559	99.5
449.779	104.5
450	106.5
450.221	101.5
450.442	127.5
450.662	96.5
450.883	116.5
451.104	119.5
451.324	99.5
451.545	96.5
451.766	109.5
451.986	101.5
452.207	108.5
452.428	105.5
452.648	100.5
452.869	92.5
453.089	109.5
453.31	105.5
453.53	92.5
453.751	90.5
453.971	92.5
454.192	86.5
454.412	85.5
454.633	101.5
454.853	104.5
455.073	107.5
455.294	99.5
455.514	109.5
455.734	104.5
455.955	99.5
456.175	100.5
456.395	99.5
456.616	106.5
456.836	96.5
457.056	105.5
457.276	104.5
457.497	93.5
457.717	104.5
457.937	98.5
458.157	89.5
458.377	88.5
458.598	89.5
458.818	89.5
459.038	76.5
459.258	81.5
459.478	81.5
459.698	95.5
459.918	98.5
460.138	87.5
460.358	89.5
460.578	107.5
460.798	89.5
461.018	91.5
461.238	100.5
461.458	107.5
461.678	99.5
461.898	94.5
462.118	98.5
462.338	87.5
462.558	101.5
462.777	103.5
462.997	105.5
463.217	97.5
463.437	102.5
463.657	91.5
463.876	85.5
464.096	88.5
464.316	93.5
464.536	89.5
464.755	102.5
464.975	97.5
465.195	100.5
465.414	102.5
465.634	97.5
465.854	108.5
466.073	95.5
466.293	100.5
466.512	95.5
466.732	98.5
466.951	113.5
467.171	114.5
467.391	117.5
467.61	109.5
467.829	95.5
468.049	108.5
468.268	97.5
468.488	108.5
468.707	115.5
468.927	110.5
469.146	106.5
469.365	107.5
469.585	97.5
469.804	106.5
470.023	112.5
470.243	110.5
470.462	122.5
470.681	108.5
470.901	112.5
471.12	108.5
471.339	117.5
471.558	95.5
471.777	104.5
471.997	101.5
472.216	105.5
472.435	97.5
472.654	95.5
472.873	83.5
473.092	102.5
473.311	90.5
473.53	104.5
473.749	85.5
473.968	104.5
474.187	95.5
474.406	98.5
474.625	109.5
474.844	109.5
475.063	115.5
475.282	113.5
475.501	101.5
475.72	99.5
475.939	103.5
476.158	107.5
476.377	101.5
476.596	106.5
476.814	105.5
477.033	93.5
477.252	89.5
477.471	101.5
477.69	90.5
477.908	105.5
478.127	111.5
478.346	119.5
478.564	118.5
478.783	120.5
479.002	121.5
479.22	109.5
479.439	117.5
479.658	105.5
479.876	107.5
480.095	105.5
480.313	97.5
480.532	92.5
480.751	105.5
480.969	88.5
481.188	88.5
481.406	87.5
481.624	96.5
481.843	102.5
482.061	102.5
482.28	94.5
482.498	105.5
482.717	102.5
482.935	112.5
483.153	115.5
483.372	114.5
483.59	124.5
483.808	112.5
484.027	107.5
484.245	114.5
484.463	106.5
484.681	122.5
484.9	128.5
485.118	105.5
485.336	118.5
485.554	101.5
485.772	88.5
485.99	85.5
486.209	104.5
486.427	102.5
486.645	114.5
486.863	113.5
487.081	102.5
487.299	112.5
487.517	110.5
487.735	120.5
487.953	136.5
488.171	129.5
488.389	135.5
488.607	126.5
488.825	111.5
489.043	113.5
489.261	112.5
489.479	104.5
489.696	102.5
489.914	94.5
490.132	96.5
490.35	104.5
490.568	126.5
490.786	132.5
491.003	134.5
491.221	140.5
491.439	134.5
491.657	136.5
491.874	143.5
492.092	144.5
492.31	160.5
492.527	149.5
492.745	129.5
492.963	141.5
493.18	140.5
493.398	132.5
493.615	118.5
493.833	122.5
494.05	108.5
494.268	123.5
494.485	125.5
494.703	123.5
494.92	122.5
495.138	122.5
495.355	130.5
495.573	131.5
495.79	122.5
496.008	142.5
496.225	123.5
496.442	109.5
496.66	125.5
496.877	122.5
497.094	115.5
497.312	117.5
497.529	118.5
497.746	114.5
497.963	101.5
498.181	107.5
498.398	110.5
498.615	113.5
498.832	108.5
499.049	104.5
499.267	113.5
499.484	115.5
499.701	104.5
499.918	97.5
500.135	117.5
500.352	110.5
500.569	112.5
500.786	118.5
501.003	116.5
501.22	119.5
501.437	101.5
501.654	112.5
501.871	102.5
502.088	102.5
502.305	106.5
502.522	103.5
502.739	85.5
502.956	104.5
503.172	103.5
503.389	105.5
503.606	105.5
503.823	112.5
504.04	99.5
504.256	107.5
504.473	93.5
504.69	101.5
504.907	112.5
505.123	106.5
505.34	102.5
505.557	99.5
505.773	98.5
505.99	109.5
506.207	101.5
506.423	112.5
506.64	109.5
506.856	107.5
507.073	99.5
507.289	110.5
507.506	100.5
507.722	100.5
507.939	101.5
508.155	102.5
508.372	83.5
508.588	85.5
508.805	97.5
509.021	97.5
509.238	101.5
509.454	96.5
509.67	103.5
509.887	92.5
510.103	83.5
510.319	84.5
510.536	81.5
510.752	88.5
510.968	73.5
511.184	83.5
511.401	76.5
511.617	77.5
511.833	95.5
512.049	85.5
512.265	94.5
512.481	88.5
512.698	83.5
512.914	88.5
513.13	97.5
513.346	86.5
513.562	86.5
513.778	82.5
513.994	84.5
514.21	98.5
514.426	92.5
514.642	105.5
514.858	91.5
515.074	86.5
515.29	95.5
515.506	84.5
515.721	78.5
515.937	93.5
516.153	83.5
516.369	92.5
516.585	82.5
516.801	82.5
517.016	94.5
517.232	83.5
517.448	89.5
517.664	83.5
517.879	88.5
518.095	75.5
518.311	97.5
518.527	90.5
518.742	85.5
518.958	88.5
519.173	92.5
519.389	102.5
519.605	83.5
519.82	97.5
520.036	85.5
520.251	93.5
520.467	96.5
520.682	93.5
520.898	86.5
521.113	93.5
521.329	93.5
521.544	103.5
521.76	86.5
521.975	92.5
522.19	88.5
522.406	87.5
522.621	98.5
522.836	104.5
523.052	84.5
523.267	92.5
523.482	104.5
523.698	81.5
523.913	99.5
524.128	91.5
524.343	100.5
524.559	106.5
524.774	100.5
524.989	111.5
525.204	102.5
525.419	97.5
525.634	107.5
525.849	101.5
526.064	94.5
526.28	94.5
526.495	74.5
526.71	82.5
526.925	89.5
527.14	89.5
527.355	85.5
527.57	86.5
527.785	77.5
527.999	101.5
528.214	101.5
528.429	82.5
528.644	94.5
528.859	109.5
529.074	117.5
529.289	116.5
529.503	120.5
529.718	111.5
529.933	98.5
530.148	96.5
530.363	84.5
530.577	81.5
530.792	94.5
531.007	67.5
531.221	74.5
531.436	78.5
531.651	91.5
531.865	91.5
532.08	99.5
532.295	97.5
532.509	105.5
532.724	90.5
532.938	90.5
533.153	81.5
533.367	80.5
533.582	110.5
533.796	114.5
534.011	101.5
534.225	100.5
