Data from Zn(NO3)2Standard.Agarose3%.GreenCap.LampEnergy10E.O_HRD10591_15-08-13-948.txt Node
Date: Mon Jul 22 15:08:13 EDT 2019
User: cochatt
Spectrometer: HR+D1059
Trigger mode: 1
Integration Time (sec): 1.000000E-1
Scans to average: 1
Electric dark correction enabled: true
Nonlinearity correction enabled: false
Boxcar width: 0
XAxis mode: Wavelengths
Number of Pixels in Spectrum: 2048
>>>>>Begin Spectral Data<<<<<
223.165	0.19
223.4	0.19
223.635	0.19
223.869	-25.81
224.104	-17.81
224.338	-18.81
224.573	-8.81
224.808	-20.81
225.042	-16.81
225.277	-1.81
225.511	-3.81
225.746	11.19
225.98	4.19
226.215	13.19
226.449	21.19
226.683	16.19
226.918	31.19
227.152	17.19
227.387	27.19
227.621	44.19
227.856	37.19
228.09	60.19
228.324	40.19
228.559	64.19
228.793	66.19
229.027	56.19
229.262	67.19
229.496	71.19
229.73	85.19
229.964	79.19
230.199	67.19
230.433	73.19
230.667	82.19
230.901	67.19
231.136	95.19
231.37	79.19
231.604	76.19
231.838	85.19
232.072	83.19
232.306	90.19
232.541	81.19
232.775	85.19
233.009	88.19
233.243	78.19
233.477	78.19
233.711	88.19
233.945	92.19
234.179	87.19
234.413	84.19
234.647	74.19
234.881	79.19
235.115	86.19
235.349	98.19
235.583	95.19
235.817	83.19
236.051	74.19
236.285	82.19
236.519	79.19
236.753	84.19
236.987	88.19
237.221	89.19
237.455	82.19
237.689	79.19
237.922	76.19
238.156	85.19
238.39	79.19
238.624	89.19
238.858	83.19
239.091	87.19
239.325	87.19
239.559	74.19
239.793	84.19
240.027	84.19
240.26	78.19
240.494	75.19
240.728	78.19
240.961	77.19
241.195	93.19
241.429	80.19
241.662	79.19
241.896	85.19
242.13	86.19
242.363	75.19
242.597	82.19
242.83	95.19
243.064	88.19
243.298	77.19
243.531	91.19
243.765	76.19
243.998	79.19
244.232	94.19
244.465	73.19
244.699	63.19
244.932	72.19
245.166	72.19
245.399	75.19
245.633	83.19
245.866	85.19
246.099	78.19
246.333	85.19
246.566	82.19
246.8	72.19
247.033	79.19
247.266	77.19
247.5	93.19
247.733	79.19
247.966	71.19
248.2	79.19
248.433	80.19
248.666	80.19
248.899	77.19
249.133	92.19
249.366	84.19
249.599	78.19
249.832	82.19
250.066	97.19
250.299	90.19
250.532	85.19
250.765	94.19
250.998	90.19
251.231	86.19
251.465	90.19
251.698	90.19
251.931	91.19
252.164	90.19
252.397	85.19
252.63	75.19
252.863	88.19
253.096	67.19
253.329	95.19
253.562	83.19
253.795	76.19
254.028	85.19
254.261	76.19
254.494	90.19
254.727	92.19
254.96	95.19
255.193	85.19
255.426	83.19
255.659	98.19
255.892	74.19
256.124	86.19
256.357	94.19
256.59	89.19
256.823	88.19
257.056	74.19
257.289	79.19
257.521	91.19
257.754	93.19
257.987	75.19
258.22	86.19
258.452	87.19
258.685	88.19
258.918	83.19
259.151	88.19
259.383	78.19
259.616	83.19
259.849	80.19
260.081	84.19
260.314	79.19
260.547	84.19
260.779	82.19
261.012	73.19
261.244	86.19
261.477	89.19
261.71	80.19
261.942	75.19
262.175	89.19
262.407	87.19
262.64	84.19
262.872	100.19
263.105	71.19
263.337	88.19
263.57	89.19
263.802	80.19
264.035	80.19
264.267	77.19
264.499	93.19
264.732	89.19
264.964	91.19
265.197	76.19
265.429	91.19
265.661	87.19
265.894	77.19
266.126	98.19
266.358	90.19
266.591	84.19
266.823	94.19
267.055	79.19
267.287	78.19
267.52	92.19
267.752	92.19
267.984	87.19
268.216	83.19
268.448	79.19
268.681	90.19
268.913	85.19
269.145	98.19
269.377	77.19
269.609	73.19
269.841	82.19
270.073	87.19
270.306	87.19
270.538	88.19
270.77	81.19
271.002	103.19
271.234	90.19
271.466	90.19
271.698	77.19
271.93	79.19
272.162	92.19
272.394	102.19
272.626	90.19
272.858	97.19
273.09	80.19
273.322	101.19
273.553	76.19
273.785	99.19
274.017	92.19
274.249	89.19
274.481	90.19
274.713	87.19
274.945	98.19
275.176	68.19
275.408	83.19
275.64	81.19
275.872	86.19
276.104	90.19
276.335	79.19
276.567	90.19
276.799	86.19
277.031	86.19
277.262	85.19
277.494	68.19
277.726	90.19
277.957	88.19
278.189	91.19
278.421	92.19
278.652	81.19
278.884	93.19
279.115	87.19
279.347	85.19
279.579	84.19
279.81	83.19
280.042	73.19
280.273	86.19
280.505	72.19
280.736	76.19
280.968	83.19
281.199	91.19
281.431	79.19
281.662	91.19
281.894	82.19
282.125	91.19
282.356	92.19
282.588	79.19
282.819	102.19
283.051	69.19
283.282	79.19
283.513	96.19
283.745	87.19
283.976	84.19
284.207	75.19
284.439	85.19
284.67	96.19
284.901	80.19
285.132	76.19
285.364	80.19
285.595	94.19
285.826	89.19
286.057	87.19
286.288	94.19
286.52	88.19
286.751	92.19
286.982	103.19
287.213	91.19
287.444	92.19
287.675	83.19
287.906	93.19
288.138	88.19
288.369	86.19
288.6	92.19
288.831	96.19
289.062	99.19
289.293	94.19
289.524	94.19
289.755	68.19
289.986	93.19
290.217	86.19
290.448	86.19
290.679	88.19
290.91	87.19
291.141	83.19
291.371	97.19
291.602	79.19
291.833	88.19
292.064	83.19
292.295	89.19
292.526	77.19
292.757	84.19
292.987	79.19
293.218	76.19
293.449	95.19
293.68	94.19
293.91	79.19
294.141	89.19
294.372	94.19
294.603	87.19
294.833	93.19
295.064	75.19
295.295	82.19
295.525	76.19
295.756	91.19
295.987	78.19
296.217	88.19
296.448	93.19
296.679	91.19
296.909	69.19
297.14	84.19
297.37	91.19
297.601	85.19
297.831	82.19
298.062	94.19
298.292	88.19
298.523	91.19
298.753	91.19
298.984	95.19
299.214	88.19
299.445	92.19
299.675	86.19
299.905	96.19
300.136	74.19
300.366	92.19
300.597	87.19
300.827	87.19
301.057	76.19
301.288	89.19
301.518	81.19
301.748	94.19
301.979	76.19
302.209	75.19
302.439	72.19
302.669	92.19
302.9	81.19
303.13	87.19
303.36	82.19
303.59	79.19
303.82	83.19
304.051	82.19
304.281	85.19
304.511	91.19
304.741	86.19
304.971	86.19
305.201	81.19
305.431	106.19
305.661	75.19
305.891	93.19
306.121	76.19
306.352	75.19
306.582	76.19
306.812	83.19
307.042	77.19
307.272	82.19
307.502	84.19
307.731	96.19
307.961	91.19
308.191	88.19
308.421	84.19
308.651	81.19
308.881	79.19
309.111	101.19
309.341	98.19
309.571	88.19
309.8	90.19
310.03	86.19
310.26	92.19
310.49	78.19
310.72	80.19
310.949	74.19
311.179	88.19
311.409	90.19
311.639	96.19
311.868	90.19
312.098	93.19
312.328	89.19
312.557	88.19
312.787	76.19
313.017	83.19
313.246	74.19
313.476	85.19
313.706	90.19
313.935	92.19
314.165	87.19
314.394	89.19
314.624	86.19
314.853	103.19
315.083	99.19
315.312	85.19
315.542	98.19
315.771	93.19
316.001	74.19
316.23	98.19
316.46	86.19
316.689	79.19
316.919	80.19
317.148	90.19
317.377	75.19
317.607	82.19
317.836	84.19
318.065	89.19
318.295	99.19
318.524	89.19
318.753	85.19
318.983	99.19
319.212	80.19
319.441	95.19
319.67	80.19
319.9	79.19
320.129	77.19
320.358	91.19
320.587	87.19
320.816	72.19
321.046	86.19
321.275	77.19
321.504	74.19
321.733	88.19
321.962	85.19
322.191	87.19
322.42	91.19
322.649	84.19
322.878	87.19
323.108	95.19
323.337	86.19
323.566	95.19
323.795	90.19
324.024	94.19
324.253	101.19
324.482	95.19
324.71	87.19
324.939	93.19
325.168	95.19
325.397	103.19
325.626	78.19
325.855	85.19
326.084	91.19
326.313	86.19
326.542	82.19
326.77	87.19
326.999	76.19
327.228	90.19
327.457	87.19
327.686	91.19
327.914	90.19
328.143	88.19
328.372	76.19
328.6	85.19
328.829	95.19
329.058	90.19
329.287	101.19
329.515	93.19
329.744	93.19
329.972	85.19
330.201	93.19
330.43	85.19
330.658	91.19
330.887	72.19
331.115	77.19
331.344	79.19
331.572	83.19
331.801	82.19
332.03	86.19
332.258	84.19
332.486	89.19
332.715	84.19
332.943	103.19
333.172	78.19
333.4	88.19
333.629	90.19
333.857	91.19
334.085	88.19
334.314	79.19
334.542	86.19
334.771	88.19
334.999	91.19
335.227	87.19
335.455	86.19
335.684	92.19
335.912	88.19
336.14	92.19
336.369	89.19
336.597	94.19
336.825	89.19
337.053	91.19
337.281	79.19
337.51	91.19
337.738	88.19
337.966	76.19
338.194	83.19
338.422	91.19
338.65	80.19
338.878	84.19
339.106	82.19
339.334	91.19
339.562	79.19
339.79	85.19
340.018	83.19
340.246	78.19
340.474	98.19
340.702	90.19
340.93	96.19
341.158	96.19
341.386	75.19
341.614	85.19
341.842	71.19
342.07	88.19
342.298	86.19
342.526	81.19
342.754	78.19
342.981	94.19
343.209	86.19
343.437	91.19
343.665	87.19
343.893	91.19
344.12	88.19
344.348	78.19
344.576	88.19
344.804	97.19
345.031	86.19
345.259	92.19
345.487	91.19
345.714	84.19
345.942	92.19
346.17	76.19
346.397	93.19
346.625	81.19
346.853	96.19
347.08	95.19
347.308	93.19
347.535	95.19
347.763	94.19
347.99	93.19
348.218	85.19
348.445	83.19
348.673	90.19
348.9	80.19
349.128	75.19
349.355	88.19
349.583	83.19
349.81	80.19
350.037	98.19
350.265	86.19
350.492	86.19
350.72	88.19
350.947	95.19
351.174	75.19
351.402	83.19
351.629	79.19
351.856	87.19
352.083	80.19
352.311	86.19
352.538	72.19
352.765	98.19
352.992	74.19
353.22	71.19
353.447	90.19
353.674	81.19
353.901	83.19
354.128	77.19
354.355	86.19
354.583	77.19
354.81	84.19
355.037	94.19
355.264	90.19
355.491	84.19
355.718	78.19
355.945	83.19
356.172	87.19
356.399	95.19
356.626	93.19
356.853	71.19
357.08	96.19
357.307	86.19
357.534	93.19
357.761	87.19
357.988	72.19
358.215	79.19
358.441	83.19
358.668	91.19
358.895	100.19
359.122	84.19
359.349	81.19
359.576	97.19
359.802	91.19
360.029	85.19
360.256	88.19
360.483	73.19
360.709	91.19
360.936	79.19
361.163	93.19
361.39	93.19
361.616	80.19
361.843	79.19
362.07	85.19
362.296	74.19
362.523	76.19
362.749	76.19
362.976	87.19
363.203	98.19
363.429	77.19
363.656	104.19
363.882	87.19
364.109	100.19
364.335	78.19
364.562	72.19
364.788	93.19
365.015	102.19
365.241	98.19
365.468	87.19
365.694	84.19
365.92	97.19
366.147	85.19
366.373	81.19
366.599	86.19
366.826	84.19
367.052	85.19
367.278	83.19
367.505	97.19
367.731	77.19
367.957	88.19
368.184	102.19
368.41	90.19
368.636	98.19
368.862	98.19
369.089	76.19
369.315	92.19
369.541	91.19
369.767	85.19
369.993	94.19
370.219	78.19
370.445	95.19
370.672	91.19
370.898	81.19
371.124	77.19
371.35	93.19
371.576	90.19
371.802	94.19
372.028	99.19
372.254	88.19
372.48	97.19
372.706	73.19
372.932	92.19
373.158	106.19
373.384	99.19
373.61	100.19
373.835	98.19
374.061	88.19
374.287	102.19
374.513	96.19
374.739	95.19
374.965	90.19
375.191	91.19
375.416	81.19
375.642	87.19
375.868	102.19
376.094	101.19
376.319	84.19
376.545	91.19
376.771	90.19
376.997	80.19
377.222	80.19
377.448	75.19
377.674	82.19
377.899	76.19
378.125	75.19
378.35	83.19
378.576	98.19
378.802	100.19
379.027	88.19
379.253	68.19
379.478	92.19
379.704	92.19
379.929	92.19
380.155	89.19
380.38	93.19
380.606	85.19
380.831	80.19
381.057	93.19
381.282	86.19
381.507	89.19
381.733	88.19
381.958	95.19
382.184	101.19
382.409	102.19
382.634	86.19
382.86	116.19
383.085	93.19
383.31	103.19
383.535	103.19
383.761	92.19
383.986	114.19
384.211	85.19
384.436	89.19
384.662	80.19
384.887	84.19
385.112	92.19
385.337	93.19
385.562	68.19
385.787	66.19
386.013	92.19
386.238	93.19
386.463	96.19
386.688	85.19
386.913	90.19
387.138	103.19
387.363	79.19
387.588	103.19
387.813	96.19
388.038	90.19
388.263	99.19
388.488	111.19
388.713	96.19
388.938	108.19
389.163	106.19
389.387	90.19
389.612	93.19
389.837	84.19
390.062	92.19
390.287	85.19
390.512	96.19
390.736	99.19
390.961	97.19
391.186	91.19
391.411	90.19
391.636	100.19
391.86	86.19
392.085	105.19
392.31	109.19
392.534	104.19
392.759	84.19
392.984	93.19
393.208	80.19
393.433	108.19
393.658	86.19
393.882	102.19
394.107	103.19
394.331	98.19
394.556	100.19
394.78	94.19
395.005	71.19
395.229	86.19
395.454	91.19
395.678	101.19
395.903	90.19
396.127	91.19
396.352	89.19
396.576	99.19
396.801	87.19
397.025	85.19
397.249	92.19
397.474	102.19
397.698	95.19
397.922	85.19
398.147	104.19
398.371	101.19
398.595	114.19
398.82	108.19
399.044	106.19
399.268	100.19
399.492	88.19
399.717	92.19
399.941	88.19
400.165	101.19
400.389	87.19
400.613	92.19
400.837	94.19
401.062	95.19
401.286	103.19
401.51	93.19
401.734	109.19
401.958	92.19
402.182	87.19
402.406	101.19
402.63	99.19
402.854	105.19
403.078	107.19
403.302	87.19
403.526	93.19
403.75	106.19
403.974	107.19
404.198	99.19
404.422	104.19
404.645	108.19
404.869	90.19
405.093	106.19
405.317	95.19
405.541	96.19
405.765	108.19
405.988	98.19
406.212	105.19
406.436	88.19
406.66	109.19
406.883	99.19
407.107	97.19
407.331	111.19
407.555	100.19
407.778	89.19
408.002	101.19
408.226	102.19
408.449	105.19
408.673	95.19
408.896	96.19
409.12	88.19
409.344	96.19
409.567	98.19
409.791	97.19
410.014	103.19
410.238	99.19
410.461	109.19
410.685	106.19
410.908	102.19
411.132	100.19
411.355	91.19
411.578	113.19
411.802	100.19
412.025	101.19
412.249	95.19
412.472	103.19
412.695	109.19
412.919	98.19
413.142	107.19
413.365	105.19
413.589	103.19
413.812	114.19
414.035	103.19
414.258	86.19
414.482	103.19
414.705	105.19
414.928	100.19
415.151	114.19
415.374	93.19
415.597	101.19
415.821	109.19
416.044	101.19
416.267	89.19
416.49	105.19
416.713	110.19
416.936	103.19
417.159	106.19
417.382	112.19
417.605	99.19
417.828	96.19
418.051	95.19
418.274	109.19
418.497	104.19
418.72	120.19
418.943	111.19
419.166	116.19
419.389	111.19
419.611	103.19
419.834	115.19
420.057	114.19
420.28	111.19
420.503	96.19
420.726	117.19
420.948	101.19
421.171	97.19
421.394	105.19
421.617	98.19
421.839	109.19
422.062	109.19
422.285	118.19
422.507	101.19
422.73	95.19
422.953	108.19
423.175	92.19
423.398	93.19
423.621	106.19
423.843	120.19
424.066	110.19
424.288	122.19
424.511	118.19
424.733	111.19
424.956	106.19
425.178	95.19
425.401	109.19
425.623	120.19
425.846	116.19
426.068	112.19
426.291	110.19
426.513	102.19
426.735	102.19
426.958	109.19
427.18	101.19
427.402	101.19
427.625	101.19
427.847	112.19
428.069	110.19
428.292	117.19
428.514	105.19
428.736	100.19
428.958	91.19
429.181	103.19
429.403	107.19
429.625	105.19
429.847	117.19
430.069	107.19
430.292	122.19
430.514	102.19
430.736	115.19
430.958	102.19
431.18	110.19
431.402	112.19
431.624	109.19
431.846	99.19
432.068	96.19
432.29	105.19
432.512	105.19
432.734	105.19
432.956	109.19
433.178	123.19
433.4	115.19
433.622	123.19
433.844	123.19
434.066	103.19
434.287	88.19
434.509	90.19
434.731	102.19
434.953	99.19
435.175	108.19
435.397	89.19
435.618	98.19
435.84	86.19
436.062	99.19
436.284	111.19
436.505	106.19
436.727	99.19
436.949	110.19
437.17	105.19
437.392	117.19
437.614	92.19
437.835	99.19
438.057	120.19
438.278	95.19
438.5	110.19
438.721	96.19
438.943	103.19
439.165	99.19
439.386	115.19
439.608	104.19
439.829	102.19
440.05	107.19
440.272	126.19
440.493	112.19
440.715	126.19
440.936	122.19
441.158	120.19
441.379	110.19
441.6	116.19
441.822	105.19
442.043	123.19
442.264	111.19
442.486	114.19
442.707	109.19
442.928	108.19
443.149	100.19
443.371	107.19
443.592	98.19
443.813	117.19
444.034	90.19
444.255	123.19
444.476	104.19
444.698	103.19
444.919	108.19
445.14	190.19
445.361	142.19
445.582	102.19
445.803	114.19
446.024	122.19
446.245	123.19
446.466	130.19
446.687	121.19
446.908	110.19
447.129	105.19
447.35	119.19
447.571	124.19
447.792	123.19
448.013	101.19
448.234	117.19
448.455	109.19
448.675	109.19
448.896	120.19
449.117	115.19
449.338	102.19
449.559	124.19
449.779	112.19
450	118.19
450.221	97.19
450.442	113.19
450.662	118.19
450.883	123.19
451.104	95.19
451.324	114.19
451.545	123.19
451.766	106.19
451.986	92.19
452.207	107.19
452.428	91.19
452.648	105.19
452.869	114.19
453.089	94.19
453.31	102.19
453.53	95.19
453.751	92.19
453.971	93.19
454.192	94.19
454.412	92.19
454.633	106.19
454.853	114.19
455.073	101.19
455.294	99.19
455.514	110.19
455.734	91.19
455.955	104.19
456.175	121.19
456.395	91.19
456.616	88.19
456.836	97.19
457.056	98.19
457.276	102.19
457.497	99.19
457.717	98.19
457.937	99.19
458.157	96.19
458.377	95.19
458.598	84.19
458.818	91.19
459.038	88.19
459.258	94.19
459.478	79.19
459.698	89.19
459.918	91.19
460.138	98.19
460.358	115.19
460.578	85.19
460.798	102.19
461.018	91.19
461.238	103.19
461.458	102.19
461.678	101.19
461.898	95.19
462.118	109.19
462.338	94.19
462.558	89.19
462.777	88.19
462.997	102.19
463.217	88.19
463.437	104.19
463.657	94.19
463.876	93.19
464.096	98.19
464.316	108.19
464.536	103.19
464.755	112.19
464.975	96.19
465.195	101.19
465.414	114.19
465.634	102.19
465.854	111.19
466.073	94.19
466.293	90.19
466.512	108.19
466.732	124.19
466.951	121.19
467.171	117.19
467.391	118.19
467.61	109.19
467.829	105.19
468.049	110.19
468.268	100.19
468.488	116.19
468.707	116.19
468.927	125.19
469.146	100.19
469.365	115.19
469.585	126.19
469.804	116.19
470.023	114.19
470.243	119.19
470.462	122.19
470.681	108.19
470.901	105.19
471.12	114.19
471.339	132.19
471.558	114.19
471.777	97.19
471.997	102.19
472.216	103.19
472.435	112.19
472.654	99.19
472.873	105.19
473.092	99.19
473.311	97.19
473.53	108.19
473.749	111.19
473.968	111.19
474.187	108.19
474.406	100.19
474.625	111.19
474.844	107.19
475.063	105.19
475.282	110.19
475.501	100.19
475.72	102.19
475.939	111.19
476.158	100.19
476.377	107.19
476.596	116.19
476.814	96.19
477.033	92.19
477.252	105.19
477.471	124.19
477.69	95.19
477.908	107.19
478.127	111.19
478.346	115.19
478.564	107.19
478.783	117.19
479.002	122.19
479.22	126.19
479.439	110.19
479.658	111.19
479.876	102.19
480.095	99.19
480.313	100.19
480.532	105.19
480.751	111.19
480.969	88.19
481.188	83.19
481.406	87.19
481.624	83.19
481.843	90.19
482.061	102.19
482.28	94.19
482.498	93.19
482.717	109.19
482.935	108.19
483.153	125.19
483.372	116.19
483.59	124.19
483.808	110.19
484.027	114.19
484.245	105.19
484.463	112.19
484.681	134.19
484.9	108.19
485.118	124.19
485.336	126.19
485.554	115.19
485.772	97.19
485.99	110.19
486.209	105.19
486.427	94.19
486.645	109.19
486.863	102.19
487.081	109.19
487.299	94.19
487.517	114.19
487.735	108.19
487.953	136.19
488.171	124.19
488.389	142.19
488.607	118.19
488.825	112.19
489.043	90.19
489.261	120.19
489.479	112.19
489.696	102.19
489.914	114.19
490.132	122.19
490.35	109.19
490.568	116.19
490.786	134.19
491.003	140.19
491.221	145.19
491.439	131.19
491.657	133.19
491.874	145.19
492.092	150.19
492.31	149.19
492.527	153.19
492.745	156.19
492.963	136.19
493.18	145.19
493.398	138.19
493.615	126.19
493.833	133.19
494.05	142.19
494.268	128.19
494.485	127.19
494.703	154.19
494.92	136.19
495.138	135.19
495.355	145.19
495.573	122.19
495.79	144.19
496.008	125.19
496.225	139.19
496.442	140.19
496.66	138.19
496.877	119.19
497.094	130.19
497.312	117.19
497.529	130.19
497.746	116.19
497.963	122.19
498.181	107.19
498.398	121.19
498.615	103.19
498.832	106.19
499.049	94.19
499.267	111.19
499.484	97.19
499.701	116.19
499.918	105.19
500.135	114.19
500.352	118.19
500.569	109.19
500.786	126.19
501.003	106.19
501.22	119.19
501.437	132.19
501.654	108.19
501.871	101.19
502.088	120.19
502.305	106.19
502.522	114.19
502.739	106.19
502.956	111.19
503.172	119.19
503.389	107.19
503.606	110.19
503.823	105.19
504.04	105.19
504.256	123.19
504.473	111.19
504.69	106.19
504.907	106.19
505.123	100.19
505.34	102.19
505.557	115.19
505.773	111.19
505.99	104.19
506.207	93.19
506.423	108.19
506.64	94.19
506.856	101.19
507.073	108.19
507.289	110.19
507.506	103.19
507.722	114.19
507.939	102.19
508.155	111.19
508.372	103.19
508.588	102.19
508.805	107.19
509.021	111.19
509.238	82.19
509.454	96.19
509.67	108.19
509.887	95.19
510.103	73.19
510.319	94.19
510.536	94.19
510.752	89.19
510.968	85.19
511.184	87.19
511.401	89.19
511.617	78.19
511.833	87.19
512.049	100.19
512.265	92.19
512.481	80.19
512.698	91.19
512.914	82.19
513.13	85.19
513.346	91.19
513.562	101.19
