Data from Zn(NO3)2Standard.Agarose3%.GreenCap.LampEnergy10E.O_HRD10591_15-07-50-946.txt Node
Date: Mon Jul 22 15:07:50 EDT 2019
User: cochatt
Spectrometer: HR+D1059
Trigger mode: 1
Integration Time (sec): 1.000000E-1
Scans to average: 1
Electric dark correction enabled: true
Nonlinearity correction enabled: false
Boxcar width: 0
XAxis mode: Wavelengths
Number of Pixels in Spectrum: 2048
>>>>>Begin Spectral Data<<<<<
223.165	-19.38
223.4	-19.38
223.635	-19.38
223.869	-14.38
224.104	-17.38
224.338	-25.38
224.573	-8.38
224.808	-21.38
225.042	-0.38
225.277	10.62
225.511	13.62
225.746	-5.38
225.98	4.62
226.215	0.62
226.449	20.62
226.683	12.62
226.918	18.62
227.152	30.62
227.387	44.62
227.621	47.62
227.856	38.62
228.09	44.62
228.324	53.62
228.559	43.62
228.793	45.62
229.027	54.62
229.262	62.62
229.496	69.62
229.73	76.62
229.964	70.62
230.199	81.62
230.433	76.62
230.667	92.62
230.901	78.62
231.136	82.62
231.37	82.62
231.604	98.62
231.838	82.62
232.072	76.62
232.306	94.62
232.541	70.62
232.775	70.62
233.009	77.62
233.243	62.62
233.477	71.62
233.711	81.62
233.945	93.62
234.179	86.62
234.413	86.62
234.647	83.62
234.881	83.62
235.115	80.62
235.349	87.62
235.583	88.62
235.817	77.62
236.051	83.62
236.285	77.62
236.519	85.62
236.753	90.62
236.987	77.62
237.221	80.62
237.455	85.62
237.689	83.62
237.922	77.62
238.156	84.62
238.39	71.62
238.624	89.62
238.858	77.62
239.091	83.62
239.325	73.62
239.559	78.62
239.793	83.62
240.027	86.62
240.26	91.62
240.494	87.62
240.728	82.62
240.961	85.62
241.195	87.62
241.429	80.62
241.662	75.62
241.896	75.62
242.13	75.62
242.363	80.62
242.597	95.62
242.83	79.62
243.064	74.62
243.298	75.62
243.531	77.62
243.765	73.62
243.998	89.62
244.232	72.62
244.465	84.62
244.699	73.62
244.932	76.62
245.166	74.62
245.399	87.62
245.633	83.62
245.866	81.62
246.099	78.62
246.333	84.62
246.566	62.62
246.8	78.62
247.033	77.62
247.266	79.62
247.5	67.62
247.733	77.62
247.966	87.62
248.2	93.62
248.433	82.62
248.666	81.62
248.899	79.62
249.133	89.62
249.366	79.62
249.599	80.62
249.832	72.62
250.066	84.62
250.299	83.62
250.532	76.62
250.765	84.62
250.998	86.62
251.231	90.62
251.465	75.62
251.698	78.62
251.931	86.62
252.164	92.62
252.397	85.62
252.63	67.62
252.863	71.62
253.096	69.62
253.329	93.62
253.562	92.62
253.795	100.62
254.028	75.62
254.261	89.62
254.494	89.62
254.727	77.62
254.96	71.62
255.193	77.62
255.426	81.62
255.659	90.62
255.892	91.62
256.124	78.62
256.357	69.62
256.59	91.62
256.823	80.62
257.056	83.62
257.289	91.62
257.521	83.62
257.754	85.62
257.987	60.62
258.22	77.62
258.452	85.62
258.685	70.62
258.918	70.62
259.151	73.62
259.383	74.62
259.616	88.62
259.849	84.62
260.081	83.62
260.314	87.62
260.547	86.62
260.779	93.62
261.012	73.62
261.244	72.62
261.477	87.62
261.71	99.62
261.942	93.62
262.175	86.62
262.407	89.62
262.64	81.62
262.872	76.62
263.105	81.62
263.337	87.62
263.57	79.62
263.802	92.62
264.035	78.62
264.267	86.62
264.499	79.62
264.732	94.62
264.964	78.62
265.197	71.62
265.429	81.62
265.661	78.62
265.894	89.62
266.126	83.62
266.358	100.62
266.591	80.62
266.823	101.62
267.055	84.62
267.287	85.62
267.52	86.62
267.752	86.62
267.984	74.62
268.216	85.62
268.448	67.62
268.681	67.62
268.913	83.62
269.145	84.62
269.377	89.62
269.609	99.62
269.841	79.62
270.073	89.62
270.306	69.62
270.538	87.62
270.77	88.62
271.002	85.62
271.234	78.62
271.466	94.62
271.698	98.62
271.93	79.62
272.162	74.62
272.394	87.62
272.626	87.62
272.858	81.62
273.09	85.62
273.322	79.62
273.553	78.62
273.785	94.62
274.017	77.62
274.249	77.62
274.481	79.62
274.713	94.62
274.945	87.62
275.176	69.62
275.408	90.62
275.64	86.62
275.872	74.62
276.104	92.62
276.335	81.62
276.567	87.62
276.799	76.62
277.031	73.62
277.262	90.62
277.494	86.62
277.726	80.62
277.957	89.62
278.189	85.62
278.421	92.62
278.652	84.62
278.884	78.62
279.115	69.62
279.347	83.62
279.579	82.62
279.81	87.62
280.042	86.62
280.273	79.62
280.505	79.62
280.736	90.62
280.968	84.62
281.199	83.62
281.431	97.62
281.662	81.62
281.894	90.62
282.125	91.62
282.356	83.62
282.588	90.62
282.819	80.62
283.051	79.62
283.282	89.62
283.513	97.62
283.745	85.62
283.976	90.62
284.207	84.62
284.439	86.62
284.67	89.62
284.901	82.62
285.132	94.62
285.364	93.62
285.595	85.62
285.826	79.62
286.057	102.62
286.288	85.62
286.52	98.62
286.751	91.62
286.982	83.62
287.213	79.62
287.444	99.62
287.675	79.62
287.906	90.62
288.138	75.62
288.369	93.62
288.6	87.62
288.831	91.62
289.062	87.62
289.293	98.62
289.524	95.62
289.755	95.62
289.986	103.62
290.217	86.62
290.448	87.62
290.679	91.62
290.91	104.62
291.141	91.62
291.371	81.62
291.602	82.62
291.833	78.62
292.064	72.62
292.295	82.62
292.526	93.62
292.757	83.62
292.987	89.62
293.218	99.62
293.449	83.62
293.68	82.62
293.91	92.62
294.141	81.62
294.372	79.62
294.603	94.62
294.833	82.62
295.064	105.62
295.295	105.62
295.525	90.62
295.756	91.62
295.987	86.62
296.217	74.62
296.448	87.62
296.679	89.62
296.909	76.62
297.14	95.62
297.37	86.62
297.601	78.62
297.831	85.62
298.062	91.62
298.292	87.62
298.523	89.62
298.753	94.62
298.984	71.62
299.214	98.62
299.445	93.62
299.675	88.62
299.905	84.62
300.136	94.62
300.366	93.62
300.597	78.62
300.827	78.62
301.057	78.62
301.288	102.62
301.518	97.62
301.748	83.62
301.979	78.62
302.209	85.62
302.439	90.62
302.669	88.62
302.9	89.62
303.13	94.62
303.36	102.62
303.59	88.62
303.82	92.62
304.051	90.62
304.281	91.62
304.511	90.62
304.741	77.62
304.971	86.62
305.201	92.62
305.431	93.62
305.661	90.62
305.891	91.62
306.121	88.62
306.352	79.62
306.582	96.62
306.812	78.62
307.042	90.62
307.272	91.62
307.502	83.62
307.731	87.62
307.961	86.62
308.191	93.62
308.421	80.62
308.651	84.62
308.881	85.62
309.111	79.62
309.341	87.62
309.571	89.62
309.8	80.62
310.03	85.62
310.26	89.62
310.49	94.62
310.72	85.62
310.949	93.62
311.179	91.62
311.409	87.62
311.639	98.62
311.868	90.62
312.098	82.62
312.328	102.62
312.557	106.62
312.787	97.62
313.017	84.62
313.246	77.62
313.476	81.62
313.706	83.62
313.935	102.62
314.165	93.62
314.394	78.62
314.624	79.62
314.853	87.62
315.083	74.62
315.312	110.62
315.542	98.62
315.771	88.62
316.001	70.62
316.23	83.62
316.46	94.62
316.689	79.62
316.919	84.62
317.148	92.62
317.377	86.62
317.607	101.62
317.836	87.62
318.065	95.62
318.295	91.62
318.524	100.62
318.753	94.62
318.983	87.62
319.212	84.62
319.441	81.62
319.67	98.62
319.9	84.62
320.129	79.62
320.358	94.62
320.587	91.62
320.816	76.62
321.046	83.62
321.275	85.62
321.504	93.62
321.733	87.62
321.962	90.62
322.191	93.62
322.42	93.62
322.649	89.62
322.878	94.62
323.108	88.62
323.337	65.62
323.566	77.62
323.795	89.62
324.024	91.62
324.253	74.62
324.482	84.62
324.71	76.62
324.939	90.62
325.168	83.62
325.397	82.62
325.626	87.62
325.855	92.62
326.084	85.62
326.313	83.62
326.542	79.62
326.77	78.62
326.999	84.62
327.228	92.62
327.457	102.62
327.686	95.62
327.914	101.62
328.143	99.62
328.372	101.62
328.6	84.62
328.829	79.62
329.058	84.62
329.287	84.62
329.515	98.62
329.744	82.62
329.972	93.62
330.201	73.62
330.43	91.62
330.658	91.62
330.887	92.62
331.115	69.62
331.344	101.62
331.572	79.62
331.801	83.62
332.03	93.62
332.258	77.62
332.486	84.62
332.715	82.62
332.943	86.62
333.172	89.62
333.4	80.62
333.629	97.62
333.857	91.62
334.085	88.62
334.314	90.62
334.542	91.62
334.771	77.62
334.999	66.62
335.227	79.62
335.455	83.62
335.684	71.62
335.912	99.62
336.14	101.62
336.369	94.62
336.597	98.62
336.825	84.62
337.053	93.62
337.281	77.62
337.51	82.62
337.738	98.62
337.966	72.62
338.194	86.62
338.422	98.62
338.65	79.62
338.878	70.62
339.106	87.62
339.334	89.62
339.562	82.62
339.79	94.62
340.018	78.62
340.246	90.62
340.474	81.62
340.702	88.62
340.93	92.62
341.158	89.62
341.386	82.62
341.614	72.62
341.842	97.62
342.07	92.62
342.298	74.62
342.526	80.62
342.754	89.62
342.981	85.62
343.209	82.62
343.437	93.62
343.665	96.62
343.893	77.62
344.12	91.62
344.348	96.62
344.576	72.62
344.804	94.62
345.031	87.62
345.259	83.62
345.487	75.62
345.714	86.62
345.942	98.62
346.17	82.62
346.397	92.62
346.625	95.62
346.853	84.62
347.08	81.62
347.308	93.62
347.535	87.62
347.763	92.62
347.99	86.62
348.218	89.62
348.445	89.62
348.673	97.62
348.9	97.62
349.128	92.62
349.355	81.62
349.583	83.62
349.81	89.62
350.037	98.62
350.265	84.62
350.492	77.62
350.72	78.62
350.947	91.62
351.174	100.62
351.402	104.62
351.629	78.62
351.856	88.62
352.083	75.62
352.311	86.62
352.538	82.62
352.765	90.62
352.992	91.62
353.22	95.62
353.447	75.62
353.674	76.62
353.901	81.62
354.128	95.62
354.355	92.62
354.583	92.62
354.81	68.62
355.037	79.62
355.264	78.62
355.491	97.62
355.718	77.62
355.945	89.62
356.172	82.62
356.399	83.62
356.626	79.62
356.853	89.62
357.08	67.62
357.307	71.62
357.534	92.62
357.761	91.62
357.988	85.62
358.215	77.62
358.441	71.62
358.668	88.62
358.895	81.62
359.122	77.62
359.349	83.62
359.576	76.62
359.802	98.62
360.029	84.62
360.256	78.62
360.483	77.62
360.709	79.62
360.936	94.62
361.163	103.62
361.39	75.62
361.616	92.62
361.843	80.62
362.07	97.62
362.296	96.62
362.523	87.62
362.749	81.62
362.976	88.62
363.203	93.62
363.429	97.62
363.656	79.62
363.882	84.62
364.109	84.62
364.335	80.62
364.562	88.62
364.788	85.62
365.015	97.62
365.241	89.62
365.468	83.62
365.694	84.62
365.92	86.62
366.147	87.62
366.373	77.62
366.599	74.62
366.826	82.62
367.052	88.62
367.278	78.62
367.505	93.62
367.731	99.62
367.957	104.62
368.184	95.62
368.41	79.62
368.636	104.62
368.862	77.62
369.089	91.62
369.315	87.62
369.541	83.62
369.767	88.62
369.993	79.62
370.219	96.62
370.445	97.62
370.672	86.62
370.898	89.62
371.124	83.62
371.35	81.62
371.576	69.62
371.802	85.62
372.028	96.62
372.254	84.62
372.48	91.62
372.706	84.62
372.932	94.62
373.158	86.62
373.384	96.62
373.61	91.62
373.835	87.62
374.061	93.62
374.287	98.62
374.513	93.62
374.739	85.62
374.965	94.62
375.191	91.62
375.416	82.62
375.642	81.62
375.868	92.62
376.094	73.62
376.319	94.62
376.545	99.62
376.771	93.62
376.997	95.62
377.222	101.62
377.448	102.62
377.674	90.62
377.899	82.62
378.125	91.62
378.35	113.62
378.576	90.62
378.802	84.62
379.027	78.62
379.253	86.62
379.478	86.62
379.704	89.62
379.929	71.62
380.155	83.62
380.38	93.62
380.606	84.62
380.831	84.62
381.057	105.62
381.282	88.62
381.507	88.62
381.733	88.62
381.958	86.62
382.184	83.62
382.409	89.62
382.634	94.62
382.86	98.62
383.085	87.62
383.31	99.62
383.535	98.62
383.761	98.62
383.986	70.62
384.211	99.62
384.436	99.62
384.662	99.62
384.887	95.62
385.112	90.62
385.337	86.62
385.562	86.62
385.787	86.62
386.013	90.62
386.238	89.62
386.463	99.62
386.688	79.62
386.913	91.62
387.138	90.62
387.363	101.62
387.588	94.62
387.813	96.62
388.038	89.62
388.263	95.62
388.488	80.62
388.713	106.62
388.938	93.62
389.163	93.62
389.387	91.62
389.612	107.62
389.837	91.62
390.062	102.62
390.287	100.62
390.512	101.62
390.736	83.62
390.961	93.62
391.186	88.62
391.411	102.62
391.636	100.62
391.86	85.62
392.085	86.62
392.31	95.62
392.534	84.62
392.759	97.62
392.984	98.62
393.208	103.62
393.433	88.62
393.658	95.62
393.882	97.62
394.107	95.62
394.331	84.62
394.556	84.62
394.78	84.62
395.005	101.62
395.229	94.62
395.454	91.62
395.678	90.62
395.903	94.62
396.127	89.62
396.352	98.62
396.576	86.62
396.801	83.62
397.025	96.62
397.249	91.62
397.474	90.62
397.698	99.62
397.922	99.62
398.147	93.62
398.371	108.62
398.595	105.62
398.82	86.62
399.044	95.62
399.268	103.62
399.492	91.62
399.717	95.62
399.941	101.62
400.165	119.62
400.389	99.62
400.613	87.62
400.837	90.62
401.062	89.62
401.286	96.62
401.51	95.62
401.734	89.62
401.958	99.62
402.182	102.62
402.406	113.62
402.63	115.62
402.854	88.62
403.078	100.62
403.302	97.62
403.526	94.62
403.75	98.62
403.974	88.62
404.198	108.62
404.422	105.62
404.645	98.62
404.869	80.62
405.093	100.62
405.317	90.62
405.541	96.62
405.765	91.62
405.988	93.62
406.212	93.62
406.436	87.62
406.66	97.62
406.883	101.62
407.107	99.62
407.331	99.62
407.555	91.62
407.778	107.62
408.002	84.62
408.226	107.62
408.449	104.62
408.673	94.62
408.896	93.62
409.12	91.62
409.344	104.62
409.567	101.62
409.791	102.62
410.014	105.62
410.238	97.62
410.461	95.62
410.685	105.62
410.908	90.62
411.132	100.62
411.355	113.62
411.578	108.62
411.802	103.62
412.025	98.62
412.249	110.62
412.472	93.62
412.695	94.62
412.919	109.62
413.142	105.62
413.365	98.62
413.589	103.62
413.812	86.62
414.035	95.62
414.258	107.62
414.482	99.62
414.705	110.62
414.928	108.62
415.151	101.62
415.374	109.62
415.597	107.62
415.821	104.62
416.044	98.62
416.267	98.62
416.49	91.62
416.713	107.62
416.936	99.62
417.159	107.62
417.382	110.62
417.605	95.62
417.828	108.62
418.051	98.62
418.274	117.62
418.497	100.62
418.72	103.62
418.943	124.62
419.166	126.62
419.389	117.62
419.611	117.62
419.834	99.62
420.057	99.62
420.28	106.62
420.503	98.62
420.726	122.62
420.948	111.62
421.171	116.62
421.394	105.62
421.617	106.62
421.839	107.62
422.062	108.62
422.285	108.62
422.507	97.62
422.73	100.62
422.953	97.62
423.175	110.62
423.398	89.62
423.621	97.62
423.843	97.62
424.066	105.62
424.288	115.62
424.511	103.62
424.733	127.62
424.956	116.62
425.178	109.62
425.401	101.62
425.623	98.62
425.846	106.62
426.068	97.62
426.291	110.62
426.513	115.62
426.735	117.62
426.958	104.62
427.18	111.62
427.402	108.62
427.625	102.62
427.847	106.62
428.069	107.62
428.292	102.62
428.514	100.62
428.736	101.62
428.958	106.62
429.181	103.62
429.403	119.62
429.625	107.62
429.847	104.62
430.069	101.62
430.292	101.62
430.514	113.62
430.736	119.62
430.958	114.62
431.18	107.62
431.402	103.62
431.624	100.62
431.846	90.62
432.068	91.62
432.29	91.62
432.512	99.62
432.734	104.62
432.956	102.62
433.178	92.62
433.4	97.62
433.622	114.62
433.844	110.62
434.066	109.62
434.287	92.62
434.509	83.62
434.731	91.62
434.953	97.62
435.175	97.62
435.397	108.62
435.618	91.62
435.84	103.62
436.062	102.62
436.284	112.62
436.505	99.62
436.727	106.62
436.949	104.62
437.17	100.62
437.392	105.62
437.614	108.62
437.835	94.62
438.057	93.62
438.278	98.62
438.5	96.62
438.721	105.62
438.943	113.62
439.165	112.62
439.386	122.62
439.608	104.62
439.829	99.62
440.05	106.62
440.272	109.62
440.493	100.62
440.715	122.62
440.936	113.62
441.158	106.62
441.379	107.62
441.6	119.62
441.822	105.62
442.043	123.62
442.264	116.62
442.486	116.62
442.707	109.62
442.928	117.62
443.149	103.62
443.371	110.62
443.592	116.62
443.813	107.62
444.034	112.62
444.255	108.62
444.476	95.62
444.698	95.62
444.919	89.62
445.14	222.62
445.361	166.62
445.582	109.62
445.803	105.62
446.024	106.62
446.245	117.62
446.466	118.62
446.687	118.62
446.908	123.62
447.129	119.62
447.35	123.62
447.571	107.62
447.792	115.62
448.013	113.62
448.234	109.62
448.455	123.62
448.675	115.62
448.896	101.62
449.117	105.62
449.338	125.62
449.559	109.62
449.779	113.62
450	117.62
450.221	109.62
450.442	106.62
450.662	107.62
450.883	102.62
451.104	129.62
451.324	109.62
451.545	118.62
451.766	104.62
451.986	105.62
452.207	109.62
452.428	121.62
452.648	114.62
452.869	103.62
453.089	100.62
453.31	97.62
453.53	101.62
453.751	109.62
453.971	97.62
454.192	98.62
454.412	88.62
454.633	108.62
454.853	105.62
455.073	104.62
455.294	97.62
455.514	109.62
455.734	108.62
455.955	92.62
456.175	99.62
456.395	84.62
456.616	91.62
456.836	103.62
457.056	98.62
457.276	98.62
457.497	97.62
457.717	83.62
457.937	90.62
458.157	103.62
458.377	102.62
458.598	92.62
458.818	82.62
459.038	95.62
459.258	91.62
459.478	79.62
459.698	84.62
459.918	84.62
460.138	95.62
460.358	86.62
460.578	93.62
460.798	91.62
461.018	92.62
461.238	103.62
461.458	103.62
461.678	102.62
461.898	100.62
462.118	101.62
462.338	92.62
462.558	98.62
462.777	102.62
462.997	97.62
463.217	102.62
463.437	102.62
463.657	94.62
463.876	114.62
464.096	110.62
464.316	101.62
464.536	97.62
464.755	103.62
464.975	84.62
465.195	102.62
465.414	99.62
465.634	116.62
465.854	97.62
466.073	107.62
466.293	93.62
466.512	102.62
466.732	114.62
466.951	94.62
467.171	99.62
467.391	106.62
467.61	115.62
467.829	91.62
468.049	108.62
468.268	104.62
468.488	94.62
468.707	112.62
468.927	102.62
469.146	103.62
469.365	116.62
469.585	103.62
469.804	115.62
470.023	113.62
470.243	102.62
470.462	117.62
470.681	117.62
470.901	109.62
471.12	104.62
471.339	106.62
471.558	116.62
471.777	107.62
471.997	102.62
472.216	108.62
472.435	101.62
472.654	86.62
472.873	90.62
473.092	96.62
473.311	104.62
473.53	106.62
473.749	110.62
473.968	106.62
474.187	108.62
474.406	83.62
474.625	111.62
474.844	110.62
475.063	109.62
475.282	106.62
475.501	109.62
475.72	110.62
475.939	100.62
476.158	110.62
476.377	102.62
476.596	94.62
476.814	96.62
477.033	106.62
477.252	91.62
477.471	105.62
477.69	104.62
477.908	114.62
478.127	116.62
478.346	103.62
478.564	100.62
478.783	117.62
479.002	121.62
479.22	113.62
479.439	94.62
479.658	107.62
479.876	87.62
480.095	91.62
480.313	109.62
480.532	104.62
480.751	105.62
480.969	92.62
481.188	96.62
481.406	91.62
481.624	97.62
481.843	81.62
482.061	93.62
482.28	86.62
482.498	80.62
482.717	86.62
482.935	109.62
483.153	127.62
483.372	121.62
483.59	117.62
483.808	96.62
484.027	110.62
484.245	109.62
484.463	110.62
484.681	123.62
484.9	122.62
485.118	130.62
485.336	114.62
485.554	99.62
485.772	95.62
485.99	97.62
486.209	106.62
486.427	99.62
486.645	110.62
486.863	108.62
487.081	124.62
487.299	132.62
487.517	126.62
487.735	124.62
487.953	142.62
488.171	140.62
488.389	136.62
488.607	121.62
488.825	128.62
489.043	113.62
489.261	113.62
489.479	113.62
489.696	111.62
489.914	113.62
490.132	103.62
490.35	135.62
490.568	107.62
490.786	129.62
491.003	134.62
491.221	138.62
491.439	114.62
491.657	135.62
491.874	131.62
492.092	153.62
492.31	159.62
492.527	174.62
492.745	155.62
492.963	132.62
493.18	125.62
493.398	146.62
493.615	131.62
493.833	134.62
494.05	115.62
494.268	121.62
494.485	138.62
494.703	141.62
494.92	130.62
495.138	139.62
495.355	127.62
495.573	130.62
495.79	135.62
496.008	143.62
496.225	125.62
496.442	132.62
496.66	121.62
496.877	123.62
497.094	133.62
497.312	125.62
497.529	123.62
497.746	121.62
497.963	106.62
498.181	101.62
498.398	101.62
498.615	98.62
498.832	116.62
499.049	99.62
499.267	105.62
499.484	104.62
499.701	100.62
499.918	99.62
500.135	94.62
500.352	116.62
500.569	108.62
500.786	114.62
501.003	112.62
501.22	111.62
501.437	121.62
501.654	116.62
501.871	106.62
502.088	101.62
502.305	116.62
502.522	113.62
502.739	101.62
502.956	114.62
503.172	110.62
503.389	97.62
503.606	82.62
503.823	98.62
504.04	106.62
504.256	101.62
504.473	121.62
504.69	108.62
504.907	115.62
505.123	97.62
505.34	105.62
505.557	94.62
505.773	98.62
505.99	111.62
506.207	107.62
506.423	115.62
506.64	102.62
506.856	114.62
507.073	111.62
507.289	107.62
507.506	93.62
507.722	100.62
507.939	94.62
508.155	91.62
508.372	92.62
508.588	107.62
508.805	110.62
509.021	99.62
509.238	101.62
509.454	96.62
509.67	106.62
509.887	98.62
510.103	98.62
510.319	85.62
510.536	98.62
510.752	97.62
510.968	85.62
511.184	79.62
511.401	94.62
511.617	87.62
511.833	79.62
512.049	104.62
512.265	91.62
512.481	92.62
512.698	89.62
512.914	91.62
513.13	86.62
513.346	92.62
513.562	99.62
513.778	84.62
513.994	98.62
