Data from Zn(NO3)2Standard.Agarose3%.GreenCap.LampEnergy5.5.E.O_HRD10591_15-02-24-768.txt Node
Date: Mon Jul 22 15:02:24 EDT 2019
User: cochatt
Spectrometer: HR+D1059
Trigger mode: 1
Integration Time (sec): 1.000000E-1
Scans to average: 1
Electric dark correction enabled: true
Nonlinearity correction enabled: false
Boxcar width: 0
XAxis mode: Wavelengths
Number of Pixels in Spectrum: 2048
>>>>>Begin Spectral Data<<<<<
223.165	-13.69
223.4	-13.69
223.635	-13.69
223.869	-22.69
224.104	-16.69
224.338	-31.69
224.573	-27.69
224.808	-11.69
225.042	1.31
225.277	0.31
225.511	-5.69
225.746	8.31
225.98	-0.69
226.215	7.31
226.449	8.31
226.683	22.31
226.918	38.31
227.152	44.31
227.387	32.31
227.621	46.31
227.856	54.31
228.09	33.31
228.324	54.31
228.559	62.31
228.793	50.31
229.027	66.31
229.262	73.31
229.496	63.31
229.73	77.31
229.964	57.31
230.199	72.31
230.433	70.31
230.667	73.31
230.901	77.31
231.136	90.31
231.37	88.31
231.604	69.31
231.838	69.31
232.072	83.31
232.306	81.31
232.541	85.31
232.775	83.31
233.009	88.31
233.243	91.31
233.477	91.31
233.711	79.31
233.945	68.31
234.179	68.31
234.413	88.31
234.647	74.31
234.881	77.31
235.115	69.31
235.349	77.31
235.583	89.31
235.817	89.31
236.051	68.31
236.285	78.31
236.519	84.31
236.753	81.31
236.987	84.31
237.221	85.31
237.455	70.31
237.689	70.31
237.922	78.31
238.156	65.31
238.39	79.31
238.624	85.31
238.858	71.31
239.091	88.31
239.325	72.31
239.559	80.31
239.793	79.31
240.027	79.31
240.26	77.31
240.494	90.31
240.728	77.31
240.961	65.31
241.195	81.31
241.429	80.31
241.662	71.31
241.896	68.31
242.13	75.31
242.363	73.31
242.597	75.31
242.83	79.31
243.064	79.31
243.298	89.31
243.531	80.31
243.765	82.31
243.998	86.31
244.232	82.31
244.465	84.31
244.699	64.31
244.932	79.31
245.166	83.31
245.399	73.31
245.633	79.31
245.866	77.31
246.099	72.31
246.333	72.31
246.566	89.31
246.8	78.31
247.033	79.31
247.266	71.31
247.5	77.31
247.733	73.31
247.966	84.31
248.2	77.31
248.433	88.31
248.666	90.31
248.899	79.31
249.133	89.31
249.366	79.31
249.599	78.31
249.832	88.31
250.066	78.31
250.299	86.31
250.532	86.31
250.765	76.31
250.998	81.31
251.231	82.31
251.465	81.31
251.698	88.31
251.931	84.31
252.164	76.31
252.397	84.31
252.63	73.31
252.863	75.31
253.096	74.31
253.329	75.31
253.562	78.31
253.795	80.31
254.028	77.31
254.261	86.31
254.494	76.31
254.727	78.31
254.96	73.31
255.193	87.31
255.426	90.31
255.659	91.31
255.892	73.31
256.124	85.31
256.357	75.31
256.59	94.31
256.823	82.31
257.056	80.31
257.289	70.31
257.521	81.31
257.754	83.31
257.987	81.31
258.22	91.31
258.452	76.31
258.685	90.31
258.918	83.31
259.151	83.31
259.383	79.31
259.616	85.31
259.849	83.31
260.081	76.31
260.314	85.31
260.547	84.31
260.779	88.31
261.012	89.31
261.244	87.31
261.477	78.31
261.71	86.31
261.942	85.31
262.175	77.31
262.407	86.31
262.64	77.31
262.872	83.31
263.105	85.31
263.337	80.31
263.57	82.31
263.802	91.31
264.035	84.31
264.267	61.31
264.499	86.31
264.732	98.31
264.964	91.31
265.197	94.31
265.429	86.31
265.661	76.31
265.894	72.31
266.126	78.31
266.358	100.31
266.591	90.31
266.823	78.31
267.055	77.31
267.287	73.31
267.52	72.31
267.752	94.31
267.984	90.31
268.216	89.31
268.448	72.31
268.681	74.31
268.913	79.31
269.145	81.31
269.377	98.31
269.609	99.31
269.841	86.31
270.073	82.31
270.306	83.31
270.538	90.31
270.77	83.31
271.002	83.31
271.234	88.31
271.466	87.31
271.698	77.31
271.93	94.31
272.162	91.31
272.394	88.31
272.626	69.31
272.858	83.31
273.09	84.31
273.322	71.31
273.553	90.31
273.785	83.31
274.017	80.31
274.249	79.31
274.481	79.31
274.713	93.31
274.945	81.31
275.176	89.31
275.408	72.31
275.64	88.31
275.872	81.31
276.104	98.31
276.335	92.31
276.567	87.31
276.799	73.31
277.031	68.31
277.262	87.31
277.494	78.31
277.726	89.31
277.957	85.31
278.189	77.31
278.421	76.31
278.652	111.31
278.884	90.31
279.115	86.31
279.347	94.31
279.579	82.31
279.81	90.31
280.042	87.31
280.273	69.31
280.505	70.31
280.736	77.31
280.968	98.31
281.199	93.31
281.431	94.31
281.662	91.31
281.894	90.31
282.125	101.31
282.356	97.31
282.588	84.31
282.819	84.31
283.051	85.31
283.282	72.31
283.513	88.31
283.745	99.31
283.976	87.31
284.207	83.31
284.439	80.31
284.67	73.31
284.901	84.31
285.132	76.31
285.364	87.31
285.595	87.31
285.826	79.31
286.057	71.31
286.288	83.31
286.52	82.31
286.751	85.31
286.982	89.31
287.213	90.31
287.444	98.31
287.675	81.31
287.906	86.31
288.138	77.31
288.369	87.31
288.6	89.31
288.831	70.31
289.062	84.31
289.293	87.31
289.524	86.31
289.755	79.31
289.986	80.31
290.217	90.31
290.448	90.31
290.679	82.31
290.91	95.31
291.141	84.31
291.371	84.31
291.602	82.31
291.833	85.31
292.064	80.31
292.295	88.31
292.526	83.31
292.757	89.31
292.987	79.31
293.218	93.31
293.449	88.31
293.68	90.31
293.91	84.31
294.141	76.31
294.372	93.31
294.603	76.31
294.833	87.31
295.064	69.31
295.295	85.31
295.525	85.31
295.756	73.31
295.987	93.31
296.217	73.31
296.448	71.31
296.679	92.31
296.909	80.31
297.14	79.31
297.37	76.31
297.601	78.31
297.831	92.31
298.062	93.31
298.292	87.31
298.523	90.31
298.753	85.31
298.984	97.31
299.214	77.31
299.445	86.31
299.675	74.31
299.905	81.31
300.136	91.31
300.366	83.31
300.597	78.31
300.827	86.31
301.057	78.31
301.288	90.31
301.518	95.31
301.748	78.31
301.979	92.31
302.209	84.31
302.439	75.31
302.669	74.31
302.9	83.31
303.13	78.31
303.36	85.31
303.59	91.31
303.82	98.31
304.051	108.31
304.281	96.31
304.511	78.31
304.741	76.31
304.971	80.31
305.201	91.31
305.431	93.31
305.661	79.31
305.891	85.31
306.121	85.31
306.352	96.31
306.582	85.31
306.812	88.31
307.042	87.31
307.272	93.31
307.502	80.31
307.731	82.31
307.961	91.31
308.191	92.31
308.421	76.31
308.651	87.31
308.881	108.31
309.111	80.31
309.341	82.31
309.571	79.31
309.8	86.31
310.03	88.31
310.26	89.31
310.49	83.31
310.72	92.31
310.949	79.31
311.179	88.31
311.409	91.31
311.639	75.31
311.868	85.31
312.098	89.31
312.328	83.31
312.557	87.31
312.787	85.31
313.017	85.31
313.246	100.31
313.476	83.31
313.706	72.31
313.935	99.31
314.165	104.31
314.394	87.31
314.624	93.31
314.853	102.31
315.083	95.31
315.312	81.31
315.542	82.31
315.771	81.31
316.001	83.31
316.23	98.31
316.46	85.31
316.689	77.31
316.919	81.31
317.148	99.31
317.377	90.31
317.607	82.31
317.836	77.31
318.065	82.31
318.295	86.31
318.524	86.31
318.753	84.31
318.983	90.31
319.212	86.31
319.441	87.31
319.67	78.31
319.9	92.31
320.129	83.31
320.358	86.31
320.587	90.31
320.816	83.31
321.046	79.31
321.275	70.31
321.504	77.31
321.733	84.31
321.962	85.31
322.191	104.31
322.42	99.31
322.649	91.31
322.878	86.31
323.108	97.31
323.337	83.31
323.566	87.31
323.795	89.31
324.024	90.31
324.253	83.31
324.482	86.31
324.71	81.31
324.939	76.31
325.168	81.31
325.397	84.31
325.626	79.31
325.855	90.31
326.084	72.31
326.313	74.31
326.542	90.31
326.77	75.31
326.999	74.31
327.228	80.31
327.457	81.31
327.686	79.31
327.914	78.31
328.143	76.31
328.372	87.31
328.6	85.31
328.829	75.31
329.058	93.31
329.287	91.31
329.515	94.31
329.744	83.31
329.972	80.31
330.201	100.31
330.43	86.31
330.658	77.31
330.887	83.31
331.115	87.31
331.344	78.31
331.572	80.31
331.801	85.31
332.03	96.31
332.258	100.31
332.486	79.31
332.715	99.31
332.943	92.31
333.172	77.31
333.4	92.31
333.629	86.31
333.857	91.31
334.085	76.31
334.314	89.31
334.542	87.31
334.771	92.31
334.999	84.31
335.227	86.31
335.455	88.31
335.684	78.31
335.912	87.31
336.14	83.31
336.369	95.31
336.597	79.31
336.825	63.31
337.053	76.31
337.281	87.31
337.51	90.31
337.738	87.31
337.966	101.31
338.194	90.31
338.422	84.31
338.65	94.31
338.878	99.31
339.106	78.31
339.334	86.31
339.562	85.31
339.79	93.31
340.018	81.31
340.246	93.31
340.474	84.31
340.702	87.31
340.93	92.31
341.158	78.31
341.386	95.31
341.614	93.31
341.842	76.31
342.07	82.31
342.298	83.31
342.526	80.31
342.754	94.31
342.981	87.31
343.209	85.31
343.437	87.31
343.665	87.31
343.893	85.31
344.12	83.31
344.348	97.31
344.576	90.31
344.804	80.31
345.031	76.31
345.259	86.31
345.487	101.31
345.714	78.31
345.942	90.31
346.17	81.31
346.397	89.31
346.625	78.31
346.853	70.31
347.08	80.31
347.308	87.31
347.535	88.31
347.763	80.31
347.99	88.31
348.218	100.31
348.445	81.31
348.673	94.31
348.9	88.31
349.128	80.31
349.355	86.31
349.583	90.31
349.81	82.31
350.037	74.31
350.265	71.31
350.492	83.31
350.72	88.31
350.947	77.31
351.174	85.31
351.402	78.31
351.629	80.31
351.856	80.31
352.083	87.31
352.311	82.31
352.538	82.31
352.765	99.31
352.992	85.31
353.22	75.31
353.447	90.31
353.674	89.31
353.901	74.31
354.128	93.31
354.355	94.31
354.583	94.31
354.81	77.31
355.037	95.31
355.264	87.31
355.491	96.31
355.718	76.31
355.945	86.31
356.172	85.31
356.399	75.31
356.626	79.31
356.853	91.31
357.08	90.31
357.307	84.31
357.534	78.31
357.761	89.31
357.988	71.31
358.215	77.31
358.441	80.31
358.668	87.31
358.895	97.31
359.122	102.31
359.349	84.31
359.576	88.31
359.802	97.31
360.029	84.31
360.256	93.31
360.483	79.31
360.709	84.31
360.936	102.31
361.163	86.31
361.39	82.31
361.616	74.31
361.843	95.31
362.07	86.31
362.296	88.31
362.523	92.31
362.749	69.31
362.976	86.31
363.203	87.31
363.429	81.31
363.656	100.31
363.882	90.31
364.109	78.31
364.335	89.31
364.562	85.31
364.788	91.31
365.015	90.31
365.241	71.31
365.468	90.31
365.694	91.31
365.92	74.31
366.147	86.31
366.373	79.31
366.599	82.31
366.826	82.31
367.052	86.31
367.278	80.31
367.505	77.31
367.731	79.31
367.957	88.31
368.184	81.31
368.41	91.31
368.636	76.31
368.862	85.31
369.089	84.31
369.315	97.31
369.541	73.31
369.767	75.31
369.993	77.31
370.219	96.31
370.445	77.31
370.672	96.31
370.898	77.31
371.124	88.31
371.35	88.31
371.576	85.31
371.802	88.31
372.028	82.31
372.254	71.31
372.48	76.31
372.706	85.31
372.932	90.31
373.158	79.31
373.384	77.31
373.61	84.31
373.835	83.31
374.061	92.31
374.287	82.31
374.513	88.31
374.739	98.31
374.965	75.31
375.191	85.31
375.416	85.31
375.642	77.31
375.868	80.31
376.094	87.31
376.319	76.31
376.545	76.31
376.771	85.31
376.997	79.31
377.222	77.31
377.448	84.31
377.674	79.31
377.899	88.31
378.125	89.31
378.35	74.31
378.576	95.31
378.802	81.31
379.027	82.31
379.253	86.31
379.478	88.31
379.704	87.31
379.929	84.31
380.155	78.31
380.38	98.31
380.606	74.31
380.831	87.31
381.057	104.31
381.282	77.31
381.507	81.31
381.733	88.31
381.958	95.31
382.184	90.31
382.409	84.31
382.634	98.31
382.86	79.31
383.085	99.31
383.31	86.31
383.535	92.31
383.761	93.31
383.986	62.31
384.211	70.31
384.436	91.31
384.662	78.31
384.887	74.31
385.112	78.31
385.337	84.31
385.562	92.31
385.787	70.31
386.013	100.31
386.238	83.31
386.463	77.31
386.688	78.31
386.913	77.31
387.138	75.31
387.363	82.31
387.588	79.31
387.813	82.31
388.038	78.31
388.263	85.31
388.488	78.31
388.713	69.31
388.938	93.31
389.163	94.31
389.387	84.31
389.612	93.31
389.837	79.31
390.062	82.31
390.287	86.31
390.512	86.31
390.736	79.31
390.961	74.31
391.186	83.31
391.411	79.31
391.636	96.31
391.86	88.31
392.085	79.31
392.31	83.31
392.534	87.31
392.759	75.31
392.984	92.31
393.208	74.31
393.433	92.31
393.658	85.31
393.882	87.31
394.107	73.31
394.331	80.31
394.556	85.31
394.78	85.31
395.005	87.31
395.229	76.31
395.454	86.31
395.678	74.31
395.903	81.31
396.127	74.31
396.352	88.31
396.576	83.31
396.801	83.31
397.025	88.31
397.249	84.31
397.474	88.31
397.698	91.31
397.922	83.31
398.147	92.31
398.371	100.31
398.595	87.31
398.82	82.31
399.044	79.31
399.268	85.31
399.492	95.31
399.717	93.31
399.941	83.31
400.165	78.31
400.389	83.31
400.613	93.31
400.837	74.31
401.062	88.31
401.286	83.31
401.51	87.31
401.734	79.31
401.958	93.31
402.182	74.31
402.406	79.31
402.63	92.31
402.854	70.31
403.078	78.31
403.302	87.31
403.526	85.31
403.75	96.31
403.974	83.31
404.198	93.31
404.422	84.31
404.645	92.31
404.869	88.31
405.093	90.31
405.317	90.31
405.541	87.31
405.765	84.31
405.988	83.31
406.212	86.31
406.436	89.31
406.66	90.31
406.883	90.31
407.107	81.31
407.331	75.31
407.555	84.31
407.778	81.31
408.002	83.31
408.226	81.31
408.449	89.31
408.673	85.31
408.896	80.31
409.12	97.31
409.344	83.31
409.567	84.31
409.791	77.31
410.014	92.31
410.238	87.31
410.461	94.31
410.685	85.31
410.908	83.31
411.132	100.31
411.355	92.31
411.578	81.31
411.802	82.31
412.025	87.31
412.249	80.31
412.472	82.31
412.695	79.31
412.919	89.31
413.142	86.31
413.365	89.31
413.589	68.31
413.812	94.31
414.035	103.31
414.258	91.31
414.482	93.31
414.705	79.31
414.928	86.31
415.151	83.31
415.374	92.31
415.597	103.31
415.821	84.31
416.044	92.31
416.267	97.31
416.49	81.31
416.713	76.31
416.936	83.31
417.159	91.31
417.382	89.31
417.605	79.31
417.828	83.31
418.051	97.31
418.274	84.31
418.497	84.31
418.72	75.31
418.943	103.31
419.166	101.31
419.389	90.31
419.611	92.31
419.834	79.31
420.057	79.31
420.28	101.31
420.503	94.31
420.726	105.31
420.948	95.31
421.171	104.31
421.394	104.31
421.617	86.31
421.839	96.31
422.062	94.31
422.285	94.31
422.507	95.31
422.73	89.31
422.953	91.31
423.175	87.31
423.398	83.31
423.621	81.31
423.843	74.31
424.066	90.31
424.288	79.31
424.511	78.31
424.733	100.31
424.956	107.31
425.178	80.31
425.401	107.31
425.623	78.31
425.846	83.31
426.068	89.31
426.291	78.31
426.513	93.31
426.735	86.31
426.958	97.31
427.18	91.31
427.402	84.31
427.625	86.31
427.847	88.31
428.069	84.31
428.292	67.31
428.514	92.31
428.736	75.31
428.958	74.31
429.181	91.31
429.403	74.31
429.625	78.31
429.847	90.31
430.069	93.31
430.292	92.31
430.514	76.31
430.736	107.31
430.958	93.31
431.18	97.31
431.402	81.31
431.624	92.31
431.846	74.31
432.068	83.31
432.29	79.31
432.512	79.31
432.734	106.31
432.956	92.31
433.178	92.31
433.4	93.31
433.622	105.31
433.844	89.31
434.066	90.31
434.287	92.31
434.509	82.31
434.731	86.31
434.953	79.31
435.175	97.31
435.397	76.31
435.618	87.31
435.84	85.31
436.062	94.31
436.284	97.31
436.505	80.31
436.727	95.31
436.949	86.31
437.17	77.31
437.392	93.31
437.614	78.31
437.835	93.31
438.057	87.31
438.278	77.31
438.5	78.31
438.721	73.31
438.943	92.31
439.165	89.31
439.386	88.31
439.608	103.31
439.829	90.31
440.05	94.31
440.272	109.31
440.493	80.31
440.715	78.31
440.936	89.31
441.158	99.31
441.379	89.31
441.6	103.31
441.822	79.31
442.043	93.31
442.264	86.31
442.486	83.31
442.707	83.31
442.928	79.31
443.149	92.31
443.371	92.31
443.592	85.31
443.813	82.31
444.034	95.31
444.255	91.31
444.476	83.31
444.698	88.31
444.919	94.31
445.14	215.31
445.361	151.31
445.582	107.31
445.803	86.31
446.024	93.31
446.245	93.31
446.466	97.31
446.687	85.31
446.908	88.31
447.129	93.31
447.35	93.31
447.571	100.31
447.792	84.31
448.013	86.31
448.234	92.31
448.455	85.31
448.675	94.31
448.896	97.31
449.117	98.31
449.338	85.31
449.559	82.31
449.779	94.31
450	88.31
450.221	86.31
450.442	82.31
450.662	76.31
450.883	80.31
451.104	97.31
451.324	85.31
451.545	85.31
451.766	88.31
451.986	79.31
452.207	89.31
452.428	84.31
452.648	68.31
452.869	106.31
453.089	92.31
453.31	85.31
453.53	84.31
453.751	70.31
453.971	85.31
454.192	86.31
454.412	94.31
454.633	89.31
454.853	79.31
455.073	79.31
455.294	93.31
455.514	94.31
455.734	84.31
455.955	79.31
456.175	85.31
456.395	73.31
456.616	79.31
456.836	88.31
457.056	78.31
457.276	79.31
457.497	79.31
457.717	73.31
457.937	86.31
458.157	83.31
458.377	89.31
458.598	82.31
458.818	84.31
459.038	69.31
459.258	80.31
459.478	85.31
459.698	86.31
459.918	84.31
460.138	86.31
460.358	98.31
460.578	93.31
460.798	98.31
461.018	86.31
461.238	79.31
461.458	85.31
461.678	78.31
461.898	98.31
462.118	101.31
462.338	86.31
462.558	89.31
462.777	90.31
462.997	86.31
463.217	90.31
463.437	83.31
463.657	88.31
463.876	69.31
464.096	80.31
464.316	93.31
464.536	82.31
464.755	82.31
464.975	80.31
465.195	78.31
465.414	87.31
465.634	87.31
465.854	77.31
466.073	88.31
466.293	85.31
466.512	83.31
466.732	78.31
466.951	98.31
467.171	87.31
467.391	90.31
467.61	99.31
467.829	88.31
468.049	85.31
468.268	87.31
468.488	91.31
468.707	78.31
468.927	91.31
469.146	83.31
469.365	97.31
469.585	94.31
469.804	99.31
470.023	94.31
470.243	106.31
470.462	81.31
470.681	92.31
470.901	93.31
471.12	91.31
471.339	101.31
471.558	86.31
471.777	91.31
471.997	103.31
472.216	101.31
472.435	82.31
472.654	97.31
472.873	94.31
473.092	88.31
473.311	93.31
473.53	75.31
473.749	88.31
473.968	80.31
474.187	96.31
474.406	84.31
474.625	80.31
474.844	82.31
475.063	80.31
475.282	86.31
475.501	91.31
475.72	85.31
475.939	88.31
476.158	95.31
476.377	94.31
476.596	87.31
476.814	84.31
477.033	95.31
477.252	93.31
477.471	97.31
477.69	92.31
477.908	96.31
478.127	96.31
478.346	92.31
478.564	91.31
478.783	87.31
479.002	94.31
479.22	92.31
479.439	90.31
479.658	85.31
479.876	106.31
480.095	91.31
480.313	99.31
480.532	106.31
480.751	89.31
480.969	75.31
481.188	84.31
481.406	84.31
481.624	81.31
481.843	72.31
482.061	76.31
482.28	76.31
482.498	92.31
482.717	77.31
482.935	86.31
483.153	85.31
483.372	91.31
483.59	96.31
483.808	80.31
484.027	90.31
484.245	87.31
484.463	85.31
484.681	107.31
484.9	79.31
485.118	94.31
485.336	89.31
485.554	92.31
485.772	78.31
485.99	86.31
486.209	92.31
486.427	87.31
486.645	90.31
486.863	73.31
487.081	93.31
487.299	77.31
487.517	114.31
487.735	104.31
487.953	87.31
488.171	109.31
488.389	97.31
488.607	82.31
488.825	98.31
489.043	81.31
489.261	97.31
489.479	100.31
489.696	85.31
489.914	92.31
490.132	87.31
490.35	81.31
490.568	88.31
490.786	95.31
491.003	96.31
491.221	108.31
491.439	97.31
491.657	93.31
491.874	107.31
492.092	115.31
492.31	113.31
492.527	116.31
492.745	104.31
492.963	106.31
493.18	129.31
493.398	107.31
493.615	94.31
493.833	94.31
494.05	100.31
494.268	86.31
494.485	115.31
494.703	81.31
494.92	101.31
495.138	91.31
495.355	101.31
495.573	98.31
495.79	92.31
496.008	99.31
496.225	94.31
496.442	99.31
496.66	113.31
496.877	90.31
497.094	96.31
497.312	105.31
497.529	91.31
497.746	85.31
497.963	94.31
498.181	81.31
498.398	78.31
498.615	86.31
498.832	85.31
499.049	77.31
499.267	82.31
499.484	83.31
499.701	89.31
499.918	110.31
500.135	88.31
500.352	93.31
500.569	89.31
500.786	108.31
501.003	98.31
501.22	92.31
501.437	81.31
501.654	84.31
501.871	83.31
502.088	88.31
502.305	81.31
502.522	87.31
502.739	89.31
502.956	96.31
503.172	95.31
503.389	96.31
503.606	92.31
503.823	93.31
504.04	84.31
504.256	94.31
504.473	99.31
504.69	97.31
504.907	95.31
505.123	90.31
505.34	85.31
505.557	79.31
505.773	72.31
505.99	87.31
506.207	87.31
506.423	90.31
506.64	87.31
506.856	98.31
507.073	101.31
507.289	92.31
507.506	94.31
507.722	92.31
507.939	80.31
508.155	68.31
508.372	85.31
508.588	89.31
508.805	78.31
509.021	89.31
509.238	91.31
509.454	87.31
509.67	96.31
509.887	85.31
510.103	82.31
510.319	84.31
510.536	78.31
510.752	83.31
510.968	91.31
511.184	83.31
511.401	71.31
511.617	87.31
511.833	74.31
512.049	68.31
512.265	85.31
512.481	91.31
512.698	85.31
512.914	81.31
513.13	89.31
513.346	73.31
513.562	74.31
513.778	77.31
513.994	91.31
514.21	88.31
514.426	96.31
514.642	84.31
514.858	93.31
515.074	84.31
515.29	73.31
515.506	81.31
515.721	76.31
515.937	83.31
516.153	91.31
516.369	87.31
516.585	83.31
516.801	88.31
517.016	85.31
517.232	83.31
517.448	98.31
517.664	92.31
517.879	89.31
518.095	76.31
518.311	93.31
518.527	89.31
