Data from Zn(NO3)2Standard.Agarose3%.GreenCap.LampEnergy5.5.E.O_HRD10591_15-02-29-768.txt Node
Date: Mon Jul 22 15:02:29 EDT 2019
User: cochatt
Spectrometer: HR+D1059
Trigger mode: 1
Integration Time (sec): 1.000000E-1
Scans to average: 1
Electric dark correction enabled: true
Nonlinearity correction enabled: false
Boxcar width: 0
XAxis mode: Wavelengths
Number of Pixels in Spectrum: 2048
>>>>>Begin Spectral Data<<<<<
223.165	-15.56
223.4	-15.56
223.635	-15.56
223.869	-13.56
224.104	-24.56
224.338	-7.56
224.573	-8.56
224.808	-21.56
225.042	-13.56
225.277	-3.56
225.511	4.44
225.746	7.44
225.98	11.44
226.215	6.44
226.449	13.44
226.683	27.44
226.918	14.44
227.152	23.44
227.387	22.44
227.621	44.44
227.856	43.44
228.09	49.44
228.324	49.44
228.559	65.44
228.793	58.44
229.027	61.44
229.262	50.44
229.496	60.44
229.73	58.44
229.964	59.44
230.199	71.44
230.433	59.44
230.667	68.44
230.901	66.44
231.136	77.44
231.37	74.44
231.604	81.44
231.838	79.44
232.072	90.44
232.306	83.44
232.541	73.44
232.775	87.44
233.009	88.44
233.243	72.44
233.477	80.44
233.711	84.44
233.945	71.44
234.179	81.44
234.413	85.44
234.647	82.44
234.881	72.44
235.115	67.44
235.349	77.44
235.583	70.44
235.817	87.44
236.051	78.44
236.285	87.44
236.519	63.44
236.753	81.44
236.987	71.44
237.221	80.44
237.455	83.44
237.689	82.44
237.922	79.44
238.156	64.44
238.39	66.44
238.624	73.44
238.858	77.44
239.091	80.44
239.325	74.44
239.559	67.44
239.793	79.44
240.027	92.44
240.26	79.44
240.494	85.44
240.728	93.44
240.961	60.44
241.195	71.44
241.429	81.44
241.662	68.44
241.896	69.44
242.13	74.44
242.363	78.44
242.597	84.44
242.83	83.44
243.064	75.44
243.298	62.44
243.531	77.44
243.765	59.44
243.998	76.44
244.232	75.44
244.465	74.44
244.699	71.44
244.932	75.44
245.166	72.44
245.399	80.44
245.633	72.44
245.866	71.44
246.099	76.44
246.333	79.44
246.566	73.44
246.8	78.44
247.033	87.44
247.266	71.44
247.5	60.44
247.733	75.44
247.966	68.44
248.2	74.44
248.433	74.44
248.666	70.44
248.899	74.44
249.133	80.44
249.366	89.44
249.599	61.44
249.832	82.44
250.066	91.44
250.299	76.44
250.532	83.44
250.765	72.44
250.998	82.44
251.231	89.44
251.465	77.44
251.698	69.44
251.931	74.44
252.164	91.44
252.397	85.44
252.63	73.44
252.863	86.44
253.096	66.44
253.329	76.44
253.562	80.44
253.795	71.44
254.028	62.44
254.261	70.44
254.494	67.44
254.727	84.44
254.96	66.44
255.193	65.44
255.426	80.44
255.659	75.44
255.892	85.44
256.124	87.44
256.357	80.44
256.59	74.44
256.823	83.44
257.056	87.44
257.289	80.44
257.521	88.44
257.754	79.44
257.987	71.44
258.22	90.44
258.452	74.44
258.685	78.44
258.918	81.44
259.151	85.44
259.383	79.44
259.616	92.44
259.849	79.44
260.081	75.44
260.314	71.44
260.547	80.44
260.779	87.44
261.012	82.44
261.244	74.44
261.477	80.44
261.71	77.44
261.942	78.44
262.175	77.44
262.407	80.44
262.64	81.44
262.872	68.44
263.105	93.44
263.337	86.44
263.57	86.44
263.802	74.44
264.035	76.44
264.267	70.44
264.499	83.44
264.732	66.44
264.964	70.44
265.197	90.44
265.429	83.44
265.661	80.44
265.894	74.44
266.126	81.44
266.358	72.44
266.591	68.44
266.823	75.44
267.055	81.44
267.287	81.44
267.52	92.44
267.752	91.44
267.984	89.44
268.216	88.44
268.448	78.44
268.681	91.44
268.913	86.44
269.145	91.44
269.377	82.44
269.609	87.44
269.841	91.44
270.073	79.44
270.306	93.44
270.538	84.44
270.77	88.44
271.002	79.44
271.234	85.44
271.466	80.44
271.698	87.44
271.93	67.44
272.162	85.44
272.394	82.44
272.626	75.44
272.858	76.44
273.09	83.44
273.322	78.44
273.553	73.44
273.785	81.44
274.017	84.44
274.249	82.44
274.481	83.44
274.713	74.44
274.945	74.44
275.176	103.44
275.408	83.44
275.64	76.44
275.872	77.44
276.104	84.44
276.335	74.44
276.567	83.44
276.799	75.44
277.031	76.44
277.262	86.44
277.494	85.44
277.726	89.44
277.957	84.44
278.189	89.44
278.421	79.44
278.652	97.44
278.884	75.44
279.115	87.44
279.347	91.44
279.579	77.44
279.81	83.44
280.042	77.44
280.273	80.44
280.505	88.44
280.736	93.44
280.968	81.44
281.199	92.44
281.431	86.44
281.662	80.44
281.894	88.44
282.125	88.44
282.356	88.44
282.588	69.44
282.819	77.44
283.051	82.44
283.282	79.44
283.513	92.44
283.745	82.44
283.976	78.44
284.207	91.44
284.439	88.44
284.67	80.44
284.901	81.44
285.132	89.44
285.364	80.44
285.595	85.44
285.826	86.44
286.057	77.44
286.288	75.44
286.52	73.44
286.751	76.44
286.982	91.44
287.213	81.44
287.444	74.44
287.675	73.44
287.906	87.44
288.138	92.44
288.369	79.44
288.6	76.44
288.831	85.44
289.062	80.44
289.293	78.44
289.524	78.44
289.755	96.44
289.986	82.44
290.217	90.44
290.448	80.44
290.679	82.44
290.91	74.44
291.141	78.44
291.371	76.44
291.602	91.44
291.833	75.44
292.064	82.44
292.295	87.44
292.526	84.44
292.757	72.44
292.987	83.44
293.218	77.44
293.449	70.44
293.68	69.44
293.91	66.44
294.141	77.44
294.372	76.44
294.603	67.44
294.833	85.44
295.064	78.44
295.295	94.44
295.525	85.44
295.756	87.44
295.987	81.44
296.217	96.44
296.448	81.44
296.679	76.44
296.909	81.44
297.14	69.44
297.37	79.44
297.601	77.44
297.831	77.44
298.062	78.44
298.292	93.44
298.523	76.44
298.753	98.44
298.984	81.44
299.214	68.44
299.445	87.44
299.675	82.44
299.905	92.44
300.136	72.44
300.366	88.44
300.597	80.44
300.827	76.44
301.057	75.44
301.288	86.44
301.518	73.44
301.748	88.44
301.979	73.44
302.209	92.44
302.439	101.44
302.669	98.44
302.9	79.44
303.13	66.44
303.36	60.44
303.59	77.44
303.82	98.44
304.051	91.44
304.281	88.44
304.511	78.44
304.741	77.44
304.971	85.44
305.201	85.44
305.431	67.44
305.661	88.44
305.891	73.44
306.121	85.44
306.352	74.44
306.582	88.44
306.812	84.44
307.042	80.44
307.272	81.44
307.502	68.44
307.731	87.44
307.961	90.44
308.191	88.44
308.421	81.44
308.651	68.44
308.881	80.44
309.111	82.44
309.341	67.44
309.571	77.44
309.8	94.44
310.03	76.44
310.26	92.44
310.49	93.44
310.72	69.44
310.949	73.44
311.179	88.44
311.409	74.44
311.639	68.44
311.868	91.44
312.098	83.44
312.328	91.44
312.557	87.44
312.787	80.44
313.017	86.44
313.246	85.44
313.476	65.44
313.706	76.44
313.935	96.44
314.165	82.44
314.394	93.44
314.624	93.44
314.853	67.44
315.083	92.44
315.312	86.44
315.542	93.44
315.771	81.44
316.001	77.44
316.23	83.44
316.46	89.44
316.689	81.44
316.919	80.44
317.148	76.44
317.377	72.44
317.607	71.44
317.836	58.44
318.065	75.44
318.295	96.44
318.524	100.44
318.753	75.44
318.983	77.44
319.212	92.44
319.441	91.44
319.67	74.44
319.9	72.44
320.129	75.44
320.358	73.44
320.587	80.44
320.816	73.44
321.046	84.44
321.275	88.44
321.504	87.44
321.733	71.44
321.962	81.44
322.191	96.44
322.42	74.44
322.649	92.44
322.878	72.44
323.108	82.44
323.337	87.44
323.566	75.44
323.795	90.44
324.024	68.44
324.253	80.44
324.482	80.44
324.71	81.44
324.939	89.44
325.168	86.44
325.397	95.44
325.626	83.44
325.855	74.44
326.084	77.44
326.313	77.44
326.542	69.44
326.77	78.44
326.999	80.44
327.228	86.44
327.457	81.44
327.686	82.44
327.914	93.44
328.143	71.44
328.372	91.44
328.6	77.44
328.829	89.44
329.058	83.44
329.287	82.44
329.515	82.44
329.744	96.44
329.972	77.44
330.201	88.44
330.43	69.44
330.658	83.44
330.887	91.44
331.115	84.44
331.344	84.44
331.572	76.44
331.801	77.44
332.03	80.44
332.258	69.44
332.486	85.44
332.715	84.44
332.943	79.44
333.172	87.44
333.4	75.44
333.629	79.44
333.857	69.44
334.085	74.44
334.314	71.44
334.542	84.44
334.771	90.44
334.999	89.44
335.227	80.44
335.455	76.44
335.684	96.44
335.912	77.44
336.14	97.44
336.369	77.44
336.597	76.44
336.825	95.44
337.053	75.44
337.281	78.44
337.51	77.44
337.738	82.44
337.966	69.44
338.194	94.44
338.422	78.44
338.65	83.44
338.878	86.44
339.106	81.44
339.334	77.44
339.562	89.44
339.79	94.44
340.018	72.44
340.246	87.44
340.474	84.44
340.702	76.44
340.93	58.44
341.158	81.44
341.386	76.44
341.614	75.44
341.842	95.44
342.07	95.44
342.298	76.44
342.526	87.44
342.754	89.44
342.981	87.44
343.209	73.44
343.437	84.44
343.665	59.44
343.893	105.44
344.12	67.44
344.348	95.44
344.576	95.44
344.804	82.44
345.031	84.44
345.259	83.44
345.487	100.44
345.714	66.44
345.942	88.44
346.17	73.44
346.397	83.44
346.625	72.44
346.853	72.44
347.08	77.44
347.308	76.44
347.535	77.44
347.763	70.44
347.99	89.44
348.218	82.44
348.445	89.44
348.673	80.44
348.9	85.44
349.128	91.44
349.355	91.44
349.583	75.44
349.81	80.44
350.037	85.44
350.265	79.44
350.492	72.44
350.72	88.44
350.947	92.44
351.174	86.44
351.402	85.44
351.629	88.44
351.856	89.44
352.083	73.44
352.311	89.44
352.538	83.44
352.765	82.44
352.992	84.44
353.22	68.44
353.447	80.44
353.674	73.44
353.901	80.44
354.128	84.44
354.355	96.44
354.583	77.44
354.81	74.44
355.037	89.44
355.264	102.44
355.491	101.44
355.718	76.44
355.945	80.44
356.172	72.44
356.399	81.44
356.626	89.44
356.853	73.44
357.08	81.44
357.307	73.44
357.534	90.44
357.761	95.44
357.988	90.44
358.215	95.44
358.441	69.44
358.668	86.44
358.895	81.44
359.122	88.44
359.349	77.44
359.576	88.44
359.802	88.44
360.029	80.44
360.256	70.44
360.483	77.44
360.709	88.44
360.936	77.44
361.163	81.44
361.39	80.44
361.616	76.44
361.843	78.44
362.07	80.44
362.296	90.44
362.523	81.44
362.749	83.44
362.976	83.44
363.203	88.44
363.429	84.44
363.656	93.44
363.882	91.44
364.109	85.44
364.335	90.44
364.562	81.44
364.788	73.44
365.015	78.44
365.241	81.44
365.468	77.44
365.694	77.44
365.92	85.44
366.147	76.44
366.373	85.44
366.599	61.44
366.826	91.44
367.052	77.44
367.278	92.44
367.505	80.44
367.731	79.44
367.957	66.44
368.184	69.44
368.41	82.44
368.636	83.44
368.862	78.44
369.089	87.44
369.315	73.44
369.541	66.44
369.767	85.44
369.993	90.44
370.219	90.44
370.445	66.44
370.672	89.44
370.898	80.44
371.124	68.44
371.35	74.44
371.576	83.44
371.802	67.44
372.028	91.44
372.254	83.44
372.48	83.44
372.706	69.44
372.932	87.44
373.158	69.44
373.384	96.44
373.61	77.44
373.835	85.44
374.061	76.44
374.287	74.44
374.513	75.44
374.739	72.44
374.965	87.44
375.191	63.44
375.416	65.44
375.642	82.44
375.868	73.44
376.094	80.44
376.319	91.44
376.545	91.44
376.771	80.44
376.997	83.44
377.222	91.44
377.448	82.44
377.674	79.44
377.899	85.44
378.125	76.44
378.35	73.44
378.576	77.44
378.802	73.44
379.027	78.44
379.253	83.44
379.478	91.44
379.704	87.44
379.929	82.44
380.155	71.44
380.38	83.44
380.606	89.44
380.831	85.44
381.057	83.44
381.282	89.44
381.507	81.44
381.733	71.44
381.958	84.44
382.184	80.44
382.409	71.44
382.634	80.44
382.86	75.44
383.085	90.44
383.31	65.44
383.535	83.44
383.761	85.44
383.986	79.44
384.211	90.44
384.436	72.44
384.662	84.44
384.887	81.44
385.112	87.44
385.337	76.44
385.562	73.44
385.787	80.44
386.013	87.44
386.238	76.44
386.463	94.44
386.688	76.44
386.913	73.44
387.138	80.44
387.363	75.44
387.588	95.44
387.813	95.44
388.038	94.44
388.263	75.44
388.488	80.44
388.713	75.44
388.938	80.44
389.163	80.44
389.387	77.44
389.612	79.44
389.837	81.44
390.062	75.44
390.287	81.44
390.512	85.44
390.736	79.44
390.961	75.44
391.186	78.44
391.411	71.44
391.636	85.44
391.86	96.44
392.085	96.44
392.31	84.44
392.534	81.44
392.759	75.44
392.984	82.44
393.208	88.44
393.433	88.44
393.658	77.44
393.882	85.44
394.107	82.44
394.331	98.44
394.556	76.44
394.78	75.44
395.005	79.44
395.229	84.44
395.454	81.44
395.678	88.44
395.903	73.44
396.127	77.44
396.352	78.44
396.576	85.44
396.801	78.44
397.025	93.44
397.249	80.44
397.474	90.44
397.698	77.44
397.922	72.44
398.147	74.44
398.371	72.44
398.595	79.44
398.82	91.44
399.044	81.44
399.268	79.44
399.492	66.44
399.717	91.44
399.941	85.44
400.165	85.44
400.389	85.44
400.613	76.44
400.837	85.44
401.062	72.44
401.286	67.44
401.51	92.44
401.734	77.44
401.958	81.44
402.182	75.44
402.406	89.44
402.63	94.44
402.854	88.44
403.078	75.44
403.302	81.44
403.526	79.44
403.75	90.44
403.974	77.44
404.198	81.44
404.422	90.44
404.645	84.44
404.869	71.44
405.093	80.44
405.317	86.44
405.541	100.44
405.765	82.44
405.988	97.44
406.212	75.44
406.436	73.44
406.66	87.44
406.883	72.44
407.107	82.44
407.331	95.44
407.555	90.44
407.778	86.44
408.002	90.44
408.226	73.44
408.449	96.44
408.673	72.44
408.896	91.44
409.12	74.44
409.344	91.44
409.567	90.44
409.791	82.44
410.014	86.44
410.238	77.44
410.461	89.44
410.685	82.44
410.908	79.44
411.132	87.44
411.355	96.44
411.578	71.44
411.802	85.44
412.025	77.44
412.249	74.44
412.472	72.44
412.695	97.44
412.919	81.44
413.142	83.44
413.365	83.44
413.589	93.44
413.812	68.44
414.035	96.44
414.258	77.44
414.482	72.44
414.705	70.44
414.928	91.44
415.151	76.44
415.374	80.44
415.597	82.44
415.821	82.44
416.044	86.44
416.267	81.44
416.49	89.44
416.713	82.44
416.936	78.44
417.159	78.44
417.382	86.44
417.605	71.44
417.828	76.44
418.051	69.44
418.274	76.44
418.497	92.44
418.72	90.44
418.943	91.44
419.166	82.44
419.389	91.44
419.611	72.44
419.834	85.44
420.057	81.44
420.28	76.44
420.503	83.44
420.726	88.44
420.948	88.44
421.171	84.44
421.394	84.44
421.617	82.44
421.839	90.44
422.062	103.44
422.285	69.44
422.507	85.44
422.73	79.44
422.953	83.44
423.175	87.44
423.398	105.44
423.621	91.44
423.843	83.44
424.066	80.44
424.288	72.44
424.511	84.44
424.733	82.44
424.956	88.44
425.178	88.44
425.401	83.44
425.623	87.44
425.846	78.44
426.068	93.44
426.291	81.44
426.513	76.44
426.735	74.44
426.958	82.44
427.18	67.44
427.402	76.44
427.625	67.44
427.847	85.44
428.069	85.44
428.292	73.44
428.514	85.44
428.736	89.44
428.958	88.44
429.181	82.44
429.403	66.44
429.625	93.44
429.847	83.44
430.069	98.44
430.292	80.44
430.514	75.44
430.736	82.44
430.958	82.44
431.18	85.44
431.402	95.44
431.624	83.44
431.846	79.44
432.068	88.44
432.29	83.44
432.512	83.44
432.734	94.44
432.956	95.44
433.178	80.44
433.4	85.44
433.622	93.44
433.844	80.44
434.066	77.44
434.287	79.44
434.509	75.44
434.731	83.44
434.953	82.44
435.175	90.44
435.397	79.44
435.618	72.44
435.84	87.44
436.062	80.44
436.284	84.44
436.505	87.44
436.727	82.44
436.949	65.44
437.17	97.44
437.392	82.44
437.614	81.44
437.835	99.44
438.057	86.44
438.278	82.44
438.5	84.44
438.721	83.44
438.943	102.44
439.165	96.44
439.386	95.44
439.608	88.44
439.829	78.44
440.05	92.44
440.272	76.44
440.493	99.44
440.715	81.44
440.936	101.44
441.158	90.44
441.379	87.44
441.6	98.44
441.822	92.44
442.043	80.44
442.264	77.44
442.486	67.44
442.707	81.44
442.928	76.44
443.149	87.44
443.371	83.44
443.592	88.44
443.813	85.44
444.034	85.44
444.255	79.44
444.476	75.44
444.698	82.44
444.919	89.44
445.14	217.44
445.361	130.44
445.582	87.44
445.803	85.44
446.024	85.44
446.245	87.44
446.466	83.44
446.687	98.44
446.908	97.44
447.129	93.44
447.35	86.44
447.571	96.44
447.792	77.44
448.013	95.44
448.234	88.44
448.455	90.44
448.675	87.44
448.896	88.44
449.117	65.44
449.338	75.44
449.559	82.44
449.779	90.44
450	94.44
450.221	91.44
450.442	95.44
450.662	86.44
450.883	70.44
451.104	95.44
451.324	82.44
451.545	92.44
451.766	89.44
451.986	79.44
452.207	80.44
452.428	86.44
452.648	97.44
452.869	84.44
453.089	78.44
453.31	68.44
453.53	79.44
453.751	81.44
453.971	89.44
454.192	86.44
454.412	97.44
454.633	78.44
454.853	89.44
455.073	89.44
455.294	81.44
455.514	96.44
455.734	79.44
455.955	87.44
456.175	78.44
456.395	73.44
456.616	72.44
456.836	92.44
457.056	81.44
457.276	77.44
457.497	88.44
457.717	83.44
457.937	87.44
458.157	72.44
458.377	82.44
458.598	77.44
458.818	71.44
459.038	72.44
459.258	71.44
459.478	97.44
459.698	62.44
459.918	76.44
460.138	73.44
460.358	85.44
460.578	92.44
460.798	84.44
461.018	69.44
461.238	89.44
461.458	84.44
461.678	85.44
461.898	89.44
462.118	96.44
462.338	83.44
462.558	73.44
462.777	82.44
462.997	82.44
463.217	81.44
463.437	83.44
463.657	83.44
463.876	85.44
464.096	87.44
464.316	92.44
464.536	92.44
464.755	106.44
464.975	95.44
465.195	86.44
465.414	71.44
465.634	71.44
465.854	77.44
466.073	88.44
466.293	85.44
466.512	84.44
466.732	92.44
466.951	79.44
467.171	101.44
467.391	88.44
467.61	77.44
467.829	81.44
468.049	92.44
468.268	81.44
468.488	92.44
468.707	104.44
468.927	81.44
469.146	73.44
469.365	78.44
469.585	91.44
469.804	83.44
470.023	86.44
470.243	90.44
470.462	84.44
470.681	101.44
470.901	91.44
471.12	90.44
471.339	93.44
471.558	92.44
471.777	89.44
471.997	79.44
472.216	88.44
472.435	68.44
472.654	72.44
472.873	90.44
473.092	65.44
473.311	97.44
473.53	83.44
473.749	74.44
473.968	92.44
474.187	82.44
474.406	80.44
474.625	88.44
474.844	83.44
475.063	77.44
475.282	91.44
475.501	71.44
475.72	87.44
475.939	73.44
476.158	90.44
476.377	82.44
476.596	94.44
476.814	83.44
477.033	65.44
477.252	85.44
477.471	91.44
477.69	87.44
477.908	71.44
478.127	79.44
478.346	93.44
478.564	87.44
478.783	83.44
479.002	90.44
479.22	90.44
479.439	87.44
479.658	90.44
479.876	76.44
480.095	86.44
480.313	96.44
480.532	88.44
480.751	86.44
480.969	78.44
481.188	76.44
481.406	80.44
481.624	86.44
481.843	84.44
482.061	87.44
482.28	91.44
482.498	77.44
482.717	77.44
482.935	81.44
483.153	93.44
483.372	98.44
483.59	80.44
483.808	74.44
484.027	69.44
484.245	99.44
484.463	91.44
484.681	100.44
484.9	93.44
485.118	80.44
485.336	88.44
485.554	78.44
485.772	79.44
485.99	89.44
486.209	93.44
486.427	77.44
486.645	74.44
486.863	95.44
487.081	92.44
487.299	103.44
487.517	76.44
487.735	86.44
487.953	99.44
488.171	89.44
488.389	91.44
488.607	76.44
488.825	82.44
489.043	82.44
489.261	88.44
489.479	82.44
489.696	96.44
489.914	90.44
490.132	72.44
490.35	85.44
490.568	89.44
490.786	96.44
491.003	97.44
491.221	89.44
491.439	98.44
491.657	116.44
491.874	107.44
492.092	106.44
492.31	91.44
492.527	104.44
492.745	92.44
492.963	106.44
493.18	99.44
493.398	95.44
493.615	106.44
493.833	88.44
494.05	93.44
494.268	89.44
494.485	92.44
494.703	99.44
494.92	103.44
495.138	86.44
495.355	92.44
495.573	95.44
495.79	102.44
496.008	102.44
496.225	102.44
496.442	88.44
496.66	90.44
496.877	101.44
497.094	104.44
497.312	105.44
497.529	90.44
497.746	91.44
497.963	86.44
498.181	77.44
498.398	103.44
498.615	80.44
498.832	85.44
499.049	92.44
499.267	92.44
499.484	85.44
499.701	89.44
499.918	83.44
500.135	81.44
500.352	88.44
500.569	88.44
500.786	88.44
501.003	95.44
501.22	89.44
501.437	79.44
501.654	90.44
501.871	76.44
502.088	80.44
502.305	92.44
502.522	84.44
502.739	92.44
502.956	106.44
503.172	92.44
503.389	91.44
503.606	88.44
503.823	105.44
504.04	100.44
504.256	93.44
504.473	88.44
504.69	93.44
504.907	87.44
505.123	81.44
505.34	71.44
505.557	83.44
505.773	87.44
505.99	98.44
506.207	82.44
506.423	69.44
506.64	101.44
506.856	98.44
507.073	75.44
507.289	81.44
507.506	89.44
507.722	68.44
507.939	85.44
508.155	82.44
508.372	77.44
508.588	99.44
508.805	88.44
509.021	74.44
509.238	82.44
509.454	88.44
509.67	83.44
509.887	73.44
510.103	76.44
510.319	74.44
510.536	79.44
510.752	83.44
510.968	78.44
511.184	93.44
511.401	82.44
511.617	87.44
511.833	78.44
512.049	82.44
512.265	93.44
512.481	91.44
512.698	91.44
512.914	81.44
513.13	80.44
513.346	71.44
513.562	75.44
513.778	64.44
513.994	81.44
514.21	92.44
514.426	83.44
514.642	78.44
514.858	91.44
515.074	85.44
515.29	99.44
515.506	78.44
515.721	73.44
515.937	74.44
516.153	77.44
516.369	87.44
516.585	77.44
516.801	75.44
517.016	73.44
517.232	87.44
517.448	74.44
517.664	82.44
517.879	61.44
518.095	75.44
518.311	76.44
518.527	74.44
518.742	88.44
518.958	79.44
