Data from Zn(NO3)2Standard.Agarose3%.GreenCap.LampEnergy10E.O_HRD10591_15-07-17-943.txt Node
Date: Mon Jul 22 15:07:17 EDT 2019
User: cochatt
Spectrometer: HR+D1059
Trigger mode: 1
Integration Time (sec): 1.000000E-1
Scans to average: 1
Electric dark correction enabled: true
Nonlinearity correction enabled: false
Boxcar width: 0
XAxis mode: Wavelengths
Number of Pixels in Spectrum: 2048
>>>>>Begin Spectral Data<<<<<
223.165	-23.62
223.4	-23.62
223.635	-23.62
223.869	-30.62
224.104	-30.62
224.338	-9.62
224.573	-7.62
224.808	-15.62
225.042	-18.62
225.277	8.38
225.511	1.38
225.746	-2.62
225.98	2.38
226.215	16.38
226.449	24.38
226.683	29.38
226.918	29.38
227.152	27.38
227.387	38.38
227.621	34.38
227.856	42.38
228.09	55.38
228.324	42.38
228.559	62.38
228.793	70.38
229.027	56.38
229.262	67.38
229.496	69.38
229.73	72.38
229.964	71.38
230.199	67.38
230.433	63.38
230.667	73.38
230.901	70.38
231.136	63.38
231.37	83.38
231.604	87.38
231.838	85.38
232.072	78.38
232.306	79.38
232.541	71.38
232.775	64.38
233.009	90.38
233.243	90.38
233.477	84.38
233.711	68.38
233.945	68.38
234.179	87.38
234.413	97.38
234.647	81.38
234.881	84.38
235.115	78.38
235.349	71.38
235.583	76.38
235.817	80.38
236.051	79.38
236.285	92.38
236.519	75.38
236.753	80.38
236.987	75.38
237.221	73.38
237.455	70.38
237.689	71.38
237.922	57.38
238.156	83.38
238.39	72.38
238.624	82.38
238.858	68.38
239.091	80.38
239.325	71.38
239.559	79.38
239.793	77.38
240.027	75.38
240.26	76.38
240.494	79.38
240.728	64.38
240.961	73.38
241.195	76.38
241.429	74.38
241.662	82.38
241.896	77.38
242.13	68.38
242.363	77.38
242.597	86.38
242.83	76.38
243.064	75.38
243.298	82.38
243.531	75.38
243.765	65.38
243.998	73.38
244.232	85.38
244.465	66.38
244.699	71.38
244.932	80.38
245.166	71.38
245.399	95.38
245.633	86.38
245.866	65.38
246.099	70.38
246.333	84.38
246.566	76.38
246.8	84.38
247.033	59.38
247.266	86.38
247.5	77.38
247.733	69.38
247.966	63.38
248.2	62.38
248.433	69.38
248.666	94.38
248.899	86.38
249.133	79.38
249.366	78.38
249.599	81.38
249.832	80.38
250.066	71.38
250.299	79.38
250.532	83.38
250.765	69.38
250.998	75.38
251.231	80.38
251.465	71.38
251.698	86.38
251.931	89.38
252.164	75.38
252.397	67.38
252.63	63.38
252.863	81.38
253.096	75.38
253.329	83.38
253.562	74.38
253.795	88.38
254.028	75.38
254.261	67.38
254.494	77.38
254.727	98.38
254.96	89.38
255.193	86.38
255.426	93.38
255.659	89.38
255.892	91.38
256.124	88.38
256.357	79.38
256.59	72.38
256.823	83.38
257.056	63.38
257.289	81.38
257.521	100.38
257.754	75.38
257.987	84.38
258.22	93.38
258.452	74.38
258.685	83.38
258.918	93.38
259.151	85.38
259.383	77.38
259.616	73.38
259.849	87.38
260.081	70.38
260.314	84.38
260.547	73.38
260.779	69.38
261.012	80.38
261.244	87.38
261.477	87.38
261.71	79.38
261.942	82.38
262.175	72.38
262.407	85.38
262.64	67.38
262.872	84.38
263.105	88.38
263.337	76.38
263.57	66.38
263.802	80.38
264.035	82.38
264.267	87.38
264.499	94.38
264.732	89.38
264.964	78.38
265.197	94.38
265.429	83.38
265.661	79.38
265.894	79.38
266.126	96.38
266.358	64.38
266.591	90.38
266.823	83.38
267.055	75.38
267.287	85.38
267.52	80.38
267.752	87.38
267.984	91.38
268.216	84.38
268.448	80.38
268.681	80.38
268.913	69.38
269.145	83.38
269.377	87.38
269.609	82.38
269.841	76.38
270.073	80.38
270.306	73.38
270.538	90.38
270.77	93.38
271.002	68.38
271.234	80.38
271.466	89.38
271.698	78.38
271.93	78.38
272.162	89.38
272.394	76.38
272.626	87.38
272.858	75.38
273.09	74.38
273.322	80.38
273.553	79.38
273.785	75.38
274.017	94.38
274.249	80.38
274.481	89.38
274.713	71.38
274.945	77.38
275.176	67.38
275.408	81.38
275.64	88.38
275.872	62.38
276.104	78.38
276.335	85.38
276.567	75.38
276.799	81.38
277.031	75.38
277.262	71.38
277.494	73.38
277.726	74.38
277.957	79.38
278.189	85.38
278.421	81.38
278.652	88.38
278.884	97.38
279.115	66.38
279.347	79.38
279.579	80.38
279.81	67.38
280.042	95.38
280.273	84.38
280.505	82.38
280.736	92.38
280.968	73.38
281.199	75.38
281.431	87.38
281.662	74.38
281.894	94.38
282.125	85.38
282.356	87.38
282.588	72.38
282.819	81.38
283.051	85.38
283.282	65.38
283.513	81.38
283.745	90.38
283.976	87.38
284.207	69.38
284.439	83.38
284.67	78.38
284.901	89.38
285.132	67.38
285.364	76.38
285.595	65.38
285.826	86.38
286.057	100.38
286.288	86.38
286.52	76.38
286.751	78.38
286.982	79.38
287.213	89.38
287.444	81.38
287.675	78.38
287.906	90.38
288.138	81.38
288.369	87.38
288.6	81.38
288.831	87.38
289.062	85.38
289.293	86.38
289.524	73.38
289.755	81.38
289.986	69.38
290.217	70.38
290.448	85.38
290.679	75.38
290.91	72.38
291.141	71.38
291.371	85.38
291.602	89.38
291.833	85.38
292.064	75.38
292.295	93.38
292.526	79.38
292.757	72.38
292.987	72.38
293.218	88.38
293.449	82.38
293.68	94.38
293.91	82.38
294.141	81.38
294.372	81.38
294.603	92.38
294.833	89.38
295.064	84.38
295.295	81.38
295.525	88.38
295.756	65.38
295.987	70.38
296.217	83.38
296.448	79.38
296.679	79.38
296.909	77.38
297.14	85.38
297.37	85.38
297.601	71.38
297.831	78.38
298.062	77.38
298.292	81.38
298.523	90.38
298.753	82.38
298.984	84.38
299.214	83.38
299.445	81.38
299.675	81.38
299.905	85.38
300.136	80.38
300.366	89.38
300.597	97.38
300.827	92.38
301.057	65.38
301.288	80.38
301.518	80.38
301.748	79.38
301.979	98.38
302.209	78.38
302.439	86.38
302.669	81.38
302.9	86.38
303.13	71.38
303.36	76.38
303.59	87.38
303.82	75.38
304.051	78.38
304.281	81.38
304.511	83.38
304.741	78.38
304.971	73.38
305.201	69.38
305.431	78.38
305.661	80.38
305.891	84.38
306.121	73.38
306.352	80.38
306.582	74.38
306.812	78.38
307.042	72.38
307.272	82.38
307.502	75.38
307.731	85.38
307.961	80.38
308.191	83.38
308.421	88.38
308.651	75.38
308.881	74.38
309.111	79.38
309.341	74.38
309.571	96.38
309.8	90.38
310.03	73.38
310.26	90.38
310.49	76.38
310.72	75.38
310.949	88.38
311.179	82.38
311.409	72.38
311.639	55.38
311.868	72.38
312.098	71.38
312.328	84.38
312.557	94.38
312.787	80.38
313.017	87.38
313.246	72.38
313.476	70.38
313.706	90.38
313.935	93.38
314.165	97.38
314.394	90.38
314.624	80.38
314.853	79.38
315.083	92.38
315.312	76.38
315.542	87.38
315.771	76.38
316.001	81.38
316.23	78.38
316.46	85.38
316.689	85.38
316.919	85.38
317.148	86.38
317.377	86.38
317.607	80.38
317.836	82.38
318.065	75.38
318.295	84.38
318.524	79.38
318.753	72.38
318.983	64.38
319.212	80.38
319.441	80.38
319.67	80.38
319.9	75.38
320.129	70.38
320.358	79.38
320.587	89.38
320.816	84.38
321.046	89.38
321.275	93.38
321.504	94.38
321.733	81.38
321.962	79.38
322.191	83.38
322.42	70.38
322.649	82.38
322.878	95.38
323.108	80.38
323.337	68.38
323.566	70.38
323.795	93.38
324.024	82.38
324.253	79.38
324.482	85.38
324.71	75.38
324.939	89.38
325.168	90.38
325.397	74.38
325.626	87.38
325.855	82.38
326.084	77.38
326.313	73.38
326.542	79.38
326.77	80.38
326.999	87.38
327.228	87.38
327.457	80.38
327.686	71.38
327.914	87.38
328.143	88.38
328.372	87.38
328.6	86.38
328.829	86.38
329.058	87.38
329.287	79.38
329.515	91.38
329.744	81.38
329.972	72.38
330.201	81.38
330.43	90.38
330.658	69.38
330.887	78.38
331.115	79.38
331.344	83.38
331.572	86.38
331.801	65.38
332.03	69.38
332.258	73.38
332.486	94.38
332.715	80.38
332.943	77.38
333.172	72.38
333.4	97.38
333.629	71.38
333.857	87.38
334.085	86.38
334.314	86.38
334.542	90.38
334.771	82.38
334.999	84.38
335.227	89.38
335.455	90.38
335.684	90.38
335.912	109.38
336.14	65.38
336.369	87.38
336.597	72.38
336.825	85.38
337.053	82.38
337.281	89.38
337.51	77.38
337.738	99.38
337.966	94.38
338.194	77.38
338.422	74.38
338.65	96.38
338.878	71.38
339.106	88.38
339.334	95.38
339.562	84.38
339.79	73.38
340.018	72.38
340.246	86.38
340.474	85.38
340.702	79.38
340.93	84.38
341.158	83.38
341.386	96.38
341.614	83.38
341.842	80.38
342.07	79.38
342.298	81.38
342.526	70.38
342.754	81.38
342.981	78.38
343.209	79.38
343.437	80.38
343.665	74.38
343.893	71.38
344.12	98.38
344.348	77.38
344.576	79.38
344.804	83.38
345.031	74.38
345.259	83.38
345.487	86.38
345.714	75.38
345.942	91.38
346.17	75.38
346.397	82.38
346.625	62.38
346.853	71.38
347.08	69.38
347.308	79.38
347.535	90.38
347.763	75.38
347.99	92.38
348.218	85.38
348.445	82.38
348.673	88.38
348.9	89.38
349.128	75.38
349.355	81.38
349.583	88.38
349.81	89.38
350.037	79.38
350.265	82.38
350.492	74.38
350.72	64.38
350.947	91.38
351.174	68.38
351.402	80.38
351.629	91.38
351.856	81.38
352.083	69.38
352.311	79.38
352.538	96.38
352.765	82.38
352.992	73.38
353.22	72.38
353.447	83.38
353.674	96.38
353.901	66.38
354.128	76.38
354.355	81.38
354.583	66.38
354.81	90.38
355.037	88.38
355.264	73.38
355.491	90.38
355.718	81.38
355.945	84.38
356.172	90.38
356.399	71.38
356.626	86.38
356.853	79.38
357.08	92.38
357.307	93.38
357.534	82.38
357.761	79.38
357.988	86.38
358.215	90.38
358.441	79.38
358.668	85.38
358.895	82.38
359.122	87.38
359.349	80.38
359.576	63.38
359.802	82.38
360.029	98.38
360.256	91.38
360.483	80.38
360.709	73.38
360.936	79.38
361.163	81.38
361.39	83.38
361.616	84.38
361.843	82.38
362.07	89.38
362.296	81.38
362.523	90.38
362.749	84.38
362.976	79.38
363.203	70.38
363.429	75.38
363.656	86.38
363.882	75.38
364.109	86.38
364.335	86.38
364.562	79.38
364.788	80.38
365.015	85.38
365.241	82.38
365.468	74.38
365.694	75.38
365.92	84.38
366.147	87.38
366.373	90.38
366.599	81.38
366.826	86.38
367.052	90.38
367.278	88.38
367.505	92.38
367.731	71.38
367.957	99.38
368.184	90.38
368.41	79.38
368.636	85.38
368.862	80.38
369.089	84.38
369.315	73.38
369.541	91.38
369.767	68.38
369.993	78.38
370.219	85.38
370.445	86.38
370.672	76.38
370.898	75.38
371.124	75.38
371.35	79.38
371.576	88.38
371.802	79.38
372.028	86.38
372.254	86.38
372.48	89.38
372.706	70.38
372.932	97.38
373.158	68.38
373.384	93.38
373.61	88.38
373.835	98.38
374.061	98.38
374.287	77.38
374.513	91.38
374.739	75.38
374.965	83.38
375.191	87.38
375.416	81.38
375.642	77.38
375.868	98.38
376.094	89.38
376.319	75.38
376.545	81.38
376.771	83.38
376.997	84.38
377.222	75.38
377.448	88.38
377.674	80.38
377.899	87.38
378.125	75.38
378.35	90.38
378.576	77.38
378.802	60.38
379.027	88.38
379.253	88.38
379.478	89.38
379.704	81.38
379.929	75.38
380.155	90.38
380.38	94.38
380.606	81.38
380.831	89.38
381.057	84.38
381.282	79.38
381.507	84.38
381.733	73.38
381.958	75.38
382.184	79.38
382.409	81.38
382.634	86.38
382.86	94.38
383.085	89.38
383.31	84.38
383.535	96.38
383.761	83.38
383.986	86.38
384.211	88.38
384.436	91.38
384.662	77.38
384.887	72.38
385.112	80.38
385.337	77.38
385.562	96.38
385.787	98.38
386.013	91.38
386.238	88.38
386.463	81.38
386.688	86.38
386.913	79.38
387.138	86.38
387.363	88.38
387.588	90.38
387.813	98.38
388.038	79.38
388.263	89.38
388.488	74.38
388.713	92.38
388.938	72.38
389.163	71.38
389.387	89.38
389.612	91.38
389.837	103.38
390.062	99.38
390.287	80.38
390.512	81.38
390.736	86.38
390.961	90.38
391.186	68.38
391.411	79.38
391.636	89.38
391.86	86.38
392.085	89.38
392.31	72.38
392.534	78.38
392.759	99.38
392.984	96.38
393.208	75.38
393.433	98.38
393.658	96.38
393.882	108.38
394.107	99.38
394.331	86.38
394.556	86.38
394.78	78.38
395.005	98.38
395.229	94.38
395.454	80.38
395.678	92.38
395.903	84.38
396.127	88.38
396.352	94.38
396.576	81.38
396.801	86.38
397.025	90.38
397.249	90.38
397.474	92.38
397.698	94.38
397.922	103.38
398.147	91.38
398.371	110.38
398.595	98.38
398.82	94.38
399.044	96.38
399.268	108.38
399.492	83.38
399.717	93.38
399.941	83.38
400.165	79.38
400.389	71.38
400.613	89.38
400.837	81.38
401.062	97.38
401.286	96.38
401.51	83.38
401.734	96.38
401.958	107.38
402.182	78.38
402.406	100.38
402.63	85.38
402.854	92.38
403.078	99.38
403.302	94.38
403.526	78.38
403.75	92.38
403.974	86.38
404.198	100.38
404.422	94.38
404.645	99.38
404.869	102.38
405.093	92.38
405.317	94.38
405.541	90.38
405.765	86.38
405.988	97.38
406.212	90.38
406.436	99.38
406.66	100.38
406.883	96.38
407.107	89.38
407.331	104.38
407.555	89.38
407.778	83.38
408.002	83.38
408.226	80.38
408.449	106.38
408.673	95.38
408.896	91.38
409.12	98.38
409.344	86.38
409.567	103.38
409.791	89.38
410.014	94.38
410.238	93.38
410.461	72.38
410.685	95.38
410.908	89.38
411.132	88.38
411.355	101.38
411.578	103.38
411.802	85.38
412.025	88.38
412.249	104.38
412.472	94.38
412.695	93.38
412.919	109.38
413.142	100.38
413.365	93.38
413.589	99.38
413.812	104.38
414.035	84.38
414.258	104.38
414.482	99.38
414.705	74.38
414.928	95.38
415.151	100.38
415.374	91.38
415.597	90.38
415.821	99.38
416.044	102.38
416.267	89.38
416.49	104.38
416.713	85.38
416.936	88.38
417.159	119.38
417.382	86.38
417.605	91.38
417.828	88.38
418.051	88.38
418.274	102.38
418.497	88.38
418.72	89.38
418.943	100.38
419.166	97.38
419.389	106.38
419.611	107.38
419.834	88.38
420.057	109.38
420.28	97.38
420.503	94.38
420.726	95.38
420.948	109.38
421.171	105.38
421.394	113.38
421.617	88.38
421.839	102.38
422.062	100.38
422.285	102.38
422.507	101.38
422.73	106.38
422.953	105.38
423.175	90.38
423.398	87.38
423.621	98.38
423.843	88.38
424.066	117.38
424.288	81.38
424.511	102.38
424.733	98.38
424.956	109.38
425.178	96.38
425.401	98.38
425.623	112.38
425.846	104.38
426.068	95.38
426.291	89.38
426.513	99.38
426.735	102.38
426.958	104.38
427.18	110.38
427.402	107.38
427.625	101.38
427.847	103.38
428.069	89.38
428.292	111.38
428.514	95.38
428.736	96.38
428.958	102.38
429.181	99.38
429.403	97.38
429.625	102.38
429.847	94.38
430.069	102.38
430.292	94.38
430.514	104.38
430.736	110.38
430.958	99.38
431.18	97.38
431.402	95.38
431.624	102.38
431.846	85.38
432.068	82.38
432.29	107.38
432.512	91.38
432.734	101.38
432.956	98.38
433.178	108.38
433.4	109.38
433.622	94.38
433.844	118.38
434.066	90.38
434.287	100.38
434.509	88.38
434.731	80.38
434.953	93.38
435.175	89.38
435.397	89.38
435.618	99.38
435.84	98.38
436.062	81.38
436.284	99.38
436.505	97.38
436.727	95.38
436.949	88.38
437.17	93.38
437.392	106.38
437.614	80.38
437.835	108.38
438.057	93.38
438.278	90.38
438.5	104.38
438.721	99.38
438.943	115.38
439.165	110.38
439.386	110.38
439.608	117.38
439.829	123.38
440.05	90.38
440.272	109.38
440.493	105.38
440.715	105.38
440.936	104.38
441.158	121.38
441.379	99.38
441.6	114.38
441.822	103.38
442.043	105.38
442.264	114.38
442.486	116.38
442.707	117.38
442.928	106.38
443.149	113.38
443.371	100.38
443.592	113.38
443.813	105.38
444.034	92.38
444.255	118.38
444.476	109.38
444.698	100.38
444.919	110.38
445.14	221.38
445.361	171.38
445.582	124.38
445.803	122.38
446.024	113.38
446.245	109.38
446.466	109.38
446.687	110.38
446.908	101.38
447.129	129.38
447.35	115.38
447.571	101.38
447.792	108.38
448.013	107.38
448.234	117.38
448.455	101.38
448.675	96.38
448.896	123.38
449.117	99.38
449.338	99.38
449.559	114.38
449.779	104.38
450	99.38
450.221	100.38
450.442	101.38
450.662	98.38
450.883	116.38
451.104	107.38
451.324	94.38
451.545	100.38
451.766	102.38
451.986	95.38
452.207	89.38
452.428	98.38
452.648	94.38
452.869	97.38
453.089	97.38
453.31	100.38
453.53	89.38
453.751	93.38
453.971	90.38
454.192	86.38
454.412	81.38
454.633	90.38
454.853	98.38
455.073	98.38
455.294	100.38
455.514	96.38
455.734	92.38
455.955	101.38
456.175	87.38
456.395	78.38
456.616	93.38
456.836	103.38
457.056	89.38
457.276	83.38
457.497	66.38
457.717	91.38
457.937	98.38
458.157	82.38
458.377	93.38
458.598	97.38
458.818	80.38
459.038	87.38
459.258	86.38
459.478	81.38
459.698	94.38
459.918	79.38
460.138	79.38
460.358	84.38
460.578	95.38
460.798	118.38
461.018	93.38
461.238	93.38
461.458	77.38
461.678	105.38
461.898	104.38
462.118	87.38
462.338	90.38
462.558	103.38
462.777	94.38
462.997	86.38
463.217	92.38
463.437	90.38
463.657	95.38
463.876	87.38
464.096	90.38
464.316	97.38
464.536	86.38
464.755	96.38
464.975	96.38
465.195	100.38
465.414	89.38
465.634	81.38
465.854	106.38
466.073	106.38
466.293	90.38
466.512	96.38
466.732	104.38
466.951	107.38
467.171	105.38
467.391	104.38
467.61	97.38
467.829	122.38
468.049	105.38
468.268	98.38
468.488	119.38
468.707	120.38
468.927	113.38
469.146	118.38
469.365	104.38
469.585	108.38
469.804	104.38
470.023	93.38
470.243	107.38
470.462	104.38
470.681	110.38
470.901	107.38
471.12	104.38
471.339	114.38
471.558	93.38
471.777	97.38
471.997	94.38
472.216	117.38
472.435	86.38
472.654	104.38
472.873	93.38
473.092	98.38
473.311	101.38
473.53	101.38
473.749	98.38
473.968	103.38
474.187	100.38
474.406	91.38
474.625	111.38
474.844	106.38
475.063	102.38
475.282	102.38
475.501	94.38
475.72	107.38
475.939	87.38
476.158	113.38
476.377	95.38
476.596	102.38
476.814	90.38
477.033	98.38
477.252	107.38
477.471	84.38
477.69	91.38
477.908	103.38
478.127	104.38
478.346	101.38
478.564	102.38
478.783	101.38
479.002	102.38
479.22	110.38
479.439	112.38
479.658	117.38
479.876	102.38
480.095	92.38
480.313	105.38
480.532	110.38
480.751	108.38
480.969	81.38
481.188	72.38
481.406	79.38
481.624	95.38
481.843	73.38
482.061	72.38
482.28	99.38
482.498	93.38
482.717	91.38
482.935	90.38
483.153	100.38
483.372	114.38
483.59	123.38
483.808	100.38
484.027	107.38
484.245	112.38
484.463	106.38
484.681	109.38
484.9	103.38
485.118	104.38
485.336	83.38
485.554	100.38
485.772	97.38
485.99	87.38
486.209	93.38
486.427	104.38
486.645	104.38
486.863	115.38
487.081	105.38
487.299	107.38
487.517	114.38
487.735	126.38
487.953	133.38
488.171	135.38
488.389	129.38
488.607	118.38
488.825	104.38
489.043	97.38
489.261	100.38
489.479	113.38
489.696	111.38
489.914	113.38
490.132	105.38
490.35	125.38
490.568	129.38
490.786	128.38
491.003	120.38
491.221	111.38
491.439	120.38
491.657	119.38
491.874	133.38
492.092	152.38
492.31	137.38
492.527	160.38
492.745	150.38
492.963	130.38
493.18	136.38
493.398	125.38
493.615	121.38
493.833	127.38
494.05	118.38
494.268	134.38
494.485	123.38
494.703	127.38
494.92	122.38
495.138	113.38
495.355	132.38
495.573	121.38
495.79	125.38
496.008	119.38
496.225	120.38
496.442	139.38
496.66	143.38
496.877	122.38
497.094	123.38
497.312	118.38
497.529	102.38
497.746	112.38
497.963	116.38
498.181	99.38
498.398	103.38
498.615	111.38
498.832	94.38
499.049	93.38
499.267	100.38
499.484	106.38
499.701	95.38
499.918	100.38
500.135	106.38
500.352	97.38
500.569	102.38
500.786	119.38
501.003	111.38
501.22	112.38
501.437	114.38
501.654	110.38
501.871	114.38
502.088	111.38
502.305	103.38
502.522	106.38
502.739	102.38
502.956	93.38
503.172	97.38
503.389	112.38
503.606	95.38
503.823	89.38
504.04	95.38
504.256	108.38
504.473	109.38
504.69	105.38
504.907	102.38
505.123	117.38
505.34	113.38
505.557	95.38
505.773	102.38
505.99	110.38
506.207	83.38
506.423	90.38
506.64	92.38
506.856	99.38
507.073	112.38
507.289	97.38
507.506	113.38
507.722	96.38
507.939	112.38
508.155	89.38
508.372	97.38
508.588	100.38
508.805	84.38
509.021	79.38
509.238	96.38
509.454	81.38
509.67	85.38
509.887	89.38
510.103	86.38
510.319	92.38
510.536	100.38
510.752	86.38
510.968	90.38
511.184	80.38
511.401	81.38
511.617	89.38
511.833	82.38
512.049	106.38
512.265	93.38
512.481	84.38
512.698	81.38
512.914	79.38
513.13	87.38
513.346	94.38
513.562	76.38
513.778	74.38
513.994	81.38
514.21	87.38
514.426	91.38
514.642	86.38
514.858	87.38
515.074	96.38
515.29	80.38
515.506	86.38
515.721	82.38
