Data from Zn(NO3)2Standard.Agarose3%.GreenCap.LampEnergy5.5.E.O_HRD10591_15-03-07-768.txt Node
Date: Mon Jul 22 15:03:07 EDT 2019
User: cochatt
Spectrometer: HR+D1059
Trigger mode: 1
Integration Time (sec): 1.000000E-1
Scans to average: 1
Electric dark correction enabled: true
Nonlinearity correction enabled: false
Boxcar width: 0
XAxis mode: Wavelengths
Number of Pixels in Spectrum: 2048
>>>>>Begin Spectral Data<<<<<
223.165	-14.81
223.4	-14.81
223.635	-14.81
223.869	-20.81
224.104	-38.81
224.338	-17.81
224.573	-3.81
224.808	-9.81
225.042	0.19
225.277	4.19
225.511	-11.81
225.746	1.19
225.98	6.19
226.215	3.19
226.449	29.19
226.683	23.19
226.918	37.19
227.152	13.19
227.387	26.19
227.621	36.19
227.856	36.19
228.09	51.19
228.324	49.19
228.559	49.19
228.793	53.19
229.027	70.19
229.262	57.19
229.496	72.19
229.73	56.19
229.964	70.19
230.199	68.19
230.433	86.19
230.667	89.19
230.901	85.19
231.136	79.19
231.37	76.19
231.604	74.19
231.838	80.19
232.072	78.19
232.306	80.19
232.541	80.19
232.775	76.19
233.009	74.19
233.243	86.19
233.477	90.19
233.711	78.19
233.945	84.19
234.179	79.19
234.413	79.19
234.647	89.19
234.881	89.19
235.115	83.19
235.349	92.19
235.583	92.19
235.817	81.19
236.051	74.19
236.285	76.19
236.519	90.19
236.753	89.19
236.987	87.19
237.221	57.19
237.455	79.19
237.689	84.19
237.922	83.19
238.156	78.19
238.39	73.19
238.624	86.19
238.858	72.19
239.091	92.19
239.325	74.19
239.559	75.19
239.793	62.19
240.027	90.19
240.26	74.19
240.494	87.19
240.728	83.19
240.961	81.19
241.195	75.19
241.429	85.19
241.662	78.19
241.896	60.19
242.13	74.19
242.363	79.19
242.597	67.19
242.83	67.19
243.064	74.19
243.298	92.19
243.531	87.19
243.765	90.19
243.998	80.19
244.232	97.19
244.465	96.19
244.699	75.19
244.932	88.19
245.166	71.19
245.399	93.19
245.633	83.19
245.866	86.19
246.099	75.19
246.333	80.19
246.566	79.19
246.8	77.19
247.033	70.19
247.266	80.19
247.5	83.19
247.733	78.19
247.966	84.19
248.2	88.19
248.433	83.19
248.666	72.19
248.899	87.19
249.133	80.19
249.366	77.19
249.599	78.19
249.832	59.19
250.066	86.19
250.299	77.19
250.532	73.19
250.765	72.19
250.998	64.19
251.231	96.19
251.465	75.19
251.698	86.19
251.931	71.19
252.164	86.19
252.397	63.19
252.63	90.19
252.863	80.19
253.096	82.19
253.329	85.19
253.562	79.19
253.795	78.19
254.028	82.19
254.261	85.19
254.494	86.19
254.727	79.19
254.96	70.19
255.193	79.19
255.426	81.19
255.659	88.19
255.892	87.19
256.124	79.19
256.357	68.19
256.59	83.19
256.823	75.19
257.056	88.19
257.289	81.19
257.521	70.19
257.754	83.19
257.987	62.19
258.22	79.19
258.452	82.19
258.685	84.19
258.918	85.19
259.151	86.19
259.383	85.19
259.616	82.19
259.849	80.19
260.081	91.19
260.314	89.19
260.547	81.19
260.779	81.19
261.012	74.19
261.244	74.19
261.477	96.19
261.71	80.19
261.942	91.19
262.175	85.19
262.407	78.19
262.64	93.19
262.872	87.19
263.105	83.19
263.337	76.19
263.57	100.19
263.802	77.19
264.035	91.19
264.267	80.19
264.499	75.19
264.732	74.19
264.964	79.19
265.197	92.19
265.429	70.19
265.661	90.19
265.894	80.19
266.126	76.19
266.358	80.19
266.591	77.19
266.823	89.19
267.055	95.19
267.287	87.19
267.52	90.19
267.752	88.19
267.984	85.19
268.216	97.19
268.448	86.19
268.681	77.19
268.913	89.19
269.145	93.19
269.377	75.19
269.609	84.19
269.841	88.19
270.073	95.19
270.306	81.19
270.538	91.19
270.77	78.19
271.002	87.19
271.234	82.19
271.466	93.19
271.698	94.19
271.93	91.19
272.162	81.19
272.394	88.19
272.626	87.19
272.858	93.19
273.09	87.19
273.322	85.19
273.553	92.19
273.785	83.19
274.017	85.19
274.249	90.19
274.481	89.19
274.713	94.19
274.945	77.19
275.176	84.19
275.408	85.19
275.64	93.19
275.872	84.19
276.104	87.19
276.335	84.19
276.567	83.19
276.799	90.19
277.031	91.19
277.262	82.19
277.494	81.19
277.726	80.19
277.957	98.19
278.189	88.19
278.421	100.19
278.652	88.19
278.884	93.19
279.115	80.19
279.347	84.19
279.579	87.19
279.81	89.19
280.042	95.19
280.273	86.19
280.505	87.19
280.736	84.19
280.968	88.19
281.199	90.19
281.431	81.19
281.662	89.19
281.894	86.19
282.125	81.19
282.356	87.19
282.588	84.19
282.819	95.19
283.051	84.19
283.282	88.19
283.513	89.19
283.745	87.19
283.976	95.19
284.207	90.19
284.439	90.19
284.67	76.19
284.901	86.19
285.132	88.19
285.364	89.19
285.595	96.19
285.826	84.19
286.057	92.19
286.288	87.19
286.52	75.19
286.751	88.19
286.982	77.19
287.213	77.19
287.444	79.19
287.675	91.19
287.906	90.19
288.138	92.19
288.369	95.19
288.6	89.19
288.831	80.19
289.062	90.19
289.293	85.19
289.524	75.19
289.755	85.19
289.986	98.19
290.217	71.19
290.448	87.19
290.679	84.19
290.91	85.19
291.141	81.19
291.371	79.19
291.602	89.19
291.833	69.19
292.064	94.19
292.295	92.19
292.526	86.19
292.757	102.19
292.987	102.19
293.218	84.19
293.449	91.19
293.68	74.19
293.91	80.19
294.141	83.19
294.372	81.19
294.603	81.19
294.833	88.19
295.064	91.19
295.295	83.19
295.525	93.19
295.756	88.19
295.987	96.19
296.217	95.19
296.448	88.19
296.679	91.19
296.909	85.19
297.14	81.19
297.37	67.19
297.601	90.19
297.831	92.19
298.062	90.19
298.292	80.19
298.523	86.19
298.753	85.19
298.984	85.19
299.214	68.19
299.445	86.19
299.675	86.19
299.905	90.19
300.136	88.19
300.366	87.19
300.597	79.19
300.827	68.19
301.057	81.19
301.288	91.19
301.518	90.19
301.748	88.19
301.979	77.19
302.209	85.19
302.439	72.19
302.669	95.19
302.9	87.19
303.13	78.19
303.36	90.19
303.59	75.19
303.82	99.19
304.051	84.19
304.281	81.19
304.511	90.19
304.741	89.19
304.971	94.19
305.201	78.19
305.431	88.19
305.661	89.19
305.891	90.19
306.121	89.19
306.352	95.19
306.582	100.19
306.812	70.19
307.042	99.19
307.272	85.19
307.502	87.19
307.731	83.19
307.961	87.19
308.191	100.19
308.421	92.19
308.651	73.19
308.881	91.19
309.111	89.19
309.341	100.19
309.571	79.19
309.8	91.19
310.03	97.19
310.26	72.19
310.49	91.19
310.72	98.19
310.949	98.19
311.179	89.19
311.409	89.19
311.639	101.19
311.868	105.19
312.098	89.19
312.328	86.19
312.557	88.19
312.787	87.19
313.017	97.19
313.246	95.19
313.476	96.19
313.706	89.19
313.935	93.19
314.165	71.19
314.394	83.19
314.624	70.19
314.853	96.19
315.083	99.19
315.312	81.19
315.542	84.19
315.771	91.19
316.001	79.19
316.23	98.19
316.46	83.19
316.689	83.19
316.919	80.19
317.148	102.19
317.377	84.19
317.607	90.19
317.836	87.19
318.065	99.19
318.295	84.19
318.524	87.19
318.753	100.19
318.983	84.19
319.212	88.19
319.441	88.19
319.67	93.19
319.9	88.19
320.129	76.19
320.358	93.19
320.587	89.19
320.816	103.19
321.046	84.19
321.275	86.19
321.504	78.19
321.733	80.19
321.962	89.19
322.191	83.19
322.42	97.19
322.649	91.19
322.878	85.19
323.108	75.19
323.337	100.19
323.566	90.19
323.795	83.19
324.024	74.19
324.253	78.19
324.482	80.19
324.71	93.19
324.939	100.19
325.168	80.19
325.397	98.19
325.626	85.19
325.855	84.19
326.084	91.19
326.313	84.19
326.542	92.19
326.77	99.19
326.999	92.19
327.228	94.19
327.457	89.19
327.686	92.19
327.914	68.19
328.143	96.19
328.372	85.19
328.6	95.19
328.829	80.19
329.058	88.19
329.287	80.19
329.515	84.19
329.744	90.19
329.972	91.19
330.201	87.19
330.43	84.19
330.658	97.19
330.887	90.19
331.115	100.19
331.344	79.19
331.572	104.19
331.801	94.19
332.03	85.19
332.258	95.19
332.486	77.19
332.715	99.19
332.943	93.19
333.172	88.19
333.4	93.19
333.629	87.19
333.857	79.19
334.085	85.19
334.314	75.19
334.542	91.19
334.771	98.19
334.999	82.19
335.227	93.19
335.455	98.19
335.684	79.19
335.912	90.19
336.14	90.19
336.369	80.19
336.597	79.19
336.825	93.19
337.053	85.19
337.281	91.19
337.51	73.19
337.738	91.19
337.966	85.19
338.194	83.19
338.422	99.19
338.65	88.19
338.878	82.19
339.106	82.19
339.334	107.19
339.562	95.19
339.79	100.19
340.018	79.19
340.246	94.19
340.474	93.19
340.702	77.19
340.93	95.19
341.158	85.19
341.386	85.19
341.614	95.19
341.842	90.19
342.07	79.19
342.298	89.19
342.526	74.19
342.754	93.19
342.981	96.19
343.209	90.19
343.437	99.19
343.665	76.19
343.893	82.19
344.12	105.19
344.348	84.19
344.576	76.19
344.804	90.19
345.031	70.19
345.259	99.19
345.487	95.19
345.714	82.19
345.942	83.19
346.17	94.19
346.397	92.19
346.625	86.19
346.853	73.19
347.08	84.19
347.308	91.19
347.535	78.19
347.763	99.19
347.99	103.19
348.218	88.19
348.445	89.19
348.673	91.19
348.9	78.19
349.128	89.19
349.355	91.19
349.583	84.19
349.81	99.19
350.037	79.19
350.265	78.19
350.492	89.19
350.72	90.19
350.947	91.19
351.174	89.19
351.402	93.19
351.629	80.19
351.856	96.19
352.083	75.19
352.311	94.19
352.538	77.19
352.765	88.19
352.992	88.19
353.22	93.19
353.447	76.19
353.674	113.19
353.901	92.19
354.128	89.19
354.355	95.19
354.583	68.19
354.81	89.19
355.037	89.19
355.264	86.19
355.491	87.19
355.718	89.19
355.945	89.19
356.172	92.19
356.399	90.19
356.626	95.19
356.853	85.19
357.08	84.19
357.307	86.19
357.534	84.19
357.761	91.19
357.988	99.19
358.215	86.19
358.441	77.19
358.668	75.19
358.895	88.19
359.122	85.19
359.349	96.19
359.576	89.19
359.802	88.19
360.029	76.19
360.256	78.19
360.483	77.19
360.709	77.19
360.936	96.19
361.163	78.19
361.39	83.19
361.616	96.19
361.843	83.19
362.07	87.19
362.296	86.19
362.523	97.19
362.749	87.19
362.976	87.19
363.203	77.19
363.429	85.19
363.656	80.19
363.882	81.19
364.109	80.19
364.335	96.19
364.562	91.19
364.788	92.19
365.015	80.19
365.241	77.19
365.468	89.19
365.694	88.19
365.92	96.19
366.147	98.19
366.373	75.19
366.599	87.19
366.826	83.19
367.052	104.19
367.278	84.19
367.505	77.19
367.731	81.19
367.957	90.19
368.184	86.19
368.41	91.19
368.636	89.19
368.862	90.19
369.089	80.19
369.315	101.19
369.541	87.19
369.767	94.19
369.993	88.19
370.219	80.19
370.445	73.19
370.672	91.19
370.898	79.19
371.124	81.19
371.35	89.19
371.576	87.19
371.802	83.19
372.028	87.19
372.254	94.19
372.48	79.19
372.706	77.19
372.932	89.19
373.158	71.19
373.384	75.19
373.61	90.19
373.835	88.19
374.061	86.19
374.287	97.19
374.513	78.19
374.739	83.19
374.965	75.19
375.191	68.19
375.416	81.19
375.642	92.19
375.868	79.19
376.094	80.19
376.319	94.19
376.545	84.19
376.771	85.19
376.997	81.19
377.222	91.19
377.448	78.19
377.674	75.19
377.899	85.19
378.125	92.19
378.35	79.19
378.576	77.19
378.802	87.19
379.027	88.19
379.253	95.19
379.478	77.19
379.704	71.19
379.929	87.19
380.155	73.19
380.38	88.19
380.606	86.19
380.831	79.19
381.057	98.19
381.282	88.19
381.507	80.19
381.733	104.19
381.958	83.19
382.184	96.19
382.409	79.19
382.634	79.19
382.86	72.19
383.085	92.19
383.31	82.19
383.535	85.19
383.761	89.19
383.986	90.19
384.211	87.19
384.436	91.19
384.662	86.19
384.887	100.19
385.112	96.19
385.337	67.19
385.562	79.19
385.787	82.19
386.013	97.19
386.238	83.19
386.463	93.19
386.688	79.19
386.913	87.19
387.138	95.19
387.363	76.19
387.588	93.19
387.813	88.19
388.038	92.19
388.263	85.19
388.488	83.19
388.713	71.19
388.938	82.19
389.163	76.19
389.387	87.19
389.612	94.19
389.837	85.19
390.062	78.19
390.287	81.19
390.512	91.19
390.736	71.19
390.961	86.19
391.186	90.19
391.411	66.19
391.636	85.19
391.86	95.19
392.085	81.19
392.31	77.19
392.534	89.19
392.759	91.19
392.984	92.19
393.208	84.19
393.433	90.19
393.658	92.19
393.882	85.19
394.107	95.19
394.331	83.19
394.556	97.19
394.78	99.19
395.005	83.19
395.229	87.19
395.454	81.19
395.678	86.19
395.903	96.19
396.127	92.19
396.352	96.19
396.576	79.19
396.801	73.19
397.025	87.19
397.249	96.19
397.474	97.19
397.698	81.19
397.922	83.19
398.147	82.19
398.371	81.19
398.595	77.19
398.82	92.19
399.044	101.19
399.268	91.19
399.492	81.19
399.717	86.19
399.941	89.19
400.165	76.19
400.389	73.19
400.613	87.19
400.837	77.19
401.062	86.19
401.286	99.19
401.51	82.19
401.734	86.19
401.958	89.19
402.182	91.19
402.406	91.19
402.63	89.19
402.854	92.19
403.078	95.19
403.302	86.19
403.526	88.19
403.75	93.19
403.974	90.19
404.198	81.19
404.422	82.19
404.645	79.19
404.869	93.19
405.093	89.19
405.317	100.19
405.541	92.19
405.765	76.19
405.988	73.19
406.212	85.19
406.436	90.19
406.66	101.19
406.883	96.19
407.107	85.19
407.331	87.19
407.555	105.19
407.778	94.19
408.002	95.19
408.226	101.19
408.449	82.19
408.673	78.19
408.896	97.19
409.12	97.19
409.344	75.19
409.567	96.19
409.791	76.19
410.014	85.19
410.238	91.19
410.461	100.19
410.685	78.19
410.908	83.19
411.132	93.19
411.355	88.19
411.578	85.19
411.802	82.19
412.025	91.19
412.249	91.19
412.472	86.19
412.695	85.19
412.919	79.19
413.142	93.19
413.365	91.19
413.589	96.19
413.812	74.19
414.035	102.19
414.258	80.19
414.482	85.19
414.705	83.19
414.928	81.19
415.151	92.19
415.374	91.19
415.597	98.19
415.821	97.19
416.044	81.19
416.267	101.19
416.49	91.19
416.713	78.19
416.936	87.19
417.159	98.19
417.382	98.19
417.605	97.19
417.828	79.19
418.051	83.19
418.274	104.19
418.497	86.19
418.72	80.19
418.943	97.19
419.166	97.19
419.389	96.19
419.611	97.19
419.834	93.19
420.057	88.19
420.28	108.19
420.503	95.19
420.726	79.19
420.948	91.19
421.171	85.19
421.394	99.19
421.617	83.19
421.839	93.19
422.062	108.19
422.285	94.19
422.507	93.19
422.73	96.19
422.953	90.19
423.175	78.19
423.398	100.19
423.621	102.19
423.843	83.19
424.066	84.19
424.288	88.19
424.511	98.19
424.733	90.19
424.956	97.19
425.178	88.19
425.401	89.19
425.623	95.19
425.846	89.19
426.068	96.19
426.291	105.19
426.513	103.19
426.735	98.19
426.958	87.19
427.18	93.19
427.402	88.19
427.625	98.19
427.847	95.19
428.069	104.19
428.292	96.19
428.514	92.19
428.736	95.19
428.958	105.19
429.181	99.19
429.403	89.19
429.625	87.19
429.847	98.19
430.069	87.19
430.292	89.19
430.514	94.19
430.736	87.19
430.958	94.19
431.18	93.19
431.402	93.19
431.624	91.19
431.846	92.19
432.068	81.19
432.29	76.19
432.512	92.19
432.734	104.19
432.956	93.19
433.178	76.19
433.4	87.19
433.622	96.19
433.844	95.19
434.066	74.19
434.287	86.19
434.509	83.19
434.731	71.19
434.953	98.19
435.175	97.19
435.397	103.19
435.618	79.19
435.84	90.19
436.062	84.19
436.284	96.19
436.505	96.19
436.727	87.19
436.949	79.19
437.17	85.19
437.392	102.19
437.614	95.19
437.835	97.19
438.057	78.19
438.278	78.19
438.5	81.19
438.721	92.19
438.943	98.19
439.165	87.19
439.386	83.19
439.608	98.19
439.829	87.19
440.05	82.19
440.272	92.19
440.493	89.19
440.715	87.19
440.936	99.19
441.158	96.19
441.379	96.19
441.6	103.19
441.822	95.19
442.043	92.19
442.264	96.19
442.486	90.19
442.707	79.19
442.928	81.19
443.149	80.19
443.371	97.19
443.592	87.19
443.813	96.19
444.034	93.19
444.255	95.19
444.476	85.19
444.698	93.19
444.919	84.19
445.14	205.19
445.361	149.19
445.582	89.19
445.803	98.19
446.024	85.19
446.245	102.19
446.466	102.19
446.687	93.19
446.908	95.19
447.129	103.19
447.35	91.19
447.571	87.19
447.792	92.19
448.013	104.19
448.234	96.19
448.455	99.19
448.675	97.19
448.896	87.19
449.117	81.19
449.338	91.19
449.559	81.19
449.779	80.19
450	87.19
450.221	85.19
450.442	100.19
450.662	95.19
450.883	88.19
451.104	83.19
451.324	87.19
451.545	87.19
451.766	92.19
451.986	98.19
452.207	93.19
452.428	111.19
452.648	80.19
452.869	112.19
453.089	92.19
453.31	89.19
453.53	84.19
453.751	87.19
453.971	86.19
454.192	69.19
454.412	94.19
454.633	91.19
454.853	92.19
455.073	82.19
455.294	88.19
455.514	91.19
455.734	96.19
455.955	90.19
456.175	86.19
456.395	98.19
456.616	88.19
456.836	94.19
457.056	83.19
457.276	99.19
457.497	80.19
457.717	91.19
457.937	85.19
458.157	81.19
458.377	93.19
458.598	90.19
458.818	88.19
459.038	92.19
459.258	76.19
459.478	73.19
459.698	79.19
459.918	104.19
460.138	96.19
460.358	90.19
460.578	98.19
460.798	87.19
461.018	85.19
461.238	89.19
461.458	96.19
461.678	95.19
461.898	98.19
462.118	85.19
462.338	103.19
462.558	91.19
462.777	94.19
462.997	95.19
463.217	89.19
463.437	80.19
463.657	83.19
463.876	83.19
464.096	87.19
464.316	87.19
464.536	76.19
464.755	81.19
464.975	79.19
465.195	96.19
465.414	89.19
465.634	88.19
465.854	87.19
466.073	86.19
466.293	87.19
466.512	91.19
466.732	85.19
466.951	91.19
467.171	87.19
467.391	81.19
467.61	87.19
467.829	86.19
468.049	92.19
468.268	97.19
468.488	89.19
468.707	88.19
468.927	88.19
469.146	73.19
469.365	106.19
469.585	96.19
469.804	112.19
470.023	94.19
470.243	87.19
470.462	101.19
470.681	101.19
470.901	86.19
471.12	95.19
471.339	94.19
471.558	102.19
471.777	92.19
471.997	82.19
472.216	111.19
472.435	83.19
472.654	81.19
472.873	96.19
473.092	95.19
473.311	86.19
473.53	95.19
473.749	91.19
473.968	85.19
474.187	78.19
474.406	84.19
474.625	94.19
474.844	101.19
475.063	89.19
475.282	89.19
475.501	86.19
475.72	89.19
475.939	92.19
476.158	91.19
476.377	75.19
476.596	84.19
476.814	80.19
477.033	85.19
477.252	86.19
477.471	93.19
477.69	97.19
477.908	110.19
478.127	108.19
478.346	104.19
478.564	106.19
478.783	87.19
479.002	93.19
479.22	78.19
479.439	97.19
479.658	94.19
479.876	102.19
480.095	81.19
480.313	88.19
480.532	88.19
480.751	98.19
480.969	82.19
481.188	80.19
481.406	81.19
481.624	89.19
481.843	80.19
482.061	99.19
482.28	74.19
482.498	91.19
482.717	85.19
482.935	89.19
483.153	87.19
483.372	94.19
483.59	88.19
483.808	88.19
484.027	108.19
484.245	97.19
484.463	95.19
484.681	104.19
484.9	101.19
485.118	95.19
485.336	96.19
485.554	85.19
485.772	91.19
485.99	69.19
486.209	96.19
486.427	90.19
486.645	87.19
486.863	97.19
487.081	90.19
487.299	90.19
487.517	99.19
487.735	104.19
487.953	92.19
488.171	92.19
488.389	85.19
488.607	89.19
488.825	93.19
489.043	90.19
489.261	85.19
489.479	77.19
489.696	76.19
489.914	99.19
490.132	102.19
490.35	81.19
490.568	89.19
490.786	92.19
491.003	99.19
491.221	96.19
491.439	107.19
491.657	97.19
491.874	126.19
492.092	103.19
492.31	111.19
492.527	109.19
492.745	100.19
492.963	104.19
493.18	107.19
493.398	105.19
493.615	97.19
493.833	104.19
494.05	99.19
494.268	105.19
494.485	96.19
494.703	88.19
494.92	99.19
495.138	101.19
495.355	113.19
495.573	105.19
495.79	107.19
496.008	95.19
496.225	87.19
496.442	85.19
496.66	86.19
496.877	102.19
497.094	104.19
497.312	95.19
497.529	97.19
497.746	100.19
497.963	107.19
498.181	89.19
498.398	89.19
498.615	81.19
498.832	83.19
499.049	94.19
499.267	100.19
499.484	89.19
499.701	101.19
499.918	103.19
500.135	86.19
500.352	93.19
500.569	97.19
500.786	108.19
501.003	99.19
501.22	81.19
501.437	82.19
501.654	93.19
501.871	99.19
502.088	83.19
502.305	105.19
502.522	87.19
502.739	95.19
502.956	93.19
503.172	99.19
503.389	100.19
503.606	96.19
503.823	104.19
504.04	92.19
504.256	100.19
504.473	95.19
504.69	95.19
504.907	94.19
505.123	75.19
505.34	92.19
505.557	93.19
505.773	95.19
505.99	88.19
506.207	93.19
506.423	91.19
506.64	102.19
506.856	87.19
507.073	93.19
507.289	97.19
507.506	94.19
507.722	88.19
507.939	98.19
508.155	89.19
508.372	87.19
508.588	89.19
508.805	86.19
509.021	103.19
509.238	88.19
509.454	88.19
509.67	101.19
509.887	93.19
510.103	86.19
510.319	80.19
510.536	94.19
510.752	101.19
510.968	83.19
511.184	89.19
511.401	92.19
511.617	87.19
511.833	84.19
512.049	91.19
512.265	94.19
512.481	83.19
512.698	92.19
512.914	80.19
513.13	91.19
513.346	75.19
513.562	76.19
513.778	85.19
513.994	82.19
514.21	89.19
514.426	95.19
514.642	77.19
514.858	87.19
515.074	83.19
515.29	90.19
515.506	91.19
515.721	88.19
515.937	87.19
516.153	99.19
516.369	74.19
516.585	88.19
516.801	93.19
517.016	97.19
517.232	86.19
517.448	78.19
517.664	92.19
517.879	91.19
518.095	93.19
