Data from Zn(NO3)2Standard.Agarose3%.GreenCap.LampEnergy5.5.E.O_HRD10591_15-03-40-768.txt Node
Date: Mon Jul 22 15:03:40 EDT 2019
User: cochatt
Spectrometer: HR+D1059
Trigger mode: 1
Integration Time (sec): 1.000000E-1
Scans to average: 1
Electric dark correction enabled: true
Nonlinearity correction enabled: false
Boxcar width: 0
XAxis mode: Wavelengths
Number of Pixels in Spectrum: 2048
>>>>>Begin Spectral Data<<<<<
223.165	-18.88
223.4	-18.88
223.635	-18.88
223.869	-22.88
224.104	-18.88
224.338	-7.88
224.573	-6.88
224.808	-9.88
225.042	-3.88
225.277	-0.88
225.511	-3.88
225.746	-8.88
225.98	-5.88
226.215	5.12
226.449	13.12
226.683	24.12
226.918	37.12
227.152	29.12
227.387	38.12
227.621	37.12
227.856	41.12
228.09	52.12
228.324	52.12
228.559	61.12
228.793	61.12
229.027	65.12
229.262	47.12
229.496	76.12
229.73	53.12
229.964	69.12
230.199	82.12
230.433	70.12
230.667	86.12
230.901	86.12
231.136	70.12
231.37	88.12
231.604	89.12
231.838	78.12
232.072	74.12
232.306	79.12
232.541	75.12
232.775	82.12
233.009	97.12
233.243	90.12
233.477	89.12
233.711	92.12
233.945	78.12
234.179	94.12
234.413	88.12
234.647	76.12
234.881	85.12
235.115	84.12
235.349	83.12
235.583	86.12
235.817	73.12
236.051	87.12
236.285	82.12
236.519	84.12
236.753	89.12
236.987	87.12
237.221	74.12
237.455	84.12
237.689	63.12
237.922	70.12
238.156	69.12
238.39	80.12
238.624	86.12
238.858	87.12
239.091	92.12
239.325	79.12
239.559	78.12
239.793	86.12
240.027	82.12
240.26	82.12
240.494	78.12
240.728	78.12
240.961	84.12
241.195	73.12
241.429	82.12
241.662	65.12
241.896	81.12
242.13	73.12
242.363	80.12
242.597	72.12
242.83	83.12
243.064	88.12
243.298	78.12
243.531	91.12
243.765	78.12
243.998	78.12
244.232	82.12
244.465	89.12
244.699	62.12
244.932	77.12
245.166	70.12
245.399	69.12
245.633	81.12
245.866	83.12
246.099	74.12
246.333	77.12
246.566	69.12
246.8	74.12
247.033	93.12
247.266	77.12
247.5	85.12
247.733	70.12
247.966	87.12
248.2	82.12
248.433	60.12
248.666	93.12
248.899	78.12
249.133	75.12
249.366	79.12
249.599	82.12
249.832	88.12
250.066	102.12
250.299	69.12
250.532	76.12
250.765	69.12
250.998	75.12
251.231	80.12
251.465	81.12
251.698	89.12
251.931	86.12
252.164	76.12
252.397	90.12
252.63	86.12
252.863	87.12
253.096	79.12
253.329	88.12
253.562	83.12
253.795	87.12
254.028	105.12
254.261	88.12
254.494	76.12
254.727	77.12
254.96	82.12
255.193	87.12
255.426	79.12
255.659	81.12
255.892	84.12
256.124	87.12
256.357	83.12
256.59	70.12
256.823	77.12
257.056	78.12
257.289	77.12
257.521	87.12
257.754	77.12
257.987	88.12
258.22	89.12
258.452	86.12
258.685	95.12
258.918	82.12
259.151	80.12
259.383	79.12
259.616	83.12
259.849	87.12
260.081	95.12
260.314	81.12
260.547	92.12
260.779	76.12
261.012	86.12
261.244	89.12
261.477	87.12
261.71	74.12
261.942	106.12
262.175	91.12
262.407	76.12
262.64	84.12
262.872	79.12
263.105	62.12
263.337	82.12
263.57	79.12
263.802	92.12
264.035	85.12
264.267	88.12
264.499	88.12
264.732	78.12
264.964	85.12
265.197	85.12
265.429	88.12
265.661	85.12
265.894	69.12
266.126	76.12
266.358	79.12
266.591	82.12
266.823	79.12
267.055	85.12
267.287	68.12
267.52	90.12
267.752	74.12
267.984	92.12
268.216	73.12
268.448	83.12
268.681	71.12
268.913	74.12
269.145	91.12
269.377	84.12
269.609	72.12
269.841	80.12
270.073	88.12
270.306	87.12
270.538	80.12
270.77	81.12
271.002	79.12
271.234	76.12
271.466	83.12
271.698	89.12
271.93	74.12
272.162	94.12
272.394	105.12
272.626	87.12
272.858	89.12
273.09	76.12
273.322	84.12
273.553	97.12
273.785	89.12
274.017	89.12
274.249	87.12
274.481	73.12
274.713	76.12
274.945	94.12
275.176	83.12
275.408	83.12
275.64	77.12
275.872	73.12
276.104	80.12
276.335	92.12
276.567	85.12
276.799	85.12
277.031	87.12
277.262	89.12
277.494	86.12
277.726	84.12
277.957	82.12
278.189	81.12
278.421	75.12
278.652	78.12
278.884	92.12
279.115	85.12
279.347	75.12
279.579	73.12
279.81	85.12
280.042	80.12
280.273	74.12
280.505	62.12
280.736	88.12
280.968	93.12
281.199	78.12
281.431	61.12
281.662	88.12
281.894	77.12
282.125	85.12
282.356	85.12
282.588	83.12
282.819	86.12
283.051	85.12
283.282	87.12
283.513	82.12
283.745	93.12
283.976	90.12
284.207	100.12
284.439	85.12
284.67	101.12
284.901	77.12
285.132	84.12
285.364	79.12
285.595	79.12
285.826	90.12
286.057	89.12
286.288	73.12
286.52	95.12
286.751	93.12
286.982	80.12
287.213	73.12
287.444	88.12
287.675	79.12
287.906	94.12
288.138	86.12
288.369	93.12
288.6	77.12
288.831	72.12
289.062	95.12
289.293	87.12
289.524	92.12
289.755	74.12
289.986	94.12
290.217	86.12
290.448	88.12
290.679	101.12
290.91	82.12
291.141	90.12
291.371	93.12
291.602	86.12
291.833	82.12
292.064	83.12
292.295	73.12
292.526	88.12
292.757	89.12
292.987	83.12
293.218	88.12
293.449	82.12
293.68	80.12
293.91	89.12
294.141	90.12
294.372	75.12
294.603	86.12
294.833	91.12
295.064	86.12
295.295	82.12
295.525	87.12
295.756	98.12
295.987	87.12
296.217	92.12
296.448	94.12
296.679	96.12
296.909	81.12
297.14	99.12
297.37	99.12
297.601	80.12
297.831	79.12
298.062	78.12
298.292	94.12
298.523	84.12
298.753	97.12
298.984	83.12
299.214	92.12
299.445	92.12
299.675	84.12
299.905	77.12
300.136	82.12
300.366	87.12
300.597	86.12
300.827	84.12
301.057	86.12
301.288	89.12
301.518	87.12
301.748	82.12
301.979	81.12
302.209	73.12
302.439	97.12
302.669	86.12
302.9	78.12
303.13	87.12
303.36	79.12
303.59	75.12
303.82	79.12
304.051	84.12
304.281	79.12
304.511	85.12
304.741	83.12
304.971	91.12
305.201	86.12
305.431	80.12
305.661	78.12
305.891	84.12
306.121	94.12
306.352	78.12
306.582	95.12
306.812	84.12
307.042	89.12
307.272	92.12
307.502	90.12
307.731	86.12
307.961	97.12
308.191	97.12
308.421	93.12
308.651	99.12
308.881	77.12
309.111	77.12
309.341	78.12
309.571	93.12
309.8	99.12
310.03	84.12
310.26	89.12
310.49	88.12
310.72	86.12
310.949	71.12
311.179	90.12
311.409	105.12
311.639	79.12
311.868	90.12
312.098	85.12
312.328	99.12
312.557	89.12
312.787	77.12
313.017	101.12
313.246	90.12
313.476	78.12
313.706	83.12
313.935	83.12
314.165	71.12
314.394	79.12
314.624	73.12
314.853	78.12
315.083	68.12
315.312	72.12
315.542	90.12
315.771	88.12
316.001	83.12
316.23	76.12
316.46	84.12
316.689	88.12
316.919	74.12
317.148	78.12
317.377	84.12
317.607	89.12
317.836	84.12
318.065	94.12
318.295	80.12
318.524	78.12
318.753	95.12
318.983	93.12
319.212	103.12
319.441	88.12
319.67	94.12
319.9	82.12
320.129	102.12
320.358	77.12
320.587	88.12
320.816	91.12
321.046	89.12
321.275	90.12
321.504	84.12
321.733	92.12
321.962	97.12
322.191	88.12
322.42	84.12
322.649	89.12
322.878	88.12
323.108	81.12
323.337	81.12
323.566	76.12
323.795	84.12
324.024	97.12
324.253	78.12
324.482	101.12
324.71	76.12
324.939	89.12
325.168	84.12
325.397	87.12
325.626	86.12
325.855	82.12
326.084	72.12
326.313	87.12
326.542	91.12
326.77	91.12
326.999	91.12
327.228	82.12
327.457	87.12
327.686	80.12
327.914	97.12
328.143	96.12
328.372	82.12
328.6	84.12
328.829	86.12
329.058	79.12
329.287	79.12
329.515	82.12
329.744	80.12
329.972	100.12
330.201	84.12
330.43	84.12
330.658	71.12
330.887	81.12
331.115	86.12
331.344	89.12
331.572	83.12
331.801	74.12
332.03	89.12
332.258	87.12
332.486	79.12
332.715	75.12
332.943	72.12
333.172	93.12
333.4	74.12
333.629	85.12
333.857	86.12
334.085	80.12
334.314	85.12
334.542	86.12
334.771	81.12
334.999	82.12
335.227	84.12
335.455	79.12
335.684	70.12
335.912	100.12
336.14	86.12
336.369	75.12
336.597	92.12
336.825	77.12
337.053	80.12
337.281	69.12
337.51	82.12
337.738	80.12
337.966	83.12
338.194	75.12
338.422	92.12
338.65	91.12
338.878	90.12
339.106	82.12
339.334	99.12
339.562	84.12
339.79	86.12
340.018	82.12
340.246	85.12
340.474	78.12
340.702	87.12
340.93	60.12
341.158	78.12
341.386	84.12
341.614	88.12
341.842	102.12
342.07	79.12
342.298	89.12
342.526	89.12
342.754	74.12
342.981	77.12
343.209	92.12
343.437	78.12
343.665	79.12
343.893	84.12
344.12	86.12
344.348	103.12
344.576	84.12
344.804	71.12
345.031	94.12
345.259	82.12
345.487	84.12
345.714	85.12
345.942	84.12
346.17	93.12
346.397	69.12
346.625	78.12
346.853	80.12
347.08	74.12
347.308	88.12
347.535	98.12
347.763	79.12
347.99	84.12
348.218	83.12
348.445	98.12
348.673	97.12
348.9	78.12
349.128	75.12
349.355	89.12
349.583	87.12
349.81	78.12
350.037	91.12
350.265	85.12
350.492	87.12
350.72	78.12
350.947	72.12
351.174	71.12
351.402	78.12
351.629	90.12
351.856	69.12
352.083	81.12
352.311	85.12
352.538	92.12
352.765	99.12
352.992	87.12
353.22	84.12
353.447	70.12
353.674	95.12
353.901	90.12
354.128	90.12
354.355	100.12
354.583	78.12
354.81	71.12
355.037	86.12
355.264	82.12
355.491	73.12
355.718	86.12
355.945	85.12
356.172	90.12
356.399	78.12
356.626	86.12
356.853	99.12
357.08	99.12
357.307	78.12
357.534	70.12
357.761	91.12
357.988	83.12
358.215	87.12
358.441	85.12
358.668	83.12
358.895	90.12
359.122	83.12
359.349	77.12
359.576	78.12
359.802	78.12
360.029	90.12
360.256	73.12
360.483	86.12
360.709	76.12
360.936	93.12
361.163	82.12
361.39	79.12
361.616	86.12
361.843	80.12
362.07	73.12
362.296	77.12
362.523	86.12
362.749	79.12
362.976	82.12
363.203	76.12
363.429	77.12
363.656	88.12
363.882	90.12
364.109	79.12
364.335	83.12
364.562	84.12
364.788	88.12
365.015	67.12
365.241	79.12
365.468	98.12
365.694	72.12
365.92	81.12
366.147	96.12
366.373	77.12
366.599	90.12
366.826	88.12
367.052	75.12
367.278	80.12
367.505	84.12
367.731	83.12
367.957	76.12
368.184	79.12
368.41	77.12
368.636	79.12
368.862	99.12
369.089	78.12
369.315	74.12
369.541	92.12
369.767	94.12
369.993	88.12
370.219	78.12
370.445	94.12
370.672	89.12
370.898	71.12
371.124	91.12
371.35	67.12
371.576	87.12
371.802	93.12
372.028	91.12
372.254	85.12
372.48	79.12
372.706	89.12
372.932	80.12
373.158	71.12
373.384	95.12
373.61	96.12
373.835	86.12
374.061	76.12
374.287	66.12
374.513	74.12
374.739	77.12
374.965	95.12
375.191	67.12
375.416	91.12
375.642	78.12
375.868	72.12
376.094	88.12
376.319	89.12
376.545	84.12
376.771	83.12
376.997	72.12
377.222	84.12
377.448	77.12
377.674	99.12
377.899	82.12
378.125	73.12
378.35	78.12
378.576	84.12
378.802	70.12
379.027	78.12
379.253	79.12
379.478	72.12
379.704	90.12
379.929	76.12
380.155	91.12
380.38	90.12
380.606	67.12
380.831	89.12
381.057	77.12
381.282	83.12
381.507	97.12
381.733	81.12
381.958	92.12
382.184	74.12
382.409	61.12
382.634	85.12
382.86	73.12
383.085	87.12
383.31	85.12
383.535	82.12
383.761	93.12
383.986	85.12
384.211	88.12
384.436	73.12
384.662	79.12
384.887	84.12
385.112	84.12
385.337	81.12
385.562	84.12
385.787	77.12
386.013	93.12
386.238	85.12
386.463	99.12
386.688	95.12
386.913	75.12
387.138	78.12
387.363	77.12
387.588	90.12
387.813	88.12
388.038	81.12
388.263	85.12
388.488	78.12
388.713	73.12
388.938	76.12
389.163	82.12
389.387	82.12
389.612	82.12
389.837	79.12
390.062	99.12
390.287	82.12
390.512	86.12
390.736	84.12
390.961	79.12
391.186	102.12
391.411	81.12
391.636	87.12
391.86	83.12
392.085	97.12
392.31	84.12
392.534	77.12
392.759	94.12
392.984	93.12
393.208	101.12
393.433	78.12
393.658	78.12
393.882	88.12
394.107	85.12
394.331	85.12
394.556	79.12
394.78	83.12
395.005	79.12
395.229	90.12
395.454	98.12
395.678	101.12
395.903	79.12
396.127	94.12
396.352	89.12
396.576	85.12
396.801	81.12
397.025	90.12
397.249	98.12
397.474	87.12
397.698	74.12
397.922	88.12
398.147	100.12
398.371	91.12
398.595	85.12
398.82	78.12
399.044	87.12
399.268	91.12
399.492	94.12
399.717	89.12
399.941	90.12
400.165	77.12
400.389	83.12
400.613	86.12
400.837	92.12
401.062	93.12
401.286	87.12
401.51	79.12
401.734	87.12
401.958	85.12
402.182	91.12
402.406	91.12
402.63	76.12
402.854	87.12
403.078	97.12
403.302	100.12
403.526	93.12
403.75	78.12
403.974	88.12
404.198	96.12
404.422	74.12
404.645	92.12
404.869	97.12
405.093	70.12
405.317	77.12
405.541	87.12
405.765	107.12
405.988	79.12
406.212	89.12
406.436	81.12
406.66	91.12
406.883	86.12
407.107	82.12
407.331	81.12
407.555	94.12
407.778	88.12
408.002	86.12
408.226	101.12
408.449	89.12
408.673	74.12
408.896	78.12
409.12	88.12
409.344	86.12
409.567	81.12
409.791	90.12
410.014	74.12
410.238	85.12
410.461	81.12
410.685	91.12
410.908	84.12
411.132	70.12
411.355	94.12
411.578	92.12
411.802	78.12
412.025	95.12
412.249	74.12
412.472	82.12
412.695	80.12
412.919	95.12
413.142	94.12
413.365	88.12
413.589	100.12
413.812	101.12
414.035	92.12
414.258	95.12
414.482	77.12
414.705	92.12
414.928	90.12
415.151	80.12
415.374	84.12
415.597	101.12
415.821	82.12
416.044	88.12
416.267	97.12
416.49	91.12
416.713	91.12
416.936	82.12
417.159	87.12
417.382	84.12
417.605	75.12
417.828	87.12
418.051	93.12
418.274	104.12
418.497	92.12
418.72	81.12
418.943	86.12
419.166	95.12
419.389	86.12
419.611	97.12
419.834	77.12
420.057	77.12
420.28	78.12
420.503	93.12
420.726	75.12
420.948	98.12
421.171	96.12
421.394	91.12
421.617	85.12
421.839	98.12
422.062	87.12
422.285	77.12
422.507	91.12
422.73	79.12
422.953	82.12
423.175	77.12
423.398	85.12
423.621	80.12
423.843	77.12
424.066	90.12
424.288	92.12
424.511	86.12
424.733	97.12
424.956	75.12
425.178	74.12
425.401	77.12
425.623	85.12
425.846	88.12
426.068	91.12
426.291	96.12
426.513	87.12
426.735	91.12
426.958	87.12
427.18	102.12
427.402	94.12
427.625	98.12
427.847	81.12
428.069	80.12
428.292	76.12
428.514	87.12
428.736	100.12
428.958	95.12
429.181	96.12
429.403	76.12
429.625	83.12
429.847	105.12
430.069	84.12
430.292	99.12
430.514	80.12
430.736	71.12
430.958	83.12
431.18	87.12
431.402	106.12
431.624	102.12
431.846	89.12
432.068	75.12
432.29	84.12
432.512	89.12
432.734	79.12
432.956	93.12
433.178	87.12
433.4	103.12
433.622	84.12
433.844	93.12
434.066	93.12
434.287	88.12
434.509	73.12
434.731	84.12
434.953	90.12
435.175	75.12
435.397	87.12
435.618	98.12
435.84	101.12
436.062	79.12
436.284	85.12
436.505	98.12
436.727	93.12
436.949	78.12
437.17	92.12
437.392	98.12
437.614	83.12
437.835	76.12
438.057	79.12
438.278	93.12
438.5	87.12
438.721	83.12
438.943	97.12
439.165	96.12
439.386	84.12
439.608	93.12
439.829	92.12
440.05	102.12
440.272	91.12
440.493	100.12
440.715	86.12
440.936	76.12
441.158	84.12
441.379	81.12
441.6	97.12
441.822	105.12
442.043	91.12
442.264	100.12
442.486	80.12
442.707	99.12
442.928	87.12
443.149	97.12
443.371	102.12
443.592	76.12
443.813	98.12
444.034	89.12
444.255	86.12
444.476	85.12
444.698	89.12
444.919	96.12
445.14	226.12
445.361	137.12
445.582	95.12
445.803	95.12
446.024	103.12
446.245	84.12
446.466	91.12
446.687	73.12
446.908	101.12
447.129	98.12
447.35	95.12
447.571	81.12
447.792	97.12
448.013	93.12
448.234	91.12
448.455	85.12
448.675	91.12
448.896	84.12
449.117	86.12
449.338	88.12
449.559	88.12
449.779	106.12
450	97.12
450.221	95.12
450.442	90.12
450.662	81.12
450.883	70.12
451.104	103.12
451.324	90.12
451.545	93.12
451.766	98.12
451.986	94.12
452.207	79.12
452.428	93.12
452.648	81.12
452.869	97.12
453.089	104.12
453.31	102.12
453.53	76.12
453.751	82.12
453.971	99.12
454.192	87.12
454.412	85.12
454.633	92.12
454.853	82.12
455.073	83.12
455.294	94.12
455.514	81.12
455.734	92.12
455.955	93.12
456.175	83.12
456.395	90.12
456.616	75.12
456.836	78.12
457.056	88.12
457.276	78.12
457.497	63.12
457.717	88.12
457.937	96.12
458.157	70.12
458.377	82.12
458.598	83.12
458.818	86.12
459.038	86.12
459.258	90.12
459.478	91.12
459.698	85.12
459.918	96.12
460.138	97.12
460.358	87.12
460.578	91.12
460.798	102.12
461.018	101.12
461.238	83.12
461.458	101.12
461.678	98.12
461.898	79.12
462.118	92.12
462.338	88.12
462.558	76.12
462.777	95.12
462.997	90.12
463.217	85.12
463.437	75.12
463.657	82.12
463.876	86.12
464.096	72.12
464.316	78.12
464.536	93.12
464.755	90.12
464.975	92.12
465.195	87.12
465.414	87.12
465.634	81.12
465.854	81.12
466.073	82.12
466.293	80.12
466.512	102.12
466.732	100.12
466.951	95.12
467.171	90.12
467.391	91.12
467.61	95.12
467.829	94.12
468.049	90.12
468.268	89.12
468.488	101.12
468.707	83.12
468.927	99.12
469.146	90.12
469.365	73.12
469.585	87.12
469.804	102.12
470.023	92.12
470.243	84.12
470.462	100.12
470.681	90.12
470.901	88.12
471.12	98.12
471.339	101.12
471.558	97.12
471.777	89.12
471.997	83.12
472.216	100.12
472.435	87.12
472.654	84.12
472.873	96.12
473.092	93.12
473.311	84.12
473.53	93.12
473.749	87.12
473.968	92.12
474.187	93.12
474.406	86.12
474.625	95.12
474.844	104.12
475.063	100.12
475.282	85.12
475.501	92.12
475.72	87.12
475.939	87.12
476.158	88.12
476.377	86.12
476.596	77.12
476.814	86.12
477.033	87.12
477.252	93.12
477.471	74.12
477.69	94.12
477.908	84.12
478.127	94.12
478.346	93.12
478.564	95.12
478.783	74.12
479.002	88.12
479.22	108.12
479.439	100.12
479.658	83.12
479.876	92.12
480.095	69.12
480.313	96.12
480.532	87.12
480.751	91.12
480.969	89.12
481.188	86.12
481.406	84.12
481.624	101.12
481.843	82.12
482.061	82.12
482.28	87.12
482.498	74.12
482.717	90.12
482.935	91.12
483.153	90.12
483.372	103.12
483.59	95.12
483.808	84.12
484.027	90.12
484.245	89.12
484.463	103.12
484.681	100.12
484.9	93.12
485.118	81.12
485.336	79.12
485.554	82.12
485.772	82.12
485.99	84.12
486.209	100.12
486.427	89.12
486.645	79.12
486.863	96.12
487.081	95.12
487.299	85.12
487.517	94.12
487.735	97.12
487.953	97.12
488.171	115.12
488.389	94.12
488.607	107.12
488.825	90.12
489.043	94.12
489.261	95.12
489.479	89.12
489.696	98.12
489.914	97.12
490.132	113.12
490.35	90.12
490.568	103.12
490.786	106.12
491.003	106.12
491.221	101.12
491.439	98.12
491.657	109.12
491.874	105.12
492.092	119.12
492.31	130.12
492.527	101.12
492.745	107.12
492.963	105.12
493.18	105.12
493.398	103.12
493.615	91.12
493.833	85.12
494.05	97.12
494.268	97.12
494.485	95.12
494.703	101.12
494.92	109.12
495.138	99.12
495.355	107.12
495.573	97.12
495.79	107.12
496.008	98.12
496.225	106.12
496.442	107.12
496.66	94.12
496.877	110.12
497.094	85.12
497.312	98.12
497.529	94.12
497.746	104.12
497.963	93.12
498.181	93.12
498.398	99.12
498.615	78.12
498.832	92.12
499.049	77.12
499.267	79.12
499.484	100.12
499.701	94.12
499.918	100.12
500.135	92.12
500.352	87.12
500.569	100.12
500.786	98.12
501.003	81.12
501.22	88.12
501.437	90.12
501.654	85.12
501.871	87.12
502.088	90.12
502.305	91.12
502.522	78.12
502.739	90.12
502.956	94.12
503.172	94.12
503.389	88.12
503.606	83.12
503.823	106.12
504.04	84.12
504.256	88.12
504.473	72.12
504.69	77.12
504.907	93.12
505.123	91.12
505.34	97.12
505.557	86.12
505.773	95.12
505.99	88.12
506.207	97.12
506.423	87.12
506.64	93.12
506.856	94.12
507.073	89.12
507.289	80.12
507.506	75.12
507.722	101.12
507.939	103.12
508.155	98.12
508.372	91.12
508.588	89.12
508.805	99.12
509.021	97.12
509.238	76.12
509.454	89.12
509.67	89.12
509.887	92.12
510.103	94.12
510.319	86.12
510.536	80.12
510.752	86.12
510.968	98.12
511.184	86.12
511.401	94.12
511.617	98.12
511.833	89.12
512.049	89.12
512.265	90.12
512.481	90.12
512.698	80.12
512.914	90.12
513.13	98.12
513.346	65.12
513.562	90.12
513.778	87.12
513.994	99.12
514.21	86.12
514.426	85.12
514.642	80.12
514.858	80.12
515.074	82.12
515.29	76.12
515.506	78.12
515.721	91.12
515.937	78.12
516.153	90.12
516.369	98.12
516.585	74.12
516.801	77.12
517.016	85.12
517.232	86.12
517.448	87.12
517.664	92.12
517.879	93.12
518.095	74.12
