Data from Zn(NO3)2Standard.Agarose3%.GreenCap.LampEnergy10E.O_HRD10591_15-08-41-950.txt Node
Date: Mon Jul 22 15:08:41 EDT 2019
User: cochatt
Spectrometer: HR+D1059
Trigger mode: 1
Integration Time (sec): 1.000000E-1
Scans to average: 1
Electric dark correction enabled: true
Nonlinearity correction enabled: false
Boxcar width: 0
XAxis mode: Wavelengths
Number of Pixels in Spectrum: 2048
>>>>>Begin Spectral Data<<<<<
223.165	-15.19
223.4	-15.19
223.635	-15.19
223.869	-15.19
224.104	-17.19
224.338	-8.19
224.573	-7.19
224.808	1.81
225.042	-11.19
225.277	-11.19
225.511	4.81
225.746	-5.19
225.98	12.81
226.215	18.81
226.449	7.81
226.683	11.81
226.918	9.81
227.152	22.81
227.387	38.81
227.621	44.81
227.856	33.81
228.09	56.81
228.324	58.81
228.559	50.81
228.793	57.81
229.027	53.81
229.262	68.81
229.496	58.81
229.73	60.81
229.964	67.81
230.199	82.81
230.433	79.81
230.667	79.81
230.901	75.81
231.136	85.81
231.37	81.81
231.604	69.81
231.838	80.81
232.072	70.81
232.306	81.81
232.541	64.81
232.775	85.81
233.009	78.81
233.243	86.81
233.477	84.81
233.711	87.81
233.945	72.81
234.179	73.81
234.413	70.81
234.647	81.81
234.881	77.81
235.115	74.81
235.349	84.81
235.583	86.81
235.817	65.81
236.051	78.81
236.285	74.81
236.519	69.81
236.753	89.81
236.987	90.81
237.221	75.81
237.455	76.81
237.689	82.81
237.922	71.81
238.156	78.81
238.39	79.81
238.624	75.81
238.858	82.81
239.091	83.81
239.325	74.81
239.559	74.81
239.793	74.81
240.027	72.81
240.26	66.81
240.494	74.81
240.728	81.81
240.961	76.81
241.195	85.81
241.429	76.81
241.662	74.81
241.896	62.81
242.13	82.81
242.363	58.81
242.597	74.81
242.83	77.81
243.064	72.81
243.298	80.81
243.531	76.81
243.765	89.81
243.998	80.81
244.232	82.81
244.465	80.81
244.699	87.81
244.932	89.81
245.166	83.81
245.399	89.81
245.633	81.81
245.866	76.81
246.099	89.81
246.333	72.81
246.566	92.81
246.8	76.81
247.033	82.81
247.266	80.81
247.5	79.81
247.733	79.81
247.966	73.81
248.2	81.81
248.433	75.81
248.666	74.81
248.899	74.81
249.133	72.81
249.366	82.81
249.599	76.81
249.832	69.81
250.066	82.81
250.299	85.81
250.532	85.81
250.765	89.81
250.998	74.81
251.231	95.81
251.465	73.81
251.698	86.81
251.931	86.81
252.164	68.81
252.397	68.81
252.63	79.81
252.863	87.81
253.096	84.81
253.329	84.81
253.562	83.81
253.795	80.81
254.028	74.81
254.261	83.81
254.494	69.81
254.727	75.81
254.96	74.81
255.193	90.81
255.426	80.81
255.659	81.81
255.892	84.81
256.124	76.81
256.357	62.81
256.59	96.81
256.823	80.81
257.056	79.81
257.289	84.81
257.521	81.81
257.754	86.81
257.987	87.81
258.22	79.81
258.452	92.81
258.685	73.81
258.918	85.81
259.151	82.81
259.383	95.81
259.616	74.81
259.849	72.81
260.081	63.81
260.314	81.81
260.547	63.81
260.779	74.81
261.012	82.81
261.244	79.81
261.477	72.81
261.71	81.81
261.942	84.81
262.175	79.81
262.407	72.81
262.64	90.81
262.872	71.81
263.105	87.81
263.337	89.81
263.57	90.81
263.802	86.81
264.035	67.81
264.267	82.81
264.499	73.81
264.732	69.81
264.964	71.81
265.197	71.81
265.429	84.81
265.661	81.81
265.894	72.81
266.126	73.81
266.358	79.81
266.591	97.81
266.823	89.81
267.055	77.81
267.287	79.81
267.52	89.81
267.752	83.81
267.984	72.81
268.216	82.81
268.448	87.81
268.681	85.81
268.913	72.81
269.145	92.81
269.377	77.81
269.609	78.81
269.841	89.81
270.073	84.81
270.306	80.81
270.538	75.81
270.77	75.81
271.002	65.81
271.234	76.81
271.466	73.81
271.698	86.81
271.93	86.81
272.162	80.81
272.394	87.81
272.626	86.81
272.858	76.81
273.09	69.81
273.322	90.81
273.553	82.81
273.785	89.81
274.017	96.81
274.249	79.81
274.481	88.81
274.713	85.81
274.945	79.81
275.176	63.81
275.408	88.81
275.64	84.81
275.872	85.81
276.104	87.81
276.335	99.81
276.567	80.81
276.799	84.81
277.031	79.81
277.262	90.81
277.494	89.81
277.726	75.81
277.957	89.81
278.189	91.81
278.421	77.81
278.652	84.81
278.884	77.81
279.115	83.81
279.347	90.81
279.579	99.81
279.81	86.81
280.042	83.81
280.273	80.81
280.505	80.81
280.736	81.81
280.968	95.81
281.199	66.81
281.431	75.81
281.662	84.81
281.894	82.81
282.125	87.81
282.356	83.81
282.588	88.81
282.819	87.81
283.051	78.81
283.282	80.81
283.513	90.81
283.745	76.81
283.976	90.81
284.207	75.81
284.439	77.81
284.67	78.81
284.901	75.81
285.132	82.81
285.364	86.81
285.595	75.81
285.826	80.81
286.057	92.81
286.288	95.81
286.52	84.81
286.751	86.81
286.982	88.81
287.213	82.81
287.444	82.81
287.675	71.81
287.906	91.81
288.138	93.81
288.369	90.81
288.6	79.81
288.831	77.81
289.062	85.81
289.293	75.81
289.524	83.81
289.755	72.81
289.986	78.81
290.217	75.81
290.448	87.81
290.679	92.81
290.91	79.81
291.141	82.81
291.371	80.81
291.602	87.81
291.833	76.81
292.064	90.81
292.295	67.81
292.526	77.81
292.757	79.81
292.987	75.81
293.218	92.81
293.449	91.81
293.68	96.81
293.91	87.81
294.141	89.81
294.372	71.81
294.603	88.81
294.833	74.81
295.064	79.81
295.295	80.81
295.525	85.81
295.756	80.81
295.987	80.81
296.217	79.81
296.448	83.81
296.679	74.81
296.909	89.81
297.14	79.81
297.37	85.81
297.601	71.81
297.831	87.81
298.062	74.81
298.292	87.81
298.523	80.81
298.753	93.81
298.984	81.81
299.214	101.81
299.445	74.81
299.675	96.81
299.905	79.81
300.136	95.81
300.366	95.81
300.597	98.81
300.827	97.81
301.057	84.81
301.288	78.81
301.518	74.81
301.748	82.81
301.979	79.81
302.209	94.81
302.439	84.81
302.669	86.81
302.9	95.81
303.13	90.81
303.36	79.81
303.59	78.81
303.82	71.81
304.051	81.81
304.281	86.81
304.511	88.81
304.741	92.81
304.971	71.81
305.201	84.81
305.431	84.81
305.661	77.81
305.891	89.81
306.121	98.81
306.352	89.81
306.582	82.81
306.812	78.81
307.042	90.81
307.272	86.81
307.502	73.81
307.731	78.81
307.961	76.81
308.191	93.81
308.421	83.81
308.651	89.81
308.881	87.81
309.111	79.81
309.341	74.81
309.571	80.81
309.8	72.81
310.03	82.81
310.26	81.81
310.49	78.81
310.72	81.81
310.949	77.81
311.179	78.81
311.409	86.81
311.639	73.81
311.868	103.81
312.098	98.81
312.328	66.81
312.557	73.81
312.787	88.81
313.017	79.81
313.246	77.81
313.476	76.81
313.706	80.81
313.935	79.81
314.165	89.81
314.394	89.81
314.624	80.81
314.853	86.81
315.083	85.81
315.312	85.81
315.542	80.81
315.771	84.81
316.001	81.81
316.23	85.81
316.46	93.81
316.689	81.81
316.919	85.81
317.148	79.81
317.377	76.81
317.607	83.81
317.836	85.81
318.065	87.81
318.295	80.81
318.524	84.81
318.753	97.81
318.983	77.81
319.212	74.81
319.441	79.81
319.67	91.81
319.9	78.81
320.129	90.81
320.358	78.81
320.587	80.81
320.816	86.81
321.046	95.81
321.275	89.81
321.504	77.81
321.733	81.81
321.962	75.81
322.191	92.81
322.42	88.81
322.649	76.81
322.878	82.81
323.108	74.81
323.337	81.81
323.566	88.81
323.795	87.81
324.024	85.81
324.253	95.81
324.482	94.81
324.71	85.81
324.939	75.81
325.168	87.81
325.397	90.81
325.626	80.81
325.855	80.81
326.084	79.81
326.313	85.81
326.542	82.81
326.77	81.81
326.999	81.81
327.228	87.81
327.457	82.81
327.686	93.81
327.914	95.81
328.143	77.81
328.372	89.81
328.6	84.81
328.829	75.81
329.058	73.81
329.287	82.81
329.515	99.81
329.744	80.81
329.972	85.81
330.201	73.81
330.43	89.81
330.658	81.81
330.887	79.81
331.115	67.81
331.344	84.81
331.572	83.81
331.801	80.81
332.03	87.81
332.258	80.81
332.486	82.81
332.715	87.81
332.943	78.81
333.172	75.81
333.4	75.81
333.629	83.81
333.857	79.81
334.085	75.81
334.314	71.81
334.542	90.81
334.771	79.81
334.999	80.81
335.227	89.81
335.455	92.81
335.684	88.81
335.912	90.81
336.14	97.81
336.369	73.81
336.597	77.81
336.825	100.81
337.053	73.81
337.281	94.81
337.51	88.81
337.738	95.81
337.966	78.81
338.194	87.81
338.422	74.81
338.65	74.81
338.878	75.81
339.106	78.81
339.334	84.81
339.562	84.81
339.79	82.81
340.018	90.81
340.246	85.81
340.474	76.81
340.702	75.81
340.93	87.81
341.158	79.81
341.386	88.81
341.614	97.81
341.842	78.81
342.07	82.81
342.298	86.81
342.526	68.81
342.754	87.81
342.981	85.81
343.209	84.81
343.437	83.81
343.665	87.81
343.893	70.81
344.12	87.81
344.348	76.81
344.576	80.81
344.804	88.81
345.031	72.81
345.259	97.81
345.487	83.81
345.714	78.81
345.942	81.81
346.17	85.81
346.397	87.81
346.625	72.81
346.853	86.81
347.08	86.81
347.308	95.81
347.535	85.81
347.763	83.81
347.99	82.81
348.218	86.81
348.445	83.81
348.673	78.81
348.9	90.81
349.128	93.81
349.355	75.81
349.583	87.81
349.81	88.81
350.037	69.81
350.265	74.81
350.492	86.81
350.72	77.81
350.947	96.81
351.174	78.81
351.402	81.81
351.629	83.81
351.856	91.81
352.083	82.81
352.311	80.81
352.538	84.81
352.765	76.81
352.992	81.81
353.22	80.81
353.447	87.81
353.674	96.81
353.901	87.81
354.128	76.81
354.355	89.81
354.583	81.81
354.81	79.81
355.037	87.81
355.264	82.81
355.491	79.81
355.718	95.81
355.945	71.81
356.172	96.81
356.399	81.81
356.626	83.81
356.853	76.81
357.08	78.81
357.307	97.81
357.534	84.81
357.761	77.81
357.988	70.81
358.215	81.81
358.441	84.81
358.668	98.81
358.895	89.81
359.122	90.81
359.349	87.81
359.576	97.81
359.802	77.81
360.029	79.81
360.256	81.81
360.483	69.81
360.709	84.81
360.936	87.81
361.163	104.81
361.39	87.81
361.616	84.81
361.843	79.81
362.07	66.81
362.296	92.81
362.523	89.81
362.749	81.81
362.976	76.81
363.203	88.81
363.429	89.81
363.656	88.81
363.882	76.81
364.109	81.81
364.335	84.81
364.562	82.81
364.788	89.81
365.015	80.81
365.241	82.81
365.468	88.81
365.694	75.81
365.92	83.81
366.147	83.81
366.373	71.81
366.599	91.81
366.826	82.81
367.052	77.81
367.278	80.81
367.505	73.81
367.731	80.81
367.957	79.81
368.184	80.81
368.41	83.81
368.636	88.81
368.862	90.81
369.089	84.81
369.315	79.81
369.541	88.81
369.767	88.81
369.993	96.81
370.219	94.81
370.445	82.81
370.672	86.81
370.898	76.81
371.124	83.81
371.35	83.81
371.576	76.81
371.802	81.81
372.028	91.81
372.254	91.81
372.48	84.81
372.706	69.81
372.932	76.81
373.158	90.81
373.384	81.81
373.61	98.81
373.835	81.81
374.061	85.81
374.287	87.81
374.513	93.81
374.739	83.81
374.965	80.81
375.191	93.81
375.416	80.81
375.642	80.81
375.868	89.81
376.094	84.81
376.319	96.81
376.545	83.81
376.771	68.81
376.997	96.81
377.222	92.81
377.448	74.81
377.674	76.81
377.899	80.81
378.125	75.81
378.35	102.81
378.576	93.81
378.802	79.81
379.027	93.81
379.253	79.81
379.478	82.81
379.704	92.81
379.929	82.81
380.155	82.81
380.38	86.81
380.606	84.81
380.831	80.81
381.057	82.81
381.282	72.81
381.507	73.81
381.733	74.81
381.958	88.81
382.184	86.81
382.409	81.81
382.634	85.81
382.86	89.81
383.085	100.81
383.31	78.81
383.535	95.81
383.761	73.81
383.986	91.81
384.211	89.81
384.436	85.81
384.662	81.81
384.887	81.81
385.112	75.81
385.337	89.81
385.562	86.81
385.787	74.81
386.013	78.81
386.238	76.81
386.463	84.81
386.688	94.81
386.913	67.81
387.138	91.81
387.363	96.81
387.588	87.81
387.813	87.81
388.038	89.81
388.263	83.81
388.488	72.81
388.713	81.81
388.938	89.81
389.163	71.81
389.387	94.81
389.612	88.81
389.837	92.81
390.062	99.81
390.287	94.81
390.512	88.81
390.736	79.81
390.961	87.81
391.186	87.81
391.411	89.81
391.636	83.81
391.86	87.81
392.085	84.81
392.31	87.81
392.534	86.81
392.759	104.81
392.984	100.81
393.208	81.81
393.433	88.81
393.658	99.81
393.882	92.81
394.107	83.81
394.331	95.81
394.556	87.81
394.78	91.81
395.005	102.81
395.229	78.81
395.454	89.81
395.678	91.81
395.903	80.81
396.127	95.81
396.352	95.81
396.576	83.81
396.801	82.81
397.025	86.81
397.249	91.81
397.474	87.81
397.698	98.81
397.922	92.81
398.147	84.81
398.371	77.81
398.595	87.81
398.82	87.81
399.044	80.81
399.268	92.81
399.492	88.81
399.717	88.81
399.941	88.81
400.165	79.81
400.389	90.81
400.613	83.81
400.837	93.81
401.062	80.81
401.286	98.81
401.51	91.81
401.734	93.81
401.958	92.81
402.182	96.81
402.406	87.81
402.63	82.81
402.854	80.81
403.078	94.81
403.302	107.81
403.526	100.81
403.75	101.81
403.974	88.81
404.198	95.81
404.422	99.81
404.645	89.81
404.869	95.81
405.093	89.81
405.317	108.81
405.541	98.81
405.765	89.81
405.988	97.81
406.212	100.81
406.436	92.81
406.66	84.81
406.883	86.81
407.107	91.81
407.331	78.81
407.555	107.81
407.778	96.81
408.002	89.81
408.226	94.81
408.449	84.81
408.673	94.81
408.896	86.81
409.12	93.81
409.344	102.81
409.567	100.81
409.791	79.81
410.014	98.81
410.238	87.81
410.461	92.81
410.685	93.81
410.908	101.81
411.132	91.81
411.355	98.81
411.578	116.81
411.802	93.81
412.025	92.81
412.249	92.81
412.472	90.81
412.695	88.81
412.919	111.81
413.142	92.81
413.365	102.81
413.589	110.81
413.812	114.81
414.035	112.81
414.258	93.81
414.482	83.81
414.705	99.81
414.928	90.81
415.151	92.81
415.374	90.81
415.597	97.81
415.821	106.81
416.044	102.81
416.267	102.81
416.49	94.81
416.713	89.81
416.936	88.81
417.159	90.81
417.382	104.81
417.605	97.81
417.828	92.81
418.051	106.81
418.274	104.81
418.497	111.81
418.72	105.81
418.943	99.81
419.166	98.81
419.389	104.81
419.611	115.81
419.834	97.81
420.057	93.81
420.28	121.81
420.503	116.81
420.726	82.81
420.948	107.81
421.171	112.81
421.394	96.81
421.617	90.81
421.839	101.81
422.062	112.81
422.285	110.81
422.507	103.81
422.73	103.81
422.953	103.81
423.175	103.81
423.398	97.81
423.621	110.81
423.843	102.81
424.066	114.81
424.288	97.81
424.511	92.81
424.733	95.81
424.956	112.81
425.178	104.81
425.401	110.81
425.623	104.81
425.846	114.81
426.068	100.81
426.291	114.81
426.513	112.81
426.735	111.81
426.958	82.81
427.18	100.81
427.402	100.81
427.625	101.81
427.847	92.81
428.069	106.81
428.292	96.81
428.514	107.81
428.736	112.81
428.958	110.81
429.181	100.81
429.403	89.81
429.625	107.81
429.847	108.81
430.069	94.81
430.292	111.81
430.514	108.81
430.736	113.81
430.958	100.81
431.18	110.81
431.402	85.81
431.624	102.81
431.846	105.81
432.068	86.81
432.29	87.81
432.512	92.81
432.734	95.81
432.956	123.81
433.178	113.81
433.4	84.81
433.622	89.81
433.844	113.81
434.066	97.81
434.287	104.81
434.509	97.81
434.731	98.81
434.953	98.81
435.175	106.81
435.397	108.81
435.618	100.81
435.84	102.81
436.062	97.81
436.284	95.81
436.505	104.81
436.727	92.81
436.949	102.81
437.17	91.81
437.392	100.81
437.614	104.81
437.835	83.81
438.057	83.81
438.278	91.81
438.5	98.81
438.721	110.81
438.943	110.81
439.165	114.81
439.386	111.81
439.608	116.81
439.829	118.81
440.05	102.81
440.272	101.81
440.493	119.81
440.715	111.81
440.936	98.81
441.158	105.81
441.379	103.81
441.6	117.81
441.822	130.81
442.043	113.81
442.264	108.81
442.486	114.81
442.707	110.81
442.928	105.81
443.149	107.81
443.371	113.81
443.592	106.81
443.813	102.81
444.034	114.81
444.255	110.81
444.476	102.81
444.698	95.81
444.919	100.81
445.14	203.81
445.361	149.81
445.582	108.81
445.803	106.81
446.024	116.81
446.245	118.81
446.466	98.81
446.687	102.81
446.908	120.81
447.129	115.81
447.35	104.81
447.571	110.81
447.792	104.81
448.013	98.81
448.234	102.81
448.455	110.81
448.675	107.81
448.896	96.81
449.117	113.81
449.338	118.81
449.559	106.81
449.779	112.81
450	110.81
450.221	119.81
450.442	113.81
450.662	101.81
450.883	91.81
451.104	96.81
451.324	106.81
451.545	107.81
451.766	99.81
451.986	110.81
452.207	92.81
452.428	99.81
452.648	120.81
452.869	93.81
453.089	96.81
453.31	112.81
453.53	101.81
453.751	90.81
453.971	98.81
454.192	90.81
454.412	111.81
454.633	105.81
454.853	99.81
455.073	122.81
455.294	93.81
455.514	110.81
455.734	118.81
455.955	116.81
456.175	98.81
456.395	74.81
456.616	82.81
456.836	98.81
457.056	80.81
457.276	91.81
457.497	84.81
457.717	97.81
457.937	86.81
458.157	99.81
458.377	83.81
458.598	85.81
458.818	86.81
459.038	76.81
459.258	76.81
459.478	86.81
459.698	75.81
459.918	79.81
460.138	76.81
460.358	85.81
460.578	109.81
460.798	98.81
461.018	105.81
461.238	92.81
461.458	95.81
461.678	86.81
461.898	104.81
462.118	99.81
462.338	107.81
462.558	99.81
462.777	101.81
462.997	103.81
463.217	96.81
463.437	101.81
463.657	79.81
463.876	86.81
464.096	96.81
464.316	104.81
464.536	99.81
464.755	101.81
464.975	105.81
465.195	98.81
465.414	107.81
465.634	94.81
465.854	90.81
466.073	83.81
466.293	104.81
466.512	96.81
466.732	103.81
466.951	91.81
467.171	101.81
467.391	102.81
467.61	101.81
467.829	102.81
468.049	106.81
468.268	103.81
468.488	106.81
468.707	106.81
468.927	103.81
469.146	104.81
469.365	98.81
469.585	110.81
469.804	112.81
470.023	102.81
470.243	112.81
470.462	109.81
470.681	94.81
470.901	102.81
471.12	97.81
471.339	121.81
471.558	114.81
471.777	106.81
471.997	103.81
472.216	102.81
472.435	98.81
472.654	92.81
472.873	94.81
473.092	110.81
473.311	108.81
473.53	102.81
473.749	114.81
473.968	94.81
474.187	106.81
474.406	96.81
474.625	99.81
474.844	103.81
475.063	99.81
475.282	92.81
475.501	103.81
475.72	87.81
475.939	118.81
476.158	106.81
476.377	86.81
476.596	82.81
476.814	97.81
477.033	103.81
477.252	91.81
477.471	117.81
477.69	104.81
477.908	103.81
478.127	112.81
478.346	112.81
478.564	103.81
478.783	106.81
479.002	107.81
479.22	113.81
479.439	94.81
479.658	106.81
479.876	105.81
480.095	87.81
480.313	107.81
480.532	115.81
480.751	91.81
480.969	89.81
481.188	74.81
481.406	95.81
481.624	93.81
481.843	81.81
482.061	91.81
482.28	100.81
482.498	96.81
482.717	94.81
482.935	90.81
483.153	114.81
483.372	99.81
483.59	113.81
483.808	120.81
484.027	102.81
484.245	99.81
484.463	127.81
484.681	122.81
484.9	122.81
485.118	118.81
485.336	111.81
485.554	105.81
485.772	102.81
485.99	84.81
486.209	88.81
486.427	97.81
486.645	91.81
486.863	109.81
487.081	107.81
487.299	106.81
487.517	111.81
487.735	128.81
487.953	122.81
488.171	130.81
488.389	114.81
488.607	119.81
488.825	112.81
489.043	111.81
489.261	98.81
489.479	108.81
489.696	116.81
489.914	114.81
490.132	89.81
490.35	91.81
490.568	127.81
490.786	130.81
491.003	134.81
491.221	133.81
491.439	122.81
491.657	129.81
491.874	127.81
492.092	148.81
492.31	160.81
492.527	164.81
492.745	150.81
492.963	134.81
493.18	139.81
493.398	134.81
493.615	120.81
493.833	131.81
494.05	129.81
494.268	112.81
494.485	111.81
494.703	119.81
494.92	110.81
495.138	120.81
495.355	124.81
495.573	133.81
495.79	121.81
496.008	122.81
496.225	116.81
496.442	114.81
496.66	131.81
496.877	115.81
497.094	110.81
497.312	136.81
497.529	122.81
497.746	115.81
497.963	116.81
498.181	104.81
498.398	107.81
498.615	112.81
498.832	120.81
499.049	92.81
499.267	100.81
499.484	103.81
499.701	98.81
499.918	109.81
500.135	118.81
500.352	121.81
500.569	104.81
500.786	119.81
501.003	101.81
501.22	112.81
501.437	118.81
501.654	103.81
501.871	112.81
502.088	99.81
502.305	99.81
502.522	95.81
502.739	95.81
502.956	105.81
503.172	110.81
503.389	107.81
503.606	107.81
503.823	111.81
504.04	101.81
504.256	101.81
504.473	115.81
504.69	107.81
504.907	114.81
505.123	100.81
505.34	100.81
505.557	113.81
505.773	107.81
505.99	100.81
506.207	101.81
506.423	105.81
506.64	93.81
506.856	88.81
507.073	101.81
507.289	105.81
507.506	97.81
507.722	103.81
507.939	105.81
508.155	99.81
508.372	102.81
508.588	96.81
508.805	99.81
509.021	79.81
509.238	91.81
509.454	92.81
509.67	86.81
509.887	85.81
510.103	85.81
510.319	80.81
510.536	89.81
510.752	76.81
510.968	77.81
511.184	83.81
511.401	80.81
511.617	84.81
511.833	83.81
512.049	93.81
512.265	86.81
512.481	114.81
512.698	91.81
512.914	94.81
513.13	82.81
513.346	98.81
513.562	83.81
513.778	85.81
513.994	95.81
514.21	92.81
514.426	84.81
514.642	76.81
514.858	97.81
515.074	76.81
