Data from Zn(NO3)2Standard.Agarose3%.GreenCap.LampEnergy10E.O_HRD10591_15-08-19-948.txt Node
Date: Mon Jul 22 15:08:19 EDT 2019
User: cochatt
Spectrometer: HR+D1059
Trigger mode: 1
Integration Time (sec): 1.000000E-1
Scans to average: 1
Electric dark correction enabled: true
Nonlinearity correction enabled: false
Boxcar width: 0
XAxis mode: Wavelengths
Number of Pixels in Spectrum: 2048
>>>>>Begin Spectral Data<<<<<
223.165	-13.69
223.4	-13.69
223.635	-13.69
223.869	-20.69
224.104	-27.69
224.338	-7.69
224.573	-11.69
224.808	-9.69
225.042	-25.69
225.277	-2.69
225.511	-11.69
225.746	7.31
225.98	14.31
226.215	22.31
226.449	17.31
226.683	18.31
226.918	24.31
227.152	27.31
227.387	35.31
227.621	36.31
227.856	51.31
228.09	43.31
228.324	54.31
228.559	51.31
228.793	53.31
229.027	59.31
229.262	65.31
229.496	69.31
229.73	67.31
229.964	86.31
230.199	78.31
230.433	76.31
230.667	85.31
230.901	90.31
231.136	81.31
231.37	79.31
231.604	80.31
231.838	69.31
232.072	77.31
232.306	67.31
232.541	83.31
232.775	85.31
233.009	89.31
233.243	88.31
233.477	77.31
233.711	72.31
233.945	76.31
234.179	83.31
234.413	80.31
234.647	95.31
234.881	80.31
235.115	68.31
235.349	92.31
235.583	90.31
235.817	78.31
236.051	78.31
236.285	80.31
236.519	78.31
236.753	73.31
236.987	84.31
237.221	76.31
237.455	88.31
237.689	83.31
237.922	70.31
238.156	81.31
238.39	74.31
238.624	86.31
238.858	72.31
239.091	77.31
239.325	77.31
239.559	69.31
239.793	79.31
240.027	84.31
240.26	78.31
240.494	90.31
240.728	77.31
240.961	93.31
241.195	75.31
241.429	80.31
241.662	76.31
241.896	77.31
242.13	77.31
242.363	86.31
242.597	81.31
242.83	94.31
243.064	79.31
243.298	72.31
243.531	75.31
243.765	90.31
243.998	82.31
244.232	58.31
244.465	90.31
244.699	83.31
244.932	74.31
245.166	73.31
245.399	73.31
245.633	87.31
245.866	96.31
246.099	88.31
246.333	82.31
246.566	78.31
246.8	75.31
247.033	64.31
247.266	81.31
247.5	86.31
247.733	71.31
247.966	70.31
248.2	74.31
248.433	86.31
248.666	74.31
248.899	76.31
249.133	84.31
249.366	81.31
249.599	69.31
249.832	85.31
250.066	74.31
250.299	79.31
250.532	71.31
250.765	83.31
250.998	85.31
251.231	83.31
251.465	74.31
251.698	74.31
251.931	75.31
252.164	90.31
252.397	90.31
252.63	78.31
252.863	84.31
253.096	80.31
253.329	75.31
253.562	84.31
253.795	104.31
254.028	102.31
254.261	85.31
254.494	90.31
254.727	70.31
254.96	72.31
255.193	83.31
255.426	87.31
255.659	90.31
255.892	89.31
256.124	69.31
256.357	92.31
256.59	84.31
256.823	78.31
257.056	77.31
257.289	70.31
257.521	97.31
257.754	77.31
257.987	73.31
258.22	85.31
258.452	67.31
258.685	74.31
258.918	77.31
259.151	90.31
259.383	78.31
259.616	82.31
259.849	76.31
260.081	75.31
260.314	81.31
260.547	79.31
260.779	80.31
261.012	88.31
261.244	83.31
261.477	94.31
261.71	67.31
261.942	96.31
262.175	76.31
262.407	93.31
262.64	85.31
262.872	92.31
263.105	80.31
263.337	79.31
263.57	76.31
263.802	83.31
264.035	83.31
264.267	70.31
264.499	85.31
264.732	75.31
264.964	85.31
265.197	74.31
265.429	81.31
265.661	78.31
265.894	97.31
266.126	86.31
266.358	84.31
266.591	85.31
266.823	82.31
267.055	83.31
267.287	85.31
267.52	93.31
267.752	79.31
267.984	84.31
268.216	84.31
268.448	88.31
268.681	73.31
268.913	89.31
269.145	83.31
269.377	78.31
269.609	85.31
269.841	99.31
270.073	89.31
270.306	69.31
270.538	86.31
270.77	74.31
271.002	89.31
271.234	86.31
271.466	90.31
271.698	85.31
271.93	87.31
272.162	94.31
272.394	90.31
272.626	100.31
272.858	73.31
273.09	88.31
273.322	94.31
273.553	82.31
273.785	82.31
274.017	93.31
274.249	90.31
274.481	76.31
274.713	82.31
274.945	89.31
275.176	78.31
275.408	99.31
275.64	84.31
275.872	77.31
276.104	75.31
276.335	73.31
276.567	87.31
276.799	86.31
277.031	86.31
277.262	84.31
277.494	86.31
277.726	80.31
277.957	79.31
278.189	77.31
278.421	82.31
278.652	75.31
278.884	88.31
279.115	93.31
279.347	92.31
279.579	74.31
279.81	69.31
280.042	84.31
280.273	87.31
280.505	70.31
280.736	81.31
280.968	88.31
281.199	86.31
281.431	83.31
281.662	86.31
281.894	91.31
282.125	87.31
282.356	85.31
282.588	79.31
282.819	66.31
283.051	94.31
283.282	87.31
283.513	109.31
283.745	93.31
283.976	84.31
284.207	90.31
284.439	92.31
284.67	83.31
284.901	87.31
285.132	90.31
285.364	83.31
285.595	79.31
285.826	78.31
286.057	84.31
286.288	90.31
286.52	77.31
286.751	93.31
286.982	90.31
287.213	88.31
287.444	90.31
287.675	83.31
287.906	102.31
288.138	85.31
288.369	77.31
288.6	75.31
288.831	89.31
289.062	85.31
289.293	95.31
289.524	71.31
289.755	66.31
289.986	103.31
290.217	93.31
290.448	81.31
290.679	88.31
290.91	85.31
291.141	74.31
291.371	85.31
291.602	91.31
291.833	74.31
292.064	74.31
292.295	78.31
292.526	90.31
292.757	91.31
292.987	86.31
293.218	94.31
293.449	93.31
293.68	83.31
293.91	76.31
294.141	97.31
294.372	100.31
294.603	81.31
294.833	88.31
295.064	87.31
295.295	93.31
295.525	93.31
295.756	88.31
295.987	83.31
296.217	74.31
296.448	74.31
296.679	98.31
296.909	81.31
297.14	100.31
297.37	86.31
297.601	85.31
297.831	99.31
298.062	77.31
298.292	79.31
298.523	90.31
298.753	94.31
298.984	83.31
299.214	85.31
299.445	82.31
299.675	89.31
299.905	92.31
300.136	97.31
300.366	84.31
300.597	92.31
300.827	101.31
301.057	84.31
301.288	73.31
301.518	84.31
301.748	67.31
301.979	87.31
302.209	103.31
302.439	78.31
302.669	82.31
302.9	77.31
303.13	96.31
303.36	85.31
303.59	90.31
303.82	100.31
304.051	90.31
304.281	80.31
304.511	97.31
304.741	95.31
304.971	82.31
305.201	83.31
305.431	95.31
305.661	99.31
305.891	91.31
306.121	88.31
306.352	93.31
306.582	90.31
306.812	95.31
307.042	92.31
307.272	79.31
307.502	91.31
307.731	98.31
307.961	77.31
308.191	81.31
308.421	73.31
308.651	90.31
308.881	86.31
309.111	89.31
309.341	82.31
309.571	86.31
309.8	82.31
310.03	99.31
310.26	77.31
310.49	87.31
310.72	99.31
310.949	97.31
311.179	87.31
311.409	89.31
311.639	83.31
311.868	80.31
312.098	83.31
312.328	91.31
312.557	80.31
312.787	84.31
313.017	98.31
313.246	91.31
313.476	87.31
313.706	79.31
313.935	85.31
314.165	81.31
314.394	74.31
314.624	83.31
314.853	90.31
315.083	100.31
315.312	84.31
315.542	86.31
315.771	99.31
316.001	96.31
316.23	83.31
316.46	67.31
316.689	76.31
316.919	81.31
317.148	102.31
317.377	97.31
317.607	71.31
317.836	85.31
318.065	81.31
318.295	87.31
318.524	101.31
318.753	91.31
318.983	94.31
319.212	90.31
319.441	92.31
319.67	98.31
319.9	79.31
320.129	86.31
320.358	91.31
320.587	93.31
320.816	88.31
321.046	93.31
321.275	97.31
321.504	88.31
321.733	92.31
321.962	87.31
322.191	84.31
322.42	76.31
322.649	91.31
322.878	99.31
323.108	88.31
323.337	89.31
323.566	82.31
323.795	90.31
324.024	77.31
324.253	82.31
324.482	87.31
324.71	101.31
324.939	98.31
325.168	88.31
325.397	95.31
325.626	96.31
325.855	80.31
326.084	94.31
326.313	81.31
326.542	79.31
326.77	86.31
326.999	76.31
327.228	95.31
327.457	101.31
327.686	90.31
327.914	79.31
328.143	87.31
328.372	83.31
328.6	82.31
328.829	85.31
329.058	79.31
329.287	77.31
329.515	94.31
329.744	89.31
329.972	90.31
330.201	81.31
330.43	95.31
330.658	79.31
330.887	87.31
331.115	81.31
331.344	84.31
331.572	92.31
331.801	98.31
332.03	84.31
332.258	96.31
332.486	91.31
332.715	81.31
332.943	76.31
333.172	78.31
333.4	82.31
333.629	84.31
333.857	70.31
334.085	79.31
334.314	76.31
334.542	89.31
334.771	82.31
334.999	85.31
335.227	73.31
335.455	83.31
335.684	88.31
335.912	80.31
336.14	92.31
336.369	71.31
336.597	89.31
336.825	90.31
337.053	86.31
337.281	77.31
337.51	86.31
337.738	88.31
337.966	95.31
338.194	91.31
338.422	93.31
338.65	84.31
338.878	98.31
339.106	107.31
339.334	93.31
339.562	90.31
339.79	89.31
340.018	93.31
340.246	85.31
340.474	82.31
340.702	92.31
340.93	85.31
341.158	83.31
341.386	79.31
341.614	94.31
341.842	85.31
342.07	81.31
342.298	75.31
342.526	87.31
342.754	67.31
342.981	90.31
343.209	73.31
343.437	87.31
343.665	91.31
343.893	86.31
344.12	93.31
344.348	84.31
344.576	89.31
344.804	88.31
345.031	77.31
345.259	86.31
345.487	78.31
345.714	88.31
345.942	85.31
346.17	81.31
346.397	94.31
346.625	80.31
346.853	85.31
347.08	92.31
347.308	87.31
347.535	85.31
347.763	81.31
347.99	76.31
348.218	93.31
348.445	83.31
348.673	94.31
348.9	89.31
349.128	74.31
349.355	87.31
349.583	77.31
349.81	81.31
350.037	95.31
350.265	82.31
350.492	90.31
350.72	73.31
350.947	86.31
351.174	78.31
351.402	95.31
351.629	82.31
351.856	87.31
352.083	73.31
352.311	85.31
352.538	79.31
352.765	78.31
352.992	75.31
353.22	78.31
353.447	86.31
353.674	82.31
353.901	76.31
354.128	75.31
354.355	92.31
354.583	81.31
354.81	86.31
355.037	74.31
355.264	82.31
355.491	81.31
355.718	90.31
355.945	82.31
356.172	87.31
356.399	86.31
356.626	95.31
356.853	93.31
357.08	87.31
357.307	83.31
357.534	83.31
357.761	78.31
357.988	93.31
358.215	91.31
358.441	90.31
358.668	76.31
358.895	79.31
359.122	87.31
359.349	102.31
359.576	86.31
359.802	94.31
360.029	88.31
360.256	86.31
360.483	84.31
360.709	84.31
360.936	84.31
361.163	101.31
361.39	93.31
361.616	91.31
361.843	88.31
362.07	85.31
362.296	90.31
362.523	79.31
362.749	85.31
362.976	82.31
363.203	83.31
363.429	72.31
363.656	91.31
363.882	100.31
364.109	83.31
364.335	89.31
364.562	105.31
364.788	84.31
365.015	86.31
365.241	76.31
365.468	85.31
365.694	75.31
365.92	77.31
366.147	93.31
366.373	91.31
366.599	83.31
366.826	87.31
367.052	87.31
367.278	89.31
367.505	88.31
367.731	96.31
367.957	78.31
368.184	97.31
368.41	104.31
368.636	93.31
368.862	83.31
369.089	89.31
369.315	76.31
369.541	88.31
369.767	61.31
369.993	75.31
370.219	86.31
370.445	96.31
370.672	87.31
370.898	101.31
371.124	86.31
371.35	91.31
371.576	80.31
371.802	87.31
372.028	93.31
372.254	87.31
372.48	75.31
372.706	86.31
372.932	88.31
373.158	95.31
373.384	84.31
373.61	102.31
373.835	73.31
374.061	81.31
374.287	76.31
374.513	83.31
374.739	100.31
374.965	85.31
375.191	70.31
375.416	97.31
375.642	89.31
375.868	89.31
376.094	76.31
376.319	93.31
376.545	84.31
376.771	80.31
376.997	97.31
377.222	93.31
377.448	90.31
377.674	81.31
377.899	96.31
378.125	90.31
378.35	86.31
378.576	96.31
378.802	95.31
379.027	94.31
379.253	91.31
379.478	94.31
379.704	91.31
379.929	81.31
380.155	98.31
380.38	90.31
380.606	78.31
380.831	78.31
381.057	100.31
381.282	86.31
381.507	89.31
381.733	81.31
381.958	90.31
382.184	83.31
382.409	93.31
382.634	99.31
382.86	90.31
383.085	78.31
383.31	86.31
383.535	102.31
383.761	93.31
383.986	95.31
384.211	78.31
384.436	89.31
384.662	92.31
384.887	87.31
385.112	86.31
385.337	93.31
385.562	90.31
385.787	92.31
386.013	114.31
386.238	84.31
386.463	90.31
386.688	86.31
386.913	73.31
387.138	110.31
387.363	93.31
387.588	91.31
387.813	92.31
388.038	85.31
388.263	100.31
388.488	104.31
388.713	90.31
388.938	75.31
389.163	91.31
389.387	88.31
389.612	104.31
389.837	94.31
390.062	78.31
390.287	92.31
390.512	90.31
390.736	92.31
390.961	85.31
391.186	87.31
391.411	86.31
391.636	89.31
391.86	102.31
392.085	87.31
392.31	93.31
392.534	102.31
392.759	105.31
392.984	88.31
393.208	103.31
393.433	97.31
393.658	82.31
393.882	88.31
394.107	74.31
394.331	91.31
394.556	94.31
394.78	86.31
395.005	102.31
395.229	101.31
395.454	93.31
395.678	100.31
395.903	98.31
396.127	97.31
396.352	100.31
396.576	91.31
396.801	92.31
397.025	91.31
397.249	110.31
397.474	100.31
397.698	97.31
397.922	106.31
398.147	92.31
398.371	86.31
398.595	116.31
398.82	91.31
399.044	77.31
399.268	91.31
399.492	97.31
399.717	91.31
399.941	90.31
400.165	104.31
400.389	87.31
400.613	100.31
400.837	92.31
401.062	99.31
401.286	94.31
401.51	90.31
401.734	94.31
401.958	98.31
402.182	104.31
402.406	101.31
402.63	98.31
402.854	97.31
403.078	97.31
403.302	93.31
403.526	97.31
403.75	91.31
403.974	105.31
404.198	110.31
404.422	101.31
404.645	93.31
404.869	99.31
405.093	96.31
405.317	107.31
405.541	107.31
405.765	90.31
405.988	99.31
406.212	105.31
406.436	96.31
406.66	98.31
406.883	97.31
407.107	108.31
407.331	95.31
407.555	102.31
407.778	108.31
408.002	104.31
408.226	92.31
408.449	96.31
408.673	92.31
408.896	106.31
409.12	101.31
409.344	94.31
409.567	106.31
409.791	95.31
410.014	92.31
410.238	107.31
410.461	103.31
410.685	106.31
410.908	96.31
411.132	93.31
411.355	107.31
411.578	105.31
411.802	89.31
412.025	107.31
412.249	105.31
412.472	104.31
412.695	101.31
412.919	98.31
413.142	101.31
413.365	107.31
413.589	103.31
413.812	100.31
414.035	92.31
414.258	101.31
414.482	96.31
414.705	101.31
414.928	105.31
415.151	94.31
415.374	98.31
415.597	100.31
415.821	100.31
416.044	98.31
416.267	105.31
416.49	103.31
416.713	128.31
416.936	105.31
417.159	93.31
417.382	100.31
417.605	91.31
417.828	100.31
418.051	108.31
418.274	108.31
418.497	106.31
418.72	104.31
418.943	86.31
419.166	89.31
419.389	109.31
419.611	105.31
419.834	101.31
420.057	103.31
420.28	108.31
420.503	107.31
420.726	107.31
420.948	105.31
421.171	108.31
421.394	109.31
421.617	105.31
421.839	123.31
422.062	108.31
422.285	113.31
422.507	101.31
422.73	95.31
422.953	100.31
423.175	99.31
423.398	117.31
423.621	107.31
423.843	113.31
424.066	107.31
424.288	121.31
424.511	106.31
424.733	98.31
424.956	111.31
425.178	120.31
425.401	110.31
425.623	109.31
425.846	110.31
426.068	103.31
426.291	106.31
426.513	90.31
426.735	108.31
426.958	94.31
427.18	118.31
427.402	116.31
427.625	112.31
427.847	104.31
428.069	109.31
428.292	99.31
428.514	115.31
428.736	111.31
428.958	105.31
429.181	107.31
429.403	103.31
429.625	112.31
429.847	105.31
430.069	102.31
430.292	107.31
430.514	104.31
430.736	98.31
430.958	104.31
431.18	122.31
431.402	102.31
431.624	104.31
431.846	117.31
432.068	104.31
432.29	91.31
432.512	97.31
432.734	101.31
432.956	120.31
433.178	109.31
433.4	112.31
433.622	107.31
433.844	105.31
434.066	117.31
434.287	107.31
434.509	84.31
434.731	68.31
434.953	94.31
435.175	106.31
435.397	100.31
435.618	108.31
435.84	90.31
436.062	93.31
436.284	85.31
436.505	98.31
436.727	109.31
436.949	110.31
437.17	109.31
437.392	99.31
437.614	99.31
437.835	94.31
438.057	101.31
438.278	106.31
438.5	107.31
438.721	113.31
438.943	106.31
439.165	104.31
439.386	88.31
439.608	107.31
439.829	118.31
440.05	111.31
440.272	127.31
440.493	106.31
440.715	109.31
440.936	99.31
441.158	105.31
441.379	111.31
441.6	101.31
441.822	120.31
442.043	121.31
442.264	122.31
442.486	111.31
442.707	100.31
442.928	115.31
443.149	114.31
443.371	112.31
443.592	115.31
443.813	117.31
444.034	113.31
444.255	115.31
444.476	126.31
444.698	99.31
444.919	109.31
445.14	205.31
445.361	144.31
445.582	127.31
445.803	126.31
446.024	106.31
446.245	111.31
446.466	105.31
446.687	109.31
446.908	116.31
447.129	118.31
447.35	141.31
447.571	116.31
447.792	116.31
448.013	119.31
448.234	115.31
448.455	129.31
448.675	124.31
448.896	99.31
449.117	101.31
449.338	108.31
449.559	120.31
449.779	115.31
450	114.31
450.221	102.31
450.442	106.31
450.662	118.31
450.883	107.31
451.104	114.31
451.324	97.31
451.545	102.31
451.766	123.31
451.986	102.31
452.207	104.31
452.428	94.31
452.648	110.31
452.869	100.31
453.089	111.31
453.31	101.31
453.53	99.31
453.751	91.31
453.971	94.31
454.192	88.31
454.412	105.31
454.633	109.31
454.853	94.31
455.073	90.31
455.294	105.31
455.514	97.31
455.734	98.31
455.955	101.31
456.175	100.31
456.395	108.31
456.616	102.31
456.836	98.31
457.056	92.31
457.276	99.31
457.497	107.31
457.717	100.31
457.937	109.31
458.157	90.31
458.377	114.31
458.598	90.31
458.818	87.31
459.038	83.31
459.258	109.31
459.478	70.31
459.698	98.31
459.918	99.31
460.138	92.31
460.358	97.31
460.578	97.31
460.798	98.31
461.018	108.31
461.238	101.31
461.458	109.31
461.678	115.31
461.898	105.31
462.118	109.31
462.338	106.31
462.558	104.31
462.777	98.31
462.997	94.31
463.217	89.31
463.437	95.31
463.657	90.31
463.876	104.31
464.096	89.31
464.316	95.31
464.536	96.31
464.755	107.31
464.975	101.31
465.195	107.31
465.414	98.31
465.634	106.31
465.854	93.31
466.073	96.31
466.293	115.31
466.512	103.31
466.732	114.31
466.951	99.31
467.171	101.31
467.391	98.31
467.61	115.31
467.829	125.31
468.049	87.31
468.268	97.31
468.488	101.31
468.707	101.31
468.927	109.31
469.146	106.31
469.365	117.31
469.585	115.31
469.804	115.31
470.023	114.31
470.243	104.31
470.462	114.31
470.681	113.31
470.901	117.31
471.12	117.31
471.339	111.31
471.558	112.31
471.777	109.31
471.997	103.31
472.216	98.31
472.435	96.31
472.654	101.31
472.873	108.31
473.092	101.31
473.311	102.31
473.53	104.31
473.749	106.31
473.968	94.31
474.187	101.31
474.406	107.31
474.625	104.31
474.844	92.31
475.063	110.31
475.282	99.31
475.501	98.31
475.72	115.31
475.939	105.31
476.158	93.31
476.377	116.31
476.596	99.31
476.814	98.31
477.033	98.31
477.252	88.31
477.471	106.31
477.69	114.31
477.908	107.31
478.127	110.31
478.346	107.31
478.564	105.31
478.783	112.31
479.002	113.31
479.22	107.31
479.439	115.31
479.658	102.31
479.876	100.31
480.095	95.31
480.313	114.31
480.532	98.31
480.751	103.31
480.969	113.31
481.188	79.31
481.406	92.31
481.624	97.31
481.843	87.31
482.061	92.31
482.28	83.31
482.498	103.31
482.717	107.31
482.935	113.31
483.153	126.31
483.372	126.31
483.59	124.31
483.808	110.31
484.027	117.31
484.245	97.31
484.463	113.31
484.681	106.31
484.9	111.31
485.118	103.31
485.336	99.31
485.554	97.31
485.772	88.31
485.99	95.31
486.209	112.31
486.427	106.31
486.645	111.31
486.863	113.31
487.081	104.31
487.299	125.31
487.517	108.31
487.735	126.31
487.953	142.31
488.171	126.31
488.389	124.31
488.607	123.31
488.825	125.31
489.043	104.31
489.261	104.31
489.479	102.31
489.696	119.31
489.914	107.31
490.132	120.31
490.35	121.31
490.568	118.31
490.786	118.31
491.003	131.31
491.221	125.31
491.439	113.31
491.657	117.31
491.874	147.31
492.092	149.31
492.31	152.31
492.527	155.31
492.745	132.31
492.963	138.31
493.18	132.31
493.398	146.31
493.615	131.31
493.833	120.31
494.05	122.31
494.268	131.31
494.485	125.31
494.703	121.31
494.92	116.31
495.138	121.31
495.355	138.31
495.573	125.31
495.79	130.31
496.008	121.31
496.225	120.31
496.442	129.31
496.66	131.31
496.877	120.31
497.094	139.31
497.312	126.31
497.529	115.31
497.746	129.31
497.963	105.31
498.181	109.31
498.398	105.31
498.615	107.31
498.832	103.31
499.049	92.31
499.267	93.31
499.484	111.31
499.701	101.31
499.918	113.31
500.135	114.31
500.352	100.31
500.569	107.31
500.786	122.31
501.003	91.31
501.22	102.31
501.437	112.31
501.654	121.31
501.871	105.31
502.088	111.31
502.305	102.31
502.522	116.31
502.739	105.31
502.956	112.31
503.172	111.31
503.389	106.31
503.606	102.31
503.823	92.31
504.04	109.31
504.256	108.31
504.473	104.31
504.69	107.31
504.907	110.31
505.123	110.31
505.34	114.31
505.557	99.31
505.773	109.31
505.99	93.31
506.207	113.31
506.423	95.31
506.64	106.31
506.856	117.31
507.073	101.31
507.289	111.31
507.506	113.31
507.722	97.31
507.939	110.31
508.155	105.31
508.372	90.31
508.588	94.31
508.805	92.31
509.021	103.31
509.238	90.31
509.454	106.31
509.67	84.31
509.887	91.31
510.103	99.31
510.319	95.31
510.536	89.31
510.752	86.31
510.968	85.31
511.184	93.31
511.401	88.31
511.617	88.31
511.833	103.31
512.049	108.31
512.265	79.31
512.481	91.31
512.698	97.31
512.914	85.31
513.13	83.31
513.346	78.31
513.562	85.31
