Data from Zn(NO3)2Standard.Agarose3%.GreenCap.LampEnergy10E.O_HRD10591_15-06-37-941.txt Node
Date: Mon Jul 22 15:06:37 EDT 2019
User: cochatt
Spectrometer: HR+D1059
Trigger mode: 1
Integration Time (sec): 1.000000E-1
Scans to average: 1
Electric dark correction enabled: true
Nonlinearity correction enabled: false
Boxcar width: 0
XAxis mode: Wavelengths
Number of Pixels in Spectrum: 2048
>>>>>Begin Spectral Data<<<<<
223.165	-15.44
223.4	-15.44
223.635	-15.44
223.869	-13.44
224.104	-16.44
224.338	-15.44
224.573	-14.44
224.808	-13.44
225.042	-1.44
225.277	-11.44
225.511	3.56
225.746	-2.44
225.98	-0.44
226.215	1.56
226.449	12.56
226.683	18.56
226.918	28.56
227.152	39.56
227.387	50.56
227.621	41.56
227.856	32.56
228.09	46.56
228.324	59.56
228.559	77.56
228.793	60.56
229.027	54.56
229.262	72.56
229.496	62.56
229.73	70.56
229.964	58.56
230.199	77.56
230.433	84.56
230.667	65.56
230.901	67.56
231.136	82.56
231.37	75.56
231.604	73.56
231.838	82.56
232.072	78.56
232.306	85.56
232.541	75.56
232.775	74.56
233.009	73.56
233.243	82.56
233.477	83.56
233.711	87.56
233.945	102.56
234.179	90.56
234.413	84.56
234.647	70.56
234.881	75.56
235.115	79.56
235.349	83.56
235.583	79.56
235.817	83.56
236.051	80.56
236.285	73.56
236.519	74.56
236.753	74.56
236.987	73.56
237.221	74.56
237.455	69.56
237.689	76.56
237.922	94.56
238.156	82.56
238.39	85.56
238.624	82.56
238.858	82.56
239.091	77.56
239.325	66.56
239.559	72.56
239.793	77.56
240.027	66.56
240.26	69.56
240.494	70.56
240.728	74.56
240.961	83.56
241.195	83.56
241.429	80.56
241.662	74.56
241.896	81.56
242.13	70.56
242.363	74.56
242.597	81.56
242.83	92.56
243.064	89.56
243.298	72.56
243.531	75.56
243.765	72.56
243.998	77.56
244.232	76.56
244.465	76.56
244.699	72.56
244.932	87.56
245.166	70.56
245.399	75.56
245.633	75.56
245.866	81.56
246.099	85.56
246.333	81.56
246.566	95.56
246.8	75.56
247.033	57.56
247.266	88.56
247.5	68.56
247.733	70.56
247.966	67.56
248.2	72.56
248.433	82.56
248.666	57.56
248.899	61.56
249.133	74.56
249.366	84.56
249.599	77.56
249.832	70.56
250.066	90.56
250.299	77.56
250.532	87.56
250.765	82.56
250.998	91.56
251.231	74.56
251.465	90.56
251.698	83.56
251.931	87.56
252.164	70.56
252.397	76.56
252.63	77.56
252.863	69.56
253.096	77.56
253.329	98.56
253.562	74.56
253.795	82.56
254.028	73.56
254.261	71.56
254.494	86.56
254.727	89.56
254.96	85.56
255.193	85.56
255.426	90.56
255.659	55.56
255.892	89.56
256.124	89.56
256.357	71.56
256.59	76.56
256.823	73.56
257.056	92.56
257.289	77.56
257.521	86.56
257.754	83.56
257.987	70.56
258.22	84.56
258.452	81.56
258.685	87.56
258.918	68.56
259.151	91.56
259.383	72.56
259.616	81.56
259.849	55.56
260.081	79.56
260.314	77.56
260.547	81.56
260.779	83.56
261.012	77.56
261.244	83.56
261.477	95.56
261.71	87.56
261.942	75.56
262.175	89.56
262.407	84.56
262.64	88.56
262.872	75.56
263.105	89.56
263.337	82.56
263.57	88.56
263.802	91.56
264.035	76.56
264.267	83.56
264.499	81.56
264.732	79.56
264.964	84.56
265.197	77.56
265.429	73.56
265.661	67.56
265.894	79.56
266.126	87.56
266.358	94.56
266.591	79.56
266.823	70.56
267.055	90.56
267.287	81.56
267.52	78.56
267.752	84.56
267.984	81.56
268.216	69.56
268.448	87.56
268.681	89.56
268.913	83.56
269.145	74.56
269.377	86.56
269.609	74.56
269.841	89.56
270.073	79.56
270.306	83.56
270.538	90.56
270.77	90.56
271.002	92.56
271.234	76.56
271.466	94.56
271.698	74.56
271.93	73.56
272.162	76.56
272.394	84.56
272.626	85.56
272.858	87.56
273.09	77.56
273.322	98.56
273.553	93.56
273.785	87.56
274.017	87.56
274.249	77.56
274.481	83.56
274.713	71.56
274.945	81.56
275.176	91.56
275.408	87.56
275.64	82.56
275.872	84.56
276.104	85.56
276.335	77.56
276.567	85.56
276.799	85.56
277.031	77.56
277.262	89.56
277.494	77.56
277.726	87.56
277.957	81.56
278.189	77.56
278.421	82.56
278.652	81.56
278.884	97.56
279.115	80.56
279.347	90.56
279.579	84.56
279.81	69.56
280.042	81.56
280.273	77.56
280.505	96.56
280.736	82.56
280.968	75.56
281.199	76.56
281.431	83.56
281.662	82.56
281.894	91.56
282.125	90.56
282.356	81.56
282.588	84.56
282.819	81.56
283.051	77.56
283.282	95.56
283.513	90.56
283.745	91.56
283.976	80.56
284.207	91.56
284.439	85.56
284.67	76.56
284.901	88.56
285.132	70.56
285.364	79.56
285.595	85.56
285.826	86.56
286.057	87.56
286.288	85.56
286.52	72.56
286.751	76.56
286.982	86.56
287.213	90.56
287.444	82.56
287.675	73.56
287.906	77.56
288.138	82.56
288.369	76.56
288.6	87.56
288.831	75.56
289.062	87.56
289.293	76.56
289.524	96.56
289.755	80.56
289.986	73.56
290.217	87.56
290.448	81.56
290.679	95.56
290.91	79.56
291.141	76.56
291.371	94.56
291.602	82.56
291.833	78.56
292.064	80.56
292.295	83.56
292.526	88.56
292.757	89.56
292.987	80.56
293.218	77.56
293.449	88.56
293.68	93.56
293.91	84.56
294.141	82.56
294.372	89.56
294.603	87.56
294.833	91.56
295.064	81.56
295.295	90.56
295.525	83.56
295.756	78.56
295.987	75.56
296.217	83.56
296.448	79.56
296.679	80.56
296.909	79.56
297.14	83.56
297.37	86.56
297.601	85.56
297.831	90.56
298.062	76.56
298.292	86.56
298.523	84.56
298.753	73.56
298.984	69.56
299.214	84.56
299.445	82.56
299.675	81.56
299.905	81.56
300.136	79.56
300.366	81.56
300.597	76.56
300.827	79.56
301.057	85.56
301.288	77.56
301.518	92.56
301.748	80.56
301.979	93.56
302.209	91.56
302.439	90.56
302.669	102.56
302.9	91.56
303.13	68.56
303.36	92.56
303.59	85.56
303.82	85.56
304.051	88.56
304.281	84.56
304.511	81.56
304.741	77.56
304.971	72.56
305.201	86.56
305.431	75.56
305.661	87.56
305.891	85.56
306.121	88.56
306.352	76.56
306.582	70.56
306.812	99.56
307.042	88.56
307.272	92.56
307.502	78.56
307.731	81.56
307.961	78.56
308.191	95.56
308.421	84.56
308.651	79.56
308.881	80.56
309.111	74.56
309.341	79.56
309.571	81.56
309.8	76.56
310.03	84.56
310.26	90.56
310.49	92.56
310.72	82.56
310.949	91.56
311.179	80.56
311.409	75.56
311.639	71.56
311.868	78.56
312.098	87.56
312.328	79.56
312.557	81.56
312.787	75.56
313.017	83.56
313.246	76.56
313.476	74.56
313.706	72.56
313.935	87.56
314.165	76.56
314.394	75.56
314.624	72.56
314.853	96.56
315.083	88.56
315.312	105.56
315.542	66.56
315.771	84.56
316.001	76.56
316.23	78.56
316.46	74.56
316.689	93.56
316.919	88.56
317.148	91.56
317.377	96.56
317.607	72.56
317.836	98.56
318.065	88.56
318.295	88.56
318.524	103.56
318.753	84.56
318.983	80.56
319.212	74.56
319.441	77.56
319.67	90.56
319.9	77.56
320.129	85.56
320.358	70.56
320.587	84.56
320.816	84.56
321.046	87.56
321.275	74.56
321.504	69.56
321.733	81.56
321.962	82.56
322.191	81.56
322.42	85.56
322.649	78.56
322.878	96.56
323.108	88.56
323.337	88.56
323.566	83.56
323.795	77.56
324.024	73.56
324.253	77.56
324.482	82.56
324.71	91.56
324.939	82.56
325.168	74.56
325.397	81.56
325.626	81.56
325.855	87.56
326.084	86.56
326.313	95.56
326.542	85.56
326.77	82.56
326.999	88.56
327.228	92.56
327.457	80.56
327.686	94.56
327.914	87.56
328.143	89.56
328.372	98.56
328.6	83.56
328.829	84.56
329.058	95.56
329.287	81.56
329.515	78.56
329.744	93.56
329.972	82.56
330.201	84.56
330.43	92.56
330.658	98.56
330.887	78.56
331.115	80.56
331.344	76.56
331.572	91.56
331.801	86.56
332.03	92.56
332.258	72.56
332.486	84.56
332.715	85.56
332.943	85.56
333.172	87.56
333.4	91.56
333.629	76.56
333.857	91.56
334.085	99.56
334.314	80.56
334.542	85.56
334.771	89.56
334.999	74.56
335.227	89.56
335.455	81.56
335.684	80.56
335.912	82.56
336.14	82.56
336.369	79.56
336.597	98.56
336.825	93.56
337.053	92.56
337.281	69.56
337.51	86.56
337.738	76.56
337.966	79.56
338.194	85.56
338.422	88.56
338.65	81.56
338.878	96.56
339.106	74.56
339.334	75.56
339.562	86.56
339.79	70.56
340.018	83.56
340.246	89.56
340.474	80.56
340.702	90.56
340.93	88.56
341.158	75.56
341.386	76.56
341.614	83.56
341.842	71.56
342.07	87.56
342.298	76.56
342.526	71.56
342.754	87.56
342.981	84.56
343.209	87.56
343.437	73.56
343.665	82.56
343.893	81.56
344.12	80.56
344.348	77.56
344.576	87.56
344.804	68.56
345.031	93.56
345.259	84.56
345.487	83.56
345.714	83.56
345.942	81.56
346.17	77.56
346.397	75.56
346.625	107.56
346.853	77.56
347.08	98.56
347.308	82.56
347.535	71.56
347.763	83.56
347.99	88.56
348.218	92.56
348.445	86.56
348.673	86.56
348.9	74.56
349.128	91.56
349.355	81.56
349.583	75.56
349.81	88.56
350.037	73.56
350.265	81.56
350.492	79.56
350.72	67.56
350.947	80.56
351.174	85.56
351.402	70.56
351.629	88.56
351.856	84.56
352.083	82.56
352.311	97.56
352.538	80.56
352.765	88.56
352.992	86.56
353.22	93.56
353.447	77.56
353.674	90.56
353.901	97.56
354.128	82.56
354.355	79.56
354.583	92.56
354.81	96.56
355.037	100.56
355.264	85.56
355.491	85.56
355.718	83.56
355.945	58.56
356.172	83.56
356.399	67.56
356.626	95.56
356.853	91.56
357.08	84.56
357.307	90.56
357.534	83.56
357.761	93.56
357.988	94.56
358.215	93.56
358.441	88.56
358.668	79.56
358.895	93.56
359.122	75.56
359.349	93.56
359.576	80.56
359.802	67.56
360.029	72.56
360.256	88.56
360.483	81.56
360.709	74.56
360.936	97.56
361.163	87.56
361.39	80.56
361.616	93.56
361.843	79.56
362.07	76.56
362.296	75.56
362.523	82.56
362.749	77.56
362.976	76.56
363.203	104.56
363.429	79.56
363.656	71.56
363.882	82.56
364.109	75.56
364.335	92.56
364.562	71.56
364.788	80.56
365.015	76.56
365.241	84.56
365.468	94.56
365.694	81.56
365.92	78.56
366.147	82.56
366.373	77.56
366.599	79.56
366.826	85.56
367.052	83.56
367.278	95.56
367.505	78.56
367.731	84.56
367.957	82.56
368.184	82.56
368.41	79.56
368.636	72.56
368.862	88.56
369.089	89.56
369.315	90.56
369.541	93.56
369.767	99.56
369.993	99.56
370.219	76.56
370.445	88.56
370.672	92.56
370.898	83.56
371.124	90.56
371.35	83.56
371.576	68.56
371.802	79.56
372.028	83.56
372.254	83.56
372.48	93.56
372.706	79.56
372.932	97.56
373.158	77.56
373.384	76.56
373.61	97.56
373.835	95.56
374.061	85.56
374.287	86.56
374.513	94.56
374.739	84.56
374.965	93.56
375.191	75.56
375.416	90.56
375.642	75.56
375.868	78.56
376.094	87.56
376.319	93.56
376.545	74.56
376.771	96.56
376.997	99.56
377.222	90.56
377.448	89.56
377.674	97.56
377.899	95.56
378.125	85.56
378.35	86.56
378.576	84.56
378.802	85.56
379.027	83.56
379.253	88.56
379.478	102.56
379.704	87.56
379.929	94.56
380.155	82.56
380.38	79.56
380.606	90.56
380.831	93.56
381.057	86.56
381.282	83.56
381.507	88.56
381.733	83.56
381.958	84.56
382.184	84.56
382.409	91.56
382.634	92.56
382.86	103.56
383.085	97.56
383.31	105.56
383.535	87.56
383.761	98.56
383.986	88.56
384.211	92.56
384.436	95.56
384.662	79.56
384.887	82.56
385.112	96.56
385.337	92.56
385.562	85.56
385.787	84.56
386.013	105.56
386.238	76.56
386.463	80.56
386.688	92.56
386.913	87.56
387.138	93.56
387.363	82.56
387.588	87.56
387.813	82.56
388.038	81.56
388.263	95.56
388.488	87.56
388.713	79.56
388.938	86.56
389.163	97.56
389.387	91.56
389.612	103.56
389.837	93.56
390.062	99.56
390.287	92.56
390.512	107.56
390.736	97.56
390.961	82.56
391.186	88.56
391.411	88.56
391.636	101.56
391.86	98.56
392.085	93.56
392.31	90.56
392.534	96.56
392.759	79.56
392.984	92.56
393.208	83.56
393.433	94.56
393.658	88.56
393.882	89.56
394.107	92.56
394.331	90.56
394.556	92.56
394.78	76.56
395.005	93.56
395.229	101.56
395.454	94.56
395.678	94.56
395.903	99.56
396.127	94.56
396.352	90.56
396.576	105.56
396.801	86.56
397.025	99.56
397.249	101.56
397.474	100.56
397.698	103.56
397.922	102.56
398.147	94.56
398.371	87.56
398.595	84.56
398.82	92.56
399.044	100.56
399.268	94.56
399.492	95.56
399.717	93.56
399.941	96.56
400.165	102.56
400.389	88.56
400.613	85.56
400.837	96.56
401.062	101.56
401.286	93.56
401.51	98.56
401.734	100.56
401.958	89.56
402.182	90.56
402.406	97.56
402.63	94.56
402.854	109.56
403.078	87.56
403.302	93.56
403.526	95.56
403.75	97.56
403.974	119.56
404.198	103.56
404.422	93.56
404.645	112.56
404.869	100.56
405.093	89.56
405.317	100.56
405.541	96.56
405.765	88.56
405.988	89.56
406.212	92.56
406.436	103.56
406.66	85.56
406.883	104.56
407.107	109.56
407.331	64.56
407.555	98.56
407.778	90.56
408.002	85.56
408.226	95.56
408.449	95.56
408.673	99.56
408.896	112.56
409.12	86.56
409.344	123.56
409.567	95.56
409.791	94.56
410.014	82.56
410.238	100.56
410.461	94.56
410.685	96.56
410.908	93.56
411.132	102.56
411.355	95.56
411.578	97.56
411.802	99.56
412.025	94.56
412.249	94.56
412.472	96.56
412.695	97.56
412.919	86.56
413.142	99.56
413.365	98.56
413.589	97.56
413.812	112.56
414.035	84.56
414.258	92.56
414.482	94.56
414.705	98.56
414.928	109.56
415.151	99.56
415.374	96.56
415.597	85.56
415.821	106.56
416.044	106.56
416.267	100.56
416.49	104.56
416.713	120.56
416.936	91.56
417.159	104.56
417.382	107.56
417.605	99.56
417.828	107.56
418.051	103.56
418.274	123.56
418.497	102.56
418.72	101.56
418.943	119.56
419.166	108.56
419.389	98.56
419.611	102.56
419.834	103.56
420.057	113.56
420.28	101.56
420.503	104.56
420.726	90.56
420.948	113.56
421.171	111.56
421.394	107.56
421.617	99.56
421.839	111.56
422.062	105.56
422.285	119.56
422.507	99.56
422.73	111.56
422.953	107.56
423.175	109.56
423.398	109.56
423.621	112.56
423.843	103.56
424.066	91.56
424.288	100.56
424.511	119.56
424.733	106.56
424.956	98.56
425.178	115.56
425.401	107.56
425.623	108.56
425.846	115.56
426.068	96.56
426.291	101.56
426.513	100.56
426.735	104.56
426.958	116.56
427.18	111.56
427.402	102.56
427.625	109.56
427.847	103.56
428.069	109.56
428.292	106.56
428.514	108.56
428.736	104.56
428.958	118.56
429.181	117.56
429.403	95.56
429.625	95.56
429.847	110.56
430.069	111.56
430.292	127.56
430.514	98.56
430.736	87.56
430.958	108.56
431.18	89.56
431.402	108.56
431.624	94.56
431.846	87.56
432.068	94.56
432.29	83.56
432.512	100.56
432.734	105.56
432.956	92.56
433.178	117.56
433.4	111.56
433.622	108.56
433.844	104.56
434.066	91.56
434.287	92.56
434.509	89.56
434.731	87.56
434.953	107.56
435.175	106.56
435.397	115.56
435.618	95.56
435.84	102.56
436.062	91.56
436.284	89.56
436.505	96.56
436.727	116.56
436.949	108.56
437.17	101.56
437.392	95.56
437.614	88.56
437.835	103.56
438.057	88.56
438.278	95.56
438.5	113.56
438.721	101.56
438.943	120.56
439.165	106.56
439.386	108.56
439.608	107.56
439.829	103.56
440.05	113.56
440.272	95.56
440.493	109.56
440.715	114.56
440.936	105.56
441.158	102.56
441.379	106.56
441.6	124.56
441.822	112.56
442.043	105.56
442.264	113.56
442.486	119.56
442.707	112.56
442.928	114.56
443.149	125.56
443.371	96.56
443.592	115.56
443.813	113.56
444.034	99.56
444.255	112.56
444.476	103.56
444.698	98.56
444.919	111.56
445.14	228.56
445.361	171.56
445.582	119.56
445.803	115.56
446.024	116.56
446.245	117.56
446.466	123.56
446.687	107.56
446.908	128.56
447.129	116.56
447.35	129.56
447.571	114.56
447.792	116.56
448.013	125.56
448.234	117.56
448.455	107.56
448.675	106.56
448.896	97.56
449.117	103.56
449.338	109.56
449.559	108.56
449.779	114.56
450	122.56
450.221	101.56
450.442	120.56
450.662	95.56
450.883	103.56
451.104	100.56
451.324	105.56
451.545	99.56
451.766	101.56
451.986	120.56
452.207	113.56
452.428	100.56
452.648	113.56
452.869	114.56
453.089	91.56
453.31	114.56
453.53	87.56
453.751	99.56
453.971	89.56
454.192	83.56
454.412	88.56
454.633	88.56
454.853	104.56
455.073	96.56
455.294	100.56
455.514	105.56
455.734	109.56
455.955	110.56
456.175	100.56
456.395	98.56
456.616	107.56
456.836	99.56
457.056	96.56
457.276	81.56
457.497	96.56
457.717	96.56
457.937	98.56
458.157	91.56
458.377	74.56
458.598	93.56
458.818	96.56
459.038	79.56
459.258	71.56
459.478	73.56
459.698	96.56
459.918	81.56
460.138	100.56
460.358	88.56
460.578	104.56
460.798	94.56
461.018	99.56
461.238	93.56
461.458	99.56
461.678	94.56
461.898	99.56
462.118	104.56
462.338	101.56
462.558	95.56
462.777	108.56
462.997	119.56
463.217	93.56
463.437	96.56
463.657	102.56
463.876	102.56
464.096	88.56
464.316	106.56
464.536	99.56
464.755	91.56
464.975	103.56
465.195	95.56
465.414	103.56
465.634	112.56
465.854	105.56
466.073	102.56
466.293	117.56
466.512	95.56
466.732	101.56
466.951	111.56
467.171	102.56
467.391	105.56
467.61	107.56
467.829	102.56
468.049	102.56
468.268	94.56
468.488	112.56
468.707	109.56
468.927	104.56
469.146	112.56
469.365	108.56
469.585	95.56
469.804	116.56
470.023	102.56
470.243	109.56
470.462	114.56
470.681	111.56
470.901	98.56
471.12	111.56
471.339	116.56
471.558	121.56
471.777	115.56
471.997	92.56
472.216	103.56
472.435	104.56
472.654	94.56
472.873	108.56
473.092	97.56
473.311	100.56
473.53	106.56
473.749	106.56
473.968	105.56
474.187	99.56
474.406	98.56
474.625	111.56
474.844	109.56
475.063	107.56
475.282	103.56
475.501	96.56
475.72	105.56
475.939	97.56
476.158	91.56
476.377	103.56
476.596	91.56
476.814	91.56
477.033	86.56
477.252	83.56
477.471	94.56
477.69	117.56
477.908	102.56
478.127	98.56
478.346	111.56
478.564	104.56
478.783	116.56
479.002	115.56
479.22	100.56
479.439	103.56
479.658	103.56
479.876	100.56
480.095	94.56
480.313	103.56
480.532	108.56
480.751	87.56
480.969	93.56
481.188	95.56
481.406	82.56
481.624	91.56
481.843	86.56
482.061	88.56
482.28	88.56
482.498	104.56
482.717	104.56
482.935	99.56
483.153	118.56
483.372	111.56
483.59	113.56
483.808	104.56
484.027	101.56
484.245	114.56
484.463	123.56
484.681	121.56
484.9	122.56
485.118	118.56
485.336	103.56
485.554	103.56
485.772	110.56
485.99	95.56
486.209	87.56
486.427	103.56
486.645	103.56
486.863	114.56
487.081	101.56
487.299	109.56
487.517	103.56
487.735	127.56
487.953	133.56
488.171	140.56
488.389	128.56
488.607	126.56
488.825	105.56
489.043	111.56
489.261	109.56
489.479	105.56
489.696	108.56
489.914	120.56
490.132	119.56
490.35	122.56
490.568	112.56
490.786	132.56
491.003	123.56
491.221	127.56
491.439	135.56
491.657	125.56
491.874	138.56
492.092	153.56
492.31	167.56
492.527	147.56
492.745	129.56
492.963	124.56
493.18	137.56
493.398	128.56
493.615	135.56
493.833	119.56
494.05	122.56
494.268	122.56
494.485	109.56
494.703	127.56
494.92	119.56
495.138	131.56
495.355	135.56
495.573	124.56
495.79	137.56
496.008	123.56
496.225	116.56
496.442	125.56
496.66	117.56
496.877	119.56
497.094	119.56
497.312	117.56
497.529	133.56
497.746	119.56
497.963	105.56
498.181	101.56
498.398	117.56
498.615	98.56
498.832	111.56
499.049	103.56
499.267	117.56
499.484	113.56
499.701	107.56
499.918	115.56
500.135	109.56
500.352	113.56
500.569	119.56
500.786	121.56
501.003	112.56
501.22	115.56
501.437	111.56
501.654	92.56
501.871	106.56
502.088	104.56
502.305	100.56
502.522	107.56
502.739	100.56
502.956	104.56
503.172	98.56
503.389	108.56
503.606	97.56
503.823	108.56
504.04	107.56
504.256	106.56
504.473	103.56
504.69	110.56
504.907	98.56
505.123	111.56
505.34	103.56
505.557	111.56
505.773	107.56
505.99	104.56
506.207	88.56
506.423	97.56
506.64	98.56
506.856	102.56
507.073	105.56
507.289	114.56
507.506	105.56
507.722	93.56
507.939	109.56
508.155	97.56
508.372	82.56
508.588	100.56
508.805	98.56
509.021	98.56
509.238	105.56
509.454	98.56
509.67	96.56
509.887	96.56
510.103	102.56
510.319	95.56
510.536	86.56
510.752	86.56
510.968	87.56
511.184	83.56
511.401	85.56
511.617	75.56
511.833	82.56
512.049	103.56
512.265	97.56
512.481	82.56
512.698	93.56
512.914	90.56
513.13	94.56
513.346	90.56
513.562	79.56
513.778	78.56
513.994	83.56
514.21	86.56
514.426	92.56
