Data from Zn(NO3)2Standard.Agarose3%.GreenCap.LampEnergy5.5.E.O_HRD10591_15-03-47-768.txt Node
Date: Mon Jul 22 15:03:47 EDT 2019
User: cochatt
Spectrometer: HR+D1059
Trigger mode: 1
Integration Time (sec): 1.000000E-1
Scans to average: 1
Electric dark correction enabled: true
Nonlinearity correction enabled: false
Boxcar width: 0
XAxis mode: Wavelengths
Number of Pixels in Spectrum: 2048
>>>>>Begin Spectral Data<<<<<
223.165	-16.69
223.4	-16.69
223.635	-16.69
223.869	-6.69
224.104	-10.69
224.338	-18.69
224.573	-14.69
224.808	-22.69
225.042	-2.69
225.277	-9.69
225.511	-15.69
225.746	-4.69
225.98	2.31
226.215	28.31
226.449	19.31
226.683	18.31
226.918	34.31
227.152	20.31
227.387	39.31
227.621	38.31
227.856	40.31
228.09	46.31
228.324	49.31
228.559	58.31
228.793	43.31
229.027	64.31
229.262	62.31
229.496	48.31
229.73	72.31
229.964	65.31
230.199	72.31
230.433	67.31
230.667	68.31
230.901	68.31
231.136	78.31
231.37	89.31
231.604	80.31
231.838	76.31
232.072	90.31
232.306	66.31
232.541	77.31
232.775	84.31
233.009	83.31
233.243	83.31
233.477	88.31
233.711	78.31
233.945	83.31
234.179	89.31
234.413	73.31
234.647	72.31
234.881	77.31
235.115	73.31
235.349	69.31
235.583	65.31
235.817	75.31
236.051	88.31
236.285	85.31
236.519	89.31
236.753	82.31
236.987	89.31
237.221	68.31
237.455	93.31
237.689	74.31
237.922	62.31
238.156	74.31
238.39	62.31
238.624	82.31
238.858	89.31
239.091	89.31
239.325	91.31
239.559	76.31
239.793	83.31
240.027	73.31
240.26	75.31
240.494	87.31
240.728	76.31
240.961	77.31
241.195	86.31
241.429	76.31
241.662	68.31
241.896	71.31
242.13	69.31
242.363	68.31
242.597	92.31
242.83	81.31
243.064	85.31
243.298	78.31
243.531	68.31
243.765	78.31
243.998	91.31
244.232	74.31
244.465	75.31
244.699	71.31
244.932	76.31
245.166	76.31
245.399	97.31
245.633	94.31
245.866	64.31
246.099	82.31
246.333	73.31
246.566	88.31
246.8	80.31
247.033	81.31
247.266	91.31
247.5	77.31
247.733	77.31
247.966	69.31
248.2	88.31
248.433	80.31
248.666	70.31
248.899	78.31
249.133	74.31
249.366	92.31
249.599	88.31
249.832	88.31
250.066	82.31
250.299	72.31
250.532	83.31
250.765	74.31
250.998	85.31
251.231	84.31
251.465	88.31
251.698	82.31
251.931	86.31
252.164	78.31
252.397	73.31
252.63	78.31
252.863	76.31
253.096	93.31
253.329	76.31
253.562	75.31
253.795	75.31
254.028	88.31
254.261	80.31
254.494	82.31
254.727	78.31
254.96	78.31
255.193	69.31
255.426	79.31
255.659	74.31
255.892	92.31
256.124	82.31
256.357	78.31
256.59	77.31
256.823	82.31
257.056	70.31
257.289	84.31
257.521	75.31
257.754	84.31
257.987	77.31
258.22	86.31
258.452	79.31
258.685	74.31
258.918	79.31
259.151	70.31
259.383	83.31
259.616	68.31
259.849	81.31
260.081	86.31
260.314	84.31
260.547	84.31
260.779	65.31
261.012	72.31
261.244	72.31
261.477	81.31
261.71	66.31
261.942	71.31
262.175	80.31
262.407	80.31
262.64	74.31
262.872	83.31
263.105	87.31
263.337	88.31
263.57	91.31
263.802	90.31
264.035	82.31
264.267	85.31
264.499	92.31
264.732	77.31
264.964	83.31
265.197	84.31
265.429	79.31
265.661	87.31
265.894	90.31
266.126	79.31
266.358	68.31
266.591	85.31
266.823	79.31
267.055	87.31
267.287	79.31
267.52	81.31
267.752	83.31
267.984	96.31
268.216	77.31
268.448	80.31
268.681	72.31
268.913	65.31
269.145	73.31
269.377	91.31
269.609	81.31
269.841	78.31
270.073	86.31
270.306	75.31
270.538	92.31
270.77	84.31
271.002	84.31
271.234	85.31
271.466	85.31
271.698	83.31
271.93	87.31
272.162	77.31
272.394	88.31
272.626	93.31
272.858	82.31
273.09	76.31
273.322	77.31
273.553	87.31
273.785	92.31
274.017	78.31
274.249	79.31
274.481	85.31
274.713	74.31
274.945	102.31
275.176	86.31
275.408	75.31
275.64	92.31
275.872	94.31
276.104	91.31
276.335	86.31
276.567	96.31
276.799	79.31
277.031	84.31
277.262	83.31
277.494	77.31
277.726	88.31
277.957	92.31
278.189	72.31
278.421	85.31
278.652	74.31
278.884	86.31
279.115	78.31
279.347	88.31
279.579	88.31
279.81	95.31
280.042	87.31
280.273	92.31
280.505	81.31
280.736	68.31
280.968	83.31
281.199	88.31
281.431	81.31
281.662	85.31
281.894	82.31
282.125	84.31
282.356	86.31
282.588	72.31
282.819	84.31
283.051	87.31
283.282	93.31
283.513	83.31
283.745	77.31
283.976	89.31
284.207	87.31
284.439	84.31
284.67	96.31
284.901	97.31
285.132	75.31
285.364	82.31
285.595	94.31
285.826	86.31
286.057	98.31
286.288	76.31
286.52	81.31
286.751	74.31
286.982	76.31
287.213	74.31
287.444	84.31
287.675	90.31
287.906	87.31
288.138	69.31
288.369	88.31
288.6	90.31
288.831	97.31
289.062	97.31
289.293	92.31
289.524	79.31
289.755	72.31
289.986	82.31
290.217	70.31
290.448	79.31
290.679	77.31
290.91	79.31
291.141	76.31
291.371	86.31
291.602	77.31
291.833	76.31
292.064	78.31
292.295	78.31
292.526	94.31
292.757	86.31
292.987	89.31
293.218	85.31
293.449	78.31
293.68	85.31
293.91	86.31
294.141	90.31
294.372	72.31
294.603	83.31
294.833	86.31
295.064	87.31
295.295	71.31
295.525	80.31
295.756	91.31
295.987	89.31
296.217	79.31
296.448	82.31
296.679	70.31
296.909	77.31
297.14	92.31
297.37	77.31
297.601	85.31
297.831	96.31
298.062	94.31
298.292	87.31
298.523	96.31
298.753	94.31
298.984	82.31
299.214	97.31
299.445	84.31
299.675	73.31
299.905	80.31
300.136	85.31
300.366	82.31
300.597	84.31
300.827	93.31
301.057	88.31
301.288	86.31
301.518	89.31
301.748	75.31
301.979	82.31
302.209	78.31
302.439	84.31
302.669	81.31
302.9	91.31
303.13	82.31
303.36	88.31
303.59	89.31
303.82	92.31
304.051	88.31
304.281	91.31
304.511	83.31
304.741	79.31
304.971	95.31
305.201	79.31
305.431	77.31
305.661	89.31
305.891	73.31
306.121	84.31
306.352	83.31
306.582	84.31
306.812	92.31
307.042	66.31
307.272	80.31
307.502	81.31
307.731	77.31
307.961	81.31
308.191	75.31
308.421	96.31
308.651	85.31
308.881	76.31
309.111	83.31
309.341	93.31
309.571	89.31
309.8	81.31
310.03	72.31
310.26	91.31
310.49	95.31
310.72	81.31
310.949	106.31
311.179	92.31
311.409	85.31
311.639	77.31
311.868	79.31
312.098	83.31
312.328	90.31
312.557	80.31
312.787	78.31
313.017	86.31
313.246	91.31
313.476	95.31
313.706	72.31
313.935	85.31
314.165	81.31
314.394	83.31
314.624	72.31
314.853	96.31
315.083	89.31
315.312	83.31
315.542	85.31
315.771	103.31
316.001	99.31
316.23	71.31
316.46	84.31
316.689	72.31
316.919	88.31
317.148	88.31
317.377	90.31
317.607	62.31
317.836	84.31
318.065	78.31
318.295	69.31
318.524	81.31
318.753	82.31
318.983	96.31
319.212	83.31
319.441	92.31
319.67	90.31
319.9	84.31
320.129	85.31
320.358	92.31
320.587	84.31
320.816	91.31
321.046	93.31
321.275	90.31
321.504	91.31
321.733	84.31
321.962	78.31
322.191	93.31
322.42	95.31
322.649	80.31
322.878	79.31
323.108	79.31
323.337	91.31
323.566	83.31
323.795	94.31
324.024	87.31
324.253	81.31
324.482	77.31
324.71	90.31
324.939	97.31
325.168	104.31
325.397	81.31
325.626	91.31
325.855	100.31
326.084	74.31
326.313	85.31
326.542	73.31
326.77	65.31
326.999	88.31
327.228	84.31
327.457	87.31
327.686	88.31
327.914	91.31
328.143	92.31
328.372	87.31
328.6	78.31
328.829	91.31
329.058	86.31
329.287	82.31
329.515	86.31
329.744	100.31
329.972	73.31
330.201	91.31
330.43	84.31
330.658	84.31
330.887	75.31
331.115	80.31
331.344	81.31
331.572	97.31
331.801	90.31
332.03	80.31
332.258	95.31
332.486	73.31
332.715	86.31
332.943	78.31
333.172	81.31
333.4	88.31
333.629	88.31
333.857	76.31
334.085	80.31
334.314	72.31
334.542	68.31
334.771	79.31
334.999	76.31
335.227	84.31
335.455	78.31
335.684	80.31
335.912	94.31
336.14	86.31
336.369	69.31
336.597	91.31
336.825	86.31
337.053	81.31
337.281	81.31
337.51	83.31
337.738	87.31
337.966	84.31
338.194	91.31
338.422	85.31
338.65	85.31
338.878	80.31
339.106	86.31
339.334	77.31
339.562	93.31
339.79	81.31
340.018	93.31
340.246	89.31
340.474	81.31
340.702	77.31
340.93	87.31
341.158	88.31
341.386	88.31
341.614	86.31
341.842	90.31
342.07	81.31
342.298	93.31
342.526	76.31
342.754	76.31
342.981	83.31
343.209	91.31
343.437	75.31
343.665	82.31
343.893	87.31
344.12	83.31
344.348	82.31
344.576	83.31
344.804	77.31
345.031	88.31
345.259	90.31
345.487	80.31
345.714	77.31
345.942	85.31
346.17	88.31
346.397	78.31
346.625	68.31
346.853	87.31
347.08	88.31
347.308	84.31
347.535	83.31
347.763	92.31
347.99	88.31
348.218	94.31
348.445	83.31
348.673	95.31
348.9	79.31
349.128	84.31
349.355	97.31
349.583	73.31
349.81	78.31
350.037	76.31
350.265	83.31
350.492	74.31
350.72	78.31
350.947	91.31
351.174	78.31
351.402	86.31
351.629	71.31
351.856	88.31
352.083	58.31
352.311	92.31
352.538	92.31
352.765	83.31
352.992	77.31
353.22	93.31
353.447	82.31
353.674	90.31
353.901	88.31
354.128	90.31
354.355	101.31
354.583	90.31
354.81	80.31
355.037	83.31
355.264	92.31
355.491	82.31
355.718	74.31
355.945	85.31
356.172	80.31
356.399	89.31
356.626	75.31
356.853	80.31
357.08	78.31
357.307	79.31
357.534	80.31
357.761	91.31
357.988	102.31
358.215	96.31
358.441	72.31
358.668	94.31
358.895	85.31
359.122	77.31
359.349	72.31
359.576	77.31
359.802	79.31
360.029	77.31
360.256	86.31
360.483	83.31
360.709	83.31
360.936	82.31
361.163	89.31
361.39	96.31
361.616	84.31
361.843	83.31
362.07	97.31
362.296	88.31
362.523	90.31
362.749	80.31
362.976	85.31
363.203	93.31
363.429	84.31
363.656	77.31
363.882	94.31
364.109	81.31
364.335	89.31
364.562	74.31
364.788	84.31
365.015	85.31
365.241	81.31
365.468	94.31
365.694	75.31
365.92	86.31
366.147	77.31
366.373	74.31
366.599	86.31
366.826	79.31
367.052	76.31
367.278	93.31
367.505	89.31
367.731	78.31
367.957	84.31
368.184	88.31
368.41	97.31
368.636	77.31
368.862	77.31
369.089	86.31
369.315	88.31
369.541	79.31
369.767	97.31
369.993	93.31
370.219	91.31
370.445	85.31
370.672	82.31
370.898	83.31
371.124	79.31
371.35	86.31
371.576	86.31
371.802	97.31
372.028	84.31
372.254	89.31
372.48	81.31
372.706	67.31
372.932	92.31
373.158	89.31
373.384	72.31
373.61	88.31
373.835	87.31
374.061	97.31
374.287	77.31
374.513	77.31
374.739	83.31
374.965	78.31
375.191	93.31
375.416	82.31
375.642	78.31
375.868	82.31
376.094	78.31
376.319	70.31
376.545	90.31
376.771	81.31
376.997	87.31
377.222	76.31
377.448	68.31
377.674	86.31
377.899	85.31
378.125	82.31
378.35	81.31
378.576	76.31
378.802	86.31
379.027	103.31
379.253	86.31
379.478	78.31
379.704	85.31
379.929	72.31
380.155	91.31
380.38	89.31
380.606	84.31
380.831	84.31
381.057	92.31
381.282	70.31
381.507	82.31
381.733	93.31
381.958	104.31
382.184	83.31
382.409	73.31
382.634	85.31
382.86	82.31
383.085	87.31
383.31	93.31
383.535	95.31
383.761	80.31
383.986	83.31
384.211	87.31
384.436	75.31
384.662	84.31
384.887	73.31
385.112	92.31
385.337	82.31
385.562	104.31
385.787	86.31
386.013	97.31
386.238	81.31
386.463	83.31
386.688	87.31
386.913	76.31
387.138	83.31
387.363	84.31
387.588	91.31
387.813	84.31
388.038	91.31
388.263	82.31
388.488	92.31
388.713	102.31
388.938	79.31
389.163	85.31
389.387	84.31
389.612	90.31
389.837	91.31
390.062	78.31
390.287	79.31
390.512	97.31
390.736	85.31
390.961	79.31
391.186	91.31
391.411	95.31
391.636	83.31
391.86	84.31
392.085	85.31
392.31	88.31
392.534	85.31
392.759	77.31
392.984	79.31
393.208	86.31
393.433	81.31
393.658	87.31
393.882	90.31
394.107	89.31
394.331	94.31
394.556	90.31
394.78	73.31
395.005	81.31
395.229	85.31
395.454	93.31
395.678	75.31
395.903	80.31
396.127	85.31
396.352	85.31
396.576	78.31
396.801	79.31
397.025	68.31
397.249	76.31
397.474	84.31
397.698	92.31
397.922	88.31
398.147	81.31
398.371	76.31
398.595	53.31
398.82	79.31
399.044	87.31
399.268	83.31
399.492	80.31
399.717	83.31
399.941	86.31
400.165	84.31
400.389	94.31
400.613	89.31
400.837	87.31
401.062	81.31
401.286	80.31
401.51	77.31
401.734	86.31
401.958	91.31
402.182	80.31
402.406	84.31
402.63	77.31
402.854	90.31
403.078	82.31
403.302	66.31
403.526	84.31
403.75	92.31
403.974	82.31
404.198	82.31
404.422	83.31
404.645	84.31
404.869	89.31
405.093	89.31
405.317	84.31
405.541	83.31
405.765	92.31
405.988	79.31
406.212	79.31
406.436	85.31
406.66	72.31
406.883	93.31
407.107	78.31
407.331	92.31
407.555	96.31
407.778	91.31
408.002	98.31
408.226	70.31
408.449	90.31
408.673	85.31
408.896	75.31
409.12	91.31
409.344	74.31
409.567	85.31
409.791	85.31
410.014	98.31
410.238	70.31
410.461	90.31
410.685	84.31
410.908	79.31
411.132	93.31
411.355	81.31
411.578	95.31
411.802	92.31
412.025	76.31
412.249	77.31
412.472	86.31
412.695	84.31
412.919	78.31
413.142	75.31
413.365	81.31
413.589	98.31
413.812	89.31
414.035	85.31
414.258	99.31
414.482	97.31
414.705	102.31
414.928	92.31
415.151	98.31
415.374	85.31
415.597	82.31
415.821	105.31
416.044	84.31
416.267	88.31
416.49	101.31
416.713	73.31
416.936	94.31
417.159	99.31
417.382	83.31
417.605	87.31
417.828	77.31
418.051	86.31
418.274	86.31
418.497	95.31
418.72	77.31
418.943	85.31
419.166	88.31
419.389	82.31
419.611	91.31
419.834	84.31
420.057	85.31
420.28	64.31
420.503	91.31
420.726	95.31
420.948	73.31
421.171	79.31
421.394	84.31
421.617	89.31
421.839	82.31
422.062	90.31
422.285	74.31
422.507	84.31
422.73	80.31
422.953	88.31
423.175	84.31
423.398	79.31
423.621	85.31
423.843	86.31
424.066	96.31
424.288	70.31
424.511	97.31
424.733	91.31
424.956	97.31
425.178	85.31
425.401	101.31
425.623	86.31
425.846	84.31
426.068	91.31
426.291	106.31
426.513	88.31
426.735	93.31
426.958	87.31
427.18	89.31
427.402	93.31
427.625	99.31
427.847	103.31
428.069	91.31
428.292	90.31
428.514	89.31
428.736	74.31
428.958	83.31
429.181	92.31
429.403	81.31
429.625	93.31
429.847	86.31
430.069	102.31
430.292	91.31
430.514	89.31
430.736	85.31
430.958	78.31
431.18	89.31
431.402	86.31
431.624	93.31
431.846	88.31
432.068	72.31
432.29	82.31
432.512	90.31
432.734	83.31
432.956	82.31
433.178	91.31
433.4	102.31
433.622	94.31
433.844	97.31
434.066	88.31
434.287	93.31
434.509	88.31
434.731	96.31
434.953	98.31
435.175	91.31
435.397	88.31
435.618	75.31
435.84	84.31
436.062	73.31
436.284	86.31
436.505	94.31
436.727	101.31
436.949	96.31
437.17	78.31
437.392	94.31
437.614	84.31
437.835	88.31
438.057	81.31
438.278	80.31
438.5	86.31
438.721	86.31
438.943	94.31
439.165	91.31
439.386	95.31
439.608	85.31
439.829	82.31
440.05	94.31
440.272	73.31
440.493	79.31
440.715	89.31
440.936	87.31
441.158	85.31
441.379	86.31
441.6	100.31
441.822	85.31
442.043	88.31
442.264	97.31
442.486	99.31
442.707	80.31
442.928	89.31
443.149	76.31
443.371	84.31
443.592	94.31
443.813	90.31
444.034	91.31
444.255	89.31
444.476	88.31
444.698	84.31
444.919	88.31
445.14	235.31
445.361	148.31
445.582	84.31
445.803	92.31
446.024	87.31
446.245	91.31
446.466	101.31
446.687	91.31
446.908	93.31
447.129	81.31
447.35	85.31
447.571	92.31
447.792	83.31
448.013	89.31
448.234	86.31
448.455	81.31
448.675	89.31
448.896	90.31
449.117	94.31
449.338	94.31
449.559	113.31
449.779	85.31
450	84.31
450.221	71.31
450.442	89.31
450.662	87.31
450.883	92.31
451.104	74.31
451.324	86.31
451.545	86.31
451.766	74.31
451.986	76.31
452.207	78.31
452.428	87.31
452.648	73.31
452.869	85.31
453.089	76.31
453.31	83.31
453.53	85.31
453.751	86.31
453.971	79.31
454.192	65.31
454.412	85.31
454.633	88.31
454.853	83.31
455.073	81.31
455.294	75.31
455.514	84.31
455.734	95.31
455.955	101.31
456.175	85.31
456.395	77.31
456.616	73.31
456.836	85.31
457.056	74.31
457.276	80.31
457.497	78.31
457.717	87.31
457.937	95.31
458.157	77.31
458.377	73.31
458.598	71.31
458.818	89.31
459.038	88.31
459.258	74.31
459.478	83.31
459.698	82.31
459.918	86.31
460.138	91.31
460.358	85.31
460.578	100.31
460.798	89.31
461.018	84.31
461.238	99.31
461.458	75.31
461.678	93.31
461.898	82.31
462.118	85.31
462.338	93.31
462.558	92.31
462.777	88.31
462.997	85.31
463.217	90.31
463.437	86.31
463.657	76.31
463.876	80.31
464.096	78.31
464.316	84.31
464.536	82.31
464.755	88.31
464.975	89.31
465.195	94.31
465.414	80.31
465.634	88.31
465.854	79.31
466.073	86.31
466.293	89.31
466.512	93.31
466.732	96.31
466.951	89.31
467.171	90.31
467.391	70.31
467.61	84.31
467.829	91.31
468.049	78.31
468.268	93.31
468.488	112.31
468.707	88.31
468.927	83.31
469.146	71.31
469.365	93.31
469.585	81.31
469.804	88.31
470.023	105.31
470.243	85.31
470.462	91.31
470.681	89.31
470.901	92.31
471.12	85.31
471.339	77.31
471.558	90.31
471.777	91.31
471.997	73.31
472.216	89.31
472.435	83.31
472.654	89.31
472.873	87.31
473.092	86.31
473.311	98.31
473.53	90.31
473.749	84.31
473.968	107.31
474.187	90.31
474.406	82.31
474.625	88.31
474.844	77.31
475.063	84.31
475.282	94.31
475.501	73.31
475.72	84.31
475.939	84.31
476.158	86.31
476.377	86.31
476.596	105.31
476.814	96.31
477.033	73.31
477.252	94.31
477.471	89.31
477.69	81.31
477.908	79.31
478.127	86.31
478.346	83.31
478.564	88.31
478.783	83.31
479.002	93.31
479.22	84.31
479.439	75.31
479.658	67.31
479.876	94.31
480.095	89.31
480.313	81.31
480.532	92.31
480.751	73.31
480.969	82.31
481.188	85.31
481.406	77.31
481.624	77.31
481.843	80.31
482.061	70.31
482.28	84.31
482.498	94.31
482.717	96.31
482.935	73.31
483.153	97.31
483.372	83.31
483.59	101.31
483.808	67.31
484.027	105.31
484.245	90.31
484.463	99.31
484.681	101.31
484.9	98.31
485.118	93.31
485.336	94.31
485.554	95.31
485.772	83.31
485.99	97.31
486.209	92.31
486.427	100.31
486.645	84.31
486.863	77.31
487.081	90.31
487.299	81.31
487.517	88.31
487.735	101.31
487.953	96.31
488.171	100.31
488.389	97.31
488.607	90.31
488.825	96.31
489.043	92.31
489.261	90.31
489.479	83.31
489.696	95.31
489.914	86.31
490.132	103.31
490.35	93.31
490.568	81.31
490.786	85.31
491.003	103.31
491.221	96.31
491.439	106.31
491.657	97.31
491.874	118.31
492.092	115.31
492.31	120.31
492.527	108.31
492.745	94.31
492.963	118.31
493.18	115.31
493.398	113.31
493.615	116.31
493.833	104.31
494.05	114.31
494.268	106.31
494.485	106.31
494.703	78.31
494.92	86.31
495.138	92.31
495.355	88.31
495.573	99.31
495.79	100.31
496.008	103.31
496.225	105.31
496.442	77.31
496.66	96.31
496.877	106.31
497.094	99.31
497.312	100.31
497.529	106.31
497.746	99.31
497.963	104.31
498.181	78.31
498.398	79.31
498.615	80.31
498.832	86.31
499.049	85.31
499.267	84.31
499.484	91.31
499.701	85.31
499.918	83.31
500.135	88.31
500.352	85.31
500.569	90.31
500.786	94.31
501.003	94.31
501.22	87.31
501.437	78.31
501.654	92.31
501.871	96.31
502.088	86.31
502.305	91.31
502.522	84.31
502.739	107.31
502.956	90.31
503.172	103.31
503.389	84.31
503.606	89.31
503.823	104.31
504.04	88.31
504.256	85.31
504.473	91.31
504.69	84.31
504.907	96.31
505.123	88.31
505.34	88.31
505.557	87.31
505.773	82.31
505.99	84.31
506.207	99.31
506.423	83.31
506.64	86.31
506.856	93.31
507.073	83.31
507.289	87.31
507.506	86.31
507.722	84.31
507.939	78.31
508.155	83.31
508.372	83.31
508.588	85.31
508.805	84.31
509.021	81.31
509.238	82.31
509.454	85.31
509.67	80.31
509.887	78.31
510.103	87.31
510.319	76.31
510.536	84.31
510.752	96.31
510.968	84.31
511.184	83.31
511.401	81.31
511.617	88.31
511.833	77.31
512.049	79.31
512.265	85.31
512.481	91.31
512.698	91.31
512.914	88.31
513.13	88.31
513.346	76.31
513.562	82.31
513.778	87.31
513.994	79.31
514.21	84.31
514.426	83.31
514.642	76.31
514.858	88.31
515.074	85.31
515.29	84.31
515.506	89.31
515.721	71.31
515.937	86.31
516.153	76.31
516.369	85.31
516.585	97.31
516.801	85.31
517.016	76.31
517.232	75.31
517.448	76.31
517.664	83.31
517.879	95.31
518.095	85.31
518.311	84.31
518.527	91.31
