Data from Zn(NO3)2Standard.Agarose3%.GreenCap.LampEnergy5.5.E.O_HRD10591_15-03-50-768.txt Node
Date: Mon Jul 22 15:03:50 EDT 2019
User: cochatt
Spectrometer: HR+D1059
Trigger mode: 1
Integration Time (sec): 1.000000E-1
Scans to average: 1
Electric dark correction enabled: true
Nonlinearity correction enabled: false
Boxcar width: 0
XAxis mode: Wavelengths
Number of Pixels in Spectrum: 2048
>>>>>Begin Spectral Data<<<<<
223.165	-13.12
223.4	-13.12
223.635	-13.12
223.869	-11.12
224.104	-17.12
224.338	-12.12
224.573	-18.12
224.808	-17.12
225.042	-15.12
225.277	-3.12
225.511	0.88
225.746	16.88
225.98	-6.12
226.215	7.88
226.449	12.88
226.683	24.88
226.918	32.88
227.152	16.88
227.387	35.88
227.621	41.88
227.856	57.88
228.09	50.88
228.324	45.88
228.559	62.88
228.793	65.88
229.027	60.88
229.262	63.88
229.496	60.88
229.73	78.88
229.964	53.88
230.199	70.88
230.433	82.88
230.667	79.88
230.901	75.88
231.136	70.88
231.37	81.88
231.604	85.88
231.838	80.88
232.072	73.88
232.306	104.88
232.541	101.88
232.775	87.88
233.009	93.88
233.243	100.88
233.477	89.88
233.711	87.88
233.945	79.88
234.179	102.88
234.413	87.88
234.647	87.88
234.881	76.88
235.115	85.88
235.349	91.88
235.583	78.88
235.817	86.88
236.051	69.88
236.285	75.88
236.519	83.88
236.753	72.88
236.987	74.88
237.221	75.88
237.455	75.88
237.689	78.88
237.922	81.88
238.156	55.88
238.39	71.88
238.624	64.88
238.858	85.88
239.091	69.88
239.325	87.88
239.559	71.88
239.793	87.88
240.027	87.88
240.26	68.88
240.494	79.88
240.728	73.88
240.961	73.88
241.195	71.88
241.429	81.88
241.662	72.88
241.896	67.88
242.13	84.88
242.363	79.88
242.597	87.88
242.83	78.88
243.064	90.88
243.298	74.88
243.531	63.88
243.765	78.88
243.998	87.88
244.232	78.88
244.465	81.88
244.699	80.88
244.932	78.88
245.166	77.88
245.399	96.88
245.633	87.88
245.866	80.88
246.099	76.88
246.333	90.88
246.566	73.88
246.8	86.88
247.033	73.88
247.266	85.88
247.5	91.88
247.733	90.88
247.966	88.88
248.2	87.88
248.433	78.88
248.666	84.88
248.899	88.88
249.133	67.88
249.366	73.88
249.599	79.88
249.832	76.88
250.066	98.88
250.299	87.88
250.532	78.88
250.765	80.88
250.998	85.88
251.231	71.88
251.465	73.88
251.698	95.88
251.931	81.88
252.164	67.88
252.397	76.88
252.63	83.88
252.863	66.88
253.096	76.88
253.329	71.88
253.562	77.88
253.795	86.88
254.028	89.88
254.261	75.88
254.494	87.88
254.727	84.88
254.96	83.88
255.193	76.88
255.426	80.88
255.659	83.88
255.892	92.88
256.124	79.88
256.357	78.88
256.59	100.88
256.823	71.88
257.056	73.88
257.289	83.88
257.521	85.88
257.754	76.88
257.987	91.88
258.22	83.88
258.452	82.88
258.685	80.88
258.918	88.88
259.151	78.88
259.383	84.88
259.616	89.88
259.849	82.88
260.081	76.88
260.314	73.88
260.547	93.88
260.779	88.88
261.012	69.88
261.244	86.88
261.477	99.88
261.71	74.88
261.942	74.88
262.175	82.88
262.407	78.88
262.64	78.88
262.872	92.88
263.105	73.88
263.337	64.88
263.57	78.88
263.802	77.88
264.035	83.88
264.267	73.88
264.499	76.88
264.732	86.88
264.964	91.88
265.197	102.88
265.429	78.88
265.661	86.88
265.894	76.88
266.126	96.88
266.358	82.88
266.591	84.88
266.823	84.88
267.055	88.88
267.287	96.88
267.52	79.88
267.752	81.88
267.984	74.88
268.216	88.88
268.448	81.88
268.681	77.88
268.913	78.88
269.145	86.88
269.377	81.88
269.609	88.88
269.841	84.88
270.073	76.88
270.306	89.88
270.538	93.88
270.77	107.88
271.002	88.88
271.234	72.88
271.466	87.88
271.698	85.88
271.93	91.88
272.162	82.88
272.394	70.88
272.626	85.88
272.858	77.88
273.09	80.88
273.322	93.88
273.553	78.88
273.785	88.88
274.017	89.88
274.249	97.88
274.481	84.88
274.713	83.88
274.945	87.88
275.176	85.88
275.408	103.88
275.64	66.88
275.872	63.88
276.104	73.88
276.335	78.88
276.567	81.88
276.799	78.88
277.031	71.88
277.262	89.88
277.494	91.88
277.726	85.88
277.957	80.88
278.189	86.88
278.421	75.88
278.652	82.88
278.884	85.88
279.115	81.88
279.347	88.88
279.579	93.88
279.81	79.88
280.042	81.88
280.273	90.88
280.505	79.88
280.736	94.88
280.968	78.88
281.199	89.88
281.431	76.88
281.662	99.88
281.894	96.88
282.125	80.88
282.356	88.88
282.588	101.88
282.819	92.88
283.051	84.88
283.282	86.88
283.513	75.88
283.745	91.88
283.976	84.88
284.207	67.88
284.439	93.88
284.67	88.88
284.901	88.88
285.132	91.88
285.364	86.88
285.595	105.88
285.826	94.88
286.057	84.88
286.288	91.88
286.52	98.88
286.751	87.88
286.982	75.88
287.213	87.88
287.444	77.88
287.675	87.88
287.906	88.88
288.138	90.88
288.369	79.88
288.6	86.88
288.831	81.88
289.062	87.88
289.293	85.88
289.524	83.88
289.755	92.88
289.986	91.88
290.217	87.88
290.448	89.88
290.679	90.88
290.91	95.88
291.141	92.88
291.371	95.88
291.602	73.88
291.833	89.88
292.064	92.88
292.295	93.88
292.526	78.88
292.757	84.88
292.987	91.88
293.218	104.88
293.449	71.88
293.68	87.88
293.91	95.88
294.141	75.88
294.372	78.88
294.603	85.88
294.833	83.88
295.064	90.88
295.295	87.88
295.525	86.88
295.756	84.88
295.987	77.88
296.217	84.88
296.448	75.88
296.679	86.88
296.909	88.88
297.14	87.88
297.37	97.88
297.601	86.88
297.831	100.88
298.062	84.88
298.292	84.88
298.523	66.88
298.753	81.88
298.984	89.88
299.214	92.88
299.445	97.88
299.675	96.88
299.905	79.88
300.136	84.88
300.366	83.88
300.597	81.88
300.827	81.88
301.057	80.88
301.288	81.88
301.518	74.88
301.748	94.88
301.979	95.88
302.209	92.88
302.439	85.88
302.669	71.88
302.9	89.88
303.13	90.88
303.36	93.88
303.59	94.88
303.82	88.88
304.051	86.88
304.281	95.88
304.511	96.88
304.741	85.88
304.971	83.88
305.201	87.88
305.431	93.88
305.661	83.88
305.891	95.88
306.121	95.88
306.352	93.88
306.582	75.88
306.812	90.88
307.042	83.88
307.272	94.88
307.502	76.88
307.731	85.88
307.961	94.88
308.191	81.88
308.421	89.88
308.651	90.88
308.881	91.88
309.111	99.88
309.341	91.88
309.571	89.88
309.8	95.88
310.03	92.88
310.26	81.88
310.49	81.88
310.72	89.88
310.949	99.88
311.179	80.88
311.409	81.88
311.639	90.88
311.868	99.88
312.098	93.88
312.328	83.88
312.557	100.88
312.787	72.88
313.017	84.88
313.246	98.88
313.476	82.88
313.706	92.88
313.935	87.88
314.165	94.88
314.394	84.88
314.624	79.88
314.853	85.88
315.083	75.88
315.312	71.88
315.542	81.88
315.771	80.88
316.001	82.88
316.23	91.88
316.46	72.88
316.689	83.88
316.919	90.88
317.148	91.88
317.377	89.88
317.607	96.88
317.836	91.88
318.065	91.88
318.295	99.88
318.524	91.88
318.753	100.88
318.983	82.88
319.212	91.88
319.441	76.88
319.67	90.88
319.9	74.88
320.129	93.88
320.358	82.88
320.587	82.88
320.816	69.88
321.046	87.88
321.275	83.88
321.504	82.88
321.733	88.88
321.962	90.88
322.191	81.88
322.42	98.88
322.649	93.88
322.878	88.88
323.108	86.88
323.337	91.88
323.566	91.88
323.795	85.88
324.024	100.88
324.253	84.88
324.482	80.88
324.71	76.88
324.939	88.88
325.168	95.88
325.397	92.88
325.626	91.88
325.855	90.88
326.084	100.88
326.313	102.88
326.542	80.88
326.77	79.88
326.999	87.88
327.228	94.88
327.457	78.88
327.686	75.88
327.914	95.88
328.143	95.88
328.372	85.88
328.6	89.88
328.829	92.88
329.058	92.88
329.287	105.88
329.515	77.88
329.744	90.88
329.972	85.88
330.201	102.88
330.43	83.88
330.658	81.88
330.887	85.88
331.115	85.88
331.344	87.88
331.572	86.88
331.801	83.88
332.03	103.88
332.258	84.88
332.486	93.88
332.715	80.88
332.943	112.88
333.172	93.88
333.4	78.88
333.629	91.88
333.857	81.88
334.085	91.88
334.314	85.88
334.542	84.88
334.771	89.88
334.999	92.88
335.227	85.88
335.455	77.88
335.684	79.88
335.912	96.88
336.14	86.88
336.369	92.88
336.597	89.88
336.825	79.88
337.053	89.88
337.281	99.88
337.51	76.88
337.738	99.88
337.966	92.88
338.194	89.88
338.422	102.88
338.65	87.88
338.878	89.88
339.106	90.88
339.334	96.88
339.562	80.88
339.79	88.88
340.018	81.88
340.246	99.88
340.474	92.88
340.702	92.88
340.93	92.88
341.158	87.88
341.386	88.88
341.614	77.88
341.842	90.88
342.07	102.88
342.298	90.88
342.526	94.88
342.754	80.88
342.981	96.88
343.209	87.88
343.437	77.88
343.665	85.88
343.893	78.88
344.12	105.88
344.348	92.88
344.576	98.88
344.804	84.88
345.031	76.88
345.259	84.88
345.487	72.88
345.714	82.88
345.942	72.88
346.17	93.88
346.397	81.88
346.625	98.88
346.853	92.88
347.08	95.88
347.308	88.88
347.535	79.88
347.763	74.88
347.99	85.88
348.218	87.88
348.445	84.88
348.673	83.88
348.9	95.88
349.128	69.88
349.355	85.88
349.583	83.88
349.81	87.88
350.037	89.88
350.265	94.88
350.492	78.88
350.72	71.88
350.947	91.88
351.174	77.88
351.402	86.88
351.629	67.88
351.856	89.88
352.083	89.88
352.311	82.88
352.538	86.88
352.765	92.88
352.992	97.88
353.22	89.88
353.447	75.88
353.674	85.88
353.901	87.88
354.128	80.88
354.355	99.88
354.583	82.88
354.81	89.88
355.037	87.88
355.264	100.88
355.491	92.88
355.718	89.88
355.945	91.88
356.172	78.88
356.399	98.88
356.626	88.88
356.853	79.88
357.08	80.88
357.307	91.88
357.534	87.88
357.761	89.88
357.988	79.88
358.215	81.88
358.441	90.88
358.668	85.88
358.895	76.88
359.122	96.88
359.349	80.88
359.576	81.88
359.802	86.88
360.029	99.88
360.256	97.88
360.483	76.88
360.709	83.88
360.936	82.88
361.163	91.88
361.39	66.88
361.616	84.88
361.843	81.88
362.07	79.88
362.296	70.88
362.523	75.88
362.749	93.88
362.976	82.88
363.203	88.88
363.429	87.88
363.656	91.88
363.882	95.88
364.109	89.88
364.335	95.88
364.562	86.88
364.788	80.88
365.015	94.88
365.241	91.88
365.468	88.88
365.694	76.88
365.92	86.88
366.147	84.88
366.373	85.88
366.599	91.88
366.826	99.88
367.052	91.88
367.278	95.88
367.505	93.88
367.731	90.88
367.957	81.88
368.184	73.88
368.41	78.88
368.636	86.88
368.862	76.88
369.089	99.88
369.315	84.88
369.541	85.88
369.767	82.88
369.993	87.88
370.219	86.88
370.445	80.88
370.672	89.88
370.898	99.88
371.124	77.88
371.35	84.88
371.576	98.88
371.802	84.88
372.028	87.88
372.254	84.88
372.48	84.88
372.706	76.88
372.932	94.88
373.158	76.88
373.384	78.88
373.61	98.88
373.835	85.88
374.061	85.88
374.287	82.88
374.513	89.88
374.739	91.88
374.965	87.88
375.191	87.88
375.416	72.88
375.642	105.88
375.868	82.88
376.094	83.88
376.319	77.88
376.545	84.88
376.771	82.88
376.997	94.88
377.222	84.88
377.448	81.88
377.674	85.88
377.899	85.88
378.125	85.88
378.35	83.88
378.576	81.88
378.802	53.88
379.027	90.88
379.253	79.88
379.478	85.88
379.704	71.88
379.929	83.88
380.155	86.88
380.38	88.88
380.606	81.88
380.831	87.88
381.057	94.88
381.282	87.88
381.507	102.88
381.733	78.88
381.958	85.88
382.184	94.88
382.409	87.88
382.634	80.88
382.86	86.88
383.085	94.88
383.31	88.88
383.535	62.88
383.761	87.88
383.986	83.88
384.211	76.88
384.436	94.88
384.662	85.88
384.887	75.88
385.112	87.88
385.337	91.88
385.562	93.88
385.787	90.88
386.013	88.88
386.238	76.88
386.463	71.88
386.688	93.88
386.913	96.88
387.138	94.88
387.363	90.88
387.588	78.88
387.813	72.88
388.038	84.88
388.263	81.88
388.488	85.88
388.713	78.88
388.938	85.88
389.163	105.88
389.387	90.88
389.612	72.88
389.837	96.88
390.062	86.88
390.287	91.88
390.512	78.88
390.736	89.88
390.961	77.88
391.186	92.88
391.411	79.88
391.636	82.88
391.86	87.88
392.085	78.88
392.31	88.88
392.534	86.88
392.759	81.88
392.984	94.88
393.208	84.88
393.433	91.88
393.658	79.88
393.882	81.88
394.107	92.88
394.331	85.88
394.556	90.88
394.78	90.88
395.005	86.88
395.229	98.88
395.454	74.88
395.678	87.88
395.903	74.88
396.127	81.88
396.352	81.88
396.576	89.88
396.801	91.88
397.025	81.88
397.249	97.88
397.474	75.88
397.698	70.88
397.922	83.88
398.147	80.88
398.371	82.88
398.595	77.88
398.82	85.88
399.044	81.88
399.268	94.88
399.492	77.88
399.717	72.88
399.941	85.88
400.165	87.88
400.389	94.88
400.613	86.88
400.837	95.88
401.062	78.88
401.286	82.88
401.51	88.88
401.734	93.88
401.958	80.88
402.182	93.88
402.406	82.88
402.63	84.88
402.854	87.88
403.078	84.88
403.302	68.88
403.526	85.88
403.75	79.88
403.974	94.88
404.198	87.88
404.422	93.88
404.645	100.88
404.869	85.88
405.093	91.88
405.317	91.88
405.541	85.88
405.765	84.88
405.988	82.88
406.212	89.88
406.436	99.88
406.66	91.88
406.883	89.88
407.107	92.88
407.331	87.88
407.555	83.88
407.778	96.88
408.002	84.88
408.226	99.88
408.449	86.88
408.673	81.88
408.896	91.88
409.12	85.88
409.344	93.88
409.567	70.88
409.791	85.88
410.014	93.88
410.238	94.88
410.461	80.88
410.685	88.88
410.908	92.88
411.132	105.88
411.355	79.88
411.578	81.88
411.802	84.88
412.025	88.88
412.249	102.88
412.472	88.88
412.695	92.88
412.919	86.88
413.142	77.88
413.365	89.88
413.589	85.88
413.812	86.88
414.035	96.88
414.258	99.88
414.482	99.88
414.705	85.88
414.928	91.88
415.151	94.88
415.374	90.88
415.597	88.88
415.821	91.88
416.044	100.88
416.267	97.88
416.49	96.88
416.713	96.88
416.936	91.88
417.159	96.88
417.382	86.88
417.605	76.88
417.828	82.88
418.051	93.88
418.274	99.88
418.497	92.88
418.72	89.88
418.943	88.88
419.166	84.88
419.389	92.88
419.611	89.88
419.834	78.88
420.057	71.88
420.28	85.88
420.503	91.88
420.726	89.88
420.948	99.88
421.171	99.88
421.394	81.88
421.617	105.88
421.839	98.88
422.062	82.88
422.285	96.88
422.507	86.88
422.73	81.88
422.953	97.88
423.175	90.88
423.398	86.88
423.621	96.88
423.843	98.88
424.066	90.88
424.288	99.88
424.511	104.88
424.733	90.88
424.956	105.88
425.178	85.88
425.401	93.88
425.623	93.88
425.846	89.88
426.068	91.88
426.291	89.88
426.513	99.88
426.735	86.88
426.958	86.88
427.18	85.88
427.402	90.88
427.625	87.88
427.847	77.88
428.069	96.88
428.292	76.88
428.514	80.88
428.736	78.88
428.958	96.88
429.181	95.88
429.403	97.88
429.625	84.88
429.847	85.88
430.069	84.88
430.292	87.88
430.514	101.88
430.736	89.88
430.958	90.88
431.18	87.88
431.402	92.88
431.624	80.88
431.846	75.88
432.068	76.88
432.29	83.88
432.512	94.88
432.734	92.88
432.956	96.88
433.178	87.88
433.4	74.88
433.622	95.88
433.844	80.88
434.066	77.88
434.287	84.88
434.509	86.88
434.731	78.88
434.953	84.88
435.175	86.88
435.397	90.88
435.618	87.88
435.84	86.88
436.062	81.88
436.284	88.88
436.505	100.88
436.727	85.88
436.949	95.88
437.17	92.88
437.392	91.88
437.614	87.88
437.835	80.88
438.057	85.88
438.278	91.88
438.5	91.88
438.721	90.88
438.943	99.88
439.165	91.88
439.386	102.88
439.608	99.88
439.829	100.88
440.05	96.88
440.272	99.88
440.493	102.88
440.715	99.88
440.936	91.88
441.158	92.88
441.379	85.88
441.6	95.88
441.822	91.88
442.043	85.88
442.264	106.88
442.486	92.88
442.707	95.88
442.928	81.88
443.149	94.88
443.371	111.88
443.592	84.88
443.813	91.88
444.034	77.88
444.255	86.88
444.476	100.88
444.698	97.88
444.919	79.88
445.14	232.88
445.361	150.88
445.582	91.88
445.803	77.88
446.024	95.88
446.245	110.88
446.466	99.88
446.687	92.88
446.908	91.88
447.129	88.88
447.35	100.88
447.571	96.88
447.792	96.88
448.013	93.88
448.234	93.88
448.455	87.88
448.675	77.88
448.896	98.88
449.117	82.88
449.338	90.88
449.559	86.88
449.779	88.88
450	94.88
450.221	108.88
450.442	96.88
450.662	78.88
450.883	94.88
451.104	89.88
451.324	85.88
451.545	81.88
451.766	81.88
451.986	92.88
452.207	81.88
452.428	91.88
452.648	96.88
452.869	91.88
453.089	82.88
453.31	84.88
453.53	92.88
453.751	91.88
453.971	92.88
454.192	85.88
454.412	88.88
454.633	77.88
454.853	77.88
455.073	88.88
455.294	115.88
455.514	102.88
455.734	91.88
455.955	84.88
456.175	95.88
456.395	91.88
456.616	92.88
456.836	86.88
457.056	83.88
457.276	90.88
457.497	68.88
457.717	78.88
457.937	70.88
458.157	94.88
458.377	87.88
458.598	93.88
458.818	91.88
459.038	83.88
459.258	78.88
459.478	89.88
459.698	75.88
459.918	79.88
460.138	78.88
460.358	79.88
460.578	83.88
460.798	81.88
461.018	90.88
461.238	78.88
461.458	99.88
461.678	105.88
461.898	90.88
462.118	92.88
462.338	89.88
462.558	70.88
462.777	85.88
462.997	89.88
463.217	76.88
463.437	73.88
463.657	90.88
463.876	90.88
464.096	69.88
464.316	80.88
464.536	99.88
464.755	83.88
464.975	88.88
465.195	81.88
465.414	87.88
465.634	83.88
465.854	84.88
466.073	87.88
466.293	105.88
466.512	75.88
466.732	87.88
466.951	104.88
467.171	100.88
467.391	88.88
467.61	86.88
467.829	93.88
468.049	87.88
468.268	94.88
468.488	87.88
468.707	92.88
468.927	90.88
469.146	100.88
469.365	96.88
469.585	97.88
469.804	100.88
470.023	91.88
470.243	96.88
470.462	89.88
470.681	79.88
470.901	103.88
471.12	103.88
471.339	74.88
471.558	88.88
471.777	95.88
471.997	90.88
472.216	71.88
472.435	81.88
472.654	101.88
472.873	94.88
473.092	84.88
473.311	89.88
473.53	89.88
473.749	101.88
473.968	111.88
474.187	89.88
474.406	90.88
474.625	105.88
474.844	91.88
475.063	87.88
475.282	98.88
475.501	86.88
475.72	92.88
475.939	84.88
476.158	80.88
476.377	88.88
476.596	93.88
476.814	97.88
477.033	114.88
477.252	85.88
477.471	94.88
477.69	90.88
477.908	99.88
478.127	95.88
478.346	93.88
478.564	90.88
478.783	87.88
479.002	103.88
479.22	81.88
479.439	104.88
479.658	89.88
479.876	74.88
480.095	91.88
480.313	95.88
480.532	87.88
480.751	82.88
480.969	82.88
481.188	72.88
481.406	83.88
481.624	107.88
481.843	85.88
482.061	86.88
482.28	108.88
482.498	80.88
482.717	77.88
482.935	94.88
483.153	93.88
483.372	92.88
483.59	83.88
483.808	91.88
484.027	101.88
484.245	92.88
484.463	101.88
484.681	109.88
484.9	100.88
485.118	95.88
485.336	99.88
485.554	87.88
485.772	85.88
485.99	105.88
486.209	100.88
486.427	89.88
486.645	101.88
486.863	91.88
487.081	93.88
487.299	100.88
487.517	103.88
487.735	90.88
487.953	78.88
488.171	107.88
488.389	86.88
488.607	89.88
488.825	92.88
489.043	85.88
489.261	90.88
489.479	101.88
489.696	82.88
489.914	93.88
490.132	95.88
490.35	89.88
490.568	95.88
490.786	103.88
491.003	91.88
491.221	114.88
491.439	107.88
491.657	83.88
491.874	95.88
492.092	106.88
492.31	109.88
492.527	125.88
492.745	115.88
492.963	98.88
493.18	99.88
493.398	92.88
493.615	104.88
493.833	103.88
494.05	106.88
494.268	87.88
494.485	108.88
494.703	111.88
494.92	91.88
495.138	99.88
495.355	119.88
495.573	116.88
495.79	115.88
496.008	83.88
496.225	102.88
496.442	110.88
496.66	97.88
496.877	102.88
497.094	104.88
497.312	99.88
497.529	102.88
497.746	103.88
497.963	96.88
498.181	86.88
498.398	84.88
498.615	89.88
498.832	93.88
499.049	88.88
499.267	78.88
499.484	99.88
499.701	91.88
499.918	81.88
500.135	95.88
500.352	91.88
500.569	87.88
500.786	89.88
501.003	101.88
501.22	89.88
501.437	91.88
501.654	104.88
501.871	104.88
502.088	100.88
502.305	98.88
502.522	80.88
502.739	86.88
502.956	91.88
503.172	85.88
503.389	84.88
503.606	87.88
503.823	95.88
504.04	110.88
504.256	102.88
504.473	97.88
504.69	103.88
504.907	81.88
505.123	102.88
505.34	95.88
505.557	92.88
505.773	85.88
505.99	83.88
506.207	85.88
506.423	101.88
506.64	73.88
506.856	84.88
507.073	91.88
507.289	74.88
507.506	62.88
507.722	67.88
507.939	83.88
508.155	84.88
508.372	86.88
508.588	91.88
508.805	88.88
509.021	89.88
509.238	94.88
509.454	84.88
509.67	93.88
509.887	85.88
510.103	83.88
510.319	85.88
510.536	83.88
510.752	83.88
510.968	86.88
511.184	96.88
511.401	85.88
511.617	97.88
511.833	82.88
512.049	91.88
512.265	87.88
512.481	90.88
512.698	78.88
512.914	91.88
513.13	96.88
513.346	83.88
513.562	80.88
513.778	87.88
513.994	85.88
514.21	75.88
514.426	76.88
514.642	92.88
514.858	85.88
515.074	89.88
515.29	90.88
515.506	93.88
515.721	86.88
515.937	95.88
516.153	80.88
516.369	74.88
516.585	85.88
516.801	79.88
517.016	92.88
517.232	82.88
517.448	84.88
517.664	86.88
517.879	81.88
