Data from Zn(NO3)2Standard.Agarose3%.GreenCap.LampEnergy5.5.E.O_HRD10591_15-01-46-767.txt Node
Date: Mon Jul 22 15:01:46 EDT 2019
User: cochatt
Spectrometer: HR+D1059
Trigger mode: 1
Integration Time (sec): 1.000000E-1
Scans to average: 1
Electric dark correction enabled: true
Nonlinearity correction enabled: false
Boxcar width: 0
XAxis mode: Wavelengths
Number of Pixels in Spectrum: 2048
>>>>>Begin Spectral Data<<<<<
223.165	-20.31
223.4	-20.31
223.635	-20.31
223.869	-13.31
224.104	-13.31
224.338	-14.31
224.573	-11.31
224.808	-13.31
225.042	-1.31
225.277	-13.31
225.511	-9.31
225.746	-13.31
225.98	13.69
226.215	10.69
226.449	8.69
226.683	30.69
226.918	26.69
227.152	32.69
227.387	28.69
227.621	35.69
227.856	52.69
228.09	51.69
228.324	54.69
228.559	55.69
228.793	57.69
229.027	62.69
229.262	71.69
229.496	56.69
229.73	65.69
229.964	67.69
230.199	69.69
230.433	53.69
230.667	75.69
230.901	86.69
231.136	91.69
231.37	71.69
231.604	78.69
231.838	94.69
232.072	93.69
232.306	94.69
232.541	83.69
232.775	76.69
233.009	87.69
233.243	78.69
233.477	96.69
233.711	89.69
233.945	77.69
234.179	74.69
234.413	89.69
234.647	77.69
234.881	80.69
235.115	76.69
235.349	85.69
235.583	79.69
235.817	89.69
236.051	81.69
236.285	79.69
236.519	74.69
236.753	84.69
236.987	66.69
237.221	71.69
237.455	78.69
237.689	75.69
237.922	85.69
238.156	61.69
238.39	77.69
238.624	75.69
238.858	74.69
239.091	84.69
239.325	75.69
239.559	64.69
239.793	76.69
240.027	82.69
240.26	81.69
240.494	82.69
240.728	89.69
240.961	82.69
241.195	68.69
241.429	65.69
241.662	84.69
241.896	84.69
242.13	73.69
242.363	89.69
242.597	77.69
242.83	86.69
243.064	84.69
243.298	66.69
243.531	76.69
243.765	82.69
243.998	78.69
244.232	76.69
244.465	73.69
244.699	83.69
244.932	69.69
245.166	82.69
245.399	78.69
245.633	64.69
245.866	83.69
246.099	66.69
246.333	69.69
246.566	86.69
246.8	85.69
247.033	87.69
247.266	77.69
247.5	84.69
247.733	85.69
247.966	91.69
248.2	90.69
248.433	83.69
248.666	90.69
248.899	79.69
249.133	81.69
249.366	84.69
249.599	69.69
249.832	86.69
250.066	73.69
250.299	68.69
250.532	94.69
250.765	72.69
250.998	76.69
251.231	66.69
251.465	67.69
251.698	78.69
251.931	81.69
252.164	90.69
252.397	68.69
252.63	70.69
252.863	83.69
253.096	95.69
253.329	80.69
253.562	79.69
253.795	66.69
254.028	88.69
254.261	77.69
254.494	72.69
254.727	84.69
254.96	89.69
255.193	72.69
255.426	80.69
255.659	75.69
255.892	88.69
256.124	76.69
256.357	77.69
256.59	75.69
256.823	82.69
257.056	75.69
257.289	86.69
257.521	75.69
257.754	83.69
257.987	88.69
258.22	72.69
258.452	76.69
258.685	64.69
258.918	75.69
259.151	91.69
259.383	82.69
259.616	80.69
259.849	90.69
260.081	87.69
260.314	79.69
260.547	70.69
260.779	76.69
261.012	69.69
261.244	75.69
261.477	97.69
261.71	83.69
261.942	70.69
262.175	92.69
262.407	96.69
262.64	76.69
262.872	87.69
263.105	85.69
263.337	89.69
263.57	80.69
263.802	70.69
264.035	84.69
264.267	84.69
264.499	85.69
264.732	80.69
264.964	78.69
265.197	67.69
265.429	75.69
265.661	81.69
265.894	87.69
266.126	67.69
266.358	82.69
266.591	85.69
266.823	89.69
267.055	93.69
267.287	100.69
267.52	81.69
267.752	85.69
267.984	86.69
268.216	77.69
268.448	72.69
268.681	84.69
268.913	81.69
269.145	71.69
269.377	75.69
269.609	82.69
269.841	76.69
270.073	77.69
270.306	78.69
270.538	81.69
270.77	78.69
271.002	84.69
271.234	89.69
271.466	93.69
271.698	90.69
271.93	78.69
272.162	83.69
272.394	81.69
272.626	80.69
272.858	88.69
273.09	82.69
273.322	80.69
273.553	73.69
273.785	84.69
274.017	84.69
274.249	84.69
274.481	86.69
274.713	95.69
274.945	84.69
275.176	96.69
275.408	79.69
275.64	88.69
275.872	88.69
276.104	88.69
276.335	83.69
276.567	80.69
276.799	83.69
277.031	86.69
277.262	76.69
277.494	65.69
277.726	76.69
277.957	72.69
278.189	91.69
278.421	80.69
278.652	92.69
278.884	78.69
279.115	84.69
279.347	81.69
279.579	79.69
279.81	78.69
280.042	95.69
280.273	83.69
280.505	68.69
280.736	77.69
280.968	91.69
281.199	93.69
281.431	85.69
281.662	88.69
281.894	79.69
282.125	77.69
282.356	77.69
282.588	86.69
282.819	93.69
283.051	89.69
283.282	88.69
283.513	90.69
283.745	88.69
283.976	89.69
284.207	67.69
284.439	75.69
284.67	74.69
284.901	75.69
285.132	75.69
285.364	88.69
285.595	87.69
285.826	97.69
286.057	78.69
286.288	78.69
286.52	83.69
286.751	88.69
286.982	85.69
287.213	73.69
287.444	77.69
287.675	82.69
287.906	77.69
288.138	93.69
288.369	78.69
288.6	85.69
288.831	83.69
289.062	80.69
289.293	79.69
289.524	102.69
289.755	85.69
289.986	68.69
290.217	83.69
290.448	72.69
290.679	71.69
290.91	72.69
291.141	96.69
291.371	87.69
291.602	85.69
291.833	76.69
292.064	86.69
292.295	77.69
292.526	87.69
292.757	84.69
292.987	87.69
293.218	82.69
293.449	78.69
293.68	76.69
293.91	77.69
294.141	82.69
294.372	78.69
294.603	107.69
294.833	87.69
295.064	82.69
295.295	85.69
295.525	77.69
295.756	84.69
295.987	81.69
296.217	89.69
296.448	85.69
296.679	79.69
296.909	83.69
297.14	87.69
297.37	90.69
297.601	91.69
297.831	79.69
298.062	93.69
298.292	82.69
298.523	79.69
298.753	73.69
298.984	85.69
299.214	79.69
299.445	89.69
299.675	87.69
299.905	82.69
300.136	75.69
300.366	78.69
300.597	97.69
300.827	78.69
301.057	85.69
301.288	84.69
301.518	89.69
301.748	89.69
301.979	79.69
302.209	84.69
302.439	81.69
302.669	68.69
302.9	78.69
303.13	93.69
303.36	86.69
303.59	93.69
303.82	73.69
304.051	88.69
304.281	86.69
304.511	94.69
304.741	76.69
304.971	87.69
305.201	87.69
305.431	79.69
305.661	82.69
305.891	91.69
306.121	84.69
306.352	78.69
306.582	85.69
306.812	84.69
307.042	84.69
307.272	82.69
307.502	81.69
307.731	77.69
307.961	82.69
308.191	78.69
308.421	85.69
308.651	83.69
308.881	87.69
309.111	68.69
309.341	82.69
309.571	85.69
309.8	81.69
310.03	95.69
310.26	80.69
310.49	92.69
310.72	71.69
310.949	85.69
311.179	70.69
311.409	91.69
311.639	90.69
311.868	97.69
312.098	76.69
312.328	83.69
312.557	96.69
312.787	96.69
313.017	89.69
313.246	92.69
313.476	84.69
313.706	75.69
313.935	86.69
314.165	80.69
314.394	82.69
314.624	89.69
314.853	77.69
315.083	86.69
315.312	89.69
315.542	90.69
315.771	92.69
316.001	84.69
316.23	102.69
316.46	84.69
316.689	90.69
316.919	79.69
317.148	89.69
317.377	93.69
317.607	96.69
317.836	102.69
318.065	72.69
318.295	74.69
318.524	94.69
318.753	78.69
318.983	84.69
319.212	89.69
319.441	89.69
319.67	78.69
319.9	96.69
320.129	79.69
320.358	99.69
320.587	93.69
320.816	91.69
321.046	74.69
321.275	85.69
321.504	84.69
321.733	97.69
321.962	87.69
322.191	77.69
322.42	83.69
322.649	78.69
322.878	86.69
323.108	91.69
323.337	71.69
323.566	77.69
323.795	78.69
324.024	87.69
324.253	106.69
324.482	85.69
324.71	86.69
324.939	94.69
325.168	90.69
325.397	84.69
325.626	80.69
325.855	88.69
326.084	82.69
326.313	76.69
326.542	87.69
326.77	90.69
326.999	101.69
327.228	83.69
327.457	94.69
327.686	92.69
327.914	83.69
328.143	89.69
328.372	89.69
328.6	97.69
328.829	93.69
329.058	86.69
329.287	80.69
329.515	81.69
329.744	84.69
329.972	75.69
330.201	67.69
330.43	78.69
330.658	80.69
330.887	89.69
331.115	91.69
331.344	74.69
331.572	82.69
331.801	83.69
332.03	77.69
332.258	89.69
332.486	76.69
332.715	87.69
332.943	77.69
333.172	89.69
333.4	80.69
333.629	94.69
333.857	99.69
334.085	77.69
334.314	93.69
334.542	89.69
334.771	86.69
334.999	79.69
335.227	73.69
335.455	78.69
335.684	78.69
335.912	92.69
336.14	96.69
336.369	85.69
336.597	79.69
336.825	86.69
337.053	96.69
337.281	86.69
337.51	82.69
337.738	74.69
337.966	79.69
338.194	77.69
338.422	92.69
338.65	100.69
338.878	92.69
339.106	72.69
339.334	97.69
339.562	72.69
339.79	79.69
340.018	84.69
340.246	79.69
340.474	81.69
340.702	94.69
340.93	83.69
341.158	77.69
341.386	98.69
341.614	77.69
341.842	99.69
342.07	83.69
342.298	86.69
342.526	93.69
342.754	91.69
342.981	84.69
343.209	90.69
343.437	81.69
343.665	88.69
343.893	91.69
344.12	91.69
344.348	92.69
344.576	94.69
344.804	90.69
345.031	88.69
345.259	96.69
345.487	86.69
345.714	81.69
345.942	80.69
346.17	82.69
346.397	78.69
346.625	78.69
346.853	98.69
347.08	88.69
347.308	101.69
347.535	72.69
347.763	71.69
347.99	99.69
348.218	84.69
348.445	82.69
348.673	86.69
348.9	88.69
349.128	99.69
349.355	90.69
349.583	75.69
349.81	85.69
350.037	79.69
350.265	78.69
350.492	88.69
350.72	78.69
350.947	83.69
351.174	84.69
351.402	91.69
351.629	81.69
351.856	75.69
352.083	77.69
352.311	92.69
352.538	93.69
352.765	89.69
352.992	86.69
353.22	94.69
353.447	78.69
353.674	84.69
353.901	68.69
354.128	86.69
354.355	86.69
354.583	96.69
354.81	86.69
355.037	94.69
355.264	85.69
355.491	90.69
355.718	84.69
355.945	86.69
356.172	91.69
356.399	92.69
356.626	73.69
356.853	84.69
357.08	88.69
357.307	88.69
357.534	79.69
357.761	89.69
357.988	81.69
358.215	89.69
358.441	91.69
358.668	91.69
358.895	104.69
359.122	68.69
359.349	74.69
359.576	105.69
359.802	87.69
360.029	86.69
360.256	83.69
360.483	72.69
360.709	81.69
360.936	85.69
361.163	86.69
361.39	90.69
361.616	79.69
361.843	89.69
362.07	74.69
362.296	87.69
362.523	76.69
362.749	72.69
362.976	88.69
363.203	82.69
363.429	97.69
363.656	80.69
363.882	96.69
364.109	94.69
364.335	91.69
364.562	82.69
364.788	71.69
365.015	86.69
365.241	84.69
365.468	85.69
365.694	81.69
365.92	86.69
366.147	88.69
366.373	77.69
366.599	74.69
366.826	78.69
367.052	79.69
367.278	84.69
367.505	86.69
367.731	77.69
367.957	86.69
368.184	79.69
368.41	74.69
368.636	76.69
368.862	79.69
369.089	88.69
369.315	95.69
369.541	86.69
369.767	86.69
369.993	81.69
370.219	88.69
370.445	72.69
370.672	73.69
370.898	95.69
371.124	75.69
371.35	79.69
371.576	93.69
371.802	87.69
372.028	92.69
372.254	84.69
372.48	85.69
372.706	82.69
372.932	77.69
373.158	70.69
373.384	84.69
373.61	85.69
373.835	85.69
374.061	78.69
374.287	85.69
374.513	65.69
374.739	97.69
374.965	83.69
375.191	77.69
375.416	79.69
375.642	94.69
375.868	73.69
376.094	98.69
376.319	92.69
376.545	72.69
376.771	69.69
376.997	86.69
377.222	90.69
377.448	91.69
377.674	89.69
377.899	85.69
378.125	82.69
378.35	77.69
378.576	88.69
378.802	88.69
379.027	88.69
379.253	90.69
379.478	94.69
379.704	79.69
379.929	78.69
380.155	83.69
380.38	80.69
380.606	78.69
380.831	98.69
381.057	94.69
381.282	76.69
381.507	80.69
381.733	77.69
381.958	86.69
382.184	81.69
382.409	92.69
382.634	72.69
382.86	88.69
383.085	76.69
383.31	91.69
383.535	91.69
383.761	73.69
383.986	86.69
384.211	96.69
384.436	83.69
384.662	85.69
384.887	81.69
385.112	87.69
385.337	89.69
385.562	78.69
385.787	78.69
386.013	89.69
386.238	84.69
386.463	72.69
386.688	87.69
386.913	85.69
387.138	108.69
387.363	88.69
387.588	99.69
387.813	88.69
388.038	81.69
388.263	87.69
388.488	88.69
388.713	69.69
388.938	78.69
389.163	80.69
389.387	94.69
389.612	82.69
389.837	94.69
390.062	80.69
390.287	103.69
390.512	81.69
390.736	86.69
390.961	88.69
391.186	79.69
391.411	82.69
391.636	86.69
391.86	90.69
392.085	76.69
392.31	91.69
392.534	80.69
392.759	78.69
392.984	78.69
393.208	87.69
393.433	88.69
393.658	84.69
393.882	68.69
394.107	77.69
394.331	86.69
394.556	92.69
394.78	84.69
395.005	72.69
395.229	84.69
395.454	82.69
395.678	80.69
395.903	101.69
396.127	81.69
396.352	85.69
396.576	83.69
396.801	93.69
397.025	83.69
397.249	88.69
397.474	84.69
397.698	87.69
397.922	80.69
398.147	86.69
398.371	84.69
398.595	70.69
398.82	83.69
399.044	81.69
399.268	92.69
399.492	85.69
399.717	80.69
399.941	88.69
400.165	93.69
400.389	80.69
400.613	72.69
400.837	84.69
401.062	87.69
401.286	83.69
401.51	103.69
401.734	81.69
401.958	70.69
402.182	71.69
402.406	94.69
402.63	99.69
402.854	88.69
403.078	80.69
403.302	89.69
403.526	68.69
403.75	99.69
403.974	78.69
404.198	74.69
404.422	80.69
404.645	85.69
404.869	80.69
405.093	90.69
405.317	93.69
405.541	81.69
405.765	81.69
405.988	84.69
406.212	88.69
406.436	100.69
406.66	92.69
406.883	85.69
407.107	70.69
407.331	79.69
407.555	76.69
407.778	88.69
408.002	91.69
408.226	89.69
408.449	83.69
408.673	87.69
408.896	93.69
409.12	77.69
409.344	82.69
409.567	93.69
409.791	82.69
410.014	88.69
410.238	75.69
410.461	77.69
410.685	86.69
410.908	79.69
411.132	91.69
411.355	95.69
411.578	83.69
411.802	68.69
412.025	67.69
412.249	77.69
412.472	81.69
412.695	80.69
412.919	86.69
413.142	98.69
413.365	87.69
413.589	91.69
413.812	82.69
414.035	85.69
414.258	75.69
414.482	99.69
414.705	107.69
414.928	91.69
415.151	83.69
415.374	91.69
415.597	84.69
415.821	97.69
416.044	84.69
416.267	87.69
416.49	78.69
416.713	92.69
416.936	84.69
417.159	99.69
417.382	89.69
417.605	93.69
417.828	82.69
418.051	99.69
418.274	88.69
418.497	90.69
418.72	95.69
418.943	103.69
419.166	90.69
419.389	81.69
419.611	79.69
419.834	72.69
420.057	88.69
420.28	102.69
420.503	90.69
420.726	77.69
420.948	81.69
421.171	90.69
421.394	81.69
421.617	71.69
421.839	87.69
422.062	98.69
422.285	91.69
422.507	90.69
422.73	92.69
422.953	85.69
423.175	78.69
423.398	90.69
423.621	101.69
423.843	78.69
424.066	73.69
424.288	77.69
424.511	83.69
424.733	94.69
424.956	90.69
425.178	88.69
425.401	91.69
425.623	93.69
425.846	87.69
426.068	76.69
426.291	90.69
426.513	90.69
426.735	90.69
426.958	89.69
427.18	101.69
427.402	87.69
427.625	81.69
427.847	80.69
428.069	78.69
428.292	105.69
428.514	80.69
428.736	80.69
428.958	96.69
429.181	79.69
429.403	75.69
429.625	83.69
429.847	97.69
430.069	84.69
430.292	90.69
430.514	100.69
430.736	100.69
430.958	74.69
431.18	97.69
431.402	95.69
431.624	77.69
431.846	84.69
432.068	94.69
432.29	82.69
432.512	91.69
432.734	84.69
432.956	73.69
433.178	94.69
433.4	91.69
433.622	93.69
433.844	97.69
434.066	83.69
434.287	81.69
434.509	86.69
434.731	89.69
434.953	83.69
435.175	89.69
435.397	81.69
435.618	90.69
435.84	74.69
436.062	90.69
436.284	91.69
436.505	73.69
436.727	85.69
436.949	89.69
437.17	81.69
437.392	94.69
437.614	88.69
437.835	83.69
438.057	77.69
438.278	93.69
438.5	102.69
438.721	92.69
438.943	88.69
439.165	85.69
439.386	94.69
439.608	93.69
439.829	86.69
440.05	104.69
440.272	81.69
440.493	96.69
440.715	84.69
440.936	102.69
441.158	92.69
441.379	106.69
441.6	95.69
441.822	94.69
442.043	90.69
442.264	97.69
442.486	90.69
442.707	91.69
442.928	82.69
443.149	81.69
443.371	84.69
443.592	93.69
443.813	88.69
444.034	85.69
444.255	97.69
444.476	91.69
444.698	100.69
444.919	85.69
445.14	201.69
445.361	130.69
445.582	84.69
445.803	107.69
446.024	92.69
446.245	94.69
446.466	92.69
446.687	96.69
446.908	91.69
447.129	98.69
447.35	101.69
447.571	83.69
447.792	90.69
448.013	83.69
448.234	86.69
448.455	105.69
448.675	103.69
448.896	81.69
449.117	90.69
449.338	96.69
449.559	86.69
449.779	73.69
450	91.69
450.221	84.69
450.442	79.69
450.662	85.69
450.883	89.69
451.104	94.69
451.324	93.69
451.545	89.69
451.766	86.69
451.986	84.69
452.207	69.69
452.428	67.69
452.648	85.69
452.869	104.69
453.089	76.69
453.31	95.69
453.53	90.69
453.751	86.69
453.971	78.69
454.192	80.69
454.412	97.69
454.633	82.69
454.853	86.69
455.073	80.69
455.294	89.69
455.514	89.69
455.734	93.69
455.955	79.69
456.175	77.69
456.395	94.69
456.616	77.69
456.836	80.69
457.056	75.69
457.276	74.69
457.497	71.69
457.717	77.69
457.937	93.69
458.157	85.69
458.377	89.69
458.598	75.69
458.818	77.69
459.038	82.69
459.258	76.69
459.478	89.69
459.698	78.69
459.918	80.69
460.138	74.69
460.358	104.69
460.578	102.69
460.798	85.69
461.018	103.69
461.238	96.69
461.458	96.69
461.678	92.69
461.898	81.69
462.118	78.69
462.338	91.69
462.558	94.69
462.777	77.69
462.997	72.69
463.217	81.69
463.437	80.69
463.657	84.69
463.876	91.69
464.096	96.69
464.316	88.69
464.536	98.69
464.755	87.69
464.975	89.69
465.195	88.69
465.414	81.69
465.634	71.69
465.854	78.69
466.073	91.69
466.293	84.69
466.512	75.69
466.732	89.69
466.951	81.69
467.171	77.69
467.391	100.69
467.61	85.69
467.829	93.69
468.049	92.69
468.268	95.69
468.488	89.69
468.707	91.69
468.927	105.69
469.146	83.69
469.365	80.69
469.585	79.69
469.804	97.69
470.023	90.69
470.243	96.69
470.462	115.69
470.681	92.69
470.901	98.69
471.12	85.69
471.339	86.69
471.558	103.69
471.777	99.69
471.997	101.69
472.216	78.69
472.435	77.69
472.654	84.69
472.873	88.69
473.092	81.69
473.311	86.69
473.53	81.69
473.749	82.69
473.968	89.69
474.187	90.69
474.406	89.69
474.625	88.69
474.844	101.69
475.063	86.69
475.282	84.69
475.501	84.69
475.72	97.69
475.939	96.69
476.158	89.69
476.377	90.69
476.596	86.69
476.814	88.69
477.033	93.69
477.252	97.69
477.471	85.69
477.69	101.69
477.908	96.69
478.127	87.69
478.346	79.69
478.564	94.69
478.783	104.69
479.002	91.69
479.22	106.69
479.439	85.69
479.658	91.69
479.876	90.69
480.095	74.69
480.313	76.69
480.532	91.69
480.751	73.69
480.969	84.69
481.188	88.69
481.406	82.69
481.624	87.69
481.843	72.69
482.061	85.69
482.28	68.69
482.498	82.69
482.717	82.69
482.935	81.69
483.153	98.69
483.372	93.69
483.59	100.69
483.808	101.69
484.027	93.69
484.245	93.69
484.463	96.69
484.681	98.69
484.9	95.69
485.118	78.69
485.336	85.69
485.554	82.69
485.772	79.69
485.99	93.69
486.209	85.69
486.427	93.69
486.645	93.69
486.863	93.69
487.081	89.69
487.299	91.69
487.517	96.69
487.735	91.69
487.953	98.69
488.171	97.69
488.389	96.69
488.607	92.69
488.825	96.69
489.043	75.69
489.261	101.69
489.479	97.69
489.696	102.69
489.914	78.69
490.132	91.69
490.35	97.69
490.568	100.69
490.786	103.69
491.003	102.69
491.221	101.69
491.439	104.69
491.657	97.69
491.874	106.69
492.092	117.69
492.31	109.69
492.527	99.69
492.745	105.69
492.963	99.69
493.18	107.69
493.398	107.69
493.615	82.69
493.833	82.69
494.05	101.69
494.268	107.69
494.485	97.69
494.703	113.69
494.92	99.69
495.138	96.69
495.355	102.69
495.573	104.69
495.79	94.69
496.008	95.69
496.225	100.69
496.442	97.69
496.66	93.69
496.877	98.69
497.094	92.69
497.312	94.69
497.529	98.69
497.746	78.69
497.963	104.69
498.181	90.69
498.398	99.69
498.615	96.69
498.832	89.69
499.049	81.69
499.267	83.69
499.484	83.69
499.701	91.69
499.918	85.69
500.135	90.69
500.352	89.69
500.569	92.69
500.786	99.69
501.003	98.69
501.22	78.69
501.437	92.69
501.654	94.69
501.871	88.69
502.088	89.69
502.305	99.69
502.522	80.69
502.739	101.69
502.956	92.69
503.172	93.69
503.389	85.69
503.606	84.69
503.823	102.69
504.04	79.69
504.256	84.69
504.473	82.69
504.69	85.69
504.907	94.69
505.123	86.69
505.34	92.69
505.557	68.69
505.773	97.69
505.99	90.69
506.207	85.69
506.423	92.69
506.64	86.69
506.856	87.69
507.073	82.69
507.289	91.69
507.506	85.69
507.722	88.69
507.939	80.69
508.155	95.69
508.372	100.69
508.588	82.69
508.805	92.69
509.021	83.69
509.238	84.69
509.454	68.69
509.67	91.69
509.887	79.69
510.103	81.69
510.319	97.69
510.536	91.69
510.752	100.69
510.968	75.69
511.184	85.69
511.401	82.69
511.617	78.69
511.833	85.69
512.049	82.69
512.265	96.69
512.481	91.69
512.698	90.69
512.914	84.69
513.13	76.69
513.346	81.69
513.562	83.69
513.778	80.69
513.994	94.69
514.21	79.69
514.426	96.69
514.642	76.69
514.858	77.69
515.074	94.69
515.29	81.69
515.506	68.69
515.721	94.69
515.937	98.69
516.153	101.69
516.369	84.69
516.585	97.69
516.801	92.69
517.016	81.69
517.232	90.69
517.448	88.69
517.664	91.69
517.879	76.69
518.095	89.69
518.311	88.69
