Data from Zn(NO3)2Standard.Agarose3%.GreenCap.LampEnergy10E.O_HRD10591_15-07-19-944.txt Node
Date: Mon Jul 22 15:07:19 EDT 2019
User: cochatt
Spectrometer: HR+D1059
Trigger mode: 1
Integration Time (sec): 1.000000E-1
Scans to average: 1
Electric dark correction enabled: true
Nonlinearity correction enabled: false
Boxcar width: 0
XAxis mode: Wavelengths
Number of Pixels in Spectrum: 2048
>>>>>Begin Spectral Data<<<<<
223.165	-18.44
223.4	-18.44
223.635	-18.44
223.869	-19.44
224.104	-22.44
224.338	-13.44
224.573	-11.44
224.808	-8.44
225.042	0.56
225.277	9.56
225.511	6.56
225.746	1.56
225.98	-2.44
226.215	22.56
226.449	2.56
226.683	3.56
226.918	24.56
227.152	24.56
227.387	44.56
227.621	48.56
227.856	45.56
228.09	37.56
228.324	41.56
228.559	49.56
228.793	45.56
229.027	61.56
229.262	64.56
229.496	71.56
229.73	62.56
229.964	63.56
230.199	75.56
230.433	80.56
230.667	80.56
230.901	78.56
231.136	80.56
231.37	83.56
231.604	86.56
231.838	68.56
232.072	88.56
232.306	78.56
232.541	96.56
232.775	74.56
233.009	84.56
233.243	86.56
233.477	99.56
233.711	77.56
233.945	74.56
234.179	79.56
234.413	82.56
234.647	93.56
234.881	88.56
235.115	72.56
235.349	84.56
235.583	64.56
235.817	60.56
236.051	87.56
236.285	86.56
236.519	58.56
236.753	82.56
236.987	83.56
237.221	83.56
237.455	90.56
237.689	73.56
237.922	76.56
238.156	84.56
238.39	74.56
238.624	77.56
238.858	94.56
239.091	68.56
239.325	65.56
239.559	88.56
239.793	77.56
240.027	84.56
240.26	84.56
240.494	88.56
240.728	71.56
240.961	73.56
241.195	74.56
241.429	86.56
241.662	81.56
241.896	77.56
242.13	62.56
242.363	78.56
242.597	72.56
242.83	74.56
243.064	80.56
243.298	65.56
243.531	80.56
243.765	85.56
243.998	97.56
244.232	74.56
244.465	75.56
244.699	76.56
244.932	71.56
245.166	76.56
245.399	80.56
245.633	78.56
245.866	68.56
246.099	81.56
246.333	73.56
246.566	82.56
246.8	77.56
247.033	71.56
247.266	78.56
247.5	87.56
247.733	81.56
247.966	77.56
248.2	85.56
248.433	67.56
248.666	76.56
248.899	90.56
249.133	85.56
249.366	76.56
249.599	81.56
249.832	79.56
250.066	86.56
250.299	92.56
250.532	82.56
250.765	84.56
250.998	69.56
251.231	78.56
251.465	84.56
251.698	82.56
251.931	90.56
252.164	73.56
252.397	83.56
252.63	81.56
252.863	80.56
253.096	80.56
253.329	88.56
253.562	75.56
253.795	75.56
254.028	83.56
254.261	82.56
254.494	84.56
254.727	74.56
254.96	84.56
255.193	90.56
255.426	89.56
255.659	81.56
255.892	85.56
256.124	76.56
256.357	87.56
256.59	87.56
256.823	77.56
257.056	76.56
257.289	86.56
257.521	64.56
257.754	74.56
257.987	76.56
258.22	81.56
258.452	75.56
258.685	85.56
258.918	77.56
259.151	84.56
259.383	73.56
259.616	92.56
259.849	76.56
260.081	84.56
260.314	78.56
260.547	90.56
260.779	90.56
261.012	80.56
261.244	83.56
261.477	89.56
261.71	83.56
261.942	81.56
262.175	88.56
262.407	88.56
262.64	82.56
262.872	77.56
263.105	74.56
263.337	83.56
263.57	67.56
263.802	71.56
264.035	77.56
264.267	85.56
264.499	89.56
264.732	84.56
264.964	85.56
265.197	91.56
265.429	82.56
265.661	71.56
265.894	74.56
266.126	92.56
266.358	84.56
266.591	87.56
266.823	80.56
267.055	93.56
267.287	87.56
267.52	73.56
267.752	73.56
267.984	81.56
268.216	73.56
268.448	85.56
268.681	80.56
268.913	81.56
269.145	76.56
269.377	83.56
269.609	88.56
269.841	87.56
270.073	86.56
270.306	74.56
270.538	90.56
270.77	81.56
271.002	81.56
271.234	87.56
271.466	84.56
271.698	73.56
271.93	84.56
272.162	73.56
272.394	82.56
272.626	92.56
272.858	75.56
273.09	76.56
273.322	93.56
273.553	96.56
273.785	86.56
274.017	82.56
274.249	80.56
274.481	84.56
274.713	91.56
274.945	100.56
275.176	75.56
275.408	83.56
275.64	89.56
275.872	65.56
276.104	85.56
276.335	78.56
276.567	79.56
276.799	78.56
277.031	80.56
277.262	81.56
277.494	83.56
277.726	93.56
277.957	79.56
278.189	73.56
278.421	92.56
278.652	80.56
278.884	75.56
279.115	89.56
279.347	86.56
279.579	82.56
279.81	82.56
280.042	89.56
280.273	71.56
280.505	87.56
280.736	90.56
280.968	74.56
281.199	87.56
281.431	73.56
281.662	84.56
281.894	80.56
282.125	73.56
282.356	74.56
282.588	90.56
282.819	83.56
283.051	94.56
283.282	70.56
283.513	87.56
283.745	85.56
283.976	88.56
284.207	73.56
284.439	75.56
284.67	84.56
284.901	96.56
285.132	81.56
285.364	78.56
285.595	88.56
285.826	90.56
286.057	91.56
286.288	84.56
286.52	101.56
286.751	94.56
286.982	91.56
287.213	87.56
287.444	84.56
287.675	95.56
287.906	79.56
288.138	77.56
288.369	84.56
288.6	90.56
288.831	88.56
289.062	96.56
289.293	100.56
289.524	89.56
289.755	81.56
289.986	79.56
290.217	70.56
290.448	79.56
290.679	80.56
290.91	91.56
291.141	83.56
291.371	72.56
291.602	82.56
291.833	92.56
292.064	91.56
292.295	97.56
292.526	85.56
292.757	77.56
292.987	89.56
293.218	84.56
293.449	82.56
293.68	85.56
293.91	84.56
294.141	64.56
294.372	84.56
294.603	85.56
294.833	84.56
295.064	95.56
295.295	89.56
295.525	91.56
295.756	89.56
295.987	88.56
296.217	99.56
296.448	98.56
296.679	89.56
296.909	85.56
297.14	101.56
297.37	91.56
297.601	97.56
297.831	89.56
298.062	101.56
298.292	86.56
298.523	91.56
298.753	81.56
298.984	95.56
299.214	81.56
299.445	93.56
299.675	79.56
299.905	80.56
300.136	75.56
300.366	75.56
300.597	76.56
300.827	93.56
301.057	90.56
301.288	82.56
301.518	83.56
301.748	77.56
301.979	82.56
302.209	73.56
302.439	66.56
302.669	81.56
302.9	90.56
303.13	84.56
303.36	81.56
303.59	83.56
303.82	88.56
304.051	83.56
304.281	115.56
304.511	104.56
304.741	86.56
304.971	83.56
305.201	88.56
305.431	85.56
305.661	90.56
305.891	95.56
306.121	98.56
306.352	90.56
306.582	77.56
306.812	102.56
307.042	83.56
307.272	101.56
307.502	91.56
307.731	93.56
307.961	85.56
308.191	85.56
308.421	78.56
308.651	82.56
308.881	85.56
309.111	80.56
309.341	79.56
309.571	81.56
309.8	85.56
310.03	87.56
310.26	100.56
310.49	87.56
310.72	75.56
310.949	89.56
311.179	83.56
311.409	80.56
311.639	86.56
311.868	77.56
312.098	80.56
312.328	81.56
312.557	94.56
312.787	80.56
313.017	96.56
313.246	88.56
313.476	76.56
313.706	83.56
313.935	97.56
314.165	90.56
314.394	106.56
314.624	90.56
314.853	75.56
315.083	72.56
315.312	91.56
315.542	84.56
315.771	100.56
316.001	92.56
316.23	83.56
316.46	91.56
316.689	96.56
316.919	84.56
317.148	97.56
317.377	84.56
317.607	89.56
317.836	85.56
318.065	80.56
318.295	74.56
318.524	79.56
318.753	85.56
318.983	83.56
319.212	90.56
319.441	73.56
319.67	78.56
319.9	86.56
320.129	91.56
320.358	78.56
320.587	86.56
320.816	90.56
321.046	89.56
321.275	92.56
321.504	82.56
321.733	80.56
321.962	77.56
322.191	98.56
322.42	87.56
322.649	90.56
322.878	88.56
323.108	79.56
323.337	83.56
323.566	85.56
323.795	89.56
324.024	86.56
324.253	94.56
324.482	74.56
324.71	79.56
324.939	77.56
325.168	90.56
325.397	86.56
325.626	81.56
325.855	80.56
326.084	77.56
326.313	109.56
326.542	82.56
326.77	89.56
326.999	87.56
327.228	85.56
327.457	87.56
327.686	80.56
327.914	86.56
328.143	95.56
328.372	94.56
328.6	76.56
328.829	88.56
329.058	92.56
329.287	69.56
329.515	91.56
329.744	79.56
329.972	89.56
330.201	95.56
330.43	90.56
330.658	83.56
330.887	78.56
331.115	91.56
331.344	88.56
331.572	83.56
331.801	89.56
332.03	94.56
332.258	91.56
332.486	85.56
332.715	82.56
332.943	83.56
333.172	83.56
333.4	74.56
333.629	84.56
333.857	78.56
334.085	79.56
334.314	99.56
334.542	83.56
334.771	82.56
334.999	91.56
335.227	84.56
335.455	86.56
335.684	80.56
335.912	91.56
336.14	85.56
336.369	87.56
336.597	88.56
336.825	86.56
337.053	91.56
337.281	69.56
337.51	80.56
337.738	87.56
337.966	90.56
338.194	86.56
338.422	83.56
338.65	92.56
338.878	76.56
339.106	90.56
339.334	87.56
339.562	85.56
339.79	74.56
340.018	96.56
340.246	83.56
340.474	84.56
340.702	97.56
340.93	89.56
341.158	70.56
341.386	82.56
341.614	88.56
341.842	79.56
342.07	87.56
342.298	89.56
342.526	75.56
342.754	86.56
342.981	81.56
343.209	98.56
343.437	69.56
343.665	84.56
343.893	76.56
344.12	96.56
344.348	82.56
344.576	96.56
344.804	92.56
345.031	84.56
345.259	86.56
345.487	89.56
345.714	82.56
345.942	75.56
346.17	115.56
346.397	82.56
346.625	80.56
346.853	71.56
347.08	82.56
347.308	89.56
347.535	89.56
347.763	77.56
347.99	84.56
348.218	88.56
348.445	83.56
348.673	72.56
348.9	94.56
349.128	97.56
349.355	82.56
349.583	70.56
349.81	78.56
350.037	86.56
350.265	90.56
350.492	92.56
350.72	89.56
350.947	95.56
351.174	92.56
351.402	84.56
351.629	77.56
351.856	69.56
352.083	80.56
352.311	72.56
352.538	87.56
352.765	79.56
352.992	90.56
353.22	84.56
353.447	84.56
353.674	89.56
353.901	90.56
354.128	78.56
354.355	80.56
354.583	88.56
354.81	85.56
355.037	91.56
355.264	85.56
355.491	71.56
355.718	81.56
355.945	76.56
356.172	85.56
356.399	96.56
356.626	87.56
356.853	80.56
357.08	82.56
357.307	81.56
357.534	77.56
357.761	84.56
357.988	78.56
358.215	93.56
358.441	91.56
358.668	85.56
358.895	87.56
359.122	75.56
359.349	69.56
359.576	76.56
359.802	77.56
360.029	88.56
360.256	94.56
360.483	73.56
360.709	80.56
360.936	105.56
361.163	93.56
361.39	84.56
361.616	74.56
361.843	81.56
362.07	77.56
362.296	85.56
362.523	93.56
362.749	94.56
362.976	68.56
363.203	80.56
363.429	79.56
363.656	79.56
363.882	88.56
364.109	87.56
364.335	84.56
364.562	86.56
364.788	75.56
365.015	75.56
365.241	75.56
365.468	105.56
365.694	75.56
365.92	68.56
366.147	76.56
366.373	90.56
366.599	87.56
366.826	75.56
367.052	71.56
367.278	85.56
367.505	76.56
367.731	92.56
367.957	71.56
368.184	90.56
368.41	80.56
368.636	86.56
368.862	88.56
369.089	84.56
369.315	83.56
369.541	79.56
369.767	76.56
369.993	74.56
370.219	88.56
370.445	92.56
370.672	84.56
370.898	86.56
371.124	92.56
371.35	89.56
371.576	84.56
371.802	82.56
372.028	89.56
372.254	86.56
372.48	99.56
372.706	86.56
372.932	85.56
373.158	99.56
373.384	83.56
373.61	84.56
373.835	75.56
374.061	81.56
374.287	82.56
374.513	71.56
374.739	91.56
374.965	84.56
375.191	79.56
375.416	71.56
375.642	95.56
375.868	84.56
376.094	82.56
376.319	80.56
376.545	95.56
376.771	85.56
376.997	85.56
377.222	93.56
377.448	86.56
377.674	83.56
377.899	72.56
378.125	91.56
378.35	86.56
378.576	84.56
378.802	77.56
379.027	77.56
379.253	83.56
379.478	53.56
379.704	98.56
379.929	75.56
380.155	76.56
380.38	92.56
380.606	100.56
380.831	83.56
381.057	92.56
381.282	89.56
381.507	85.56
381.733	107.56
381.958	93.56
382.184	94.56
382.409	84.56
382.634	93.56
382.86	81.56
383.085	73.56
383.31	93.56
383.535	76.56
383.761	86.56
383.986	88.56
384.211	79.56
384.436	97.56
384.662	91.56
384.887	86.56
385.112	101.56
385.337	75.56
385.562	80.56
385.787	89.56
386.013	76.56
386.238	77.56
386.463	91.56
386.688	88.56
386.913	80.56
387.138	86.56
387.363	98.56
387.588	90.56
387.813	101.56
388.038	83.56
388.263	85.56
388.488	105.56
388.713	88.56
388.938	84.56
389.163	71.56
389.387	87.56
389.612	91.56
389.837	86.56
390.062	79.56
390.287	86.56
390.512	63.56
390.736	102.56
390.961	81.56
391.186	80.56
391.411	87.56
391.636	100.56
391.86	83.56
392.085	88.56
392.31	99.56
392.534	92.56
392.759	90.56
392.984	88.56
393.208	88.56
393.433	99.56
393.658	99.56
393.882	99.56
394.107	92.56
394.331	85.56
394.556	92.56
394.78	93.56
395.005	89.56
395.229	80.56
395.454	85.56
395.678	95.56
395.903	92.56
396.127	106.56
396.352	86.56
396.576	107.56
396.801	116.56
397.025	88.56
397.249	83.56
397.474	92.56
397.698	97.56
397.922	89.56
398.147	106.56
398.371	90.56
398.595	86.56
398.82	94.56
399.044	98.56
399.268	90.56
399.492	82.56
399.717	105.56
399.941	94.56
400.165	97.56
400.389	101.56
400.613	93.56
400.837	99.56
401.062	98.56
401.286	101.56
401.51	93.56
401.734	96.56
401.958	99.56
402.182	92.56
402.406	96.56
402.63	75.56
402.854	101.56
403.078	103.56
403.302	98.56
403.526	86.56
403.75	87.56
403.974	83.56
404.198	86.56
404.422	91.56
404.645	91.56
404.869	89.56
405.093	79.56
405.317	90.56
405.541	100.56
405.765	95.56
405.988	87.56
406.212	87.56
406.436	93.56
406.66	97.56
406.883	98.56
407.107	101.56
407.331	95.56
407.555	93.56
407.778	92.56
408.002	92.56
408.226	99.56
408.449	109.56
408.673	104.56
408.896	111.56
409.12	92.56
409.344	86.56
409.567	95.56
409.791	93.56
410.014	96.56
410.238	103.56
410.461	113.56
410.685	92.56
410.908	88.56
411.132	106.56
411.355	85.56
411.578	105.56
411.802	96.56
412.025	90.56
412.249	114.56
412.472	101.56
412.695	102.56
412.919	93.56
413.142	100.56
413.365	70.56
413.589	108.56
413.812	103.56
414.035	105.56
414.258	84.56
414.482	95.56
414.705	93.56
414.928	105.56
415.151	111.56
415.374	108.56
415.597	101.56
415.821	115.56
416.044	90.56
416.267	93.56
416.49	108.56
416.713	99.56
416.936	113.56
417.159	102.56
417.382	108.56
417.605	92.56
417.828	105.56
418.051	96.56
418.274	97.56
418.497	100.56
418.72	93.56
418.943	108.56
419.166	130.56
419.389	94.56
419.611	110.56
419.834	99.56
420.057	101.56
420.28	105.56
420.503	89.56
420.726	100.56
420.948	109.56
421.171	98.56
421.394	107.56
421.617	106.56
421.839	104.56
422.062	125.56
422.285	114.56
422.507	106.56
422.73	99.56
422.953	105.56
423.175	101.56
423.398	91.56
423.621	91.56
423.843	97.56
424.066	114.56
424.288	97.56
424.511	101.56
424.733	110.56
424.956	106.56
425.178	101.56
425.401	109.56
425.623	104.56
425.846	99.56
426.068	101.56
426.291	113.56
426.513	106.56
426.735	105.56
426.958	103.56
427.18	104.56
427.402	90.56
427.625	96.56
427.847	102.56
428.069	110.56
428.292	116.56
428.514	99.56
428.736	100.56
428.958	109.56
429.181	103.56
429.403	101.56
429.625	112.56
429.847	107.56
430.069	104.56
430.292	94.56
430.514	106.56
430.736	107.56
430.958	108.56
431.18	106.56
431.402	88.56
431.624	103.56
431.846	80.56
432.068	88.56
432.29	85.56
432.512	90.56
432.734	102.56
432.956	105.56
433.178	108.56
433.4	96.56
433.622	99.56
433.844	107.56
434.066	103.56
434.287	91.56
434.509	87.56
434.731	75.56
434.953	89.56
435.175	98.56
435.397	95.56
435.618	108.56
435.84	101.56
436.062	95.56
436.284	93.56
436.505	86.56
436.727	103.56
436.949	92.56
437.17	100.56
437.392	88.56
437.614	98.56
437.835	95.56
438.057	91.56
438.278	92.56
438.5	108.56
438.721	100.56
438.943	91.56
439.165	95.56
439.386	115.56
439.608	118.56
439.829	107.56
440.05	121.56
440.272	119.56
440.493	111.56
440.715	98.56
440.936	96.56
441.158	107.56
441.379	102.56
441.6	111.56
441.822	117.56
442.043	117.56
442.264	114.56
442.486	111.56
442.707	112.56
442.928	116.56
443.149	105.56
443.371	114.56
443.592	110.56
443.813	112.56
444.034	115.56
444.255	105.56
444.476	99.56
444.698	111.56
444.919	116.56
445.14	228.56
445.361	157.56
445.582	102.56
445.803	114.56
446.024	123.56
446.245	106.56
446.466	108.56
446.687	113.56
446.908	118.56
447.129	113.56
447.35	107.56
447.571	123.56
447.792	117.56
448.013	111.56
448.234	113.56
448.455	106.56
448.675	104.56
448.896	102.56
449.117	101.56
449.338	102.56
449.559	101.56
449.779	108.56
450	115.56
450.221	107.56
450.442	116.56
450.662	111.56
450.883	111.56
451.104	107.56
451.324	111.56
451.545	110.56
451.766	98.56
451.986	113.56
452.207	84.56
452.428	104.56
452.648	99.56
452.869	102.56
453.089	105.56
453.31	89.56
453.53	93.56
453.751	85.56
453.971	80.56
454.192	97.56
454.412	91.56
454.633	98.56
454.853	101.56
455.073	97.56
455.294	85.56
455.514	105.56
455.734	89.56
455.955	95.56
456.175	95.56
456.395	94.56
456.616	99.56
456.836	77.56
457.056	94.56
457.276	93.56
457.497	94.56
457.717	77.56
457.937	84.56
458.157	100.56
458.377	83.56
458.598	85.56
458.818	92.56
459.038	73.56
459.258	88.56
459.478	89.56
459.698	84.56
459.918	84.56
460.138	101.56
460.358	88.56
460.578	111.56
460.798	92.56
461.018	101.56
461.238	104.56
461.458	88.56
461.678	91.56
461.898	104.56
462.118	103.56
462.338	92.56
462.558	91.56
462.777	90.56
462.997	101.56
463.217	79.56
463.437	93.56
463.657	97.56
463.876	92.56
464.096	98.56
464.316	93.56
464.536	84.56
464.755	89.56
464.975	82.56
465.195	99.56
465.414	98.56
465.634	104.56
465.854	96.56
466.073	83.56
466.293	88.56
466.512	92.56
466.732	105.56
466.951	98.56
467.171	108.56
467.391	101.56
467.61	101.56
467.829	116.56
468.049	105.56
468.268	102.56
468.488	112.56
468.707	110.56
468.927	106.56
469.146	110.56
469.365	111.56
469.585	113.56
469.804	120.56
470.023	113.56
470.243	111.56
470.462	100.56
470.681	117.56
470.901	100.56
471.12	109.56
471.339	123.56
471.558	99.56
471.777	101.56
471.997	99.56
472.216	85.56
472.435	86.56
472.654	84.56
472.873	84.56
473.092	96.56
473.311	98.56
473.53	114.56
473.749	101.56
473.968	111.56
474.187	105.56
474.406	105.56
474.625	99.56
474.844	101.56
475.063	107.56
475.282	101.56
475.501	105.56
475.72	90.56
475.939	96.56
476.158	96.56
476.377	102.56
476.596	106.56
476.814	114.56
477.033	93.56
477.252	110.56
477.471	95.56
477.69	116.56
477.908	84.56
478.127	108.56
478.346	99.56
478.564	109.56
478.783	111.56
479.002	115.56
479.22	108.56
479.439	107.56
479.658	100.56
479.876	104.56
480.095	93.56
480.313	106.56
480.532	96.56
480.751	87.56
480.969	91.56
481.188	80.56
481.406	75.56
481.624	74.56
481.843	78.56
482.061	87.56
482.28	88.56
482.498	98.56
482.717	93.56
482.935	103.56
483.153	112.56
483.372	129.56
483.59	117.56
483.808	118.56
484.027	96.56
484.245	90.56
484.463	101.56
484.681	126.56
484.9	112.56
485.118	109.56
485.336	113.56
485.554	97.56
485.772	75.56
485.99	92.56
486.209	88.56
486.427	103.56
486.645	91.56
486.863	104.56
487.081	120.56
487.299	114.56
487.517	116.56
487.735	121.56
487.953	106.56
488.171	147.56
488.389	113.56
488.607	111.56
488.825	112.56
489.043	104.56
489.261	114.56
489.479	117.56
489.696	109.56
489.914	105.56
490.132	104.56
490.35	111.56
490.568	121.56
490.786	124.56
491.003	117.56
491.221	146.56
491.439	137.56
491.657	139.56
491.874	130.56
492.092	149.56
492.31	156.56
492.527	149.56
492.745	136.56
492.963	135.56
493.18	133.56
493.398	125.56
493.615	119.56
493.833	136.56
494.05	127.56
494.268	129.56
494.485	128.56
494.703	130.56
494.92	135.56
495.138	133.56
495.355	141.56
495.573	138.56
495.79	122.56
496.008	122.56
496.225	123.56
496.442	107.56
496.66	131.56
496.877	136.56
497.094	142.56
497.312	131.56
497.529	113.56
497.746	120.56
497.963	83.56
498.181	92.56
498.398	104.56
498.615	108.56
498.832	111.56
499.049	91.56
499.267	95.56
499.484	103.56
499.701	114.56
499.918	111.56
500.135	115.56
500.352	107.56
500.569	120.56
500.786	119.56
501.003	125.56
501.22	106.56
501.437	107.56
501.654	104.56
501.871	122.56
502.088	105.56
502.305	111.56
502.522	106.56
502.739	107.56
502.956	106.56
503.172	89.56
503.389	92.56
503.606	98.56
503.823	88.56
504.04	96.56
504.256	111.56
504.473	106.56
504.69	118.56
504.907	121.56
505.123	101.56
505.34	108.56
505.557	102.56
505.773	98.56
505.99	105.56
506.207	101.56
506.423	97.56
506.64	113.56
506.856	115.56
507.073	89.56
507.289	108.56
507.506	106.56
507.722	108.56
507.939	104.56
508.155	94.56
508.372	102.56
508.588	104.56
508.805	100.56
509.021	92.56
509.238	96.56
509.454	89.56
509.67	95.56
509.887	91.56
510.103	95.56
510.319	82.56
510.536	77.56
510.752	89.56
510.968	90.56
511.184	74.56
511.401	81.56
511.617	78.56
511.833	101.56
512.049	75.56
512.265	89.56
512.481	87.56
512.698	84.56
512.914	74.56
513.13	100.56
513.346	94.56
513.562	87.56
513.778	76.56
513.994	90.56
514.21	95.56
514.426	94.56
514.642	98.56
514.858	101.56
