Data from Zn(NO3)2Standard.Agarose3%.GreenCap.LampEnergy5.5.E.O_HRD10591_15-02-59-768.txt Node
Date: Mon Jul 22 15:02:59 EDT 2019
User: cochatt
Spectrometer: HR+D1059
Trigger mode: 1
Integration Time (sec): 1.000000E-1
Scans to average: 1
Electric dark correction enabled: true
Nonlinearity correction enabled: false
Boxcar width: 0
XAxis mode: Wavelengths
Number of Pixels in Spectrum: 2048
>>>>>Begin Spectral Data<<<<<
223.165	-17.81
223.4	-17.81
223.635	-17.81
223.869	-26.81
224.104	-26.81
224.338	-16.81
224.573	-11.81
224.808	-6.81
225.042	-11.81
225.277	-26.81
225.511	0.19
225.746	7.19
225.98	13.19
226.215	17.19
226.449	35.19
226.683	15.19
226.918	27.19
227.152	30.19
227.387	42.19
227.621	29.19
227.856	36.19
228.09	48.19
228.324	42.19
228.559	53.19
228.793	56.19
229.027	61.19
229.262	68.19
229.496	60.19
229.73	75.19
229.964	86.19
230.199	64.19
230.433	90.19
230.667	79.19
230.901	65.19
231.136	77.19
231.37	72.19
231.604	61.19
231.838	89.19
232.072	82.19
232.306	75.19
232.541	85.19
232.775	88.19
233.009	94.19
233.243	92.19
233.477	77.19
233.711	81.19
233.945	90.19
234.179	81.19
234.413	81.19
234.647	96.19
234.881	77.19
235.115	73.19
235.349	82.19
235.583	83.19
235.817	82.19
236.051	71.19
236.285	81.19
236.519	82.19
236.753	65.19
236.987	73.19
237.221	75.19
237.455	75.19
237.689	76.19
237.922	83.19
238.156	68.19
238.39	77.19
238.624	85.19
238.858	101.19
239.091	89.19
239.325	83.19
239.559	83.19
239.793	53.19
240.027	79.19
240.26	90.19
240.494	76.19
240.728	65.19
240.961	71.19
241.195	92.19
241.429	81.19
241.662	76.19
241.896	82.19
242.13	74.19
242.363	90.19
242.597	67.19
242.83	73.19
243.064	81.19
243.298	72.19
243.531	72.19
243.765	71.19
243.998	82.19
244.232	83.19
244.465	80.19
244.699	78.19
244.932	70.19
245.166	87.19
245.399	71.19
245.633	84.19
245.866	94.19
246.099	72.19
246.333	92.19
246.566	71.19
246.8	73.19
247.033	64.19
247.266	80.19
247.5	70.19
247.733	76.19
247.966	95.19
248.2	85.19
248.433	74.19
248.666	87.19
248.899	89.19
249.133	86.19
249.366	81.19
249.599	73.19
249.832	89.19
250.066	85.19
250.299	87.19
250.532	86.19
250.765	84.19
250.998	78.19
251.231	84.19
251.465	75.19
251.698	88.19
251.931	80.19
252.164	83.19
252.397	83.19
252.63	81.19
252.863	82.19
253.096	74.19
253.329	62.19
253.562	94.19
253.795	82.19
254.028	90.19
254.261	81.19
254.494	85.19
254.727	89.19
254.96	74.19
255.193	69.19
255.426	89.19
255.659	72.19
255.892	85.19
256.124	93.19
256.357	88.19
256.59	83.19
256.823	81.19
257.056	79.19
257.289	82.19
257.521	85.19
257.754	81.19
257.987	86.19
258.22	85.19
258.452	78.19
258.685	85.19
258.918	81.19
259.151	78.19
259.383	84.19
259.616	73.19
259.849	82.19
260.081	85.19
260.314	76.19
260.547	71.19
260.779	73.19
261.012	68.19
261.244	76.19
261.477	85.19
261.71	75.19
261.942	73.19
262.175	87.19
262.407	73.19
262.64	81.19
262.872	85.19
263.105	98.19
263.337	83.19
263.57	85.19
263.802	69.19
264.035	91.19
264.267	89.19
264.499	83.19
264.732	72.19
264.964	88.19
265.197	76.19
265.429	76.19
265.661	84.19
265.894	74.19
266.126	69.19
266.358	105.19
266.591	85.19
266.823	100.19
267.055	85.19
267.287	85.19
267.52	76.19
267.752	63.19
267.984	86.19
268.216	73.19
268.448	86.19
268.681	80.19
268.913	78.19
269.145	73.19
269.377	87.19
269.609	79.19
269.841	92.19
270.073	93.19
270.306	84.19
270.538	76.19
270.77	55.19
271.002	86.19
271.234	86.19
271.466	85.19
271.698	81.19
271.93	92.19
272.162	73.19
272.394	76.19
272.626	76.19
272.858	84.19
273.09	80.19
273.322	87.19
273.553	76.19
273.785	81.19
274.017	86.19
274.249	79.19
274.481	77.19
274.713	79.19
274.945	88.19
275.176	89.19
275.408	83.19
275.64	81.19
275.872	79.19
276.104	87.19
276.335	74.19
276.567	85.19
276.799	85.19
277.031	89.19
277.262	82.19
277.494	83.19
277.726	83.19
277.957	74.19
278.189	83.19
278.421	87.19
278.652	82.19
278.884	95.19
279.115	83.19
279.347	91.19
279.579	85.19
279.81	101.19
280.042	80.19
280.273	79.19
280.505	86.19
280.736	77.19
280.968	90.19
281.199	80.19
281.431	92.19
281.662	78.19
281.894	84.19
282.125	79.19
282.356	95.19
282.588	78.19
282.819	78.19
283.051	83.19
283.282	90.19
283.513	79.19
283.745	94.19
283.976	89.19
284.207	86.19
284.439	72.19
284.67	80.19
284.901	87.19
285.132	83.19
285.364	89.19
285.595	89.19
285.826	79.19
286.057	85.19
286.288	85.19
286.52	90.19
286.751	78.19
286.982	94.19
287.213	83.19
287.444	87.19
287.675	90.19
287.906	80.19
288.138	85.19
288.369	86.19
288.6	82.19
288.831	87.19
289.062	90.19
289.293	77.19
289.524	74.19
289.755	70.19
289.986	83.19
290.217	87.19
290.448	96.19
290.679	81.19
290.91	69.19
291.141	83.19
291.371	83.19
291.602	74.19
291.833	95.19
292.064	97.19
292.295	92.19
292.526	94.19
292.757	86.19
292.987	85.19
293.218	82.19
293.449	88.19
293.68	85.19
293.91	86.19
294.141	70.19
294.372	85.19
294.603	84.19
294.833	79.19
295.064	98.19
295.295	78.19
295.525	75.19
295.756	90.19
295.987	83.19
296.217	87.19
296.448	82.19
296.679	90.19
296.909	70.19
297.14	85.19
297.37	74.19
297.601	85.19
297.831	92.19
298.062	79.19
298.292	91.19
298.523	86.19
298.753	88.19
298.984	83.19
299.214	93.19
299.445	98.19
299.675	81.19
299.905	82.19
300.136	93.19
300.366	99.19
300.597	95.19
300.827	82.19
301.057	84.19
301.288	98.19
301.518	86.19
301.748	77.19
301.979	77.19
302.209	91.19
302.439	96.19
302.669	100.19
302.9	84.19
303.13	83.19
303.36	96.19
303.59	88.19
303.82	97.19
304.051	93.19
304.281	73.19
304.511	87.19
304.741	72.19
304.971	79.19
305.201	86.19
305.431	81.19
305.661	78.19
305.891	78.19
306.121	101.19
306.352	85.19
306.582	80.19
306.812	94.19
307.042	84.19
307.272	84.19
307.502	73.19
307.731	89.19
307.961	87.19
308.191	95.19
308.421	86.19
308.651	93.19
308.881	85.19
309.111	91.19
309.341	100.19
309.571	85.19
309.8	98.19
310.03	84.19
310.26	80.19
310.49	91.19
310.72	77.19
310.949	78.19
311.179	77.19
311.409	94.19
311.639	91.19
311.868	97.19
312.098	103.19
312.328	87.19
312.557	82.19
312.787	76.19
313.017	83.19
313.246	94.19
313.476	95.19
313.706	92.19
313.935	92.19
314.165	91.19
314.394	78.19
314.624	78.19
314.853	90.19
315.083	93.19
315.312	87.19
315.542	93.19
315.771	89.19
316.001	80.19
316.23	98.19
316.46	78.19
316.689	86.19
316.919	90.19
317.148	91.19
317.377	86.19
317.607	78.19
317.836	82.19
318.065	69.19
318.295	102.19
318.524	89.19
318.753	75.19
318.983	86.19
319.212	73.19
319.441	76.19
319.67	82.19
319.9	87.19
320.129	94.19
320.358	77.19
320.587	88.19
320.816	94.19
321.046	90.19
321.275	86.19
321.504	87.19
321.733	79.19
321.962	81.19
322.191	79.19
322.42	86.19
322.649	84.19
322.878	85.19
323.108	99.19
323.337	84.19
323.566	83.19
323.795	82.19
324.024	77.19
324.253	81.19
324.482	93.19
324.71	86.19
324.939	85.19
325.168	80.19
325.397	79.19
325.626	103.19
325.855	85.19
326.084	84.19
326.313	86.19
326.542	74.19
326.77	76.19
326.999	86.19
327.228	78.19
327.457	90.19
327.686	86.19
327.914	89.19
328.143	103.19
328.372	100.19
328.6	93.19
328.829	82.19
329.058	78.19
329.287	93.19
329.515	92.19
329.744	78.19
329.972	77.19
330.201	83.19
330.43	85.19
330.658	94.19
330.887	87.19
331.115	79.19
331.344	78.19
331.572	80.19
331.801	86.19
332.03	79.19
332.258	92.19
332.486	78.19
332.715	94.19
332.943	84.19
333.172	91.19
333.4	86.19
333.629	80.19
333.857	87.19
334.085	91.19
334.314	80.19
334.542	82.19
334.771	98.19
334.999	90.19
335.227	95.19
335.455	100.19
335.684	85.19
335.912	93.19
336.14	79.19
336.369	89.19
336.597	80.19
336.825	92.19
337.053	78.19
337.281	79.19
337.51	75.19
337.738	76.19
337.966	81.19
338.194	92.19
338.422	70.19
338.65	91.19
338.878	81.19
339.106	84.19
339.334	98.19
339.562	88.19
339.79	80.19
340.018	98.19
340.246	82.19
340.474	100.19
340.702	90.19
340.93	77.19
341.158	89.19
341.386	79.19
341.614	92.19
341.842	77.19
342.07	92.19
342.298	86.19
342.526	87.19
342.754	79.19
342.981	103.19
343.209	90.19
343.437	96.19
343.665	82.19
343.893	86.19
344.12	89.19
344.348	95.19
344.576	101.19
344.804	72.19
345.031	101.19
345.259	96.19
345.487	92.19
345.714	100.19
345.942	79.19
346.17	90.19
346.397	74.19
346.625	78.19
346.853	75.19
347.08	76.19
347.308	89.19
347.535	78.19
347.763	90.19
347.99	82.19
348.218	90.19
348.445	98.19
348.673	90.19
348.9	84.19
349.128	93.19
349.355	88.19
349.583	78.19
349.81	88.19
350.037	84.19
350.265	85.19
350.492	89.19
350.72	102.19
350.947	75.19
351.174	79.19
351.402	86.19
351.629	79.19
351.856	82.19
352.083	81.19
352.311	73.19
352.538	76.19
352.765	94.19
352.992	94.19
353.22	84.19
353.447	79.19
353.674	81.19
353.901	91.19
354.128	89.19
354.355	77.19
354.583	87.19
354.81	84.19
355.037	86.19
355.264	85.19
355.491	85.19
355.718	74.19
355.945	90.19
356.172	94.19
356.399	81.19
356.626	77.19
356.853	87.19
357.08	79.19
357.307	69.19
357.534	99.19
357.761	88.19
357.988	86.19
358.215	83.19
358.441	95.19
358.668	84.19
358.895	76.19
359.122	77.19
359.349	82.19
359.576	89.19
359.802	91.19
360.029	86.19
360.256	72.19
360.483	92.19
360.709	89.19
360.936	77.19
361.163	80.19
361.39	87.19
361.616	69.19
361.843	93.19
362.07	93.19
362.296	73.19
362.523	90.19
362.749	89.19
362.976	86.19
363.203	77.19
363.429	87.19
363.656	90.19
363.882	85.19
364.109	94.19
364.335	95.19
364.562	85.19
364.788	87.19
365.015	98.19
365.241	98.19
365.468	73.19
365.694	89.19
365.92	76.19
366.147	97.19
366.373	84.19
366.599	75.19
366.826	87.19
367.052	84.19
367.278	68.19
367.505	77.19
367.731	75.19
367.957	82.19
368.184	77.19
368.41	75.19
368.636	74.19
368.862	90.19
369.089	74.19
369.315	94.19
369.541	94.19
369.767	75.19
369.993	81.19
370.219	79.19
370.445	92.19
370.672	67.19
370.898	79.19
371.124	86.19
371.35	79.19
371.576	90.19
371.802	76.19
372.028	91.19
372.254	79.19
372.48	84.19
372.706	86.19
372.932	85.19
373.158	72.19
373.384	77.19
373.61	76.19
373.835	78.19
374.061	80.19
374.287	74.19
374.513	98.19
374.739	77.19
374.965	90.19
375.191	83.19
375.416	67.19
375.642	89.19
375.868	95.19
376.094	84.19
376.319	80.19
376.545	80.19
376.771	76.19
376.997	71.19
377.222	83.19
377.448	63.19
377.674	74.19
377.899	87.19
378.125	87.19
378.35	71.19
378.576	74.19
378.802	92.19
379.027	96.19
379.253	87.19
379.478	100.19
379.704	80.19
379.929	79.19
380.155	85.19
380.38	81.19
380.606	91.19
380.831	87.19
381.057	76.19
381.282	88.19
381.507	91.19
381.733	87.19
381.958	71.19
382.184	74.19
382.409	88.19
382.634	87.19
382.86	88.19
383.085	85.19
383.31	86.19
383.535	72.19
383.761	84.19
383.986	84.19
384.211	86.19
384.436	77.19
384.662	79.19
384.887	77.19
385.112	78.19
385.337	79.19
385.562	73.19
385.787	81.19
386.013	86.19
386.238	81.19
386.463	65.19
386.688	79.19
386.913	89.19
387.138	92.19
387.363	76.19
387.588	103.19
387.813	84.19
388.038	77.19
388.263	93.19
388.488	95.19
388.713	87.19
388.938	87.19
389.163	74.19
389.387	78.19
389.612	82.19
389.837	103.19
390.062	89.19
390.287	81.19
390.512	82.19
390.736	91.19
390.961	82.19
391.186	83.19
391.411	83.19
391.636	85.19
391.86	103.19
392.085	93.19
392.31	85.19
392.534	89.19
392.759	81.19
392.984	79.19
393.208	84.19
393.433	83.19
393.658	72.19
393.882	87.19
394.107	77.19
394.331	82.19
394.556	89.19
394.78	70.19
395.005	103.19
395.229	94.19
395.454	92.19
395.678	83.19
395.903	86.19
396.127	93.19
396.352	93.19
396.576	73.19
396.801	78.19
397.025	95.19
397.249	82.19
397.474	78.19
397.698	101.19
397.922	78.19
398.147	93.19
398.371	92.19
398.595	77.19
398.82	71.19
399.044	86.19
399.268	73.19
399.492	79.19
399.717	82.19
399.941	80.19
400.165	103.19
400.389	99.19
400.613	86.19
400.837	85.19
401.062	80.19
401.286	78.19
401.51	82.19
401.734	82.19
401.958	84.19
402.182	90.19
402.406	88.19
402.63	86.19
402.854	74.19
403.078	71.19
403.302	90.19
403.526	87.19
403.75	77.19
403.974	91.19
404.198	78.19
404.422	109.19
404.645	72.19
404.869	69.19
405.093	79.19
405.317	87.19
405.541	81.19
405.765	89.19
405.988	95.19
406.212	106.19
406.436	72.19
406.66	81.19
406.883	83.19
407.107	92.19
407.331	76.19
407.555	73.19
407.778	87.19
408.002	91.19
408.226	79.19
408.449	74.19
408.673	77.19
408.896	95.19
409.12	87.19
409.344	77.19
409.567	82.19
409.791	85.19
410.014	98.19
410.238	73.19
410.461	87.19
410.685	90.19
410.908	86.19
411.132	92.19
411.355	101.19
411.578	90.19
411.802	87.19
412.025	84.19
412.249	80.19
412.472	82.19
412.695	91.19
412.919	77.19
413.142	98.19
413.365	81.19
413.589	88.19
413.812	92.19
414.035	89.19
414.258	94.19
414.482	82.19
414.705	84.19
414.928	89.19
415.151	101.19
415.374	90.19
415.597	87.19
415.821	89.19
416.044	90.19
416.267	94.19
416.49	87.19
416.713	87.19
416.936	85.19
417.159	74.19
417.382	89.19
417.605	82.19
417.828	87.19
418.051	103.19
418.274	100.19
418.497	86.19
418.72	90.19
418.943	85.19
419.166	103.19
419.389	83.19
419.611	84.19
419.834	79.19
420.057	87.19
420.28	97.19
420.503	97.19
420.726	86.19
420.948	88.19
421.171	102.19
421.394	91.19
421.617	90.19
421.839	74.19
422.062	89.19
422.285	83.19
422.507	97.19
422.73	82.19
422.953	83.19
423.175	94.19
423.398	90.19
423.621	91.19
423.843	93.19
424.066	77.19
424.288	69.19
424.511	85.19
424.733	91.19
424.956	86.19
425.178	85.19
425.401	88.19
425.623	92.19
425.846	99.19
426.068	92.19
426.291	98.19
426.513	89.19
426.735	83.19
426.958	81.19
427.18	83.19
427.402	90.19
427.625	89.19
427.847	92.19
428.069	84.19
428.292	92.19
428.514	91.19
428.736	87.19
428.958	78.19
429.181	93.19
429.403	93.19
429.625	78.19
429.847	92.19
430.069	91.19
430.292	101.19
430.514	90.19
430.736	99.19
430.958	80.19
431.18	82.19
431.402	89.19
431.624	84.19
431.846	84.19
432.068	84.19
432.29	77.19
432.512	100.19
432.734	75.19
432.956	90.19
433.178	92.19
433.4	95.19
433.622	84.19
433.844	92.19
434.066	79.19
434.287	96.19
434.509	77.19
434.731	82.19
434.953	79.19
435.175	84.19
435.397	93.19
435.618	85.19
435.84	92.19
436.062	77.19
436.284	93.19
436.505	74.19
436.727	89.19
436.949	90.19
437.17	79.19
437.392	78.19
437.614	97.19
437.835	83.19
438.057	88.19
438.278	87.19
438.5	90.19
438.721	96.19
438.943	93.19
439.165	89.19
439.386	85.19
439.608	90.19
439.829	101.19
440.05	94.19
440.272	74.19
440.493	87.19
440.715	79.19
440.936	81.19
441.158	94.19
441.379	79.19
441.6	96.19
441.822	85.19
442.043	90.19
442.264	88.19
442.486	94.19
442.707	95.19
442.928	90.19
443.149	82.19
443.371	86.19
443.592	92.19
443.813	93.19
444.034	99.19
444.255	87.19
444.476	95.19
444.698	76.19
444.919	73.19
445.14	207.19
445.361	143.19
445.582	84.19
445.803	78.19
446.024	86.19
446.245	84.19
446.466	86.19
446.687	86.19
446.908	88.19
447.129	93.19
447.35	76.19
447.571	79.19
447.792	94.19
448.013	91.19
448.234	82.19
448.455	94.19
448.675	90.19
448.896	83.19
449.117	94.19
449.338	84.19
449.559	93.19
449.779	85.19
450	83.19
450.221	92.19
450.442	85.19
450.662	96.19
450.883	93.19
451.104	94.19
451.324	90.19
451.545	85.19
451.766	90.19
451.986	98.19
452.207	90.19
452.428	79.19
452.648	80.19
452.869	86.19
453.089	73.19
453.31	109.19
453.53	94.19
453.751	74.19
453.971	93.19
454.192	82.19
454.412	71.19
454.633	83.19
454.853	77.19
455.073	96.19
455.294	91.19
455.514	97.19
455.734	79.19
455.955	99.19
456.175	80.19
456.395	76.19
456.616	93.19
456.836	82.19
457.056	81.19
457.276	98.19
457.497	95.19
457.717	101.19
457.937	74.19
458.157	92.19
458.377	89.19
458.598	82.19
458.818	91.19
459.038	83.19
459.258	85.19
459.478	76.19
459.698	78.19
459.918	79.19
460.138	79.19
460.358	87.19
460.578	79.19
460.798	79.19
461.018	80.19
461.238	89.19
461.458	102.19
461.678	81.19
461.898	89.19
462.118	90.19
462.338	89.19
462.558	92.19
462.777	93.19
462.997	89.19
463.217	88.19
463.437	75.19
463.657	81.19
463.876	70.19
464.096	79.19
464.316	86.19
464.536	88.19
464.755	90.19
464.975	100.19
465.195	80.19
465.414	77.19
465.634	83.19
465.854	101.19
466.073	103.19
466.293	79.19
466.512	100.19
466.732	89.19
466.951	81.19
467.171	82.19
467.391	94.19
467.61	95.19
467.829	94.19
468.049	97.19
468.268	85.19
468.488	75.19
468.707	94.19
468.927	98.19
469.146	102.19
469.365	92.19
469.585	106.19
469.804	91.19
470.023	77.19
470.243	88.19
470.462	97.19
470.681	95.19
470.901	99.19
471.12	88.19
471.339	99.19
471.558	95.19
471.777	87.19
471.997	99.19
472.216	98.19
472.435	83.19
472.654	86.19
472.873	73.19
473.092	98.19
473.311	101.19
473.53	89.19
473.749	82.19
473.968	80.19
474.187	84.19
474.406	89.19
474.625	90.19
474.844	85.19
475.063	88.19
475.282	86.19
475.501	79.19
475.72	85.19
475.939	90.19
476.158	82.19
476.377	85.19
476.596	67.19
476.814	80.19
477.033	81.19
477.252	89.19
477.471	89.19
477.69	102.19
477.908	87.19
478.127	86.19
478.346	88.19
478.564	83.19
478.783	84.19
479.002	71.19
479.22	89.19
479.439	86.19
479.658	77.19
479.876	76.19
480.095	66.19
480.313	89.19
480.532	94.19
480.751	88.19
480.969	97.19
481.188	85.19
481.406	71.19
481.624	75.19
481.843	79.19
482.061	87.19
482.28	84.19
482.498	77.19
482.717	85.19
482.935	84.19
483.153	94.19
483.372	105.19
483.59	95.19
483.808	95.19
484.027	80.19
484.245	81.19
484.463	100.19
484.681	93.19
484.9	87.19
485.118	89.19
485.336	79.19
485.554	87.19
485.772	83.19
485.99	83.19
486.209	74.19
486.427	74.19
486.645	98.19
486.863	85.19
487.081	88.19
487.299	84.19
487.517	85.19
487.735	104.19
487.953	97.19
488.171	94.19
488.389	101.19
488.607	98.19
488.825	96.19
489.043	98.19
489.261	94.19
489.479	82.19
489.696	91.19
489.914	102.19
490.132	93.19
490.35	94.19
490.568	84.19
490.786	94.19
491.003	101.19
491.221	95.19
491.439	99.19
491.657	104.19
491.874	91.19
492.092	102.19
492.31	119.19
492.527	97.19
492.745	102.19
492.963	105.19
493.18	105.19
493.398	108.19
493.615	102.19
493.833	106.19
494.05	94.19
494.268	92.19
494.485	109.19
494.703	89.19
494.92	87.19
495.138	93.19
495.355	93.19
495.573	100.19
495.79	91.19
496.008	101.19
496.225	95.19
496.442	85.19
496.66	101.19
496.877	93.19
497.094	100.19
497.312	78.19
497.529	85.19
497.746	92.19
497.963	86.19
498.181	94.19
498.398	86.19
498.615	75.19
498.832	92.19
499.049	94.19
499.267	85.19
499.484	87.19
499.701	98.19
499.918	91.19
500.135	82.19
500.352	101.19
500.569	83.19
500.786	90.19
501.003	85.19
501.22	80.19
501.437	79.19
501.654	76.19
501.871	85.19
502.088	77.19
502.305	75.19
502.522	82.19
502.739	87.19
502.956	91.19
503.172	90.19
503.389	87.19
503.606	91.19
503.823	92.19
504.04	90.19
504.256	88.19
504.473	78.19
504.69	89.19
504.907	88.19
505.123	89.19
505.34	93.19
505.557	89.19
505.773	93.19
505.99	86.19
506.207	103.19
506.423	90.19
506.64	77.19
506.856	91.19
507.073	84.19
507.289	94.19
507.506	73.19
507.722	93.19
507.939	91.19
508.155	106.19
508.372	89.19
508.588	93.19
508.805	83.19
509.021	97.19
509.238	94.19
509.454	81.19
509.67	77.19
509.887	83.19
510.103	78.19
510.319	85.19
510.536	86.19
510.752	94.19
510.968	88.19
511.184	86.19
511.401	92.19
511.617	83.19
511.833	75.19
512.049	71.19
512.265	84.19
512.481	74.19
512.698	85.19
512.914	79.19
513.13	97.19
513.346	83.19
513.562	85.19
513.778	83.19
513.994	91.19
514.21	86.19
514.426	87.19
514.642	92.19
514.858	95.19
515.074	83.19
515.29	87.19
515.506	88.19
515.721	94.19
515.937	87.19
516.153	80.19
516.369	89.19
516.585	93.19
516.801	82.19
517.016	92.19
517.232	85.19
517.448	81.19
517.664	72.19
517.879	85.19
518.095	94.19
518.311	75.19
518.527	86.19
