Data from Zn(NO3)2Standard.Agarose3%.GreenCap.LampEnergy5.5.E.O_HRD10591_15-03-02-767.txt Node
Date: Mon Jul 22 15:03:02 EDT 2019
User: cochatt
Spectrometer: HR+D1059
Trigger mode: 1
Integration Time (sec): 1.000000E-1
Scans to average: 1
Electric dark correction enabled: true
Nonlinearity correction enabled: false
Boxcar width: 0
XAxis mode: Wavelengths
Number of Pixels in Spectrum: 2048
>>>>>Begin Spectral Data<<<<<
223.165	-15.75
223.4	-15.75
223.635	-15.75
223.869	-34.75
224.104	-16.75
224.338	-10.75
224.573	-19.75
224.808	-7.75
225.042	-8.75
225.277	-19.75
225.511	2.25
225.746	12.25
225.98	16.25
226.215	7.25
226.449	25.25
226.683	20.25
226.918	22.25
227.152	28.25
227.387	47.25
227.621	34.25
227.856	55.25
228.09	44.25
228.324	45.25
228.559	60.25
228.793	72.25
229.027	56.25
229.262	64.25
229.496	71.25
229.73	76.25
229.964	76.25
230.199	80.25
230.433	72.25
230.667	80.25
230.901	73.25
231.136	80.25
231.37	94.25
231.604	86.25
231.838	90.25
232.072	80.25
232.306	85.25
232.541	98.25
232.775	94.25
233.009	94.25
233.243	93.25
233.477	88.25
233.711	83.25
233.945	75.25
234.179	78.25
234.413	96.25
234.647	86.25
234.881	77.25
235.115	77.25
235.349	81.25
235.583	82.25
235.817	76.25
236.051	82.25
236.285	75.25
236.519	71.25
236.753	75.25
236.987	88.25
237.221	87.25
237.455	83.25
237.689	81.25
237.922	79.25
238.156	84.25
238.39	78.25
238.624	91.25
238.858	86.25
239.091	63.25
239.325	68.25
239.559	80.25
239.793	88.25
240.027	87.25
240.26	85.25
240.494	78.25
240.728	77.25
240.961	62.25
241.195	71.25
241.429	75.25
241.662	73.25
241.896	80.25
242.13	74.25
242.363	85.25
242.597	80.25
242.83	78.25
243.064	84.25
243.298	78.25
243.531	76.25
243.765	73.25
243.998	77.25
244.232	90.25
244.465	76.25
244.699	73.25
244.932	85.25
245.166	88.25
245.399	88.25
245.633	90.25
245.866	71.25
246.099	82.25
246.333	85.25
246.566	82.25
246.8	78.25
247.033	86.25
247.266	86.25
247.5	88.25
247.733	95.25
247.966	87.25
248.2	74.25
248.433	76.25
248.666	86.25
248.899	94.25
249.133	85.25
249.366	86.25
249.599	72.25
249.832	83.25
250.066	85.25
250.299	75.25
250.532	95.25
250.765	87.25
250.998	82.25
251.231	78.25
251.465	90.25
251.698	74.25
251.931	89.25
252.164	74.25
252.397	85.25
252.63	86.25
252.863	72.25
253.096	76.25
253.329	78.25
253.562	90.25
253.795	94.25
254.028	83.25
254.261	86.25
254.494	79.25
254.727	87.25
254.96	78.25
255.193	71.25
255.426	84.25
255.659	79.25
255.892	94.25
256.124	83.25
256.357	84.25
256.59	78.25
256.823	83.25
257.056	95.25
257.289	81.25
257.521	93.25
257.754	89.25
257.987	79.25
258.22	95.25
258.452	82.25
258.685	92.25
258.918	85.25
259.151	77.25
259.383	81.25
259.616	88.25
259.849	83.25
260.081	91.25
260.314	92.25
260.547	85.25
260.779	98.25
261.012	89.25
261.244	68.25
261.477	82.25
261.71	80.25
261.942	76.25
262.175	86.25
262.407	84.25
262.64	76.25
262.872	61.25
263.105	86.25
263.337	72.25
263.57	91.25
263.802	77.25
264.035	84.25
264.267	85.25
264.499	80.25
264.732	95.25
264.964	80.25
265.197	95.25
265.429	72.25
265.661	94.25
265.894	95.25
266.126	83.25
266.358	89.25
266.591	95.25
266.823	91.25
267.055	77.25
267.287	101.25
267.52	90.25
267.752	90.25
267.984	85.25
268.216	74.25
268.448	101.25
268.681	66.25
268.913	74.25
269.145	91.25
269.377	91.25
269.609	76.25
269.841	75.25
270.073	83.25
270.306	78.25
270.538	80.25
270.77	85.25
271.002	84.25
271.234	84.25
271.466	80.25
271.698	87.25
271.93	88.25
272.162	84.25
272.394	88.25
272.626	83.25
272.858	93.25
273.09	86.25
273.322	74.25
273.553	83.25
273.785	91.25
274.017	76.25
274.249	75.25
274.481	77.25
274.713	90.25
274.945	82.25
275.176	88.25
275.408	83.25
275.64	74.25
275.872	85.25
276.104	95.25
276.335	88.25
276.567	87.25
276.799	80.25
277.031	89.25
277.262	76.25
277.494	98.25
277.726	92.25
277.957	78.25
278.189	85.25
278.421	73.25
278.652	85.25
278.884	90.25
279.115	83.25
279.347	77.25
279.579	77.25
279.81	74.25
280.042	79.25
280.273	84.25
280.505	97.25
280.736	87.25
280.968	84.25
281.199	91.25
281.431	81.25
281.662	77.25
281.894	96.25
282.125	84.25
282.356	77.25
282.588	82.25
282.819	87.25
283.051	88.25
283.282	87.25
283.513	91.25
283.745	92.25
283.976	94.25
284.207	71.25
284.439	83.25
284.67	96.25
284.901	105.25
285.132	74.25
285.364	91.25
285.595	95.25
285.826	73.25
286.057	92.25
286.288	73.25
286.52	66.25
286.751	81.25
286.982	90.25
287.213	93.25
287.444	85.25
287.675	99.25
287.906	85.25
288.138	92.25
288.369	92.25
288.6	96.25
288.831	85.25
289.062	96.25
289.293	90.25
289.524	71.25
289.755	84.25
289.986	90.25
290.217	88.25
290.448	85.25
290.679	69.25
290.91	84.25
291.141	97.25
291.371	91.25
291.602	83.25
291.833	95.25
292.064	89.25
292.295	82.25
292.526	83.25
292.757	88.25
292.987	82.25
293.218	84.25
293.449	76.25
293.68	95.25
293.91	83.25
294.141	85.25
294.372	73.25
294.603	78.25
294.833	89.25
295.064	88.25
295.295	86.25
295.525	86.25
295.756	85.25
295.987	92.25
296.217	93.25
296.448	85.25
296.679	86.25
296.909	86.25
297.14	91.25
297.37	90.25
297.601	83.25
297.831	89.25
298.062	96.25
298.292	99.25
298.523	86.25
298.753	80.25
298.984	84.25
299.214	96.25
299.445	98.25
299.675	99.25
299.905	88.25
300.136	89.25
300.366	80.25
300.597	77.25
300.827	81.25
301.057	87.25
301.288	84.25
301.518	80.25
301.748	103.25
301.979	90.25
302.209	84.25
302.439	88.25
302.669	100.25
302.9	87.25
303.13	82.25
303.36	84.25
303.59	95.25
303.82	90.25
304.051	106.25
304.281	89.25
304.511	88.25
304.741	87.25
304.971	83.25
305.201	87.25
305.431	92.25
305.661	80.25
305.891	88.25
306.121	77.25
306.352	99.25
306.582	94.25
306.812	78.25
307.042	85.25
307.272	95.25
307.502	96.25
307.731	95.25
307.961	98.25
308.191	88.25
308.421	87.25
308.651	71.25
308.881	92.25
309.111	88.25
309.341	76.25
309.571	81.25
309.8	95.25
310.03	82.25
310.26	77.25
310.49	82.25
310.72	85.25
310.949	87.25
311.179	86.25
311.409	74.25
311.639	88.25
311.868	82.25
312.098	96.25
312.328	87.25
312.557	90.25
312.787	80.25
313.017	72.25
313.246	78.25
313.476	75.25
313.706	77.25
313.935	84.25
314.165	82.25
314.394	73.25
314.624	86.25
314.853	98.25
315.083	84.25
315.312	99.25
315.542	83.25
315.771	71.25
316.001	73.25
316.23	91.25
316.46	79.25
316.689	87.25
316.919	83.25
317.148	97.25
317.377	88.25
317.607	90.25
317.836	78.25
318.065	92.25
318.295	105.25
318.524	90.25
318.753	89.25
318.983	94.25
319.212	82.25
319.441	91.25
319.67	91.25
319.9	96.25
320.129	91.25
320.358	86.25
320.587	101.25
320.816	88.25
321.046	93.25
321.275	76.25
321.504	93.25
321.733	74.25
321.962	91.25
322.191	82.25
322.42	95.25
322.649	90.25
322.878	83.25
323.108	79.25
323.337	84.25
323.566	77.25
323.795	94.25
324.024	95.25
324.253	84.25
324.482	82.25
324.71	70.25
324.939	91.25
325.168	78.25
325.397	88.25
325.626	92.25
325.855	78.25
326.084	86.25
326.313	90.25
326.542	96.25
326.77	87.25
326.999	80.25
327.228	82.25
327.457	80.25
327.686	97.25
327.914	81.25
328.143	94.25
328.372	75.25
328.6	88.25
328.829	87.25
329.058	81.25
329.287	96.25
329.515	82.25
329.744	84.25
329.972	89.25
330.201	84.25
330.43	86.25
330.658	87.25
330.887	79.25
331.115	83.25
331.344	84.25
331.572	88.25
331.801	86.25
332.03	78.25
332.258	88.25
332.486	86.25
332.715	75.25
332.943	90.25
333.172	82.25
333.4	87.25
333.629	83.25
333.857	80.25
334.085	88.25
334.314	91.25
334.542	94.25
334.771	84.25
334.999	89.25
335.227	80.25
335.455	82.25
335.684	89.25
335.912	84.25
336.14	80.25
336.369	79.25
336.597	84.25
336.825	98.25
337.053	99.25
337.281	90.25
337.51	94.25
337.738	82.25
337.966	91.25
338.194	86.25
338.422	80.25
338.65	75.25
338.878	97.25
339.106	90.25
339.334	86.25
339.562	89.25
339.79	87.25
340.018	79.25
340.246	87.25
340.474	95.25
340.702	92.25
340.93	87.25
341.158	87.25
341.386	90.25
341.614	83.25
341.842	79.25
342.07	84.25
342.298	84.25
342.526	83.25
342.754	86.25
342.981	83.25
343.209	80.25
343.437	87.25
343.665	88.25
343.893	67.25
344.12	90.25
344.348	74.25
344.576	93.25
344.804	80.25
345.031	90.25
345.259	91.25
345.487	99.25
345.714	94.25
345.942	84.25
346.17	87.25
346.397	91.25
346.625	95.25
346.853	93.25
347.08	86.25
347.308	82.25
347.535	74.25
347.763	87.25
347.99	85.25
348.218	100.25
348.445	101.25
348.673	88.25
348.9	98.25
349.128	104.25
349.355	87.25
349.583	88.25
349.81	97.25
350.037	89.25
350.265	97.25
350.492	102.25
350.72	90.25
350.947	87.25
351.174	91.25
351.402	87.25
351.629	78.25
351.856	86.25
352.083	66.25
352.311	99.25
352.538	86.25
352.765	81.25
352.992	80.25
353.22	88.25
353.447	81.25
353.674	79.25
353.901	87.25
354.128	82.25
354.355	68.25
354.583	80.25
354.81	88.25
355.037	70.25
355.264	81.25
355.491	85.25
355.718	72.25
355.945	81.25
356.172	87.25
356.399	85.25
356.626	90.25
356.853	92.25
357.08	92.25
357.307	89.25
357.534	92.25
357.761	82.25
357.988	100.25
358.215	96.25
358.441	77.25
358.668	85.25
358.895	91.25
359.122	83.25
359.349	88.25
359.576	86.25
359.802	71.25
360.029	81.25
360.256	78.25
360.483	90.25
360.709	90.25
360.936	95.25
361.163	87.25
361.39	77.25
361.616	78.25
361.843	79.25
362.07	76.25
362.296	87.25
362.523	80.25
362.749	71.25
362.976	77.25
363.203	88.25
363.429	94.25
363.656	87.25
363.882	84.25
364.109	84.25
364.335	88.25
364.562	91.25
364.788	78.25
365.015	85.25
365.241	70.25
365.468	93.25
365.694	87.25
365.92	85.25
366.147	90.25
366.373	86.25
366.599	83.25
366.826	91.25
367.052	84.25
367.278	87.25
367.505	91.25
367.731	76.25
367.957	75.25
368.184	75.25
368.41	91.25
368.636	77.25
368.862	86.25
369.089	87.25
369.315	88.25
369.541	94.25
369.767	80.25
369.993	80.25
370.219	90.25
370.445	78.25
370.672	80.25
370.898	87.25
371.124	97.25
371.35	97.25
371.576	88.25
371.802	94.25
372.028	75.25
372.254	90.25
372.48	70.25
372.706	83.25
372.932	84.25
373.158	75.25
373.384	87.25
373.61	89.25
373.835	97.25
374.061	70.25
374.287	86.25
374.513	97.25
374.739	103.25
374.965	79.25
375.191	101.25
375.416	89.25
375.642	76.25
375.868	95.25
376.094	77.25
376.319	74.25
376.545	84.25
376.771	86.25
376.997	74.25
377.222	87.25
377.448	86.25
377.674	98.25
377.899	78.25
378.125	94.25
378.35	89.25
378.576	74.25
378.802	96.25
379.027	91.25
379.253	73.25
379.478	86.25
379.704	90.25
379.929	89.25
380.155	86.25
380.38	91.25
380.606	83.25
380.831	99.25
381.057	92.25
381.282	85.25
381.507	80.25
381.733	91.25
381.958	79.25
382.184	81.25
382.409	97.25
382.634	79.25
382.86	90.25
383.085	93.25
383.31	80.25
383.535	80.25
383.761	72.25
383.986	85.25
384.211	86.25
384.436	84.25
384.662	89.25
384.887	91.25
385.112	95.25
385.337	77.25
385.562	83.25
385.787	67.25
386.013	94.25
386.238	84.25
386.463	78.25
386.688	84.25
386.913	79.25
387.138	82.25
387.363	79.25
387.588	93.25
387.813	92.25
388.038	93.25
388.263	101.25
388.488	97.25
388.713	72.25
388.938	91.25
389.163	87.25
389.387	88.25
389.612	87.25
389.837	80.25
390.062	98.25
390.287	90.25
390.512	83.25
390.736	72.25
390.961	85.25
391.186	82.25
391.411	79.25
391.636	91.25
391.86	87.25
392.085	77.25
392.31	90.25
392.534	81.25
392.759	94.25
392.984	77.25
393.208	88.25
393.433	78.25
393.658	70.25
393.882	85.25
394.107	79.25
394.331	75.25
394.556	84.25
394.78	77.25
395.005	81.25
395.229	77.25
395.454	89.25
395.678	80.25
395.903	83.25
396.127	80.25
396.352	79.25
396.576	70.25
396.801	89.25
397.025	90.25
397.249	93.25
397.474	99.25
397.698	95.25
397.922	93.25
398.147	77.25
398.371	80.25
398.595	74.25
398.82	91.25
399.044	85.25
399.268	80.25
399.492	79.25
399.717	93.25
399.941	73.25
400.165	99.25
400.389	87.25
400.613	87.25
400.837	79.25
401.062	98.25
401.286	91.25
401.51	92.25
401.734	96.25
401.958	87.25
402.182	82.25
402.406	91.25
402.63	87.25
402.854	87.25
403.078	100.25
403.302	93.25
403.526	98.25
403.75	85.25
403.974	84.25
404.198	81.25
404.422	87.25
404.645	79.25
404.869	73.25
405.093	77.25
405.317	102.25
405.541	84.25
405.765	88.25
405.988	72.25
406.212	82.25
406.436	85.25
406.66	87.25
406.883	98.25
407.107	93.25
407.331	83.25
407.555	81.25
407.778	94.25
408.002	93.25
408.226	76.25
408.449	79.25
408.673	86.25
408.896	74.25
409.12	89.25
409.344	93.25
409.567	87.25
409.791	99.25
410.014	86.25
410.238	90.25
410.461	93.25
410.685	80.25
410.908	86.25
411.132	90.25
411.355	89.25
411.578	88.25
411.802	87.25
412.025	84.25
412.249	88.25
412.472	89.25
412.695	91.25
412.919	86.25
413.142	99.25
413.365	88.25
413.589	78.25
413.812	69.25
414.035	90.25
414.258	85.25
414.482	96.25
414.705	97.25
414.928	89.25
415.151	84.25
415.374	79.25
415.597	80.25
415.821	95.25
416.044	91.25
416.267	86.25
416.49	81.25
416.713	86.25
416.936	77.25
417.159	78.25
417.382	94.25
417.605	98.25
417.828	79.25
418.051	72.25
418.274	91.25
418.497	97.25
418.72	83.25
418.943	88.25
419.166	89.25
419.389	104.25
419.611	79.25
419.834	79.25
420.057	83.25
420.28	87.25
420.503	92.25
420.726	94.25
420.948	80.25
421.171	92.25
421.394	98.25
421.617	91.25
421.839	86.25
422.062	83.25
422.285	81.25
422.507	90.25
422.73	87.25
422.953	69.25
423.175	86.25
423.398	76.25
423.621	85.25
423.843	99.25
424.066	89.25
424.288	92.25
424.511	102.25
424.733	109.25
424.956	101.25
425.178	89.25
425.401	79.25
425.623	90.25
425.846	101.25
426.068	80.25
426.291	89.25
426.513	88.25
426.735	95.25
426.958	86.25
427.18	74.25
427.402	87.25
427.625	84.25
427.847	102.25
428.069	92.25
428.292	97.25
428.514	94.25
428.736	91.25
428.958	100.25
429.181	89.25
429.403	94.25
429.625	93.25
429.847	105.25
430.069	81.25
430.292	98.25
430.514	82.25
430.736	92.25
430.958	94.25
431.18	102.25
431.402	86.25
431.624	69.25
431.846	72.25
432.068	90.25
432.29	87.25
432.512	88.25
432.734	92.25
432.956	85.25
433.178	90.25
433.4	93.25
433.622	86.25
433.844	79.25
434.066	101.25
434.287	102.25
434.509	95.25
434.731	94.25
434.953	79.25
435.175	87.25
435.397	96.25
435.618	81.25
435.84	77.25
436.062	102.25
436.284	91.25
436.505	99.25
436.727	75.25
436.949	85.25
437.17	94.25
437.392	89.25
437.614	92.25
437.835	89.25
438.057	85.25
438.278	79.25
438.5	93.25
438.721	101.25
438.943	87.25
439.165	93.25
439.386	100.25
439.608	101.25
439.829	95.25
440.05	97.25
440.272	100.25
440.493	84.25
440.715	101.25
440.936	93.25
441.158	100.25
441.379	85.25
441.6	94.25
441.822	84.25
442.043	91.25
442.264	89.25
442.486	91.25
442.707	93.25
442.928	93.25
443.149	91.25
443.371	94.25
443.592	91.25
443.813	98.25
444.034	88.25
444.255	95.25
444.476	80.25
444.698	83.25
444.919	101.25
445.14	197.25
445.361	147.25
445.582	96.25
445.803	101.25
446.024	111.25
446.245	93.25
446.466	91.25
446.687	92.25
446.908	90.25
447.129	103.25
447.35	93.25
447.571	93.25
447.792	83.25
448.013	95.25
448.234	86.25
448.455	70.25
448.675	93.25
448.896	86.25
449.117	92.25
449.338	87.25
449.559	88.25
449.779	90.25
450	94.25
450.221	91.25
450.442	96.25
450.662	74.25
450.883	103.25
451.104	77.25
451.324	86.25
451.545	97.25
451.766	100.25
451.986	91.25
452.207	90.25
452.428	87.25
452.648	99.25
452.869	96.25
453.089	81.25
453.31	91.25
453.53	91.25
453.751	88.25
453.971	77.25
454.192	89.25
454.412	87.25
454.633	91.25
454.853	80.25
455.073	101.25
455.294	70.25
455.514	82.25
455.734	75.25
455.955	91.25
456.175	79.25
456.395	80.25
456.616	94.25
456.836	80.25
457.056	86.25
457.276	96.25
457.497	85.25
457.717	82.25
457.937	92.25
458.157	86.25
458.377	98.25
458.598	94.25
458.818	77.25
459.038	96.25
459.258	89.25
459.478	97.25
459.698	90.25
459.918	85.25
460.138	86.25
460.358	94.25
460.578	86.25
460.798	90.25
461.018	82.25
461.238	82.25
461.458	91.25
461.678	95.25
461.898	94.25
462.118	93.25
462.338	87.25
462.558	75.25
462.777	88.25
462.997	80.25
463.217	93.25
463.437	90.25
463.657	89.25
463.876	75.25
464.096	102.25
464.316	84.25
464.536	88.25
464.755	83.25
464.975	85.25
465.195	85.25
465.414	87.25
465.634	93.25
465.854	86.25
466.073	84.25
466.293	79.25
466.512	93.25
466.732	96.25
466.951	92.25
467.171	91.25
467.391	88.25
467.61	90.25
467.829	83.25
468.049	91.25
468.268	99.25
468.488	92.25
468.707	99.25
468.927	113.25
469.146	98.25
469.365	85.25
469.585	87.25
469.804	89.25
470.023	91.25
470.243	84.25
470.462	93.25
470.681	89.25
470.901	80.25
471.12	105.25
471.339	83.25
471.558	86.25
471.777	94.25
471.997	86.25
472.216	90.25
472.435	86.25
472.654	80.25
472.873	94.25
473.092	81.25
473.311	95.25
473.53	95.25
473.749	105.25
473.968	84.25
474.187	90.25
474.406	80.25
474.625	88.25
474.844	99.25
475.063	109.25
475.282	93.25
475.501	87.25
475.72	96.25
475.939	93.25
476.158	87.25
476.377	84.25
476.596	92.25
476.814	99.25
477.033	87.25
477.252	90.25
477.471	94.25
477.69	99.25
477.908	92.25
478.127	90.25
478.346	91.25
478.564	100.25
478.783	91.25
479.002	88.25
479.22	117.25
479.439	80.25
479.658	98.25
479.876	90.25
480.095	94.25
480.313	79.25
480.532	98.25
480.751	103.25
480.969	95.25
481.188	88.25
481.406	98.25
481.624	86.25
481.843	89.25
482.061	102.25
482.28	83.25
482.498	88.25
482.717	74.25
482.935	99.25
483.153	100.25
483.372	87.25
483.59	102.25
483.808	85.25
484.027	93.25
484.245	92.25
484.463	99.25
484.681	110.25
484.9	79.25
485.118	94.25
485.336	103.25
485.554	84.25
485.772	82.25
485.99	79.25
486.209	81.25
486.427	89.25
486.645	80.25
486.863	103.25
487.081	107.25
487.299	102.25
487.517	72.25
487.735	93.25
487.953	117.25
488.171	104.25
488.389	99.25
488.607	78.25
488.825	82.25
489.043	97.25
489.261	94.25
489.479	100.25
489.696	95.25
489.914	86.25
490.132	94.25
490.35	95.25
490.568	92.25
490.786	101.25
491.003	108.25
491.221	114.25
491.439	102.25
491.657	93.25
491.874	92.25
492.092	106.25
492.31	114.25
492.527	104.25
492.745	98.25
492.963	102.25
493.18	103.25
493.398	105.25
493.615	102.25
493.833	86.25
494.05	86.25
494.268	77.25
494.485	99.25
494.703	109.25
494.92	101.25
495.138	104.25
495.355	91.25
495.573	89.25
495.79	107.25
496.008	97.25
496.225	101.25
496.442	107.25
496.66	101.25
496.877	93.25
497.094	99.25
497.312	99.25
497.529	91.25
497.746	102.25
497.963	88.25
498.181	100.25
498.398	98.25
498.615	90.25
498.832	94.25
499.049	113.25
499.267	89.25
499.484	85.25
499.701	107.25
499.918	99.25
500.135	85.25
500.352	88.25
500.569	103.25
500.786	99.25
501.003	86.25
501.22	90.25
501.437	114.25
501.654	94.25
501.871	84.25
502.088	90.25
502.305	106.25
502.522	110.25
502.739	83.25
502.956	92.25
503.172	102.25
503.389	89.25
503.606	90.25
503.823	89.25
504.04	94.25
504.256	99.25
504.473	76.25
504.69	104.25
504.907	91.25
505.123	95.25
505.34	94.25
505.557	83.25
505.773	84.25
505.99	92.25
506.207	103.25
506.423	85.25
506.64	90.25
506.856	88.25
507.073	101.25
507.289	99.25
507.506	96.25
507.722	86.25
507.939	82.25
508.155	95.25
508.372	94.25
508.588	79.25
508.805	105.25
509.021	82.25
509.238	76.25
509.454	77.25
509.67	80.25
509.887	75.25
510.103	99.25
510.319	94.25
510.536	98.25
510.752	86.25
510.968	82.25
511.184	62.25
511.401	82.25
511.617	94.25
511.833	74.25
512.049	92.25
512.265	85.25
512.481	96.25
512.698	93.25
512.914	90.25
513.13	93.25
513.346	98.25
513.562	95.25
513.778	92.25
513.994	81.25
514.21	91.25
514.426	90.25
514.642	87.25
514.858	89.25
515.074	66.25
515.29	91.25
515.506	84.25
515.721	85.25
515.937	86.25
516.153	93.25
516.369	78.25
516.585	80.25
516.801	95.25
517.016	94.25
517.232	77.25
517.448	90.25
517.664	80.25
517.879	92.25
518.095	96.25
