Data from Zn(NO3)2Standard.Agarose3%.GreenCap.LampEnergy10E.O_HRD10591_15-06-44-942.txt Node
Date: Mon Jul 22 15:06:44 EDT 2019
User: cochatt
Spectrometer: HR+D1059
Trigger mode: 1
Integration Time (sec): 1.000000E-1
Scans to average: 1
Electric dark correction enabled: true
Nonlinearity correction enabled: false
Boxcar width: 0
XAxis mode: Wavelengths
Number of Pixels in Spectrum: 2048
>>>>>Begin Spectral Data<<<<<
223.165	-9.69
223.4	-9.69
223.635	-9.69
223.869	-19.69
224.104	-23.69
224.338	-13.69
224.573	-23.69
224.808	-6.69
225.042	0.31
225.277	-1.69
225.511	2.31
225.746	-11.69
225.98	4.31
226.215	11.31
226.449	18.31
226.683	29.31
226.918	16.31
227.152	28.31
227.387	36.31
227.621	35.31
227.856	39.31
228.09	44.31
228.324	50.31
228.559	50.31
228.793	58.31
229.027	61.31
229.262	45.31
229.496	64.31
229.73	75.31
229.964	75.31
230.199	81.31
230.433	68.31
230.667	73.31
230.901	80.31
231.136	72.31
231.37	82.31
231.604	80.31
231.838	79.31
232.072	86.31
232.306	78.31
232.541	80.31
232.775	75.31
233.009	81.31
233.243	93.31
233.477	92.31
233.711	77.31
233.945	89.31
234.179	81.31
234.413	75.31
234.647	90.31
234.881	78.31
235.115	91.31
235.349	80.31
235.583	83.31
235.817	68.31
236.051	86.31
236.285	88.31
236.519	80.31
236.753	83.31
236.987	78.31
237.221	84.31
237.455	74.31
237.689	72.31
237.922	75.31
238.156	71.31
238.39	86.31
238.624	57.31
238.858	74.31
239.091	78.31
239.325	84.31
239.559	83.31
239.793	82.31
240.027	74.31
240.26	75.31
240.494	82.31
240.728	75.31
240.961	73.31
241.195	89.31
241.429	75.31
241.662	83.31
241.896	65.31
242.13	78.31
242.363	67.31
242.597	78.31
242.83	78.31
243.064	69.31
243.298	76.31
243.531	81.31
243.765	75.31
243.998	83.31
244.232	83.31
244.465	62.31
244.699	84.31
244.932	68.31
245.166	83.31
245.399	78.31
245.633	76.31
245.866	78.31
246.099	69.31
246.333	75.31
246.566	76.31
246.8	71.31
247.033	72.31
247.266	77.31
247.5	67.31
247.733	84.31
247.966	81.31
248.2	77.31
248.433	84.31
248.666	72.31
248.899	79.31
249.133	66.31
249.366	82.31
249.599	78.31
249.832	73.31
250.066	81.31
250.299	74.31
250.532	83.31
250.765	96.31
250.998	67.31
251.231	67.31
251.465	82.31
251.698	78.31
251.931	74.31
252.164	79.31
252.397	78.31
252.63	69.31
252.863	83.31
253.096	93.31
253.329	81.31
253.562	84.31
253.795	73.31
254.028	92.31
254.261	85.31
254.494	80.31
254.727	77.31
254.96	86.31
255.193	69.31
255.426	70.31
255.659	91.31
255.892	82.31
256.124	74.31
256.357	90.31
256.59	82.31
256.823	79.31
257.056	90.31
257.289	79.31
257.521	71.31
257.754	60.31
257.987	76.31
258.22	92.31
258.452	83.31
258.685	76.31
258.918	71.31
259.151	81.31
259.383	77.31
259.616	91.31
259.849	73.31
260.081	88.31
260.314	87.31
260.547	79.31
260.779	90.31
261.012	82.31
261.244	78.31
261.477	89.31
261.71	82.31
261.942	86.31
262.175	85.31
262.407	89.31
262.64	83.31
262.872	98.31
263.105	91.31
263.337	67.31
263.57	87.31
263.802	81.31
264.035	91.31
264.267	89.31
264.499	92.31
264.732	82.31
264.964	89.31
265.197	85.31
265.429	84.31
265.661	84.31
265.894	91.31
266.126	77.31
266.358	93.31
266.591	100.31
266.823	87.31
267.055	85.31
267.287	80.31
267.52	85.31
267.752	93.31
267.984	96.31
268.216	97.31
268.448	76.31
268.681	63.31
268.913	83.31
269.145	90.31
269.377	95.31
269.609	89.31
269.841	98.31
270.073	72.31
270.306	75.31
270.538	83.31
270.77	84.31
271.002	96.31
271.234	99.31
271.466	97.31
271.698	81.31
271.93	79.31
272.162	79.31
272.394	71.31
272.626	92.31
272.858	90.31
273.09	79.31
273.322	82.31
273.553	80.31
273.785	78.31
274.017	85.31
274.249	91.31
274.481	96.31
274.713	79.31
274.945	93.31
275.176	70.31
275.408	76.31
275.64	83.31
275.872	101.31
276.104	81.31
276.335	89.31
276.567	84.31
276.799	81.31
277.031	75.31
277.262	85.31
277.494	71.31
277.726	87.31
277.957	81.31
278.189	67.31
278.421	88.31
278.652	87.31
278.884	79.31
279.115	78.31
279.347	86.31
279.579	99.31
279.81	85.31
280.042	73.31
280.273	85.31
280.505	78.31
280.736	77.31
280.968	82.31
281.199	91.31
281.431	90.31
281.662	87.31
281.894	90.31
282.125	104.31
282.356	81.31
282.588	78.31
282.819	90.31
283.051	87.31
283.282	79.31
283.513	81.31
283.745	92.31
283.976	81.31
284.207	77.31
284.439	82.31
284.67	85.31
284.901	97.31
285.132	83.31
285.364	83.31
285.595	77.31
285.826	94.31
286.057	90.31
286.288	74.31
286.52	89.31
286.751	88.31
286.982	82.31
287.213	84.31
287.444	75.31
287.675	78.31
287.906	88.31
288.138	77.31
288.369	80.31
288.6	94.31
288.831	69.31
289.062	98.31
289.293	94.31
289.524	85.31
289.755	79.31
289.986	74.31
290.217	84.31
290.448	76.31
290.679	82.31
290.91	92.31
291.141	80.31
291.371	86.31
291.602	81.31
291.833	78.31
292.064	92.31
292.295	93.31
292.526	74.31
292.757	93.31
292.987	94.31
293.218	85.31
293.449	75.31
293.68	94.31
293.91	85.31
294.141	77.31
294.372	79.31
294.603	96.31
294.833	76.31
295.064	82.31
295.295	78.31
295.525	72.31
295.756	84.31
295.987	86.31
296.217	59.31
296.448	72.31
296.679	83.31
296.909	68.31
297.14	80.31
297.37	88.31
297.601	98.31
297.831	87.31
298.062	84.31
298.292	79.31
298.523	93.31
298.753	85.31
298.984	72.31
299.214	78.31
299.445	84.31
299.675	90.31
299.905	100.31
300.136	80.31
300.366	81.31
300.597	92.31
300.827	80.31
301.057	81.31
301.288	83.31
301.518	99.31
301.748	81.31
301.979	75.31
302.209	82.31
302.439	100.31
302.669	92.31
302.9	81.31
303.13	80.31
303.36	87.31
303.59	93.31
303.82	90.31
304.051	82.31
304.281	86.31
304.511	86.31
304.741	82.31
304.971	79.31
305.201	76.31
305.431	81.31
305.661	86.31
305.891	83.31
306.121	99.31
306.352	81.31
306.582	77.31
306.812	76.31
307.042	80.31
307.272	83.31
307.502	83.31
307.731	79.31
307.961	76.31
308.191	82.31
308.421	84.31
308.651	99.31
308.881	86.31
309.111	84.31
309.341	66.31
309.571	83.31
309.8	85.31
310.03	80.31
310.26	101.31
310.49	93.31
310.72	77.31
310.949	70.31
311.179	89.31
311.409	88.31
311.639	92.31
311.868	87.31
312.098	93.31
312.328	80.31
312.557	82.31
312.787	85.31
313.017	80.31
313.246	84.31
313.476	87.31
313.706	99.31
313.935	83.31
314.165	81.31
314.394	94.31
314.624	90.31
314.853	79.31
315.083	74.31
315.312	87.31
315.542	77.31
315.771	84.31
316.001	89.31
316.23	73.31
316.46	67.31
316.689	70.31
316.919	94.31
317.148	75.31
317.377	85.31
317.607	72.31
317.836	86.31
318.065	84.31
318.295	89.31
318.524	79.31
318.753	88.31
318.983	59.31
319.212	76.31
319.441	73.31
319.67	89.31
319.9	96.31
320.129	88.31
320.358	83.31
320.587	99.31
320.816	87.31
321.046	69.31
321.275	88.31
321.504	89.31
321.733	73.31
321.962	87.31
322.191	84.31
322.42	69.31
322.649	88.31
322.878	82.31
323.108	75.31
323.337	93.31
323.566	92.31
323.795	88.31
324.024	78.31
324.253	85.31
324.482	72.31
324.71	82.31
324.939	87.31
325.168	94.31
325.397	68.31
325.626	91.31
325.855	77.31
326.084	91.31
326.313	83.31
326.542	94.31
326.77	86.31
326.999	86.31
327.228	81.31
327.457	87.31
327.686	88.31
327.914	83.31
328.143	84.31
328.372	79.31
328.6	85.31
328.829	89.31
329.058	93.31
329.287	98.31
329.515	86.31
329.744	97.31
329.972	89.31
330.201	83.31
330.43	93.31
330.658	77.31
330.887	89.31
331.115	86.31
331.344	71.31
331.572	78.31
331.801	89.31
332.03	90.31
332.258	74.31
332.486	87.31
332.715	85.31
332.943	80.31
333.172	90.31
333.4	84.31
333.629	87.31
333.857	84.31
334.085	77.31
334.314	90.31
334.542	98.31
334.771	81.31
334.999	87.31
335.227	83.31
335.455	94.31
335.684	89.31
335.912	93.31
336.14	85.31
336.369	95.31
336.597	88.31
336.825	82.31
337.053	77.31
337.281	83.31
337.51	92.31
337.738	88.31
337.966	74.31
338.194	96.31
338.422	93.31
338.65	88.31
338.878	91.31
339.106	89.31
339.334	89.31
339.562	84.31
339.79	86.31
340.018	85.31
340.246	91.31
340.474	84.31
340.702	80.31
340.93	82.31
341.158	92.31
341.386	84.31
341.614	77.31
341.842	77.31
342.07	89.31
342.298	92.31
342.526	73.31
342.754	79.31
342.981	80.31
343.209	86.31
343.437	95.31
343.665	91.31
343.893	93.31
344.12	84.31
344.348	87.31
344.576	69.31
344.804	96.31
345.031	90.31
345.259	77.31
345.487	89.31
345.714	82.31
345.942	95.31
346.17	91.31
346.397	92.31
346.625	102.31
346.853	105.31
347.08	81.31
347.308	84.31
347.535	74.31
347.763	76.31
347.99	85.31
348.218	90.31
348.445	92.31
348.673	91.31
348.9	84.31
349.128	91.31
349.355	74.31
349.583	96.31
349.81	85.31
350.037	82.31
350.265	91.31
350.492	77.31
350.72	82.31
350.947	88.31
351.174	84.31
351.402	91.31
351.629	96.31
351.856	92.31
352.083	84.31
352.311	103.31
352.538	81.31
352.765	91.31
352.992	86.31
353.22	86.31
353.447	79.31
353.674	88.31
353.901	88.31
354.128	93.31
354.355	88.31
354.583	76.31
354.81	85.31
355.037	79.31
355.264	87.31
355.491	71.31
355.718	85.31
355.945	77.31
356.172	80.31
356.399	95.31
356.626	80.31
356.853	80.31
357.08	78.31
357.307	76.31
357.534	73.31
357.761	77.31
357.988	77.31
358.215	108.31
358.441	94.31
358.668	82.31
358.895	87.31
359.122	88.31
359.349	77.31
359.576	96.31
359.802	92.31
360.029	76.31
360.256	75.31
360.483	89.31
360.709	97.31
360.936	84.31
361.163	86.31
361.39	94.31
361.616	84.31
361.843	80.31
362.07	107.31
362.296	87.31
362.523	77.31
362.749	81.31
362.976	86.31
363.203	84.31
363.429	87.31
363.656	77.31
363.882	87.31
364.109	78.31
364.335	88.31
364.562	75.31
364.788	89.31
365.015	87.31
365.241	88.31
365.468	80.31
365.694	97.31
365.92	85.31
366.147	90.31
366.373	80.31
366.599	89.31
366.826	89.31
367.052	86.31
367.278	95.31
367.505	88.31
367.731	85.31
367.957	88.31
368.184	86.31
368.41	99.31
368.636	82.31
368.862	86.31
369.089	95.31
369.315	86.31
369.541	82.31
369.767	97.31
369.993	70.31
370.219	94.31
370.445	88.31
370.672	89.31
370.898	82.31
371.124	83.31
371.35	91.31
371.576	99.31
371.802	80.31
372.028	89.31
372.254	84.31
372.48	87.31
372.706	84.31
372.932	75.31
373.158	84.31
373.384	98.31
373.61	83.31
373.835	83.31
374.061	91.31
374.287	89.31
374.513	81.31
374.739	94.31
374.965	102.31
375.191	85.31
375.416	96.31
375.642	94.31
375.868	83.31
376.094	84.31
376.319	91.31
376.545	97.31
376.771	82.31
376.997	77.31
377.222	82.31
377.448	75.31
377.674	80.31
377.899	98.31
378.125	81.31
378.35	77.31
378.576	81.31
378.802	85.31
379.027	82.31
379.253	92.31
379.478	86.31
379.704	89.31
379.929	74.31
380.155	86.31
380.38	95.31
380.606	88.31
380.831	86.31
381.057	108.31
381.282	89.31
381.507	82.31
381.733	75.31
381.958	90.31
382.184	90.31
382.409	76.31
382.634	85.31
382.86	87.31
383.085	87.31
383.31	97.31
383.535	104.31
383.761	87.31
383.986	88.31
384.211	80.31
384.436	85.31
384.662	77.31
384.887	92.31
385.112	86.31
385.337	85.31
385.562	88.31
385.787	90.31
386.013	97.31
386.238	91.31
386.463	93.31
386.688	86.31
386.913	90.31
387.138	83.31
387.363	92.31
387.588	100.31
387.813	89.31
388.038	94.31
388.263	106.31
388.488	91.31
388.713	96.31
388.938	96.31
389.163	84.31
389.387	89.31
389.612	77.31
389.837	85.31
390.062	81.31
390.287	104.31
390.512	88.31
390.736	95.31
390.961	94.31
391.186	92.31
391.411	85.31
391.636	88.31
391.86	85.31
392.085	73.31
392.31	96.31
392.534	86.31
392.759	91.31
392.984	84.31
393.208	96.31
393.433	99.31
393.658	104.31
393.882	106.31
394.107	87.31
394.331	85.31
394.556	97.31
394.78	91.31
395.005	100.31
395.229	89.31
395.454	97.31
395.678	76.31
395.903	90.31
396.127	96.31
396.352	91.31
396.576	93.31
396.801	102.31
397.025	100.31
397.249	90.31
397.474	104.31
397.698	87.31
397.922	97.31
398.147	108.31
398.371	100.31
398.595	90.31
398.82	101.31
399.044	96.31
399.268	85.31
399.492	97.31
399.717	86.31
399.941	109.31
400.165	98.31
400.389	112.31
400.613	98.31
400.837	96.31
401.062	88.31
401.286	93.31
401.51	82.31
401.734	88.31
401.958	78.31
402.182	91.31
402.406	89.31
402.63	92.31
402.854	103.31
403.078	107.31
403.302	94.31
403.526	86.31
403.75	96.31
403.974	87.31
404.198	103.31
404.422	92.31
404.645	89.31
404.869	92.31
405.093	90.31
405.317	104.31
405.541	97.31
405.765	98.31
405.988	93.31
406.212	108.31
406.436	92.31
406.66	113.31
406.883	106.31
407.107	100.31
407.331	97.31
407.555	88.31
407.778	101.31
408.002	114.31
408.226	88.31
408.449	106.31
408.673	102.31
408.896	100.31
409.12	105.31
409.344	90.31
409.567	101.31
409.791	95.31
410.014	86.31
410.238	103.31
410.461	110.31
410.685	97.31
410.908	114.31
411.132	112.31
411.355	103.31
411.578	106.31
411.802	106.31
412.025	104.31
412.249	95.31
412.472	90.31
412.695	100.31
412.919	102.31
413.142	98.31
413.365	105.31
413.589	112.31
413.812	97.31
414.035	110.31
414.258	94.31
414.482	88.31
414.705	97.31
414.928	119.31
415.151	98.31
415.374	98.31
415.597	89.31
415.821	88.31
416.044	101.31
416.267	105.31
416.49	97.31
416.713	93.31
416.936	90.31
417.159	100.31
417.382	101.31
417.605	98.31
417.828	90.31
418.051	97.31
418.274	113.31
418.497	98.31
418.72	100.31
418.943	112.31
419.166	85.31
419.389	106.31
419.611	121.31
419.834	107.31
420.057	100.31
420.28	114.31
420.503	101.31
420.726	107.31
420.948	112.31
421.171	120.31
421.394	91.31
421.617	108.31
421.839	102.31
422.062	114.31
422.285	107.31
422.507	91.31
422.73	92.31
422.953	96.31
423.175	112.31
423.398	91.31
423.621	93.31
423.843	106.31
424.066	103.31
424.288	113.31
424.511	100.31
424.733	104.31
424.956	117.31
425.178	88.31
425.401	105.31
425.623	100.31
425.846	102.31
426.068	97.31
426.291	94.31
426.513	117.31
426.735	108.31
426.958	101.31
427.18	104.31
427.402	102.31
427.625	106.31
427.847	109.31
428.069	108.31
428.292	112.31
428.514	92.31
428.736	112.31
428.958	117.31
429.181	115.31
429.403	81.31
429.625	105.31
429.847	118.31
430.069	105.31
430.292	105.31
430.514	106.31
430.736	107.31
430.958	107.31
431.18	107.31
431.402	105.31
431.624	102.31
431.846	83.31
432.068	85.31
432.29	90.31
432.512	101.31
432.734	92.31
432.956	111.31
433.178	126.31
433.4	90.31
433.622	106.31
433.844	100.31
434.066	93.31
434.287	95.31
434.509	89.31
434.731	101.31
434.953	110.31
435.175	105.31
435.397	116.31
435.618	98.31
435.84	96.31
436.062	92.31
436.284	103.31
436.505	116.31
436.727	88.31
436.949	123.31
437.17	114.31
437.392	103.31
437.614	107.31
437.835	92.31
438.057	77.31
438.278	96.31
438.5	102.31
438.721	109.31
438.943	107.31
439.165	124.31
439.386	117.31
439.608	104.31
439.829	114.31
440.05	107.31
440.272	111.31
440.493	117.31
440.715	118.31
440.936	117.31
441.158	120.31
441.379	87.31
441.6	116.31
441.822	104.31
442.043	110.31
442.264	108.31
442.486	103.31
442.707	102.31
442.928	106.31
443.149	106.31
443.371	115.31
443.592	107.31
443.813	116.31
444.034	113.31
444.255	119.31
444.476	96.31
444.698	106.31
444.919	114.31
445.14	237.31
445.361	150.31
445.582	124.31
445.803	112.31
446.024	120.31
446.245	118.31
446.466	114.31
446.687	102.31
446.908	107.31
447.129	106.31
447.35	104.31
447.571	115.31
447.792	124.31
448.013	105.31
448.234	116.31
448.455	106.31
448.675	104.31
448.896	96.31
449.117	112.31
449.338	114.31
449.559	98.31
449.779	136.31
450	95.31
450.221	118.31
450.442	104.31
450.662	93.31
450.883	101.31
451.104	103.31
451.324	98.31
451.545	95.31
451.766	126.31
451.986	132.31
452.207	107.31
452.428	104.31
452.648	113.31
452.869	108.31
453.089	102.31
453.31	91.31
453.53	95.31
453.751	87.31
453.971	99.31
454.192	91.31
454.412	103.31
454.633	108.31
454.853	104.31
455.073	97.31
455.294	84.31
455.514	106.31
455.734	84.31
455.955	101.31
456.175	92.31
456.395	100.31
456.616	86.31
456.836	88.31
457.056	113.31
457.276	96.31
457.497	93.31
457.717	101.31
457.937	106.31
458.157	104.31
458.377	89.31
458.598	85.31
458.818	87.31
459.038	74.31
459.258	92.31
459.478	88.31
459.698	75.31
459.918	102.31
460.138	94.31
460.358	94.31
460.578	85.31
460.798	88.31
461.018	94.31
461.238	89.31
461.458	99.31
461.678	92.31
461.898	95.31
462.118	96.31
462.338	104.31
462.558	93.31
462.777	89.31
462.997	99.31
463.217	94.31
463.437	77.31
463.657	95.31
463.876	91.31
464.096	103.31
464.316	98.31
464.536	92.31
464.755	112.31
464.975	109.31
465.195	94.31
465.414	102.31
465.634	97.31
465.854	111.31
466.073	97.31
466.293	91.31
466.512	86.31
466.732	115.31
466.951	100.31
467.171	101.31
467.391	105.31
467.61	114.31
467.829	107.31
468.049	107.31
468.268	106.31
468.488	94.31
468.707	108.31
468.927	98.31
469.146	114.31
469.365	126.31
469.585	121.31
469.804	111.31
470.023	112.31
470.243	105.31
470.462	118.31
470.681	109.31
470.901	103.31
471.12	110.31
471.339	107.31
471.558	117.31
471.777	113.31
471.997	110.31
472.216	103.31
472.435	99.31
472.654	97.31
472.873	92.31
473.092	91.31
473.311	112.31
473.53	112.31
473.749	108.31
473.968	110.31
474.187	107.31
474.406	96.31
474.625	97.31
474.844	118.31
475.063	106.31
475.282	110.31
475.501	90.31
475.72	95.31
475.939	102.31
476.158	104.31
476.377	98.31
476.596	99.31
476.814	89.31
477.033	102.31
477.252	94.31
477.471	113.31
477.69	114.31
477.908	90.31
478.127	114.31
478.346	114.31
478.564	109.31
478.783	106.31
479.002	109.31
479.22	108.31
479.439	95.31
479.658	101.31
479.876	110.31
480.095	91.31
480.313	104.31
480.532	100.31
480.751	117.31
480.969	114.31
481.188	81.31
481.406	98.31
481.624	91.31
481.843	84.31
482.061	81.31
482.28	91.31
482.498	113.31
482.717	111.31
482.935	102.31
483.153	101.31
483.372	112.31
483.59	116.31
483.808	116.31
484.027	114.31
484.245	105.31
484.463	113.31
484.681	129.31
484.9	120.31
485.118	127.31
485.336	99.31
485.554	96.31
485.772	91.31
485.99	97.31
486.209	106.31
486.427	97.31
486.645	103.31
486.863	108.31
487.081	110.31
487.299	107.31
487.517	118.31
487.735	121.31
487.953	125.31
488.171	134.31
488.389	116.31
488.607	120.31
488.825	116.31
489.043	108.31
489.261	100.31
489.479	115.31
489.696	117.31
489.914	121.31
490.132	96.31
490.35	90.31
490.568	119.31
490.786	117.31
491.003	136.31
491.221	121.31
491.439	133.31
491.657	134.31
491.874	132.31
492.092	143.31
492.31	157.31
492.527	153.31
492.745	136.31
492.963	130.31
493.18	142.31
493.398	143.31
493.615	130.31
493.833	132.31
494.05	144.31
494.268	123.31
494.485	139.31
494.703	127.31
494.92	132.31
495.138	135.31
495.355	130.31
495.573	132.31
495.79	127.31
496.008	120.31
496.225	130.31
496.442	113.31
496.66	118.31
496.877	112.31
497.094	120.31
497.312	138.31
497.529	133.31
497.746	114.31
497.963	109.31
498.181	115.31
498.398	116.31
498.615	102.31
498.832	90.31
499.049	108.31
499.267	99.31
499.484	106.31
499.701	114.31
499.918	118.31
500.135	109.31
500.352	120.31
500.569	105.31
500.786	113.31
501.003	104.31
501.22	111.31
501.437	121.31
501.654	124.31
501.871	103.31
502.088	124.31
502.305	115.31
502.522	117.31
502.739	100.31
502.956	98.31
503.172	105.31
503.389	94.31
503.606	89.31
503.823	116.31
504.04	98.31
504.256	93.31
504.473	112.31
504.69	96.31
504.907	93.31
505.123	106.31
505.34	95.31
505.557	105.31
505.773	92.31
505.99	93.31
506.207	92.31
506.423	121.31
506.64	120.31
506.856	102.31
507.073	110.31
507.289	116.31
507.506	113.31
507.722	108.31
507.939	86.31
508.155	91.31
508.372	112.31
508.588	106.31
508.805	101.31
509.021	90.31
509.238	95.31
509.454	99.31
509.67	94.31
509.887	93.31
510.103	91.31
510.319	101.31
510.536	97.31
510.752	78.31
510.968	89.31
511.184	91.31
511.401	88.31
511.617	85.31
511.833	91.31
512.049	87.31
512.265	97.31
512.481	91.31
512.698	86.31
512.914	93.31
513.13	103.31
513.346	91.31
513.562	76.31
513.778	80.31
513.994	72.31
514.21	83.31
514.426	80.31
