Data from Zn(NO3)2Standard.Agarose3%.GreenCap.LampEnergy10E.O_HRD10591_15-07-10-943.txt Node
Date: Mon Jul 22 15:07:10 EDT 2019
User: cochatt
Spectrometer: HR+D1059
Trigger mode: 1
Integration Time (sec): 1.000000E-1
Scans to average: 1
Electric dark correction enabled: true
Nonlinearity correction enabled: false
Boxcar width: 0
XAxis mode: Wavelengths
Number of Pixels in Spectrum: 2048
>>>>>Begin Spectral Data<<<<<
223.165	-11.69
223.4	-11.69
223.635	-11.69
223.869	-21.69
224.104	-26.69
224.338	-27.69
224.573	-15.69
224.808	-17.69
225.042	-6.69
225.277	-6.69
225.511	5.31
225.746	13.31
225.98	20.31
226.215	4.31
226.449	8.31
226.683	25.31
226.918	23.31
227.152	34.31
227.387	34.31
227.621	37.31
227.856	49.31
228.09	49.31
228.324	41.31
228.559	61.31
228.793	62.31
229.027	63.31
229.262	62.31
229.496	74.31
229.73	69.31
229.964	84.31
230.199	73.31
230.433	61.31
230.667	69.31
230.901	76.31
231.136	71.31
231.37	73.31
231.604	87.31
231.838	87.31
232.072	84.31
232.306	82.31
232.541	88.31
232.775	88.31
233.009	84.31
233.243	86.31
233.477	82.31
233.711	81.31
233.945	90.31
234.179	86.31
234.413	82.31
234.647	76.31
234.881	80.31
235.115	72.31
235.349	80.31
235.583	87.31
235.817	81.31
236.051	86.31
236.285	78.31
236.519	94.31
236.753	76.31
236.987	88.31
237.221	63.31
237.455	82.31
237.689	84.31
237.922	76.31
238.156	83.31
238.39	80.31
238.624	69.31
238.858	58.31
239.091	91.31
239.325	76.31
239.559	73.31
239.793	78.31
240.027	67.31
240.26	77.31
240.494	86.31
240.728	65.31
240.961	75.31
241.195	78.31
241.429	72.31
241.662	74.31
241.896	81.31
242.13	78.31
242.363	76.31
242.597	75.31
242.83	79.31
243.064	80.31
243.298	69.31
243.531	77.31
243.765	83.31
243.998	70.31
244.232	78.31
244.465	78.31
244.699	71.31
244.932	83.31
245.166	79.31
245.399	91.31
245.633	64.31
245.866	81.31
246.099	83.31
246.333	83.31
246.566	102.31
246.8	87.31
247.033	84.31
247.266	78.31
247.5	73.31
247.733	77.31
247.966	76.31
248.2	88.31
248.433	80.31
248.666	80.31
248.899	85.31
249.133	84.31
249.366	87.31
249.599	92.31
249.832	84.31
250.066	86.31
250.299	82.31
250.532	78.31
250.765	94.31
250.998	75.31
251.231	74.31
251.465	68.31
251.698	81.31
251.931	86.31
252.164	79.31
252.397	84.31
252.63	89.31
252.863	79.31
253.096	78.31
253.329	88.31
253.562	86.31
253.795	83.31
254.028	79.31
254.261	92.31
254.494	64.31
254.727	85.31
254.96	80.31
255.193	70.31
255.426	85.31
255.659	77.31
255.892	84.31
256.124	78.31
256.357	93.31
256.59	78.31
256.823	82.31
257.056	76.31
257.289	74.31
257.521	102.31
257.754	83.31
257.987	76.31
258.22	77.31
258.452	78.31
258.685	86.31
258.918	77.31
259.151	80.31
259.383	86.31
259.616	73.31
259.849	85.31
260.081	92.31
260.314	72.31
260.547	89.31
260.779	102.31
261.012	113.31
261.244	92.31
261.477	89.31
261.71	70.31
261.942	83.31
262.175	84.31
262.407	74.31
262.64	85.31
262.872	93.31
263.105	80.31
263.337	84.31
263.57	84.31
263.802	83.31
264.035	76.31
264.267	96.31
264.499	95.31
264.732	83.31
264.964	90.31
265.197	80.31
265.429	97.31
265.661	86.31
265.894	76.31
266.126	93.31
266.358	86.31
266.591	82.31
266.823	88.31
267.055	88.31
267.287	94.31
267.52	81.31
267.752	78.31
267.984	87.31
268.216	85.31
268.448	87.31
268.681	91.31
268.913	86.31
269.145	88.31
269.377	87.31
269.609	95.31
269.841	102.31
270.073	92.31
270.306	73.31
270.538	81.31
270.77	100.31
271.002	85.31
271.234	84.31
271.466	90.31
271.698	92.31
271.93	81.31
272.162	83.31
272.394	84.31
272.626	85.31
272.858	79.31
273.09	85.31
273.322	83.31
273.553	84.31
273.785	86.31
274.017	88.31
274.249	84.31
274.481	79.31
274.713	71.31
274.945	94.31
275.176	78.31
275.408	71.31
275.64	85.31
275.872	78.31
276.104	81.31
276.335	90.31
276.567	92.31
276.799	68.31
277.031	95.31
277.262	90.31
277.494	95.31
277.726	86.31
277.957	82.31
278.189	83.31
278.421	85.31
278.652	87.31
278.884	89.31
279.115	91.31
279.347	95.31
279.579	85.31
279.81	83.31
280.042	88.31
280.273	84.31
280.505	84.31
280.736	87.31
280.968	87.31
281.199	88.31
281.431	78.31
281.662	85.31
281.894	87.31
282.125	82.31
282.356	83.31
282.588	95.31
282.819	98.31
283.051	79.31
283.282	96.31
283.513	89.31
283.745	87.31
283.976	81.31
284.207	92.31
284.439	83.31
284.67	82.31
284.901	91.31
285.132	82.31
285.364	79.31
285.595	101.31
285.826	75.31
286.057	97.31
286.288	83.31
286.52	77.31
286.751	82.31
286.982	85.31
287.213	89.31
287.444	79.31
287.675	76.31
287.906	93.31
288.138	77.31
288.369	85.31
288.6	93.31
288.831	84.31
289.062	89.31
289.293	85.31
289.524	80.31
289.755	91.31
289.986	93.31
290.217	77.31
290.448	93.31
290.679	85.31
290.91	90.31
291.141	78.31
291.371	88.31
291.602	89.31
291.833	91.31
292.064	69.31
292.295	95.31
292.526	83.31
292.757	75.31
292.987	96.31
293.218	83.31
293.449	79.31
293.68	92.31
293.91	91.31
294.141	83.31
294.372	93.31
294.603	89.31
294.833	94.31
295.064	85.31
295.295	87.31
295.525	82.31
295.756	89.31
295.987	90.31
296.217	90.31
296.448	86.31
296.679	91.31
296.909	87.31
297.14	85.31
297.37	89.31
297.601	87.31
297.831	85.31
298.062	97.31
298.292	90.31
298.523	75.31
298.753	96.31
298.984	98.31
299.214	89.31
299.445	91.31
299.675	86.31
299.905	105.31
300.136	93.31
300.366	73.31
300.597	86.31
300.827	85.31
301.057	93.31
301.288	86.31
301.518	88.31
301.748	83.31
301.979	71.31
302.209	81.31
302.439	94.31
302.669	95.31
302.9	89.31
303.13	90.31
303.36	78.31
303.59	93.31
303.82	92.31
304.051	86.31
304.281	97.31
304.511	84.31
304.741	69.31
304.971	93.31
305.201	82.31
305.431	75.31
305.661	89.31
305.891	83.31
306.121	85.31
306.352	83.31
306.582	89.31
306.812	71.31
307.042	84.31
307.272	74.31
307.502	80.31
307.731	88.31
307.961	84.31
308.191	88.31
308.421	95.31
308.651	79.31
308.881	85.31
309.111	89.31
309.341	89.31
309.571	82.31
309.8	85.31
310.03	95.31
310.26	85.31
310.49	86.31
310.72	86.31
310.949	90.31
311.179	78.31
311.409	84.31
311.639	91.31
311.868	90.31
312.098	94.31
312.328	87.31
312.557	88.31
312.787	81.31
313.017	79.31
313.246	74.31
313.476	80.31
313.706	91.31
313.935	89.31
314.165	76.31
314.394	83.31
314.624	75.31
314.853	82.31
315.083	86.31
315.312	90.31
315.542	98.31
315.771	90.31
316.001	102.31
316.23	81.31
316.46	77.31
316.689	78.31
316.919	79.31
317.148	75.31
317.377	88.31
317.607	78.31
317.836	70.31
318.065	87.31
318.295	90.31
318.524	87.31
318.753	93.31
318.983	86.31
319.212	74.31
319.441	88.31
319.67	89.31
319.9	70.31
320.129	98.31
320.358	74.31
320.587	98.31
320.816	83.31
321.046	73.31
321.275	101.31
321.504	86.31
321.733	96.31
321.962	81.31
322.191	86.31
322.42	92.31
322.649	83.31
322.878	83.31
323.108	88.31
323.337	77.31
323.566	89.31
323.795	80.31
324.024	87.31
324.253	83.31
324.482	88.31
324.71	92.31
324.939	97.31
325.168	78.31
325.397	81.31
325.626	82.31
325.855	84.31
326.084	88.31
326.313	93.31
326.542	94.31
326.77	87.31
326.999	88.31
327.228	87.31
327.457	93.31
327.686	87.31
327.914	86.31
328.143	93.31
328.372	76.31
328.6	87.31
328.829	94.31
329.058	85.31
329.287	91.31
329.515	82.31
329.744	81.31
329.972	80.31
330.201	96.31
330.43	93.31
330.658	93.31
330.887	77.31
331.115	92.31
331.344	85.31
331.572	86.31
331.801	87.31
332.03	85.31
332.258	74.31
332.486	92.31
332.715	95.31
332.943	91.31
333.172	89.31
333.4	93.31
333.629	97.31
333.857	83.31
334.085	89.31
334.314	105.31
334.542	81.31
334.771	91.31
334.999	90.31
335.227	85.31
335.455	92.31
335.684	84.31
335.912	90.31
336.14	88.31
336.369	66.31
336.597	86.31
336.825	90.31
337.053	77.31
337.281	72.31
337.51	91.31
337.738	85.31
337.966	73.31
338.194	88.31
338.422	85.31
338.65	79.31
338.878	100.31
339.106	89.31
339.334	81.31
339.562	80.31
339.79	79.31
340.018	83.31
340.246	73.31
340.474	74.31
340.702	78.31
340.93	89.31
341.158	91.31
341.386	90.31
341.614	63.31
341.842	83.31
342.07	79.31
342.298	76.31
342.526	78.31
342.754	86.31
342.981	72.31
343.209	76.31
343.437	86.31
343.665	84.31
343.893	87.31
344.12	84.31
344.348	87.31
344.576	83.31
344.804	78.31
345.031	77.31
345.259	69.31
345.487	80.31
345.714	83.31
345.942	82.31
346.17	72.31
346.397	76.31
346.625	90.31
346.853	87.31
347.08	81.31
347.308	71.31
347.535	84.31
347.763	79.31
347.99	74.31
348.218	91.31
348.445	77.31
348.673	68.31
348.9	85.31
349.128	76.31
349.355	81.31
349.583	80.31
349.81	90.31
350.037	87.31
350.265	86.31
350.492	87.31
350.72	98.31
350.947	95.31
351.174	83.31
351.402	85.31
351.629	83.31
351.856	83.31
352.083	81.31
352.311	88.31
352.538	84.31
352.765	94.31
352.992	82.31
353.22	89.31
353.447	91.31
353.674	84.31
353.901	85.31
354.128	89.31
354.355	78.31
354.583	92.31
354.81	83.31
355.037	86.31
355.264	81.31
355.491	86.31
355.718	89.31
355.945	81.31
356.172	87.31
356.399	95.31
356.626	87.31
356.853	95.31
357.08	74.31
357.307	79.31
357.534	91.31
357.761	95.31
357.988	96.31
358.215	80.31
358.441	97.31
358.668	79.31
358.895	101.31
359.122	78.31
359.349	89.31
359.576	78.31
359.802	78.31
360.029	88.31
360.256	75.31
360.483	77.31
360.709	96.31
360.936	76.31
361.163	72.31
361.39	78.31
361.616	76.31
361.843	75.31
362.07	107.31
362.296	78.31
362.523	82.31
362.749	76.31
362.976	82.31
363.203	91.31
363.429	81.31
363.656	79.31
363.882	84.31
364.109	86.31
364.335	82.31
364.562	89.31
364.788	85.31
365.015	94.31
365.241	85.31
365.468	89.31
365.694	77.31
365.92	78.31
366.147	75.31
366.373	85.31
366.599	93.31
366.826	79.31
367.052	89.31
367.278	79.31
367.505	82.31
367.731	91.31
367.957	68.31
368.184	85.31
368.41	95.31
368.636	94.31
368.862	90.31
369.089	101.31
369.315	88.31
369.541	95.31
369.767	82.31
369.993	81.31
370.219	94.31
370.445	88.31
370.672	81.31
370.898	87.31
371.124	79.31
371.35	89.31
371.576	95.31
371.802	96.31
372.028	89.31
372.254	89.31
372.48	92.31
372.706	81.31
372.932	85.31
373.158	86.31
373.384	86.31
373.61	82.31
373.835	85.31
374.061	85.31
374.287	91.31
374.513	83.31
374.739	89.31
374.965	82.31
375.191	94.31
375.416	92.31
375.642	82.31
375.868	72.31
376.094	84.31
376.319	83.31
376.545	97.31
376.771	100.31
376.997	81.31
377.222	93.31
377.448	91.31
377.674	93.31
377.899	76.31
378.125	73.31
378.35	91.31
378.576	98.31
378.802	85.31
379.027	95.31
379.253	85.31
379.478	95.31
379.704	86.31
379.929	79.31
380.155	88.31
380.38	87.31
380.606	84.31
380.831	81.31
381.057	92.31
381.282	91.31
381.507	82.31
381.733	89.31
381.958	87.31
382.184	86.31
382.409	78.31
382.634	77.31
382.86	90.31
383.085	98.31
383.31	84.31
383.535	81.31
383.761	79.31
383.986	82.31
384.211	94.31
384.436	97.31
384.662	89.31
384.887	86.31
385.112	96.31
385.337	97.31
385.562	83.31
385.787	79.31
386.013	93.31
386.238	86.31
386.463	85.31
386.688	92.31
386.913	83.31
387.138	95.31
387.363	96.31
387.588	91.31
387.813	90.31
388.038	89.31
388.263	80.31
388.488	86.31
388.713	89.31
388.938	79.31
389.163	102.31
389.387	104.31
389.612	87.31
389.837	94.31
390.062	96.31
390.287	93.31
390.512	90.31
390.736	79.31
390.961	81.31
391.186	94.31
391.411	94.31
391.636	95.31
391.86	97.31
392.085	78.31
392.31	85.31
392.534	91.31
392.759	102.31
392.984	101.31
393.208	91.31
393.433	88.31
393.658	94.31
393.882	80.31
394.107	101.31
394.331	94.31
394.556	99.31
394.78	102.31
395.005	83.31
395.229	87.31
395.454	104.31
395.678	90.31
395.903	94.31
396.127	79.31
396.352	99.31
396.576	94.31
396.801	101.31
397.025	103.31
397.249	109.31
397.474	101.31
397.698	92.31
397.922	89.31
398.147	89.31
398.371	93.31
398.595	91.31
398.82	91.31
399.044	96.31
399.268	95.31
399.492	107.31
399.717	103.31
399.941	106.31
400.165	102.31
400.389	87.31
400.613	89.31
400.837	86.31
401.062	102.31
401.286	106.31
401.51	95.31
401.734	90.31
401.958	92.31
402.182	91.31
402.406	89.31
402.63	103.31
402.854	90.31
403.078	87.31
403.302	90.31
403.526	85.31
403.75	87.31
403.974	86.31
404.198	92.31
404.422	105.31
404.645	84.31
404.869	95.31
405.093	105.31
405.317	94.31
405.541	95.31
405.765	105.31
405.988	106.31
406.212	89.31
406.436	106.31
406.66	103.31
406.883	105.31
407.107	102.31
407.331	102.31
407.555	88.31
407.778	104.31
408.002	101.31
408.226	105.31
408.449	98.31
408.673	100.31
408.896	99.31
409.12	100.31
409.344	97.31
409.567	102.31
409.791	88.31
410.014	102.31
410.238	95.31
410.461	93.31
410.685	100.31
410.908	82.31
411.132	98.31
411.355	113.31
411.578	99.31
411.802	79.31
412.025	95.31
412.249	108.31
412.472	113.31
412.695	105.31
412.919	102.31
413.142	106.31
413.365	95.31
413.589	107.31
413.812	90.31
414.035	97.31
414.258	113.31
414.482	107.31
414.705	106.31
414.928	107.31
415.151	110.31
415.374	104.31
415.597	98.31
415.821	89.31
416.044	97.31
416.267	102.31
416.49	117.31
416.713	104.31
416.936	96.31
417.159	96.31
417.382	92.31
417.605	103.31
417.828	113.31
418.051	100.31
418.274	95.31
418.497	98.31
418.72	104.31
418.943	101.31
419.166	97.31
419.389	117.31
419.611	102.31
419.834	104.31
420.057	115.31
420.28	117.31
420.503	115.31
420.726	117.31
420.948	109.31
421.171	113.31
421.394	124.31
421.617	112.31
421.839	120.31
422.062	116.31
422.285	107.31
422.507	102.31
422.73	96.31
422.953	97.31
423.175	109.31
423.398	102.31
423.621	101.31
423.843	111.31
424.066	115.31
424.288	118.31
424.511	115.31
424.733	107.31
424.956	100.31
425.178	109.31
425.401	121.31
425.623	109.31
425.846	106.31
426.068	101.31
426.291	108.31
426.513	110.31
426.735	104.31
426.958	110.31
427.18	120.31
427.402	101.31
427.625	110.31
427.847	97.31
428.069	110.31
428.292	102.31
428.514	113.31
428.736	103.31
428.958	97.31
429.181	109.31
429.403	99.31
429.625	105.31
429.847	102.31
430.069	120.31
430.292	125.31
430.514	103.31
430.736	102.31
430.958	96.31
431.18	108.31
431.402	95.31
431.624	116.31
431.846	93.31
432.068	104.31
432.29	94.31
432.512	106.31
432.734	104.31
432.956	101.31
433.178	101.31
433.4	106.31
433.622	103.31
433.844	113.31
434.066	106.31
434.287	98.31
434.509	87.31
434.731	85.31
434.953	90.31
435.175	110.31
435.397	100.31
435.618	90.31
435.84	81.31
436.062	114.31
436.284	99.31
436.505	107.31
436.727	103.31
436.949	95.31
437.17	108.31
437.392	97.31
437.614	88.31
437.835	107.31
438.057	94.31
438.278	90.31
438.5	86.31
438.721	115.31
438.943	102.31
439.165	103.31
439.386	109.31
439.608	111.31
439.829	112.31
440.05	113.31
440.272	109.31
440.493	113.31
440.715	115.31
440.936	110.31
441.158	113.31
441.379	109.31
441.6	101.31
441.822	109.31
442.043	109.31
442.264	110.31
442.486	101.31
442.707	101.31
442.928	113.31
443.149	128.31
443.371	116.31
443.592	122.31
443.813	106.31
444.034	107.31
444.255	100.31
444.476	102.31
444.698	110.31
444.919	101.31
445.14	227.31
445.361	168.31
445.582	117.31
445.803	106.31
446.024	105.31
446.245	124.31
446.466	105.31
446.687	110.31
446.908	106.31
447.129	125.31
447.35	117.31
447.571	110.31
447.792	110.31
448.013	111.31
448.234	110.31
448.455	115.31
448.675	120.31
448.896	109.31
449.117	107.31
449.338	96.31
449.559	105.31
449.779	115.31
450	110.31
450.221	104.31
450.442	101.31
450.662	108.31
450.883	91.31
451.104	106.31
451.324	111.31
451.545	89.31
451.766	106.31
451.986	99.31
452.207	113.31
452.428	112.31
452.648	98.31
452.869	95.31
453.089	108.31
453.31	98.31
453.53	102.31
453.751	84.31
453.971	94.31
454.192	114.31
454.412	83.31
454.633	88.31
454.853	120.31
455.073	107.31
455.294	113.31
455.514	107.31
455.734	108.31
455.955	110.31
456.175	116.31
456.395	85.31
456.616	103.31
456.836	104.31
457.056	84.31
457.276	93.31
457.497	79.31
457.717	104.31
457.937	101.31
458.157	92.31
458.377	94.31
458.598	87.31
458.818	85.31
459.038	92.31
459.258	87.31
459.478	79.31
459.698	95.31
459.918	100.31
460.138	93.31
460.358	86.31
460.578	97.31
460.798	105.31
461.018	92.31
461.238	108.31
461.458	95.31
461.678	102.31
461.898	97.31
462.118	102.31
462.338	97.31
462.558	109.31
462.777	91.31
462.997	103.31
463.217	93.31
463.437	94.31
463.657	91.31
463.876	103.31
464.096	106.31
464.316	102.31
464.536	101.31
464.755	91.31
464.975	80.31
465.195	105.31
465.414	94.31
465.634	99.31
465.854	86.31
466.073	101.31
466.293	115.31
466.512	100.31
466.732	112.31
466.951	104.31
467.171	107.31
467.391	114.31
467.61	89.31
467.829	108.31
468.049	104.31
468.268	100.31
468.488	105.31
468.707	103.31
468.927	101.31
469.146	95.31
469.365	106.31
469.585	108.31
469.804	110.31
470.023	110.31
470.243	105.31
470.462	111.31
470.681	118.31
470.901	119.31
471.12	115.31
471.339	111.31
471.558	101.31
471.777	104.31
471.997	106.31
472.216	96.31
472.435	99.31
472.654	90.31
472.873	101.31
473.092	103.31
473.311	125.31
473.53	105.31
473.749	107.31
473.968	113.31
474.187	107.31
474.406	87.31
474.625	95.31
474.844	105.31
475.063	114.31
475.282	105.31
475.501	122.31
475.72	106.31
475.939	108.31
476.158	115.31
476.377	123.31
476.596	107.31
476.814	91.31
477.033	84.31
477.252	89.31
477.471	97.31
477.69	107.31
477.908	120.31
478.127	91.31
478.346	106.31
478.564	104.31
478.783	115.31
479.002	106.31
479.22	113.31
479.439	108.31
479.658	106.31
479.876	91.31
480.095	98.31
480.313	86.31
480.532	116.31
480.751	97.31
480.969	89.31
481.188	73.31
481.406	89.31
481.624	88.31
481.843	88.31
482.061	98.31
482.28	102.31
482.498	99.31
482.717	107.31
482.935	116.31
483.153	109.31
483.372	119.31
483.59	122.31
483.808	97.31
484.027	115.31
484.245	101.31
484.463	110.31
484.681	128.31
484.9	124.31
485.118	105.31
485.336	122.31
485.554	101.31
485.772	101.31
485.99	94.31
486.209	97.31
486.427	117.31
486.645	90.31
486.863	107.31
487.081	117.31
487.299	100.31
487.517	114.31
487.735	127.31
487.953	136.31
488.171	135.31
488.389	123.31
488.607	127.31
488.825	115.31
489.043	114.31
489.261	114.31
489.479	117.31
489.696	115.31
489.914	123.31
490.132	113.31
490.35	123.31
490.568	111.31
490.786	123.31
491.003	132.31
491.221	149.31
491.439	145.31
491.657	139.31
491.874	146.31
492.092	132.31
492.31	153.31
492.527	137.31
492.745	152.31
492.963	135.31
493.18	138.31
493.398	134.31
493.615	142.31
493.833	127.31
494.05	126.31
494.268	127.31
494.485	123.31
494.703	124.31
494.92	133.31
495.138	141.31
495.355	143.31
495.573	122.31
495.79	129.31
496.008	119.31
496.225	121.31
496.442	124.31
496.66	131.31
496.877	141.31
497.094	112.31
497.312	122.31
497.529	118.31
497.746	111.31
497.963	100.31
498.181	114.31
498.398	102.31
498.615	105.31
498.832	106.31
499.049	104.31
499.267	104.31
499.484	109.31
499.701	102.31
499.918	116.31
500.135	121.31
500.352	113.31
500.569	109.31
500.786	91.31
501.003	110.31
501.22	115.31
501.437	105.31
501.654	109.31
501.871	88.31
502.088	99.31
502.305	94.31
502.522	108.31
502.739	109.31
502.956	114.31
503.172	105.31
503.389	108.31
503.606	94.31
503.823	116.31
504.04	105.31
504.256	121.31
504.473	99.31
504.69	107.31
504.907	113.31
505.123	101.31
505.34	90.31
505.557	121.31
505.773	105.31
505.99	90.31
506.207	98.31
506.423	101.31
506.64	102.31
506.856	98.31
507.073	86.31
507.289	107.31
507.506	101.31
507.722	88.31
507.939	91.31
508.155	104.31
508.372	94.31
508.588	99.31
508.805	101.31
509.021	95.31
509.238	90.31
509.454	93.31
509.67	95.31
509.887	99.31
510.103	90.31
510.319	93.31
510.536	93.31
510.752	95.31
510.968	78.31
511.184	89.31
511.401	76.31
511.617	96.31
511.833	102.31
512.049	95.31
512.265	88.31
512.481	96.31
512.698	84.31
512.914	94.31
513.13	85.31
513.346	83.31
513.562	101.31
513.778	89.31
513.994	102.31
