Data from Zn(NO3)2Standard.Agarose3%.GreenCap.LampEnergy10E.O_HRD10591_15-08-45-950.txt Node
Date: Mon Jul 22 15:08:45 EDT 2019
User: cochatt
Spectrometer: HR+D1059
Trigger mode: 1
Integration Time (sec): 1.000000E-1
Scans to average: 1
Electric dark correction enabled: true
Nonlinearity correction enabled: false
Boxcar width: 0
XAxis mode: Wavelengths
Number of Pixels in Spectrum: 2048
>>>>>Begin Spectral Data<<<<<
223.165	-20.5
223.4	-20.5
223.635	-20.5
223.869	-16.5
224.104	-32.5
224.338	-7.5
224.573	-33.5
224.808	-3.5
225.042	9.5
225.277	-12.5
225.511	-17.5
225.746	-6.5
225.98	7.5
226.215	13.5
226.449	25.5
226.683	30.5
226.918	31.5
227.152	32.5
227.387	28.5
227.621	37.5
227.856	37.5
228.09	51.5
228.324	51.5
228.559	43.5
228.793	68.5
229.027	63.5
229.262	55.5
229.496	63.5
229.73	75.5
229.964	83.5
230.199	72.5
230.433	71.5
230.667	63.5
230.901	75.5
231.136	71.5
231.37	78.5
231.604	82.5
231.838	83.5
232.072	76.5
232.306	73.5
232.541	82.5
232.775	77.5
233.009	76.5
233.243	79.5
233.477	69.5
233.711	75.5
233.945	92.5
234.179	69.5
234.413	87.5
234.647	80.5
234.881	81.5
235.115	81.5
235.349	77.5
235.583	75.5
235.817	84.5
236.051	69.5
236.285	89.5
236.519	88.5
236.753	67.5
236.987	72.5
237.221	76.5
237.455	65.5
237.689	73.5
237.922	71.5
238.156	67.5
238.39	75.5
238.624	85.5
238.858	80.5
239.091	72.5
239.325	83.5
239.559	79.5
239.793	71.5
240.027	64.5
240.26	79.5
240.494	72.5
240.728	72.5
240.961	72.5
241.195	75.5
241.429	79.5
241.662	74.5
241.896	78.5
242.13	75.5
242.363	74.5
242.597	75.5
242.83	84.5
243.064	86.5
243.298	68.5
243.531	77.5
243.765	70.5
243.998	88.5
244.232	74.5
244.465	81.5
244.699	68.5
244.932	71.5
245.166	61.5
245.399	74.5
245.633	75.5
245.866	71.5
246.099	65.5
246.333	76.5
246.566	68.5
246.8	76.5
247.033	91.5
247.266	71.5
247.5	67.5
247.733	57.5
247.966	78.5
248.2	70.5
248.433	74.5
248.666	76.5
248.899	68.5
249.133	67.5
249.366	68.5
249.599	85.5
249.832	68.5
250.066	79.5
250.299	84.5
250.532	60.5
250.765	84.5
250.998	64.5
251.231	81.5
251.465	79.5
251.698	86.5
251.931	67.5
252.164	68.5
252.397	68.5
252.63	84.5
252.863	69.5
253.096	84.5
253.329	73.5
253.562	64.5
253.795	77.5
254.028	81.5
254.261	80.5
254.494	74.5
254.727	68.5
254.96	75.5
255.193	78.5
255.426	79.5
255.659	80.5
255.892	82.5
256.124	63.5
256.357	73.5
256.59	81.5
256.823	72.5
257.056	94.5
257.289	82.5
257.521	76.5
257.754	80.5
257.987	73.5
258.22	73.5
258.452	68.5
258.685	82.5
258.918	102.5
259.151	78.5
259.383	85.5
259.616	78.5
259.849	84.5
260.081	80.5
260.314	77.5
260.547	63.5
260.779	79.5
261.012	84.5
261.244	76.5
261.477	84.5
261.71	82.5
261.942	87.5
262.175	68.5
262.407	84.5
262.64	74.5
262.872	67.5
263.105	87.5
263.337	79.5
263.57	75.5
263.802	76.5
264.035	79.5
264.267	89.5
264.499	83.5
264.732	81.5
264.964	73.5
265.197	84.5
265.429	85.5
265.661	71.5
265.894	86.5
266.126	83.5
266.358	74.5
266.591	93.5
266.823	73.5
267.055	81.5
267.287	86.5
267.52	71.5
267.752	72.5
267.984	71.5
268.216	74.5
268.448	90.5
268.681	66.5
268.913	62.5
269.145	83.5
269.377	78.5
269.609	71.5
269.841	72.5
270.073	83.5
270.306	82.5
270.538	73.5
270.77	71.5
271.002	78.5
271.234	81.5
271.466	93.5
271.698	77.5
271.93	61.5
272.162	81.5
272.394	71.5
272.626	78.5
272.858	92.5
273.09	74.5
273.322	76.5
273.553	82.5
273.785	70.5
274.017	77.5
274.249	87.5
274.481	74.5
274.713	74.5
274.945	85.5
275.176	86.5
275.408	76.5
275.64	73.5
275.872	63.5
276.104	69.5
276.335	81.5
276.567	84.5
276.799	90.5
277.031	94.5
277.262	72.5
277.494	81.5
277.726	73.5
277.957	71.5
278.189	69.5
278.421	73.5
278.652	78.5
278.884	75.5
279.115	81.5
279.347	78.5
279.579	79.5
279.81	85.5
280.042	77.5
280.273	73.5
280.505	77.5
280.736	85.5
280.968	70.5
281.199	79.5
281.431	83.5
281.662	69.5
281.894	85.5
282.125	70.5
282.356	78.5
282.588	85.5
282.819	69.5
283.051	69.5
283.282	74.5
283.513	79.5
283.745	86.5
283.976	73.5
284.207	81.5
284.439	70.5
284.67	71.5
284.901	88.5
285.132	71.5
285.364	80.5
285.595	82.5
285.826	67.5
286.057	87.5
286.288	61.5
286.52	72.5
286.751	83.5
286.982	80.5
287.213	85.5
287.444	76.5
287.675	91.5
287.906	93.5
288.138	86.5
288.369	91.5
288.6	85.5
288.831	73.5
289.062	88.5
289.293	84.5
289.524	91.5
289.755	86.5
289.986	79.5
290.217	81.5
290.448	64.5
290.679	76.5
290.91	87.5
291.141	77.5
291.371	82.5
291.602	82.5
291.833	94.5
292.064	88.5
292.295	84.5
292.526	80.5
292.757	62.5
292.987	81.5
293.218	86.5
293.449	84.5
293.68	80.5
293.91	84.5
294.141	82.5
294.372	70.5
294.603	84.5
294.833	77.5
295.064	76.5
295.295	63.5
295.525	89.5
295.756	76.5
295.987	87.5
296.217	69.5
296.448	69.5
296.679	82.5
296.909	71.5
297.14	73.5
297.37	86.5
297.601	81.5
297.831	85.5
298.062	81.5
298.292	80.5
298.523	95.5
298.753	71.5
298.984	78.5
299.214	79.5
299.445	82.5
299.675	82.5
299.905	76.5
300.136	69.5
300.366	78.5
300.597	80.5
300.827	71.5
301.057	85.5
301.288	83.5
301.518	83.5
301.748	80.5
301.979	86.5
302.209	76.5
302.439	78.5
302.669	70.5
302.9	74.5
303.13	67.5
303.36	82.5
303.59	79.5
303.82	93.5
304.051	76.5
304.281	81.5
304.511	87.5
304.741	86.5
304.971	89.5
305.201	77.5
305.431	82.5
305.661	81.5
305.891	90.5
306.121	92.5
306.352	76.5
306.582	74.5
306.812	91.5
307.042	88.5
307.272	87.5
307.502	90.5
307.731	74.5
307.961	79.5
308.191	81.5
308.421	80.5
308.651	76.5
308.881	73.5
309.111	91.5
309.341	83.5
309.571	78.5
309.8	79.5
310.03	78.5
310.26	66.5
310.49	78.5
310.72	74.5
310.949	88.5
311.179	83.5
311.409	83.5
311.639	79.5
311.868	78.5
312.098	85.5
312.328	73.5
312.557	84.5
312.787	83.5
313.017	89.5
313.246	69.5
313.476	95.5
313.706	73.5
313.935	86.5
314.165	85.5
314.394	80.5
314.624	78.5
314.853	74.5
315.083	79.5
315.312	76.5
315.542	94.5
315.771	74.5
316.001	76.5
316.23	66.5
316.46	84.5
316.689	77.5
316.919	84.5
317.148	80.5
317.377	67.5
317.607	95.5
317.836	88.5
318.065	68.5
318.295	73.5
318.524	85.5
318.753	86.5
318.983	81.5
319.212	69.5
319.441	83.5
319.67	81.5
319.9	84.5
320.129	88.5
320.358	82.5
320.587	71.5
320.816	87.5
321.046	67.5
321.275	76.5
321.504	81.5
321.733	89.5
321.962	78.5
322.191	82.5
322.42	72.5
322.649	71.5
322.878	91.5
323.108	84.5
323.337	83.5
323.566	88.5
323.795	59.5
324.024	84.5
324.253	75.5
324.482	82.5
324.71	73.5
324.939	85.5
325.168	72.5
325.397	75.5
325.626	75.5
325.855	73.5
326.084	81.5
326.313	74.5
326.542	87.5
326.77	73.5
326.999	58.5
327.228	76.5
327.457	82.5
327.686	70.5
327.914	77.5
328.143	85.5
328.372	87.5
328.6	76.5
328.829	72.5
329.058	72.5
329.287	59.5
329.515	72.5
329.744	71.5
329.972	69.5
330.201	79.5
330.43	69.5
330.658	71.5
330.887	79.5
331.115	72.5
331.344	86.5
331.572	83.5
331.801	82.5
332.03	83.5
332.258	65.5
332.486	77.5
332.715	76.5
332.943	69.5
333.172	80.5
333.4	80.5
333.629	95.5
333.857	85.5
334.085	91.5
334.314	71.5
334.542	78.5
334.771	83.5
334.999	74.5
335.227	68.5
335.455	72.5
335.684	84.5
335.912	77.5
336.14	75.5
336.369	70.5
336.597	69.5
336.825	85.5
337.053	73.5
337.281	72.5
337.51	76.5
337.738	72.5
337.966	96.5
338.194	84.5
338.422	78.5
338.65	88.5
338.878	77.5
339.106	87.5
339.334	81.5
339.562	81.5
339.79	86.5
340.018	67.5
340.246	79.5
340.474	70.5
340.702	78.5
340.93	75.5
341.158	87.5
341.386	73.5
341.614	81.5
341.842	69.5
342.07	82.5
342.298	79.5
342.526	90.5
342.754	71.5
342.981	76.5
343.209	81.5
343.437	85.5
343.665	81.5
343.893	79.5
344.12	84.5
344.348	76.5
344.576	89.5
344.804	63.5
345.031	84.5
345.259	89.5
345.487	71.5
345.714	86.5
345.942	90.5
346.17	84.5
346.397	88.5
346.625	82.5
346.853	72.5
347.08	90.5
347.308	81.5
347.535	72.5
347.763	75.5
347.99	76.5
348.218	86.5
348.445	82.5
348.673	74.5
348.9	71.5
349.128	87.5
349.355	72.5
349.583	80.5
349.81	80.5
350.037	78.5
350.265	99.5
350.492	72.5
350.72	86.5
350.947	85.5
351.174	81.5
351.402	78.5
351.629	70.5
351.856	79.5
352.083	68.5
352.311	56.5
352.538	77.5
352.765	92.5
352.992	80.5
353.22	79.5
353.447	74.5
353.674	60.5
353.901	69.5
354.128	79.5
354.355	83.5
354.583	93.5
354.81	87.5
355.037	88.5
355.264	63.5
355.491	70.5
355.718	76.5
355.945	88.5
356.172	78.5
356.399	82.5
356.626	80.5
356.853	70.5
357.08	68.5
357.307	78.5
357.534	84.5
357.761	75.5
357.988	69.5
358.215	71.5
358.441	70.5
358.668	90.5
358.895	93.5
359.122	78.5
359.349	72.5
359.576	71.5
359.802	78.5
360.029	81.5
360.256	92.5
360.483	78.5
360.709	82.5
360.936	81.5
361.163	89.5
361.39	89.5
361.616	82.5
361.843	60.5
362.07	67.5
362.296	88.5
362.523	72.5
362.749	72.5
362.976	77.5
363.203	79.5
363.429	63.5
363.656	91.5
363.882	82.5
364.109	85.5
364.335	86.5
364.562	83.5
364.788	87.5
365.015	66.5
365.241	92.5
365.468	78.5
365.694	87.5
365.92	78.5
366.147	82.5
366.373	83.5
366.599	70.5
366.826	78.5
367.052	84.5
367.278	84.5
367.505	85.5
367.731	90.5
367.957	83.5
368.184	79.5
368.41	75.5
368.636	78.5
368.862	80.5
369.089	86.5
369.315	89.5
369.541	84.5
369.767	69.5
369.993	65.5
370.219	85.5
370.445	69.5
370.672	90.5
370.898	77.5
371.124	74.5
371.35	79.5
371.576	66.5
371.802	72.5
372.028	74.5
372.254	82.5
372.48	91.5
372.706	90.5
372.932	92.5
373.158	85.5
373.384	96.5
373.61	80.5
373.835	86.5
374.061	86.5
374.287	79.5
374.513	75.5
374.739	94.5
374.965	78.5
375.191	89.5
375.416	85.5
375.642	86.5
375.868	99.5
376.094	83.5
376.319	84.5
376.545	74.5
376.771	78.5
376.997	82.5
377.222	100.5
377.448	103.5
377.674	87.5
377.899	97.5
378.125	81.5
378.35	80.5
378.576	82.5
378.802	73.5
379.027	76.5
379.253	84.5
379.478	71.5
379.704	85.5
379.929	90.5
380.155	81.5
380.38	80.5
380.606	90.5
380.831	67.5
381.057	72.5
381.282	80.5
381.507	93.5
381.733	83.5
381.958	89.5
382.184	87.5
382.409	85.5
382.634	76.5
382.86	82.5
383.085	79.5
383.31	95.5
383.535	80.5
383.761	73.5
383.986	80.5
384.211	73.5
384.436	85.5
384.662	86.5
384.887	80.5
385.112	82.5
385.337	79.5
385.562	78.5
385.787	94.5
386.013	89.5
386.238	98.5
386.463	82.5
386.688	89.5
386.913	79.5
387.138	82.5
387.363	70.5
387.588	93.5
387.813	74.5
388.038	85.5
388.263	93.5
388.488	84.5
388.713	92.5
388.938	86.5
389.163	93.5
389.387	87.5
389.612	79.5
389.837	83.5
390.062	73.5
390.287	84.5
390.512	82.5
390.736	85.5
390.961	80.5
391.186	74.5
391.411	82.5
391.636	88.5
391.86	68.5
392.085	85.5
392.31	83.5
392.534	83.5
392.759	76.5
392.984	89.5
393.208	97.5
393.433	91.5
393.658	97.5
393.882	93.5
394.107	97.5
394.331	103.5
394.556	93.5
394.78	96.5
395.005	88.5
395.229	86.5
395.454	93.5
395.678	75.5
395.903	81.5
396.127	88.5
396.352	79.5
396.576	97.5
396.801	85.5
397.025	89.5
397.249	79.5
397.474	83.5
397.698	90.5
397.922	87.5
398.147	88.5
398.371	76.5
398.595	89.5
398.82	86.5
399.044	92.5
399.268	89.5
399.492	95.5
399.717	88.5
399.941	93.5
400.165	80.5
400.389	76.5
400.613	89.5
400.837	98.5
401.062	82.5
401.286	87.5
401.51	82.5
401.734	93.5
401.958	80.5
402.182	93.5
402.406	94.5
402.63	87.5
402.854	83.5
403.078	92.5
403.302	72.5
403.526	87.5
403.75	81.5
403.974	99.5
404.198	89.5
404.422	94.5
404.645	83.5
404.869	96.5
405.093	86.5
405.317	94.5
405.541	96.5
405.765	99.5
405.988	67.5
406.212	88.5
406.436	106.5
406.66	93.5
406.883	96.5
407.107	113.5
407.331	94.5
407.555	79.5
407.778	88.5
408.002	83.5
408.226	82.5
408.449	95.5
408.673	88.5
408.896	95.5
409.12	85.5
409.344	104.5
409.567	91.5
409.791	80.5
410.014	82.5
410.238	87.5
410.461	93.5
410.685	88.5
410.908	103.5
411.132	103.5
411.355	113.5
411.578	102.5
411.802	92.5
412.025	70.5
412.249	89.5
412.472	110.5
412.695	75.5
412.919	107.5
413.142	97.5
413.365	93.5
413.589	104.5
413.812	97.5
414.035	93.5
414.258	99.5
414.482	88.5
414.705	84.5
414.928	94.5
415.151	93.5
415.374	87.5
415.597	85.5
415.821	102.5
416.044	99.5
416.267	92.5
416.49	85.5
416.713	88.5
416.936	94.5
417.159	94.5
417.382	89.5
417.605	97.5
417.828	99.5
418.051	107.5
418.274	87.5
418.497	94.5
418.72	108.5
418.943	91.5
419.166	95.5
419.389	105.5
419.611	94.5
419.834	109.5
420.057	81.5
420.28	89.5
420.503	114.5
420.726	95.5
420.948	95.5
421.171	99.5
421.394	95.5
421.617	92.5
421.839	113.5
422.062	99.5
422.285	101.5
422.507	108.5
422.73	102.5
422.953	99.5
423.175	82.5
423.398	100.5
423.621	92.5
423.843	104.5
424.066	103.5
424.288	113.5
424.511	114.5
424.733	100.5
424.956	107.5
425.178	107.5
425.401	97.5
425.623	108.5
425.846	92.5
426.068	103.5
426.291	102.5
426.513	107.5
426.735	99.5
426.958	109.5
427.18	95.5
427.402	107.5
427.625	79.5
427.847	100.5
428.069	92.5
428.292	98.5
428.514	99.5
428.736	98.5
428.958	96.5
429.181	87.5
429.403	95.5
429.625	100.5
429.847	97.5
430.069	95.5
430.292	95.5
430.514	112.5
430.736	89.5
430.958	96.5
431.18	97.5
431.402	101.5
431.624	88.5
431.846	98.5
432.068	86.5
432.29	92.5
432.512	82.5
432.734	112.5
432.956	111.5
433.178	102.5
433.4	107.5
433.622	83.5
433.844	105.5
434.066	107.5
434.287	91.5
434.509	87.5
434.731	87.5
434.953	95.5
435.175	95.5
435.397	102.5
435.618	87.5
435.84	103.5
436.062	112.5
436.284	99.5
436.505	89.5
436.727	101.5
436.949	103.5
437.17	98.5
437.392	105.5
437.614	108.5
437.835	98.5
438.057	104.5
438.278	91.5
438.5	88.5
438.721	101.5
438.943	104.5
439.165	102.5
439.386	98.5
439.608	101.5
439.829	110.5
440.05	103.5
440.272	98.5
440.493	114.5
440.715	97.5
440.936	97.5
441.158	114.5
441.379	112.5
441.6	91.5
441.822	100.5
442.043	94.5
442.264	96.5
442.486	103.5
442.707	105.5
442.928	123.5
443.149	100.5
443.371	111.5
443.592	88.5
443.813	97.5
444.034	99.5
444.255	89.5
444.476	101.5
444.698	111.5
444.919	102.5
445.14	245.5
445.361	175.5
445.582	111.5
445.803	99.5
446.024	123.5
446.245	127.5
446.466	104.5
446.687	118.5
446.908	112.5
447.129	97.5
447.35	102.5
447.571	103.5
447.792	107.5
448.013	108.5
448.234	112.5
448.455	102.5
448.675	91.5
448.896	98.5
449.117	109.5
449.338	109.5
449.559	99.5
449.779	111.5
450	89.5
450.221	96.5
450.442	107.5
450.662	108.5
450.883	99.5
451.104	95.5
451.324	109.5
451.545	104.5
451.766	96.5
451.986	99.5
452.207	106.5
452.428	98.5
452.648	100.5
452.869	103.5
453.089	89.5
453.31	99.5
453.53	102.5
453.751	88.5
453.971	90.5
454.192	91.5
454.412	92.5
454.633	101.5
454.853	84.5
455.073	82.5
455.294	114.5
455.514	92.5
455.734	93.5
455.955	85.5
456.175	77.5
456.395	99.5
456.616	101.5
456.836	95.5
457.056	82.5
457.276	89.5
457.497	95.5
457.717	102.5
457.937	87.5
458.157	92.5
458.377	99.5
458.598	77.5
458.818	83.5
459.038	81.5
459.258	91.5
459.478	84.5
459.698	91.5
459.918	88.5
460.138	88.5
460.358	91.5
460.578	98.5
460.798	105.5
461.018	78.5
461.238	86.5
461.458	96.5
461.678	83.5
461.898	104.5
462.118	101.5
462.338	86.5
462.558	86.5
462.777	108.5
462.997	93.5
463.217	94.5
463.437	89.5
463.657	115.5
463.876	89.5
464.096	93.5
464.316	103.5
464.536	96.5
464.755	93.5
464.975	85.5
465.195	74.5
465.414	99.5
465.634	89.5
465.854	101.5
466.073	98.5
466.293	93.5
466.512	95.5
466.732	103.5
466.951	94.5
467.171	95.5
467.391	103.5
467.61	114.5
467.829	91.5
468.049	105.5
468.268	104.5
468.488	84.5
468.707	91.5
468.927	115.5
469.146	90.5
469.365	101.5
469.585	90.5
469.804	126.5
470.023	104.5
470.243	109.5
470.462	112.5
470.681	115.5
470.901	105.5
471.12	107.5
471.339	111.5
471.558	86.5
471.777	97.5
471.997	109.5
472.216	100.5
472.435	85.5
472.654	102.5
472.873	92.5
473.092	99.5
473.311	88.5
473.53	93.5
473.749	93.5
473.968	102.5
474.187	84.5
474.406	98.5
474.625	109.5
474.844	99.5
475.063	102.5
475.282	89.5
475.501	95.5
475.72	101.5
475.939	92.5
476.158	97.5
476.377	96.5
476.596	88.5
476.814	78.5
477.033	84.5
477.252	83.5
477.471	99.5
477.69	96.5
477.908	91.5
478.127	105.5
478.346	115.5
478.564	96.5
478.783	98.5
479.002	97.5
479.22	108.5
479.439	114.5
479.658	98.5
479.876	101.5
480.095	83.5
480.313	94.5
480.532	110.5
480.751	92.5
480.969	77.5
481.188	87.5
481.406	78.5
481.624	79.5
481.843	73.5
482.061	98.5
482.28	99.5
482.498	85.5
482.717	86.5
482.935	95.5
483.153	111.5
483.372	130.5
483.59	110.5
483.808	103.5
484.027	109.5
484.245	97.5
484.463	103.5
484.681	116.5
484.9	107.5
485.118	104.5
485.336	111.5
485.554	91.5
485.772	85.5
485.99	81.5
486.209	74.5
486.427	95.5
486.645	90.5
486.863	103.5
487.081	125.5
487.299	93.5
487.517	99.5
487.735	114.5
487.953	126.5
488.171	128.5
488.389	135.5
488.607	111.5
488.825	111.5
489.043	102.5
489.261	96.5
489.479	107.5
489.696	106.5
489.914	98.5
490.132	99.5
490.35	106.5
490.568	119.5
490.786	119.5
491.003	130.5
491.221	127.5
491.439	127.5
491.657	122.5
491.874	146.5
492.092	140.5
492.31	163.5
492.527	139.5
492.745	131.5
492.963	139.5
493.18	123.5
493.398	121.5
493.615	113.5
493.833	137.5
494.05	119.5
494.268	104.5
494.485	129.5
494.703	138.5
494.92	112.5
495.138	124.5
495.355	115.5
495.573	129.5
495.79	123.5
496.008	119.5
496.225	113.5
496.442	125.5
496.66	104.5
496.877	135.5
497.094	117.5
497.312	115.5
497.529	104.5
497.746	117.5
497.963	121.5
498.181	105.5
498.398	96.5
498.615	107.5
498.832	93.5
499.049	101.5
499.267	102.5
499.484	92.5
499.701	95.5
499.918	96.5
500.135	92.5
500.352	104.5
500.569	117.5
500.786	101.5
501.003	123.5
501.22	115.5
501.437	106.5
501.654	111.5
501.871	103.5
502.088	93.5
502.305	112.5
502.522	102.5
502.739	100.5
502.956	111.5
503.172	95.5
503.389	112.5
503.606	97.5
503.823	115.5
504.04	111.5
504.256	101.5
504.473	86.5
504.69	98.5
504.907	100.5
505.123	92.5
505.34	104.5
505.557	104.5
505.773	97.5
505.99	112.5
506.207	72.5
506.423	97.5
506.64	78.5
506.856	105.5
507.073	108.5
507.289	102.5
507.506	103.5
507.722	92.5
507.939	79.5
508.155	84.5
508.372	93.5
508.588	98.5
508.805	108.5
509.021	103.5
509.238	89.5
509.454	84.5
509.67	86.5
509.887	78.5
510.103	97.5
510.319	95.5
510.536	90.5
510.752	79.5
510.968	79.5
511.184	57.5
511.401	73.5
511.617	90.5
511.833	86.5
512.049	101.5
512.265	97.5
512.481	87.5
512.698	102.5
512.914	90.5
513.13	100.5
513.346	89.5
513.562	99.5
513.778	89.5
513.994	91.5
514.21	87.5
514.426	84.5
514.642	82.5
514.858	85.5
515.074	87.5
515.29	96.5
515.506	97.5
515.721	60.5
515.937	95.5
516.153	52.5
516.369	83.5
516.585	81.5
516.801	83.5
517.016	85.5
517.232	72.5
517.448	86.5
517.664	86.5
517.879	88.5
518.095	84.5
518.311	80.5
518.527	76.5
518.742	85.5
518.958	92.5
519.173	94.5
519.389	94.5
519.605	91.5
519.82	104.5
520.036	85.5
520.251	86.5
520.467	73.5
520.682	87.5
520.898	64.5
521.113	76.5
521.329	76.5
521.544	83.5
521.76	83.5
521.975	71.5
522.19	89.5
522.406	92.5
522.621	90.5
522.836	85.5
523.052	90.5
523.267	92.5
523.482	89.5
523.698	87.5
523.913	94.5
524.128	88.5
524.343	99.5
524.559	109.5
524.774	87.5
524.989	103.5
525.204	96.5
525.419	107.5
525.634	98.5
525.849	110.5
526.064	91.5
526.28	90.5
526.495	78.5
526.71	70.5
526.925	82.5
527.14	85.5
527.355	75.5
527.57	98.5
527.785	87.5
527.999	76.5
528.214	89.5
528.429	96.5
528.644	90.5
528.859	102.5
529.074	117.5
529.289	101.5
529.503	114.5
529.718	109.5
529.933	97.5
530.148	87.5
530.363	91.5
530.577	81.5
530.792	85.5
531.007	83.5
531.221	99.5
531.436	79.5
531.651	96.5
531.865	84.5
532.08	66.5
532.295	83.5
532.509	72.5
532.724	85.5
532.938	90.5
533.153	85.5
533.367	92.5
533.582	107.5
533.796	98.5
534.011	86.5
534.225	93.5
534.44	77.5
534.654	80.5
534.868	84.5
535.083	78.5
535.297	83.5
535.511	91.5
535.726	88.5
535.94	92.5
536.154	94.5
