Data from Zn(NO3)2Standard.Agarose3%.GreenCap.LampEnergy5.5.E.O_HRD10591_15-01-56-768.txt Node
Date: Mon Jul 22 15:01:56 EDT 2019
User: cochatt
Spectrometer: HR+D1059
Trigger mode: 1
Integration Time (sec): 1.000000E-1
Scans to average: 1
Electric dark correction enabled: true
Nonlinearity correction enabled: false
Boxcar width: 0
XAxis mode: Wavelengths
Number of Pixels in Spectrum: 2048
>>>>>Begin Spectral Data<<<<<
223.165	-13.06
223.4	-13.06
223.635	-13.06
223.869	-18.06
224.104	-21.06
224.338	-5.06
224.573	-25.06
224.808	-20.06
225.042	-12.06
225.277	-2.06
225.511	-5.06
225.746	8.94
225.98	-10.06
226.215	5.94
226.449	27.94
226.683	28.94
226.918	34.94
227.152	24.94
227.387	36.94
227.621	39.94
227.856	50.94
228.09	59.94
228.324	48.94
228.559	54.94
228.793	63.94
229.027	55.94
229.262	72.94
229.496	56.94
229.73	62.94
229.964	65.94
230.199	67.94
230.433	73.94
230.667	75.94
230.901	73.94
231.136	69.94
231.37	76.94
231.604	71.94
231.838	65.94
232.072	73.94
232.306	86.94
232.541	86.94
232.775	84.94
233.009	69.94
233.243	75.94
233.477	83.94
233.711	84.94
233.945	81.94
234.179	78.94
234.413	79.94
234.647	73.94
234.881	80.94
235.115	73.94
235.349	82.94
235.583	82.94
235.817	76.94
236.051	81.94
236.285	72.94
236.519	86.94
236.753	81.94
236.987	69.94
237.221	73.94
237.455	69.94
237.689	73.94
237.922	71.94
238.156	89.94
238.39	77.94
238.624	83.94
238.858	74.94
239.091	70.94
239.325	87.94
239.559	71.94
239.793	87.94
240.027	78.94
240.26	74.94
240.494	64.94
240.728	76.94
240.961	75.94
241.195	78.94
241.429	76.94
241.662	76.94
241.896	63.94
242.13	79.94
242.363	64.94
242.597	83.94
242.83	76.94
243.064	78.94
243.298	74.94
243.531	64.94
243.765	75.94
243.998	77.94
244.232	80.94
244.465	82.94
244.699	74.94
244.932	75.94
245.166	69.94
245.399	81.94
245.633	77.94
245.866	83.94
246.099	96.94
246.333	72.94
246.566	69.94
246.8	88.94
247.033	76.94
247.266	67.94
247.5	54.94
247.733	63.94
247.966	74.94
248.2	79.94
248.433	63.94
248.666	65.94
248.899	73.94
249.133	61.94
249.366	81.94
249.599	87.94
249.832	85.94
250.066	78.94
250.299	71.94
250.532	89.94
250.765	79.94
250.998	79.94
251.231	83.94
251.465	67.94
251.698	86.94
251.931	94.94
252.164	75.94
252.397	74.94
252.63	84.94
252.863	82.94
253.096	72.94
253.329	79.94
253.562	84.94
253.795	69.94
254.028	83.94
254.261	73.94
254.494	81.94
254.727	87.94
254.96	83.94
255.193	73.94
255.426	80.94
255.659	79.94
255.892	82.94
256.124	101.94
256.357	69.94
256.59	83.94
256.823	75.94
257.056	84.94
257.289	75.94
257.521	79.94
257.754	72.94
257.987	88.94
258.22	90.94
258.452	72.94
258.685	59.94
258.918	80.94
259.151	94.94
259.383	88.94
259.616	80.94
259.849	72.94
260.081	78.94
260.314	85.94
260.547	81.94
260.779	75.94
261.012	88.94
261.244	86.94
261.477	80.94
261.71	74.94
261.942	74.94
262.175	87.94
262.407	83.94
262.64	77.94
262.872	67.94
263.105	79.94
263.337	87.94
263.57	86.94
263.802	91.94
264.035	67.94
264.267	69.94
264.499	70.94
264.732	76.94
264.964	84.94
265.197	81.94
265.429	82.94
265.661	72.94
265.894	75.94
266.126	77.94
266.358	86.94
266.591	84.94
266.823	81.94
267.055	69.94
267.287	93.94
267.52	75.94
267.752	67.94
267.984	79.94
268.216	76.94
268.448	81.94
268.681	94.94
268.913	74.94
269.145	75.94
269.377	88.94
269.609	78.94
269.841	80.94
270.073	81.94
270.306	77.94
270.538	76.94
270.77	88.94
271.002	92.94
271.234	86.94
271.466	87.94
271.698	89.94
271.93	72.94
272.162	81.94
272.394	73.94
272.626	88.94
272.858	68.94
273.09	86.94
273.322	86.94
273.553	91.94
273.785	94.94
274.017	75.94
274.249	79.94
274.481	88.94
274.713	82.94
274.945	91.94
275.176	82.94
275.408	92.94
275.64	78.94
275.872	81.94
276.104	81.94
276.335	96.94
276.567	87.94
276.799	75.94
277.031	83.94
277.262	74.94
277.494	86.94
277.726	77.94
277.957	68.94
278.189	84.94
278.421	82.94
278.652	96.94
278.884	95.94
279.115	80.94
279.347	85.94
279.579	80.94
279.81	89.94
280.042	81.94
280.273	81.94
280.505	81.94
280.736	80.94
280.968	74.94
281.199	85.94
281.431	88.94
281.662	89.94
281.894	87.94
282.125	81.94
282.356	67.94
282.588	78.94
282.819	69.94
283.051	82.94
283.282	82.94
283.513	76.94
283.745	78.94
283.976	85.94
284.207	88.94
284.439	92.94
284.67	82.94
284.901	77.94
285.132	88.94
285.364	84.94
285.595	84.94
285.826	85.94
286.057	94.94
286.288	88.94
286.52	59.94
286.751	85.94
286.982	84.94
287.213	75.94
287.444	87.94
287.675	81.94
287.906	89.94
288.138	73.94
288.369	80.94
288.6	92.94
288.831	74.94
289.062	80.94
289.293	90.94
289.524	89.94
289.755	94.94
289.986	89.94
290.217	86.94
290.448	67.94
290.679	70.94
290.91	79.94
291.141	91.94
291.371	88.94
291.602	91.94
291.833	91.94
292.064	86.94
292.295	85.94
292.526	75.94
292.757	86.94
292.987	92.94
293.218	81.94
293.449	83.94
293.68	95.94
293.91	79.94
294.141	79.94
294.372	76.94
294.603	84.94
294.833	63.94
295.064	84.94
295.295	81.94
295.525	84.94
295.756	86.94
295.987	98.94
296.217	94.94
296.448	76.94
296.679	82.94
296.909	83.94
297.14	91.94
297.37	86.94
297.601	87.94
297.831	83.94
298.062	86.94
298.292	78.94
298.523	74.94
298.753	85.94
298.984	85.94
299.214	97.94
299.445	91.94
299.675	94.94
299.905	80.94
300.136	91.94
300.366	84.94
300.597	64.94
300.827	84.94
301.057	81.94
301.288	84.94
301.518	89.94
301.748	71.94
301.979	74.94
302.209	89.94
302.439	78.94
302.669	80.94
302.9	85.94
303.13	94.94
303.36	92.94
303.59	99.94
303.82	82.94
304.051	72.94
304.281	88.94
304.511	75.94
304.741	81.94
304.971	89.94
305.201	83.94
305.431	82.94
305.661	94.94
305.891	77.94
306.121	81.94
306.352	81.94
306.582	84.94
306.812	82.94
307.042	84.94
307.272	90.94
307.502	71.94
307.731	76.94
307.961	83.94
308.191	75.94
308.421	88.94
308.651	88.94
308.881	86.94
309.111	69.94
309.341	82.94
309.571	82.94
309.8	83.94
310.03	89.94
310.26	72.94
310.49	72.94
310.72	71.94
310.949	80.94
311.179	79.94
311.409	78.94
311.639	77.94
311.868	88.94
312.098	88.94
312.328	87.94
312.557	89.94
312.787	78.94
313.017	80.94
313.246	88.94
313.476	78.94
313.706	70.94
313.935	73.94
314.165	76.94
314.394	78.94
314.624	84.94
314.853	87.94
315.083	85.94
315.312	79.94
315.542	101.94
315.771	80.94
316.001	92.94
316.23	93.94
316.46	74.94
316.689	76.94
316.919	91.94
317.148	83.94
317.377	74.94
317.607	81.94
317.836	83.94
318.065	81.94
318.295	79.94
318.524	75.94
318.753	88.94
318.983	88.94
319.212	80.94
319.441	90.94
319.67	95.94
319.9	80.94
320.129	75.94
320.358	77.94
320.587	86.94
320.816	79.94
321.046	74.94
321.275	73.94
321.504	87.94
321.733	86.94
321.962	90.94
322.191	75.94
322.42	91.94
322.649	76.94
322.878	79.94
323.108	81.94
323.337	75.94
323.566	69.94
323.795	88.94
324.024	78.94
324.253	83.94
324.482	83.94
324.71	88.94
324.939	86.94
325.168	61.94
325.397	71.94
325.626	75.94
325.855	75.94
326.084	76.94
326.313	86.94
326.542	84.94
326.77	90.94
326.999	83.94
327.228	83.94
327.457	80.94
327.686	75.94
327.914	80.94
328.143	88.94
328.372	79.94
328.6	84.94
328.829	82.94
329.058	75.94
329.287	80.94
329.515	79.94
329.744	80.94
329.972	79.94
330.201	79.94
330.43	75.94
330.658	75.94
330.887	94.94
331.115	78.94
331.344	80.94
331.572	81.94
331.801	90.94
332.03	84.94
332.258	70.94
332.486	70.94
332.715	87.94
332.943	93.94
333.172	83.94
333.4	84.94
333.629	100.94
333.857	84.94
334.085	68.94
334.314	80.94
334.542	84.94
334.771	92.94
334.999	86.94
335.227	61.94
335.455	82.94
335.684	64.94
335.912	83.94
336.14	70.94
336.369	85.94
336.597	79.94
336.825	90.94
337.053	81.94
337.281	74.94
337.51	82.94
337.738	74.94
337.966	74.94
338.194	86.94
338.422	80.94
338.65	87.94
338.878	86.94
339.106	85.94
339.334	82.94
339.562	87.94
339.79	83.94
340.018	83.94
340.246	75.94
340.474	88.94
340.702	75.94
340.93	91.94
341.158	80.94
341.386	76.94
341.614	86.94
341.842	78.94
342.07	80.94
342.298	86.94
342.526	82.94
342.754	94.94
342.981	86.94
343.209	89.94
343.437	78.94
343.665	75.94
343.893	84.94
344.12	76.94
344.348	77.94
344.576	78.94
344.804	76.94
345.031	83.94
345.259	76.94
345.487	72.94
345.714	81.94
345.942	76.94
346.17	70.94
346.397	89.94
346.625	93.94
346.853	76.94
347.08	75.94
347.308	79.94
347.535	70.94
347.763	75.94
347.99	92.94
348.218	84.94
348.445	82.94
348.673	80.94
348.9	88.94
349.128	98.94
349.355	89.94
349.583	86.94
349.81	67.94
350.037	84.94
350.265	79.94
350.492	86.94
350.72	78.94
350.947	90.94
351.174	81.94
351.402	87.94
351.629	57.94
351.856	84.94
352.083	78.94
352.311	76.94
352.538	87.94
352.765	81.94
352.992	82.94
353.22	90.94
353.447	89.94
353.674	82.94
353.901	79.94
354.128	67.94
354.355	76.94
354.583	81.94
354.81	74.94
355.037	91.94
355.264	82.94
355.491	67.94
355.718	67.94
355.945	68.94
356.172	88.94
356.399	92.94
356.626	79.94
356.853	82.94
357.08	78.94
357.307	88.94
357.534	73.94
357.761	65.94
357.988	77.94
358.215	87.94
358.441	74.94
358.668	86.94
358.895	77.94
359.122	92.94
359.349	87.94
359.576	92.94
359.802	90.94
360.029	82.94
360.256	71.94
360.483	96.94
360.709	79.94
360.936	88.94
361.163	88.94
361.39	76.94
361.616	87.94
361.843	85.94
362.07	92.94
362.296	79.94
362.523	75.94
362.749	91.94
362.976	93.94
363.203	91.94
363.429	76.94
363.656	73.94
363.882	90.94
364.109	84.94
364.335	79.94
364.562	65.94
364.788	77.94
365.015	89.94
365.241	82.94
365.468	84.94
365.694	76.94
365.92	75.94
366.147	82.94
366.373	83.94
366.599	72.94
366.826	78.94
367.052	75.94
367.278	84.94
367.505	75.94
367.731	87.94
367.957	77.94
368.184	87.94
368.41	74.94
368.636	80.94
368.862	90.94
369.089	82.94
369.315	86.94
369.541	76.94
369.767	89.94
369.993	78.94
370.219	75.94
370.445	73.94
370.672	71.94
370.898	64.94
371.124	95.94
371.35	83.94
371.576	89.94
371.802	84.94
372.028	70.94
372.254	75.94
372.48	83.94
372.706	92.94
372.932	88.94
373.158	80.94
373.384	95.94
373.61	64.94
373.835	68.94
374.061	87.94
374.287	74.94
374.513	88.94
374.739	94.94
374.965	82.94
375.191	83.94
375.416	72.94
375.642	80.94
375.868	72.94
376.094	85.94
376.319	85.94
376.545	76.94
376.771	102.94
376.997	84.94
377.222	80.94
377.448	86.94
377.674	84.94
377.899	80.94
378.125	71.94
378.35	83.94
378.576	75.94
378.802	71.94
379.027	74.94
379.253	66.94
379.478	76.94
379.704	86.94
379.929	83.94
380.155	81.94
380.38	91.94
380.606	84.94
380.831	90.94
381.057	89.94
381.282	79.94
381.507	88.94
381.733	77.94
381.958	90.94
382.184	68.94
382.409	79.94
382.634	89.94
382.86	76.94
383.085	82.94
383.31	75.94
383.535	76.94
383.761	85.94
383.986	98.94
384.211	80.94
384.436	70.94
384.662	89.94
384.887	91.94
385.112	80.94
385.337	87.94
385.562	88.94
385.787	89.94
386.013	94.94
386.238	75.94
386.463	81.94
386.688	91.94
386.913	72.94
387.138	65.94
387.363	75.94
387.588	91.94
387.813	82.94
388.038	82.94
388.263	72.94
388.488	66.94
388.713	91.94
388.938	80.94
389.163	78.94
389.387	76.94
389.612	78.94
389.837	59.94
390.062	84.94
390.287	78.94
390.512	88.94
390.736	81.94
390.961	86.94
391.186	92.94
391.411	94.94
391.636	81.94
391.86	79.94
392.085	76.94
392.31	79.94
392.534	89.94
392.759	76.94
392.984	91.94
393.208	84.94
393.433	90.94
393.658	89.94
393.882	85.94
394.107	82.94
394.331	89.94
394.556	84.94
394.78	83.94
395.005	85.94
395.229	76.94
395.454	94.94
395.678	81.94
395.903	64.94
396.127	84.94
396.352	91.94
396.576	86.94
396.801	89.94
397.025	74.94
397.249	80.94
397.474	66.94
397.698	84.94
397.922	81.94
398.147	79.94
398.371	75.94
398.595	93.94
398.82	81.94
399.044	79.94
399.268	80.94
399.492	89.94
399.717	84.94
399.941	77.94
400.165	71.94
400.389	75.94
400.613	76.94
400.837	76.94
401.062	95.94
401.286	87.94
401.51	91.94
401.734	70.94
401.958	70.94
402.182	69.94
402.406	80.94
402.63	75.94
402.854	77.94
403.078	86.94
403.302	88.94
403.526	73.94
403.75	78.94
403.974	83.94
404.198	87.94
404.422	72.94
404.645	74.94
404.869	87.94
405.093	81.94
405.317	87.94
405.541	81.94
405.765	80.94
405.988	71.94
406.212	76.94
406.436	87.94
406.66	85.94
406.883	70.94
407.107	84.94
407.331	85.94
407.555	80.94
407.778	80.94
408.002	80.94
408.226	74.94
408.449	82.94
408.673	93.94
408.896	80.94
409.12	83.94
409.344	71.94
409.567	75.94
409.791	93.94
410.014	82.94
410.238	95.94
410.461	96.94
410.685	88.94
410.908	100.94
411.132	92.94
411.355	76.94
411.578	91.94
411.802	79.94
412.025	74.94
412.249	73.94
412.472	79.94
412.695	96.94
412.919	81.94
413.142	74.94
413.365	86.94
413.589	82.94
413.812	94.94
414.035	85.94
414.258	82.94
414.482	75.94
414.705	80.94
414.928	83.94
415.151	77.94
415.374	89.94
415.597	74.94
415.821	71.94
416.044	71.94
416.267	75.94
416.49	86.94
416.713	84.94
416.936	82.94
417.159	85.94
417.382	78.94
417.605	94.94
417.828	77.94
418.051	82.94
418.274	84.94
418.497	112.94
418.72	86.94
418.943	94.94
419.166	85.94
419.389	81.94
419.611	66.94
419.834	80.94
420.057	86.94
420.28	90.94
420.503	83.94
420.726	101.94
420.948	87.94
421.171	87.94
421.394	96.94
421.617	79.94
421.839	91.94
422.062	91.94
422.285	97.94
422.507	81.94
422.73	77.94
422.953	87.94
423.175	90.94
423.398	82.94
423.621	82.94
423.843	78.94
424.066	87.94
424.288	105.94
424.511	99.94
424.733	85.94
424.956	86.94
425.178	80.94
425.401	92.94
425.623	73.94
425.846	85.94
426.068	86.94
426.291	84.94
426.513	83.94
426.735	89.94
426.958	98.94
427.18	91.94
427.402	93.94
427.625	92.94
427.847	90.94
428.069	99.94
428.292	82.94
428.514	91.94
428.736	79.94
428.958	71.94
429.181	89.94
429.403	89.94
429.625	88.94
429.847	73.94
430.069	84.94
430.292	82.94
430.514	65.94
430.736	100.94
430.958	68.94
431.18	77.94
431.402	75.94
431.624	90.94
431.846	78.94
432.068	79.94
432.29	70.94
432.512	84.94
432.734	90.94
432.956	98.94
433.178	86.94
433.4	80.94
433.622	70.94
433.844	78.94
434.066	71.94
434.287	85.94
434.509	86.94
434.731	89.94
434.953	91.94
435.175	89.94
435.397	88.94
435.618	86.94
435.84	83.94
436.062	81.94
436.284	74.94
436.505	90.94
436.727	91.94
436.949	80.94
437.17	90.94
437.392	78.94
437.614	83.94
437.835	81.94
438.057	80.94
438.278	81.94
438.5	90.94
438.721	71.94
438.943	86.94
439.165	88.94
439.386	93.94
439.608	79.94
439.829	87.94
440.05	88.94
440.272	79.94
440.493	94.94
440.715	89.94
440.936	100.94
441.158	82.94
441.379	91.94
441.6	91.94
441.822	91.94
442.043	87.94
442.264	91.94
442.486	82.94
442.707	98.94
442.928	94.94
443.149	89.94
443.371	100.94
443.592	90.94
443.813	96.94
444.034	82.94
444.255	87.94
444.476	90.94
444.698	90.94
444.919	102.94
445.14	228.94
445.361	140.94
445.582	87.94
445.803	89.94
446.024	92.94
446.245	84.94
446.466	95.94
446.687	87.94
446.908	89.94
447.129	92.94
447.35	90.94
447.571	87.94
447.792	96.94
448.013	88.94
448.234	92.94
448.455	102.94
448.675	81.94
448.896	82.94
449.117	88.94
449.338	93.94
449.559	91.94
449.779	91.94
450	80.94
450.221	95.94
450.442	75.94
450.662	66.94
450.883	93.94
451.104	91.94
451.324	86.94
451.545	94.94
451.766	89.94
451.986	92.94
452.207	97.94
452.428	82.94
452.648	82.94
452.869	85.94
453.089	68.94
453.31	86.94
453.53	75.94
453.751	74.94
453.971	75.94
454.192	91.94
454.412	88.94
454.633	90.94
454.853	83.94
455.073	80.94
455.294	104.94
455.514	86.94
455.734	74.94
455.955	76.94
456.175	87.94
456.395	86.94
456.616	86.94
456.836	81.94
457.056	71.94
457.276	78.94
457.497	83.94
457.717	90.94
457.937	67.94
458.157	75.94
458.377	73.94
458.598	77.94
458.818	92.94
459.038	71.94
459.258	85.94
459.478	85.94
459.698	73.94
459.918	79.94
460.138	89.94
460.358	78.94
460.578	81.94
460.798	83.94
461.018	86.94
461.238	75.94
461.458	80.94
461.678	96.94
461.898	85.94
462.118	86.94
462.338	79.94
462.558	78.94
462.777	82.94
462.997	70.94
463.217	94.94
463.437	72.94
463.657	78.94
463.876	88.94
464.096	78.94
464.316	80.94
464.536	79.94
464.755	97.94
464.975	91.94
465.195	73.94
465.414	83.94
465.634	87.94
465.854	86.94
466.073	84.94
466.293	87.94
466.512	84.94
466.732	79.94
466.951	82.94
467.171	80.94
467.391	80.94
467.61	90.94
467.829	83.94
468.049	74.94
468.268	96.94
468.488	91.94
468.707	80.94
468.927	70.94
469.146	82.94
469.365	68.94
469.585	92.94
469.804	95.94
470.023	91.94
470.243	87.94
470.462	76.94
470.681	104.94
470.901	81.94
471.12	86.94
471.339	98.94
471.558	82.94
471.777	91.94
471.997	94.94
472.216	100.94
472.435	82.94
472.654	80.94
472.873	91.94
473.092	66.94
473.311	86.94
473.53	81.94
473.749	89.94
473.968	84.94
474.187	86.94
474.406	74.94
474.625	86.94
474.844	94.94
475.063	82.94
475.282	104.94
475.501	98.94
475.72	83.94
475.939	75.94
476.158	97.94
476.377	87.94
476.596	91.94
476.814	90.94
477.033	79.94
477.252	92.94
477.471	86.94
477.69	75.94
477.908	81.94
478.127	92.94
478.346	90.94
478.564	87.94
478.783	101.94
479.002	90.94
479.22	85.94
479.439	91.94
479.658	80.94
479.876	101.94
480.095	79.94
480.313	85.94
480.532	84.94
480.751	80.94
480.969	83.94
481.188	91.94
481.406	76.94
481.624	81.94
481.843	81.94
482.061	74.94
482.28	73.94
482.498	93.94
482.717	87.94
482.935	77.94
483.153	94.94
483.372	92.94
483.59	98.94
483.808	81.94
484.027	94.94
484.245	78.94
484.463	89.94
484.681	114.94
484.9	91.94
485.118	98.94
485.336	86.94
485.554	80.94
485.772	83.94
485.99	88.94
486.209	75.94
486.427	87.94
486.645	64.94
486.863	79.94
487.081	72.94
487.299	77.94
487.517	95.94
487.735	92.94
487.953	90.94
488.171	98.94
488.389	88.94
488.607	91.94
488.825	93.94
489.043	90.94
489.261	82.94
489.479	89.94
489.696	86.94
489.914	85.94
490.132	85.94
490.35	92.94
490.568	87.94
490.786	103.94
491.003	101.94
491.221	89.94
491.439	98.94
491.657	100.94
491.874	96.94
492.092	99.94
492.31	101.94
492.527	114.94
492.745	103.94
492.963	105.94
493.18	106.94
493.398	97.94
493.615	88.94
493.833	101.94
494.05	95.94
494.268	87.94
494.485	91.94
494.703	82.94
494.92	93.94
495.138	89.94
495.355	108.94
495.573	100.94
495.79	100.94
496.008	82.94
496.225	103.94
496.442	99.94
496.66	83.94
496.877	88.94
497.094	90.94
497.312	76.94
497.529	81.94
497.746	98.94
497.963	88.94
498.181	96.94
498.398	93.94
498.615	88.94
498.832	88.94
499.049	92.94
499.267	73.94
499.484	98.94
499.701	88.94
499.918	86.94
500.135	86.94
500.352	86.94
500.569	83.94
500.786	95.94
501.003	76.94
501.22	96.94
501.437	86.94
501.654	86.94
501.871	79.94
502.088	77.94
502.305	96.94
502.522	95.94
502.739	87.94
502.956	84.94
503.172	81.94
503.389	71.94
503.606	91.94
503.823	79.94
504.04	84.94
504.256	95.94
504.473	91.94
504.69	94.94
504.907	94.94
505.123	75.94
505.34	90.94
505.557	91.94
505.773	86.94
505.99	80.94
506.207	95.94
506.423	82.94
506.64	92.94
506.856	78.94
507.073	100.94
507.289	98.94
507.506	79.94
507.722	88.94
507.939	81.94
508.155	98.94
508.372	77.94
508.588	84.94
508.805	77.94
509.021	84.94
509.238	81.94
509.454	81.94
509.67	70.94
509.887	78.94
510.103	96.94
510.319	86.94
510.536	86.94
510.752	74.94
510.968	75.94
511.184	82.94
511.401	82.94
511.617	84.94
511.833	91.94
512.049	83.94
512.265	87.94
512.481	86.94
512.698	72.94
512.914	83.94
513.13	96.94
513.346	84.94
513.562	101.94
513.778	74.94
513.994	83.94
514.21	81.94
514.426	100.94
514.642	78.94
514.858	85.94
515.074	62.94
515.29	97.94
515.506	76.94
515.721	79.94
515.937	79.94
516.153	87.94
516.369	76.94
516.585	76.94
516.801	78.94
517.016	80.94
517.232	87.94
517.448	68.94
517.664	73.94
517.879	89.94
518.095	90.94
518.311	88.94
518.527	90.94
518.742	86.94
518.958	83.94
