Data from Zn(NO3)2Standard.Agarose3%.GreenCap.LampEnergy10E.O_HRD10591_15-05-56-942.txt Node
Date: Mon Jul 22 15:05:56 EDT 2019
User: cochatt
Spectrometer: HR+D1059
Trigger mode: 1
Integration Time (sec): 1.000000E-1
Scans to average: 1
Electric dark correction enabled: true
Nonlinearity correction enabled: false
Boxcar width: 0
XAxis mode: Wavelengths
Number of Pixels in Spectrum: 2048
>>>>>Begin Spectral Data<<<<<
223.165	-14.88
223.4	-14.88
223.635	-14.88
223.869	-11.88
224.104	-16.88
224.338	-5.88
224.573	-29.88
224.808	-12.88
225.042	-7.88
225.277	-6.88
225.511	-6.88
225.746	5.12
225.98	5.12
226.215	14.12
226.449	10.12
226.683	26.12
226.918	28.12
227.152	25.12
227.387	30.12
227.621	49.12
227.856	40.12
228.09	36.12
228.324	35.12
228.559	69.12
228.793	59.12
229.027	64.12
229.262	68.12
229.496	56.12
229.73	81.12
229.964	78.12
230.199	71.12
230.433	82.12
230.667	87.12
230.901	74.12
231.136	72.12
231.37	88.12
231.604	73.12
231.838	82.12
232.072	75.12
232.306	79.12
232.541	93.12
232.775	76.12
233.009	86.12
233.243	85.12
233.477	75.12
233.711	94.12
233.945	73.12
234.179	77.12
234.413	86.12
234.647	78.12
234.881	84.12
235.115	79.12
235.349	71.12
235.583	87.12
235.817	74.12
236.051	82.12
236.285	64.12
236.519	75.12
236.753	81.12
236.987	73.12
237.221	79.12
237.455	86.12
237.689	70.12
237.922	76.12
238.156	71.12
238.39	72.12
238.624	69.12
238.858	73.12
239.091	61.12
239.325	76.12
239.559	88.12
239.793	89.12
240.027	79.12
240.26	73.12
240.494	62.12
240.728	81.12
240.961	83.12
241.195	82.12
241.429	74.12
241.662	77.12
241.896	79.12
242.13	64.12
242.363	87.12
242.597	80.12
242.83	75.12
243.064	66.12
243.298	78.12
243.531	69.12
243.765	79.12
243.998	77.12
244.232	75.12
244.465	62.12
244.699	71.12
244.932	78.12
245.166	78.12
245.399	73.12
245.633	71.12
245.866	87.12
246.099	79.12
246.333	82.12
246.566	81.12
246.8	75.12
247.033	87.12
247.266	69.12
247.5	72.12
247.733	89.12
247.966	88.12
248.2	86.12
248.433	82.12
248.666	98.12
248.899	68.12
249.133	74.12
249.366	84.12
249.599	65.12
249.832	80.12
250.066	88.12
250.299	73.12
250.532	89.12
250.765	80.12
250.998	80.12
251.231	76.12
251.465	82.12
251.698	85.12
251.931	72.12
252.164	70.12
252.397	90.12
252.63	64.12
252.863	92.12
253.096	71.12
253.329	81.12
253.562	79.12
253.795	82.12
254.028	75.12
254.261	83.12
254.494	69.12
254.727	82.12
254.96	75.12
255.193	64.12
255.426	80.12
255.659	90.12
255.892	74.12
256.124	68.12
256.357	82.12
256.59	77.12
256.823	86.12
257.056	105.12
257.289	88.12
257.521	85.12
257.754	88.12
257.987	87.12
258.22	83.12
258.452	90.12
258.685	90.12
258.918	85.12
259.151	70.12
259.383	78.12
259.616	99.12
259.849	89.12
260.081	88.12
260.314	84.12
260.547	94.12
260.779	78.12
261.012	83.12
261.244	73.12
261.477	102.12
261.71	81.12
261.942	105.12
262.175	67.12
262.407	93.12
262.64	83.12
262.872	77.12
263.105	75.12
263.337	86.12
263.57	76.12
263.802	77.12
264.035	87.12
264.267	87.12
264.499	78.12
264.732	81.12
264.964	85.12
265.197	82.12
265.429	91.12
265.661	92.12
265.894	80.12
266.126	94.12
266.358	86.12
266.591	87.12
266.823	86.12
267.055	77.12
267.287	69.12
267.52	81.12
267.752	93.12
267.984	89.12
268.216	97.12
268.448	78.12
268.681	83.12
268.913	85.12
269.145	90.12
269.377	80.12
269.609	69.12
269.841	77.12
270.073	82.12
270.306	99.12
270.538	81.12
270.77	90.12
271.002	71.12
271.234	80.12
271.466	75.12
271.698	94.12
271.93	83.12
272.162	86.12
272.394	90.12
272.626	79.12
272.858	70.12
273.09	83.12
273.322	90.12
273.553	76.12
273.785	105.12
274.017	99.12
274.249	87.12
274.481	85.12
274.713	87.12
274.945	84.12
275.176	89.12
275.408	75.12
275.64	83.12
275.872	75.12
276.104	79.12
276.335	85.12
276.567	74.12
276.799	86.12
277.031	79.12
277.262	101.12
277.494	96.12
277.726	64.12
277.957	83.12
278.189	87.12
278.421	75.12
278.652	84.12
278.884	75.12
279.115	90.12
279.347	62.12
279.579	77.12
279.81	84.12
280.042	92.12
280.273	86.12
280.505	73.12
280.736	89.12
280.968	84.12
281.199	91.12
281.431	69.12
281.662	78.12
281.894	90.12
282.125	74.12
282.356	76.12
282.588	80.12
282.819	89.12
283.051	84.12
283.282	72.12
283.513	89.12
283.745	95.12
283.976	91.12
284.207	91.12
284.439	84.12
284.67	84.12
284.901	85.12
285.132	101.12
285.364	79.12
285.595	87.12
285.826	93.12
286.057	107.12
286.288	85.12
286.52	91.12
286.751	91.12
286.982	87.12
287.213	75.12
287.444	110.12
287.675	84.12
287.906	94.12
288.138	83.12
288.369	83.12
288.6	79.12
288.831	85.12
289.062	91.12
289.293	89.12
289.524	86.12
289.755	78.12
289.986	82.12
290.217	83.12
290.448	92.12
290.679	97.12
290.91	91.12
291.141	72.12
291.371	91.12
291.602	87.12
291.833	62.12
292.064	90.12
292.295	90.12
292.526	76.12
292.757	83.12
292.987	96.12
293.218	82.12
293.449	87.12
293.68	84.12
293.91	69.12
294.141	93.12
294.372	77.12
294.603	87.12
294.833	86.12
295.064	78.12
295.295	79.12
295.525	78.12
295.756	87.12
295.987	88.12
296.217	85.12
296.448	85.12
296.679	85.12
296.909	94.12
297.14	85.12
297.37	89.12
297.601	96.12
297.831	86.12
298.062	94.12
298.292	83.12
298.523	93.12
298.753	93.12
298.984	78.12
299.214	73.12
299.445	75.12
299.675	88.12
299.905	84.12
300.136	85.12
300.366	96.12
300.597	85.12
300.827	83.12
301.057	85.12
301.288	99.12
301.518	98.12
301.748	95.12
301.979	92.12
302.209	88.12
302.439	95.12
302.669	92.12
302.9	99.12
303.13	90.12
303.36	84.12
303.59	88.12
303.82	85.12
304.051	97.12
304.281	93.12
304.511	90.12
304.741	94.12
304.971	83.12
305.201	96.12
305.431	99.12
305.661	75.12
305.891	79.12
306.121	91.12
306.352	94.12
306.582	78.12
306.812	89.12
307.042	94.12
307.272	86.12
307.502	98.12
307.731	85.12
307.961	85.12
308.191	73.12
308.421	73.12
308.651	83.12
308.881	96.12
309.111	86.12
309.341	75.12
309.571	94.12
309.8	83.12
310.03	94.12
310.26	81.12
310.49	90.12
310.72	86.12
310.949	97.12
311.179	94.12
311.409	90.12
311.639	80.12
311.868	80.12
312.098	82.12
312.328	71.12
312.557	82.12
312.787	92.12
313.017	88.12
313.246	85.12
313.476	82.12
313.706	93.12
313.935	96.12
314.165	83.12
314.394	92.12
314.624	94.12
314.853	92.12
315.083	91.12
315.312	84.12
315.542	99.12
315.771	92.12
316.001	80.12
316.23	77.12
316.46	84.12
316.689	87.12
316.919	85.12
317.148	83.12
317.377	84.12
317.607	78.12
317.836	85.12
318.065	79.12
318.295	93.12
318.524	89.12
318.753	78.12
318.983	81.12
319.212	85.12
319.441	77.12
319.67	78.12
319.9	73.12
320.129	76.12
320.358	94.12
320.587	89.12
320.816	91.12
321.046	98.12
321.275	85.12
321.504	83.12
321.733	90.12
321.962	87.12
322.191	102.12
322.42	89.12
322.649	87.12
322.878	72.12
323.108	74.12
323.337	92.12
323.566	86.12
323.795	90.12
324.024	106.12
324.253	89.12
324.482	92.12
324.71	85.12
324.939	83.12
325.168	95.12
325.397	70.12
325.626	76.12
325.855	75.12
326.084	80.12
326.313	89.12
326.542	76.12
326.77	92.12
326.999	85.12
327.228	77.12
327.457	91.12
327.686	89.12
327.914	88.12
328.143	98.12
328.372	88.12
328.6	81.12
328.829	79.12
329.058	67.12
329.287	77.12
329.515	80.12
329.744	82.12
329.972	76.12
330.201	88.12
330.43	85.12
330.658	82.12
330.887	63.12
331.115	82.12
331.344	70.12
331.572	81.12
331.801	79.12
332.03	83.12
332.258	84.12
332.486	81.12
332.715	93.12
332.943	83.12
333.172	93.12
333.4	77.12
333.629	82.12
333.857	104.12
334.085	94.12
334.314	90.12
334.542	97.12
334.771	74.12
334.999	87.12
335.227	82.12
335.455	99.12
335.684	94.12
335.912	88.12
336.14	70.12
336.369	91.12
336.597	93.12
336.825	85.12
337.053	85.12
337.281	79.12
337.51	77.12
337.738	79.12
337.966	99.12
338.194	72.12
338.422	77.12
338.65	76.12
338.878	80.12
339.106	80.12
339.334	86.12
339.562	91.12
339.79	75.12
340.018	85.12
340.246	89.12
340.474	97.12
340.702	95.12
340.93	76.12
341.158	75.12
341.386	84.12
341.614	81.12
341.842	86.12
342.07	86.12
342.298	84.12
342.526	94.12
342.754	93.12
342.981	77.12
343.209	93.12
343.437	83.12
343.665	74.12
343.893	74.12
344.12	81.12
344.348	95.12
344.576	100.12
344.804	93.12
345.031	93.12
345.259	82.12
345.487	84.12
345.714	78.12
345.942	93.12
346.17	89.12
346.397	90.12
346.625	84.12
346.853	77.12
347.08	84.12
347.308	78.12
347.535	78.12
347.763	83.12
347.99	76.12
348.218	87.12
348.445	82.12
348.673	93.12
348.9	92.12
349.128	89.12
349.355	79.12
349.583	74.12
349.81	86.12
350.037	83.12
350.265	81.12
350.492	76.12
350.72	91.12
350.947	89.12
351.174	76.12
351.402	78.12
351.629	94.12
351.856	81.12
352.083	89.12
352.311	75.12
352.538	85.12
352.765	92.12
352.992	78.12
353.22	83.12
353.447	73.12
353.674	89.12
353.901	86.12
354.128	93.12
354.355	94.12
354.583	86.12
354.81	75.12
355.037	77.12
355.264	80.12
355.491	72.12
355.718	87.12
355.945	82.12
356.172	77.12
356.399	80.12
356.626	79.12
356.853	89.12
357.08	82.12
357.307	80.12
357.534	81.12
357.761	92.12
357.988	87.12
358.215	87.12
358.441	76.12
358.668	83.12
358.895	76.12
359.122	79.12
359.349	78.12
359.576	86.12
359.802	75.12
360.029	81.12
360.256	86.12
360.483	70.12
360.709	83.12
360.936	78.12
361.163	89.12
361.39	78.12
361.616	79.12
361.843	91.12
362.07	86.12
362.296	72.12
362.523	95.12
362.749	87.12
362.976	76.12
363.203	81.12
363.429	98.12
363.656	93.12
363.882	84.12
364.109	85.12
364.335	79.12
364.562	86.12
364.788	88.12
365.015	88.12
365.241	84.12
365.468	63.12
365.694	83.12
365.92	94.12
366.147	95.12
366.373	101.12
366.599	91.12
366.826	78.12
367.052	72.12
367.278	90.12
367.505	91.12
367.731	82.12
367.957	82.12
368.184	84.12
368.41	80.12
368.636	81.12
368.862	90.12
369.089	94.12
369.315	93.12
369.541	82.12
369.767	70.12
369.993	80.12
370.219	77.12
370.445	79.12
370.672	94.12
370.898	82.12
371.124	92.12
371.35	91.12
371.576	86.12
371.802	78.12
372.028	84.12
372.254	91.12
372.48	79.12
372.706	89.12
372.932	89.12
373.158	76.12
373.384	89.12
373.61	105.12
373.835	99.12
374.061	84.12
374.287	82.12
374.513	83.12
374.739	79.12
374.965	90.12
375.191	77.12
375.416	92.12
375.642	105.12
375.868	77.12
376.094	71.12
376.319	101.12
376.545	87.12
376.771	81.12
376.997	89.12
377.222	76.12
377.448	94.12
377.674	78.12
377.899	78.12
378.125	95.12
378.35	91.12
378.576	90.12
378.802	94.12
379.027	81.12
379.253	79.12
379.478	88.12
379.704	103.12
379.929	84.12
380.155	83.12
380.38	91.12
380.606	78.12
380.831	112.12
381.057	93.12
381.282	85.12
381.507	96.12
381.733	101.12
381.958	85.12
382.184	83.12
382.409	90.12
382.634	85.12
382.86	85.12
383.085	97.12
383.31	89.12
383.535	96.12
383.761	77.12
383.986	85.12
384.211	88.12
384.436	87.12
384.662	88.12
384.887	77.12
385.112	75.12
385.337	85.12
385.562	93.12
385.787	83.12
386.013	95.12
386.238	92.12
386.463	93.12
386.688	92.12
386.913	100.12
387.138	92.12
387.363	87.12
387.588	87.12
387.813	94.12
388.038	107.12
388.263	93.12
388.488	86.12
388.713	87.12
388.938	79.12
389.163	99.12
389.387	90.12
389.612	94.12
389.837	101.12
390.062	106.12
390.287	93.12
390.512	100.12
390.736	87.12
390.961	87.12
391.186	92.12
391.411	82.12
391.636	91.12
391.86	98.12
392.085	100.12
392.31	90.12
392.534	83.12
392.759	85.12
392.984	98.12
393.208	93.12
393.433	103.12
393.658	94.12
393.882	94.12
394.107	100.12
394.331	88.12
394.556	86.12
394.78	78.12
395.005	95.12
395.229	82.12
395.454	90.12
395.678	91.12
395.903	93.12
396.127	86.12
396.352	94.12
396.576	95.12
396.801	95.12
397.025	97.12
397.249	96.12
397.474	93.12
397.698	106.12
397.922	84.12
398.147	90.12
398.371	93.12
398.595	100.12
398.82	93.12
399.044	90.12
399.268	95.12
399.492	105.12
399.717	92.12
399.941	104.12
400.165	88.12
400.389	93.12
400.613	95.12
400.837	90.12
401.062	84.12
401.286	103.12
401.51	98.12
401.734	101.12
401.958	85.12
402.182	82.12
402.406	94.12
402.63	87.12
402.854	81.12
403.078	101.12
403.302	75.12
403.526	98.12
403.75	98.12
403.974	88.12
404.198	113.12
404.422	98.12
404.645	87.12
404.869	96.12
405.093	85.12
405.317	93.12
405.541	99.12
405.765	89.12
405.988	102.12
406.212	97.12
406.436	93.12
406.66	97.12
406.883	110.12
407.107	99.12
407.331	107.12
407.555	96.12
407.778	93.12
408.002	100.12
408.226	92.12
408.449	88.12
408.673	91.12
408.896	98.12
409.12	96.12
409.344	97.12
409.567	91.12
409.791	91.12
410.014	99.12
410.238	103.12
410.461	103.12
410.685	109.12
410.908	93.12
411.132	91.12
411.355	91.12
411.578	100.12
411.802	105.12
412.025	96.12
412.249	103.12
412.472	98.12
412.695	104.12
412.919	91.12
413.142	88.12
413.365	105.12
413.589	113.12
413.812	101.12
414.035	102.12
414.258	102.12
414.482	97.12
414.705	125.12
414.928	109.12
415.151	111.12
415.374	90.12
415.597	98.12
415.821	102.12
416.044	93.12
416.267	102.12
416.49	87.12
416.713	102.12
416.936	101.12
417.159	108.12
417.382	105.12
417.605	101.12
417.828	98.12
418.051	114.12
418.274	105.12
418.497	113.12
418.72	99.12
418.943	100.12
419.166	103.12
419.389	102.12
419.611	105.12
419.834	102.12
420.057	109.12
420.28	111.12
420.503	106.12
420.726	100.12
420.948	104.12
421.171	100.12
421.394	95.12
421.617	106.12
421.839	111.12
422.062	101.12
422.285	101.12
422.507	102.12
422.73	100.12
422.953	103.12
423.175	95.12
423.398	104.12
423.621	106.12
423.843	100.12
424.066	95.12
424.288	88.12
424.511	121.12
424.733	107.12
424.956	115.12
425.178	94.12
425.401	116.12
425.623	98.12
425.846	133.12
426.068	117.12
426.291	99.12
426.513	90.12
426.735	81.12
426.958	107.12
427.18	116.12
427.402	103.12
427.625	119.12
427.847	100.12
428.069	94.12
428.292	105.12
428.514	115.12
428.736	106.12
428.958	109.12
429.181	94.12
429.403	108.12
429.625	101.12
429.847	99.12
430.069	105.12
430.292	101.12
430.514	91.12
430.736	99.12
430.958	100.12
431.18	105.12
431.402	101.12
431.624	96.12
431.846	102.12
432.068	95.12
432.29	82.12
432.512	90.12
432.734	81.12
432.956	114.12
433.178	109.12
433.4	87.12
433.622	114.12
433.844	106.12
434.066	100.12
434.287	96.12
434.509	99.12
434.731	99.12
434.953	92.12
435.175	96.12
435.397	107.12
435.618	102.12
435.84	103.12
436.062	74.12
436.284	118.12
436.505	111.12
436.727	93.12
436.949	106.12
437.17	98.12
437.392	107.12
437.614	107.12
437.835	108.12
438.057	107.12
438.278	97.12
438.5	101.12
438.721	96.12
438.943	98.12
439.165	104.12
439.386	109.12
439.608	102.12
439.829	110.12
440.05	100.12
440.272	114.12
440.493	107.12
440.715	103.12
440.936	119.12
441.158	106.12
441.379	118.12
441.6	109.12
441.822	97.12
442.043	109.12
442.264	115.12
442.486	111.12
442.707	108.12
442.928	121.12
443.149	106.12
443.371	98.12
443.592	115.12
443.813	108.12
444.034	115.12
444.255	103.12
444.476	107.12
444.698	111.12
444.919	121.12
445.14	246.12
445.361	167.12
445.582	115.12
445.803	124.12
446.024	111.12
446.245	110.12
446.466	121.12
446.687	120.12
446.908	111.12
447.129	109.12
447.35	129.12
447.571	121.12
447.792	111.12
448.013	101.12
448.234	114.12
448.455	125.12
448.675	117.12
448.896	121.12
449.117	105.12
449.338	102.12
449.559	109.12
449.779	100.12
450	120.12
450.221	115.12
450.442	94.12
450.662	115.12
450.883	109.12
451.104	114.12
451.324	105.12
451.545	108.12
451.766	125.12
451.986	113.12
452.207	102.12
452.428	93.12
452.648	103.12
452.869	98.12
453.089	91.12
453.31	103.12
453.53	94.12
453.751	94.12
453.971	91.12
454.192	101.12
454.412	92.12
454.633	102.12
454.853	100.12
455.073	95.12
455.294	99.12
455.514	106.12
455.734	125.12
455.955	103.12
456.175	102.12
456.395	95.12
456.616	103.12
456.836	92.12
457.056	106.12
457.276	92.12
457.497	88.12
457.717	108.12
457.937	86.12
458.157	99.12
458.377	88.12
458.598	90.12
458.818	100.12
459.038	93.12
459.258	88.12
459.478	87.12
459.698	88.12
459.918	89.12
460.138	90.12
460.358	87.12
460.578	96.12
460.798	93.12
461.018	100.12
461.238	118.12
461.458	97.12
461.678	109.12
461.898	108.12
462.118	101.12
462.338	114.12
462.558	89.12
462.777	110.12
462.997	82.12
463.217	101.12
463.437	88.12
463.657	99.12
463.876	95.12
464.096	84.12
464.316	98.12
464.536	97.12
464.755	107.12
464.975	97.12
465.195	87.12
465.414	107.12
465.634	116.12
465.854	97.12
466.073	86.12
466.293	91.12
466.512	106.12
466.732	102.12
466.951	101.12
467.171	93.12
467.391	110.12
467.61	98.12
467.829	92.12
468.049	113.12
468.268	105.12
468.488	111.12
468.707	122.12
468.927	98.12
469.146	101.12
469.365	101.12
469.585	110.12
469.804	107.12
470.023	111.12
470.243	113.12
470.462	117.12
470.681	106.12
470.901	110.12
471.12	118.12
471.339	115.12
471.558	114.12
471.777	107.12
471.997	98.12
472.216	109.12
472.435	114.12
472.654	103.12
472.873	103.12
473.092	104.12
473.311	113.12
473.53	109.12
473.749	97.12
473.968	99.12
474.187	112.12
474.406	97.12
474.625	87.12
474.844	107.12
475.063	98.12
475.282	116.12
475.501	95.12
475.72	93.12
475.939	85.12
476.158	102.12
476.377	101.12
476.596	113.12
476.814	98.12
477.033	98.12
477.252	105.12
477.471	94.12
477.69	102.12
477.908	113.12
478.127	113.12
478.346	98.12
478.564	106.12
478.783	90.12
479.002	113.12
479.22	93.12
479.439	97.12
479.658	109.12
479.876	80.12
480.095	95.12
480.313	101.12
480.532	89.12
480.751	106.12
480.969	93.12
481.188	102.12
481.406	89.12
481.624	76.12
481.843	79.12
482.061	84.12
482.28	99.12
482.498	86.12
482.717	110.12
482.935	103.12
483.153	108.12
483.372	107.12
483.59	119.12
483.808	115.12
484.027	104.12
484.245	114.12
484.463	106.12
484.681	142.12
484.9	109.12
485.118	113.12
485.336	113.12
485.554	114.12
485.772	79.12
485.99	92.12
486.209	105.12
486.427	84.12
486.645	97.12
486.863	127.12
487.081	105.12
487.299	107.12
487.517	114.12
487.735	121.12
487.953	125.12
488.171	133.12
488.389	129.12
488.607	117.12
488.825	113.12
489.043	123.12
489.261	111.12
489.479	117.12
489.696	117.12
489.914	105.12
490.132	114.12
490.35	121.12
490.568	121.12
490.786	133.12
491.003	125.12
491.221	135.12
491.439	129.12
491.657	124.12
491.874	150.12
492.092	158.12
492.31	154.12
492.527	150.12
492.745	138.12
492.963	147.12
493.18	129.12
493.398	129.12
493.615	138.12
493.833	128.12
494.05	135.12
494.268	118.12
494.485	125.12
494.703	137.12
494.92	128.12
495.138	121.12
495.355	125.12
495.573	118.12
495.79	115.12
496.008	126.12
496.225	123.12
496.442	125.12
496.66	117.12
496.877	106.12
497.094	122.12
497.312	117.12
497.529	124.12
497.746	108.12
497.963	119.12
498.181	113.12
498.398	105.12
498.615	96.12
498.832	106.12
499.049	114.12
499.267	114.12
499.484	108.12
499.701	113.12
499.918	106.12
500.135	98.12
500.352	99.12
500.569	105.12
500.786	119.12
501.003	106.12
501.22	107.12
501.437	118.12
501.654	105.12
501.871	108.12
502.088	103.12
502.305	110.12
502.522	105.12
502.739	113.12
502.956	107.12
503.172	93.12
503.389	104.12
503.606	106.12
503.823	103.12
504.04	97.12
504.256	116.12
504.473	90.12
504.69	103.12
504.907	107.12
505.123	102.12
505.34	103.12
505.557	115.12
505.773	102.12
505.99	110.12
506.207	98.12
506.423	106.12
506.64	104.12
506.856	100.12
507.073	114.12
507.289	107.12
507.506	98.12
507.722	94.12
507.939	105.12
508.155	99.12
508.372	106.12
508.588	96.12
508.805	99.12
509.021	82.12
509.238	90.12
509.454	95.12
509.67	99.12
509.887	97.12
510.103	78.12
510.319	93.12
510.536	100.12
510.752	76.12
510.968	91.12
511.184	86.12
511.401	78.12
511.617	82.12
511.833	88.12
512.049	100.12
512.265	89.12
512.481	87.12
512.698	77.12
512.914	93.12
513.13	86.12
513.346	84.12
513.562	92.12
513.778	97.12
513.994	95.12
514.21	94.12
514.426	99.12
