Data from Zn(NO3)2Standard.Agarose3%.GreenCap.LampEnergy5.5.E.O_HRD10591_15-02-11-767.txt Node
Date: Mon Jul 22 15:02:11 EDT 2019
User: cochatt
Spectrometer: HR+D1059
Trigger mode: 1
Integration Time (sec): 1.000000E-1
Scans to average: 1
Electric dark correction enabled: true
Nonlinearity correction enabled: false
Boxcar width: 0
XAxis mode: Wavelengths
Number of Pixels in Spectrum: 2048
>>>>>Begin Spectral Data<<<<<
223.165	-24.31
223.4	-24.31
223.635	-24.31
223.869	-10.31
224.104	-15.31
224.338	-5.31
224.573	-25.31
224.808	-15.31
225.042	-22.31
225.277	4.69
225.511	4.69
225.746	12.69
225.98	4.69
226.215	0.69
226.449	20.69
226.683	24.69
226.918	15.69
227.152	29.69
227.387	44.69
227.621	33.69
227.856	46.69
228.09	37.69
228.324	60.69
228.559	53.69
228.793	63.69
229.027	54.69
229.262	54.69
229.496	73.69
229.73	58.69
229.964	50.69
230.199	83.69
230.433	70.69
230.667	65.69
230.901	78.69
231.136	78.69
231.37	70.69
231.604	68.69
231.838	73.69
232.072	67.69
232.306	58.69
232.541	80.69
232.775	72.69
233.009	84.69
233.243	68.69
233.477	71.69
233.711	67.69
233.945	86.69
234.179	86.69
234.413	85.69
234.647	78.69
234.881	69.69
235.115	63.69
235.349	69.69
235.583	69.69
235.817	67.69
236.051	64.69
236.285	70.69
236.519	69.69
236.753	77.69
236.987	67.69
237.221	54.69
237.455	77.69
237.689	80.69
237.922	76.69
238.156	66.69
238.39	73.69
238.624	66.69
238.858	69.69
239.091	79.69
239.325	73.69
239.559	71.69
239.793	62.69
240.027	72.69
240.26	65.69
240.494	60.69
240.728	73.69
240.961	76.69
241.195	58.69
241.429	69.69
241.662	71.69
241.896	84.69
242.13	72.69
242.363	66.69
242.597	75.69
242.83	81.69
243.064	69.69
243.298	60.69
243.531	67.69
243.765	75.69
243.998	66.69
244.232	63.69
244.465	81.69
244.699	68.69
244.932	70.69
245.166	81.69
245.399	72.69
245.633	75.69
245.866	86.69
246.099	70.69
246.333	77.69
246.566	86.69
246.8	68.69
247.033	74.69
247.266	83.69
247.5	76.69
247.733	82.69
247.966	80.69
248.2	65.69
248.433	82.69
248.666	73.69
248.899	75.69
249.133	73.69
249.366	86.69
249.599	70.69
249.832	81.69
250.066	82.69
250.299	71.69
250.532	74.69
250.765	72.69
250.998	79.69
251.231	68.69
251.465	80.69
251.698	71.69
251.931	80.69
252.164	71.69
252.397	80.69
252.63	78.69
252.863	88.69
253.096	64.69
253.329	66.69
253.562	82.69
253.795	73.69
254.028	76.69
254.261	84.69
254.494	63.69
254.727	96.69
254.96	84.69
255.193	83.69
255.426	60.69
255.659	62.69
255.892	70.69
256.124	73.69
256.357	65.69
256.59	76.69
256.823	78.69
257.056	63.69
257.289	78.69
257.521	72.69
257.754	83.69
257.987	70.69
258.22	72.69
258.452	68.69
258.685	80.69
258.918	84.69
259.151	78.69
259.383	85.69
259.616	81.69
259.849	84.69
260.081	80.69
260.314	83.69
260.547	90.69
260.779	80.69
261.012	83.69
261.244	78.69
261.477	72.69
261.71	81.69
261.942	68.69
262.175	69.69
262.407	63.69
262.64	82.69
262.872	74.69
263.105	69.69
263.337	74.69
263.57	75.69
263.802	81.69
264.035	87.69
264.267	78.69
264.499	74.69
264.732	91.69
264.964	82.69
265.197	84.69
265.429	74.69
265.661	80.69
265.894	82.69
266.126	78.69
266.358	65.69
266.591	82.69
266.823	63.69
267.055	84.69
267.287	74.69
267.52	82.69
267.752	83.69
267.984	75.69
268.216	80.69
268.448	63.69
268.681	68.69
268.913	89.69
269.145	86.69
269.377	73.69
269.609	84.69
269.841	78.69
270.073	69.69
270.306	80.69
270.538	79.69
270.77	80.69
271.002	70.69
271.234	89.69
271.466	80.69
271.698	84.69
271.93	72.69
272.162	79.69
272.394	96.69
272.626	78.69
272.858	72.69
273.09	92.69
273.322	84.69
273.553	82.69
273.785	73.69
274.017	84.69
274.249	65.69
274.481	84.69
274.713	69.69
274.945	83.69
275.176	76.69
275.408	83.69
275.64	72.69
275.872	80.69
276.104	95.69
276.335	82.69
276.567	71.69
276.799	82.69
277.031	80.69
277.262	85.69
277.494	88.69
277.726	74.69
277.957	95.69
278.189	74.69
278.421	82.69
278.652	77.69
278.884	84.69
279.115	86.69
279.347	85.69
279.579	77.69
279.81	80.69
280.042	85.69
280.273	73.69
280.505	81.69
280.736	73.69
280.968	79.69
281.199	66.69
281.431	69.69
281.662	82.69
281.894	83.69
282.125	69.69
282.356	82.69
282.588	79.69
282.819	71.69
283.051	74.69
283.282	76.69
283.513	82.69
283.745	90.69
283.976	90.69
284.207	71.69
284.439	73.69
284.67	82.69
284.901	80.69
285.132	74.69
285.364	70.69
285.595	59.69
285.826	80.69
286.057	81.69
286.288	76.69
286.52	58.69
286.751	73.69
286.982	82.69
287.213	79.69
287.444	78.69
287.675	82.69
287.906	82.69
288.138	80.69
288.369	71.69
288.6	65.69
288.831	85.69
289.062	80.69
289.293	82.69
289.524	60.69
289.755	77.69
289.986	76.69
290.217	86.69
290.448	72.69
290.679	91.69
290.91	73.69
291.141	83.69
291.371	92.69
291.602	73.69
291.833	71.69
292.064	77.69
292.295	82.69
292.526	62.69
292.757	80.69
292.987	82.69
293.218	69.69
293.449	82.69
293.68	89.69
293.91	81.69
294.141	73.69
294.372	86.69
294.603	74.69
294.833	86.69
295.064	87.69
295.295	70.69
295.525	70.69
295.756	81.69
295.987	78.69
296.217	81.69
296.448	80.69
296.679	62.69
296.909	78.69
297.14	77.69
297.37	93.69
297.601	80.69
297.831	78.69
298.062	84.69
298.292	81.69
298.523	67.69
298.753	75.69
298.984	74.69
299.214	80.69
299.445	86.69
299.675	82.69
299.905	86.69
300.136	73.69
300.366	94.69
300.597	75.69
300.827	86.69
301.057	91.69
301.288	79.69
301.518	67.69
301.748	84.69
301.979	72.69
302.209	76.69
302.439	79.69
302.669	73.69
302.9	87.69
303.13	84.69
303.36	86.69
303.59	75.69
303.82	86.69
304.051	87.69
304.281	83.69
304.511	82.69
304.741	81.69
304.971	62.69
305.201	75.69
305.431	74.69
305.661	82.69
305.891	73.69
306.121	84.69
306.352	80.69
306.582	66.69
306.812	82.69
307.042	80.69
307.272	66.69
307.502	80.69
307.731	92.69
307.961	87.69
308.191	78.69
308.421	82.69
308.651	80.69
308.881	68.69
309.111	79.69
309.341	92.69
309.571	93.69
309.8	83.69
310.03	77.69
310.26	90.69
310.49	87.69
310.72	82.69
310.949	93.69
311.179	56.69
311.409	78.69
311.639	84.69
311.868	69.69
312.098	88.69
312.328	88.69
312.557	84.69
312.787	81.69
313.017	81.69
313.246	72.69
313.476	89.69
313.706	78.69
313.935	88.69
314.165	93.69
314.394	73.69
314.624	72.69
314.853	83.69
315.083	83.69
315.312	94.69
315.542	80.69
315.771	86.69
316.001	83.69
316.23	94.69
316.46	92.69
316.689	79.69
316.919	81.69
317.148	86.69
317.377	83.69
317.607	87.69
317.836	80.69
318.065	90.69
318.295	82.69
318.524	81.69
318.753	75.69
318.983	70.69
319.212	81.69
319.441	81.69
319.67	86.69
319.9	73.69
320.129	81.69
320.358	88.69
320.587	75.69
320.816	77.69
321.046	62.69
321.275	80.69
321.504	78.69
321.733	78.69
321.962	87.69
322.191	85.69
322.42	76.69
322.649	77.69
322.878	66.69
323.108	87.69
323.337	88.69
323.566	94.69
323.795	82.69
324.024	80.69
324.253	73.69
324.482	76.69
324.71	76.69
324.939	77.69
325.168	68.69
325.397	98.69
325.626	81.69
325.855	85.69
326.084	72.69
326.313	74.69
326.542	76.69
326.77	75.69
326.999	80.69
327.228	86.69
327.457	80.69
327.686	84.69
327.914	80.69
328.143	83.69
328.372	90.69
328.6	84.69
328.829	80.69
329.058	82.69
329.287	77.69
329.515	76.69
329.744	83.69
329.972	84.69
330.201	78.69
330.43	83.69
330.658	78.69
330.887	80.69
331.115	93.69
331.344	65.69
331.572	75.69
331.801	81.69
332.03	79.69
332.258	86.69
332.486	77.69
332.715	52.69
332.943	70.69
333.172	82.69
333.4	69.69
333.629	86.69
333.857	82.69
334.085	85.69
334.314	82.69
334.542	78.69
334.771	79.69
334.999	82.69
335.227	90.69
335.455	63.69
335.684	90.69
335.912	78.69
336.14	73.69
336.369	84.69
336.597	81.69
336.825	71.69
337.053	88.69
337.281	68.69
337.51	72.69
337.738	80.69
337.966	88.69
338.194	75.69
338.422	80.69
338.65	80.69
338.878	82.69
339.106	90.69
339.334	84.69
339.562	45.69
339.79	70.69
340.018	73.69
340.246	92.69
340.474	72.69
340.702	88.69
340.93	87.69
341.158	85.69
341.386	76.69
341.614	77.69
341.842	80.69
342.07	84.69
342.298	71.69
342.526	69.69
342.754	85.69
342.981	80.69
343.209	74.69
343.437	72.69
343.665	69.69
343.893	77.69
344.12	78.69
344.348	79.69
344.576	79.69
344.804	82.69
345.031	74.69
345.259	75.69
345.487	78.69
345.714	71.69
345.942	74.69
346.17	86.69
346.397	81.69
346.625	82.69
346.853	75.69
347.08	74.69
347.308	64.69
347.535	73.69
347.763	72.69
347.99	86.69
348.218	88.69
348.445	87.69
348.673	86.69
348.9	77.69
349.128	87.69
349.355	77.69
349.583	96.69
349.81	83.69
350.037	77.69
350.265	80.69
350.492	82.69
350.72	82.69
350.947	80.69
351.174	85.69
351.402	72.69
351.629	87.69
351.856	72.69
352.083	68.69
352.311	87.69
352.538	80.69
352.765	75.69
352.992	89.69
353.22	88.69
353.447	90.69
353.674	73.69
353.901	85.69
354.128	65.69
354.355	61.69
354.583	67.69
354.81	70.69
355.037	80.69
355.264	85.69
355.491	85.69
355.718	87.69
355.945	81.69
356.172	66.69
356.399	79.69
356.626	92.69
356.853	87.69
357.08	91.69
357.307	75.69
357.534	87.69
357.761	72.69
357.988	71.69
358.215	82.69
358.441	82.69
358.668	80.69
358.895	73.69
359.122	73.69
359.349	68.69
359.576	67.69
359.802	84.69
360.029	77.69
360.256	68.69
360.483	80.69
360.709	68.69
360.936	82.69
361.163	91.69
361.39	76.69
361.616	66.69
361.843	84.69
362.07	84.69
362.296	79.69
362.523	83.69
362.749	82.69
362.976	81.69
363.203	73.69
363.429	65.69
363.656	79.69
363.882	86.69
364.109	68.69
364.335	71.69
364.562	79.69
364.788	79.69
365.015	71.69
365.241	85.69
365.468	79.69
365.694	72.69
365.92	78.69
366.147	68.69
366.373	86.69
366.599	67.69
366.826	72.69
367.052	81.69
367.278	84.69
367.505	68.69
367.731	78.69
367.957	81.69
368.184	72.69
368.41	70.69
368.636	86.69
368.862	87.69
369.089	91.69
369.315	87.69
369.541	68.69
369.767	83.69
369.993	86.69
370.219	72.69
370.445	85.69
370.672	80.69
370.898	79.69
371.124	84.69
371.35	80.69
371.576	73.69
371.802	60.69
372.028	76.69
372.254	81.69
372.48	68.69
372.706	87.69
372.932	80.69
373.158	78.69
373.384	64.69
373.61	85.69
373.835	73.69
374.061	75.69
374.287	78.69
374.513	83.69
374.739	67.69
374.965	79.69
375.191	78.69
375.416	82.69
375.642	65.69
375.868	72.69
376.094	63.69
376.319	76.69
376.545	73.69
376.771	70.69
376.997	86.69
377.222	84.69
377.448	69.69
377.674	88.69
377.899	58.69
378.125	74.69
378.35	73.69
378.576	70.69
378.802	101.69
379.027	70.69
379.253	88.69
379.478	84.69
379.704	78.69
379.929	69.69
380.155	89.69
380.38	81.69
380.606	76.69
380.831	77.69
381.057	84.69
381.282	85.69
381.507	86.69
381.733	88.69
381.958	68.69
382.184	66.69
382.409	73.69
382.634	77.69
382.86	71.69
383.085	78.69
383.31	78.69
383.535	85.69
383.761	90.69
383.986	80.69
384.211	74.69
384.436	85.69
384.662	68.69
384.887	70.69
385.112	100.69
385.337	88.69
385.562	66.69
385.787	90.69
386.013	70.69
386.238	72.69
386.463	73.69
386.688	82.69
386.913	80.69
387.138	80.69
387.363	83.69
387.588	83.69
387.813	81.69
388.038	63.69
388.263	69.69
388.488	60.69
388.713	75.69
388.938	74.69
389.163	77.69
389.387	77.69
389.612	66.69
389.837	74.69
390.062	79.69
390.287	78.69
390.512	85.69
390.736	67.69
390.961	79.69
391.186	87.69
391.411	73.69
391.636	84.69
391.86	84.69
392.085	90.69
392.31	75.69
392.534	90.69
392.759	72.69
392.984	95.69
393.208	80.69
393.433	73.69
393.658	91.69
393.882	89.69
394.107	82.69
394.331	58.69
394.556	72.69
394.78	63.69
395.005	77.69
395.229	72.69
395.454	74.69
395.678	88.69
395.903	71.69
396.127	78.69
396.352	72.69
396.576	87.69
396.801	80.69
397.025	68.69
397.249	92.69
397.474	78.69
397.698	76.69
397.922	84.69
398.147	74.69
398.371	67.69
398.595	86.69
398.82	92.69
399.044	72.69
399.268	83.69
399.492	81.69
399.717	70.69
399.941	78.69
400.165	73.69
400.389	74.69
400.613	86.69
400.837	93.69
401.062	80.69
401.286	92.69
401.51	70.69
401.734	74.69
401.958	83.69
402.182	70.69
402.406	73.69
402.63	78.69
402.854	93.69
403.078	72.69
403.302	72.69
403.526	76.69
403.75	70.69
403.974	84.69
404.198	84.69
404.422	82.69
404.645	96.69
404.869	73.69
405.093	73.69
405.317	81.69
405.541	71.69
405.765	76.69
405.988	79.69
406.212	87.69
406.436	86.69
406.66	74.69
406.883	72.69
407.107	96.69
407.331	80.69
407.555	92.69
407.778	72.69
408.002	73.69
408.226	79.69
408.449	87.69
408.673	93.69
408.896	75.69
409.12	69.69
409.344	70.69
409.567	87.69
409.791	68.69
410.014	83.69
410.238	74.69
410.461	79.69
410.685	94.69
410.908	82.69
411.132	80.69
411.355	93.69
411.578	85.69
411.802	80.69
412.025	74.69
412.249	75.69
412.472	82.69
412.695	86.69
412.919	87.69
413.142	84.69
413.365	77.69
413.589	80.69
413.812	79.69
414.035	94.69
414.258	81.69
414.482	95.69
414.705	74.69
414.928	74.69
415.151	74.69
415.374	78.69
415.597	73.69
415.821	75.69
416.044	88.69
416.267	84.69
416.49	80.69
416.713	93.69
416.936	89.69
417.159	74.69
417.382	80.69
417.605	89.69
417.828	71.69
418.051	85.69
418.274	85.69
418.497	95.69
418.72	82.69
418.943	77.69
419.166	69.69
419.389	85.69
419.611	83.69
419.834	92.69
420.057	88.69
420.28	73.69
420.503	86.69
420.726	84.69
420.948	91.69
421.171	88.69
421.394	66.69
421.617	85.69
421.839	83.69
422.062	77.69
422.285	93.69
422.507	85.69
422.73	91.69
422.953	99.69
423.175	82.69
423.398	72.69
423.621	80.69
423.843	83.69
424.066	81.69
424.288	93.69
424.511	80.69
424.733	91.69
424.956	77.69
425.178	85.69
425.401	85.69
425.623	80.69
425.846	69.69
426.068	77.69
426.291	79.69
426.513	85.69
426.735	78.69
426.958	93.69
427.18	80.69
427.402	77.69
427.625	81.69
427.847	79.69
428.069	79.69
428.292	89.69
428.514	92.69
428.736	85.69
428.958	81.69
429.181	81.69
429.403	78.69
429.625	82.69
429.847	83.69
430.069	86.69
430.292	98.69
430.514	84.69
430.736	84.69
430.958	74.69
431.18	96.69
431.402	76.69
431.624	71.69
431.846	85.69
432.068	91.69
432.29	82.69
432.512	82.69
432.734	78.69
432.956	95.69
433.178	86.69
433.4	79.69
433.622	87.69
433.844	76.69
434.066	70.69
434.287	73.69
434.509	80.69
434.731	88.69
434.953	92.69
435.175	88.69
435.397	91.69
435.618	69.69
435.84	71.69
436.062	71.69
436.284	87.69
436.505	90.69
436.727	89.69
436.949	95.69
437.17	81.69
437.392	96.69
437.614	66.69
437.835	73.69
438.057	75.69
438.278	87.69
438.5	78.69
438.721	84.69
438.943	82.69
439.165	85.69
439.386	77.69
439.608	98.69
439.829	94.69
440.05	98.69
440.272	80.69
440.493	90.69
440.715	84.69
440.936	95.69
441.158	89.69
441.379	96.69
441.6	98.69
441.822	79.69
442.043	76.69
442.264	82.69
442.486	86.69
442.707	84.69
442.928	82.69
443.149	85.69
443.371	80.69
443.592	73.69
443.813	90.69
444.034	88.69
444.255	95.69
444.476	67.69
444.698	86.69
444.919	79.69
445.14	200.69
445.361	143.69
445.582	89.69
445.803	87.69
446.024	85.69
446.245	96.69
446.466	87.69
446.687	89.69
446.908	95.69
447.129	88.69
447.35	82.69
447.571	83.69
447.792	91.69
448.013	84.69
448.234	89.69
448.455	91.69
448.675	86.69
448.896	85.69
449.117	88.69
449.338	71.69
449.559	86.69
449.779	87.69
450	75.69
450.221	79.69
450.442	82.69
450.662	88.69
450.883	86.69
451.104	74.69
451.324	82.69
451.545	80.69
451.766	82.69
451.986	87.69
452.207	71.69
452.428	93.69
452.648	85.69
452.869	81.69
453.089	79.69
453.31	83.69
453.53	78.69
453.751	86.69
453.971	90.69
454.192	83.69
454.412	86.69
454.633	98.69
454.853	87.69
455.073	82.69
455.294	75.69
455.514	78.69
455.734	80.69
455.955	86.69
456.175	76.69
456.395	74.69
456.616	79.69
456.836	91.69
457.056	85.69
457.276	88.69
457.497	76.69
457.717	84.69
457.937	77.69
458.157	83.69
458.377	78.69
458.598	74.69
458.818	82.69
459.038	82.69
459.258	80.69
459.478	80.69
459.698	78.69
459.918	71.69
460.138	80.69
460.358	98.69
460.578	80.69
460.798	79.69
461.018	87.69
461.238	73.69
461.458	85.69
461.678	67.69
461.898	82.69
462.118	98.69
462.338	90.69
462.558	73.69
462.777	80.69
462.997	91.69
463.217	77.69
463.437	68.69
463.657	79.69
463.876	85.69
464.096	70.69
464.316	80.69
464.536	79.69
464.755	97.69
464.975	73.69
465.195	78.69
465.414	80.69
465.634	73.69
465.854	73.69
466.073	92.69
466.293	88.69
466.512	64.69
466.732	77.69
466.951	84.69
467.171	75.69
467.391	82.69
467.61	84.69
467.829	92.69
468.049	88.69
468.268	91.69
468.488	91.69
468.707	78.69
468.927	98.69
469.146	92.69
469.365	82.69
469.585	90.69
469.804	94.69
470.023	90.69
470.243	100.69
470.462	101.69
470.681	86.69
470.901	87.69
471.12	82.69
471.339	96.69
471.558	79.69
471.777	87.69
471.997	81.69
472.216	86.69
472.435	75.69
472.654	81.69
472.873	97.69
473.092	77.69
473.311	90.69
473.53	94.69
473.749	87.69
473.968	85.69
474.187	82.69
474.406	81.69
474.625	81.69
474.844	84.69
475.063	89.69
475.282	76.69
475.501	97.69
475.72	82.69
475.939	83.69
476.158	74.69
476.377	74.69
476.596	96.69
476.814	82.69
477.033	78.69
477.252	86.69
477.471	78.69
477.69	89.69
477.908	89.69
478.127	87.69
478.346	68.69
478.564	78.69
478.783	93.69
479.002	77.69
479.22	81.69
479.439	99.69
479.658	85.69
479.876	76.69
480.095	75.69
480.313	77.69
480.532	84.69
480.751	76.69
480.969	81.69
481.188	81.69
481.406	65.69
481.624	79.69
481.843	74.69
482.061	103.69
482.28	82.69
482.498	73.69
482.717	87.69
482.935	77.69
483.153	67.69
483.372	94.69
483.59	95.69
483.808	96.69
484.027	74.69
484.245	82.69
484.463	92.69
484.681	84.69
484.9	99.69
485.118	84.69
485.336	83.69
485.554	100.69
485.772	75.69
485.99	83.69
486.209	76.69
486.427	75.69
486.645	70.69
486.863	94.69
487.081	116.69
487.299	88.69
487.517	104.69
487.735	93.69
487.953	97.69
488.171	83.69
488.389	99.69
488.607	95.69
488.825	78.69
489.043	85.69
489.261	91.69
489.479	99.69
489.696	87.69
489.914	78.69
490.132	69.69
490.35	95.69
490.568	94.69
490.786	93.69
491.003	104.69
491.221	82.69
491.439	105.69
491.657	105.69
491.874	102.69
492.092	104.69
492.31	102.69
492.527	112.69
492.745	110.69
492.963	87.69
493.18	86.69
493.398	93.69
493.615	102.69
493.833	83.69
494.05	93.69
494.268	94.69
494.485	97.69
494.703	101.69
494.92	105.69
495.138	95.69
495.355	95.69
495.573	80.69
495.79	93.69
496.008	89.69
496.225	96.69
496.442	101.69
496.66	89.69
496.877	94.69
497.094	90.69
497.312	74.69
497.529	93.69
497.746	85.69
497.963	87.69
498.181	87.69
498.398	88.69
498.615	78.69
498.832	90.69
499.049	87.69
499.267	76.69
499.484	82.69
499.701	78.69
499.918	93.69
500.135	82.69
500.352	96.69
500.569	102.69
500.786	87.69
501.003	87.69
501.22	78.69
501.437	77.69
501.654	84.69
501.871	88.69
502.088	72.69
502.305	83.69
502.522	72.69
502.739	84.69
502.956	90.69
503.172	87.69
503.389	85.69
503.606	82.69
503.823	76.69
504.04	86.69
504.256	86.69
504.473	85.69
504.69	91.69
504.907	98.69
505.123	92.69
505.34	93.69
505.557	77.69
505.773	97.69
505.99	82.69
506.207	83.69
506.423	86.69
506.64	82.69
506.856	82.69
507.073	85.69
507.289	93.69
507.506	81.69
507.722	90.69
507.939	76.69
508.155	78.69
508.372	81.69
508.588	97.69
508.805	82.69
509.021	85.69
509.238	78.69
509.454	74.69
509.67	87.69
509.887	84.69
510.103	80.69
510.319	93.69
510.536	68.69
510.752	93.69
510.968	75.69
511.184	73.69
511.401	83.69
511.617	80.69
511.833	75.69
512.049	85.69
512.265	82.69
512.481	70.69
512.698	81.69
512.914	79.69
513.13	72.69
513.346	88.69
513.562	72.69
513.778	80.69
513.994	89.69
514.21	91.69
514.426	77.69
514.642	79.69
514.858	70.69
515.074	77.69
515.29	83.69
515.506	73.69
515.721	76.69
515.937	79.69
516.153	87.69
516.369	81.69
516.585	87.69
516.801	75.69
517.016	86.69
517.232	81.69
517.448	92.69
517.664	71.69
517.879	70.69
518.095	85.69
518.311	85.69
518.527	65.69
518.742	83.69
518.958	84.69
519.173	93.69
