Data from Zn(NO3)2Standard.Agarose3%.GreenCap.LampEnergy10E.O_HRD10591_15-09-03-952.txt Node
Date: Mon Jul 22 15:09:03 EDT 2019
User: cochatt
Spectrometer: HR+D1059
Trigger mode: 1
Integration Time (sec): 1.000000E-1
Scans to average: 1
Electric dark correction enabled: true
Nonlinearity correction enabled: false
Boxcar width: 0
XAxis mode: Wavelengths
Number of Pixels in Spectrum: 2048
>>>>>Begin Spectral Data<<<<<
223.165	-18.38
223.4	-18.38
223.635	-18.38
223.869	-18.38
224.104	-36.38
224.338	-15.38
224.573	-22.38
224.808	-13.38
225.042	-7.38
225.277	3.62
225.511	-9.38
225.746	5.62
225.98	27.62
226.215	6.62
226.449	16.62
226.683	26.62
226.918	26.62
227.152	27.62
227.387	35.62
227.621	37.62
227.856	42.62
228.09	51.62
228.324	40.62
228.559	50.62
228.793	52.62
229.027	64.62
229.262	70.62
229.496	72.62
229.73	81.62
229.964	78.62
230.199	85.62
230.433	77.62
230.667	91.62
230.901	84.62
231.136	73.62
231.37	74.62
231.604	86.62
231.838	84.62
232.072	77.62
232.306	96.62
232.541	86.62
232.775	79.62
233.009	76.62
233.243	102.62
233.477	60.62
233.711	81.62
233.945	87.62
234.179	82.62
234.413	68.62
234.647	79.62
234.881	85.62
235.115	87.62
235.349	80.62
235.583	67.62
235.817	85.62
236.051	70.62
236.285	67.62
236.519	77.62
236.753	78.62
236.987	61.62
237.221	84.62
237.455	80.62
237.689	81.62
237.922	90.62
238.156	92.62
238.39	72.62
238.624	70.62
238.858	84.62
239.091	84.62
239.325	93.62
239.559	65.62
239.793	76.62
240.027	71.62
240.26	77.62
240.494	76.62
240.728	80.62
240.961	85.62
241.195	65.62
241.429	84.62
241.662	74.62
241.896	58.62
242.13	85.62
242.363	80.62
242.597	74.62
242.83	78.62
243.064	85.62
243.298	86.62
243.531	55.62
243.765	75.62
243.998	76.62
244.232	75.62
244.465	60.62
244.699	78.62
244.932	90.62
245.166	85.62
245.399	85.62
245.633	75.62
245.866	79.62
246.099	72.62
246.333	81.62
246.566	84.62
246.8	79.62
247.033	60.62
247.266	77.62
247.5	67.62
247.733	78.62
247.966	89.62
248.2	85.62
248.433	53.62
248.666	79.62
248.899	76.62
249.133	78.62
249.366	80.62
249.599	75.62
249.832	88.62
250.066	92.62
250.299	63.62
250.532	91.62
250.765	83.62
250.998	89.62
251.231	74.62
251.465	89.62
251.698	75.62
251.931	80.62
252.164	85.62
252.397	82.62
252.63	84.62
252.863	80.62
253.096	78.62
253.329	81.62
253.562	72.62
253.795	76.62
254.028	78.62
254.261	100.62
254.494	86.62
254.727	74.62
254.96	81.62
255.193	70.62
255.426	87.62
255.659	93.62
255.892	84.62
256.124	82.62
256.357	82.62
256.59	84.62
256.823	70.62
257.056	69.62
257.289	77.62
257.521	79.62
257.754	77.62
257.987	78.62
258.22	78.62
258.452	73.62
258.685	78.62
258.918	85.62
259.151	89.62
259.383	81.62
259.616	87.62
259.849	82.62
260.081	91.62
260.314	78.62
260.547	87.62
260.779	77.62
261.012	76.62
261.244	82.62
261.477	80.62
261.71	84.62
261.942	81.62
262.175	75.62
262.407	79.62
262.64	72.62
262.872	81.62
263.105	84.62
263.337	87.62
263.57	77.62
263.802	82.62
264.035	88.62
264.267	102.62
264.499	91.62
264.732	83.62
264.964	79.62
265.197	84.62
265.429	87.62
265.661	75.62
265.894	76.62
266.126	83.62
266.358	68.62
266.591	84.62
266.823	84.62
267.055	97.62
267.287	86.62
267.52	79.62
267.752	85.62
267.984	81.62
268.216	88.62
268.448	79.62
268.681	80.62
268.913	85.62
269.145	76.62
269.377	81.62
269.609	82.62
269.841	91.62
270.073	77.62
270.306	77.62
270.538	91.62
270.77	76.62
271.002	94.62
271.234	87.62
271.466	85.62
271.698	78.62
271.93	94.62
272.162	79.62
272.394	88.62
272.626	87.62
272.858	70.62
273.09	85.62
273.322	90.62
273.553	81.62
273.785	97.62
274.017	74.62
274.249	81.62
274.481	92.62
274.713	90.62
274.945	74.62
275.176	85.62
275.408	80.62
275.64	81.62
275.872	80.62
276.104	76.62
276.335	87.62
276.567	83.62
276.799	82.62
277.031	82.62
277.262	94.62
277.494	78.62
277.726	82.62
277.957	78.62
278.189	88.62
278.421	82.62
278.652	96.62
278.884	85.62
279.115	80.62
279.347	79.62
279.579	82.62
279.81	84.62
280.042	87.62
280.273	85.62
280.505	79.62
280.736	98.62
280.968	86.62
281.199	71.62
281.431	98.62
281.662	85.62
281.894	102.62
282.125	93.62
282.356	83.62
282.588	86.62
282.819	90.62
283.051	92.62
283.282	94.62
283.513	90.62
283.745	93.62
283.976	84.62
284.207	80.62
284.439	87.62
284.67	76.62
284.901	84.62
285.132	100.62
285.364	91.62
285.595	74.62
285.826	79.62
286.057	97.62
286.288	81.62
286.52	81.62
286.751	97.62
286.982	82.62
287.213	82.62
287.444	72.62
287.675	96.62
287.906	87.62
288.138	79.62
288.369	90.62
288.6	68.62
288.831	100.62
289.062	85.62
289.293	93.62
289.524	80.62
289.755	87.62
289.986	90.62
290.217	78.62
290.448	101.62
290.679	71.62
290.91	83.62
291.141	77.62
291.371	77.62
291.602	82.62
291.833	81.62
292.064	84.62
292.295	80.62
292.526	100.62
292.757	82.62
292.987	93.62
293.218	76.62
293.449	90.62
293.68	69.62
293.91	78.62
294.141	97.62
294.372	76.62
294.603	91.62
294.833	95.62
295.064	89.62
295.295	86.62
295.525	84.62
295.756	78.62
295.987	84.62
296.217	93.62
296.448	87.62
296.679	79.62
296.909	97.62
297.14	97.62
297.37	89.62
297.601	89.62
297.831	90.62
298.062	91.62
298.292	80.62
298.523	85.62
298.753	82.62
298.984	88.62
299.214	86.62
299.445	91.62
299.675	80.62
299.905	84.62
300.136	81.62
300.366	81.62
300.597	84.62
300.827	92.62
301.057	90.62
301.288	101.62
301.518	84.62
301.748	93.62
301.979	78.62
302.209	85.62
302.439	82.62
302.669	85.62
302.9	86.62
303.13	78.62
303.36	96.62
303.59	93.62
303.82	93.62
304.051	87.62
304.281	77.62
304.511	88.62
304.741	85.62
304.971	85.62
305.201	92.62
305.431	97.62
305.661	90.62
305.891	74.62
306.121	87.62
306.352	94.62
306.582	84.62
306.812	93.62
307.042	77.62
307.272	96.62
307.502	81.62
307.731	89.62
307.961	76.62
308.191	98.62
308.421	88.62
308.651	93.62
308.881	89.62
309.111	102.62
309.341	78.62
309.571	97.62
309.8	94.62
310.03	104.62
310.26	83.62
310.49	87.62
310.72	78.62
310.949	88.62
311.179	86.62
311.409	89.62
311.639	84.62
311.868	88.62
312.098	85.62
312.328	74.62
312.557	81.62
312.787	99.62
313.017	75.62
313.246	70.62
313.476	80.62
313.706	89.62
313.935	77.62
314.165	78.62
314.394	77.62
314.624	94.62
314.853	101.62
315.083	95.62
315.312	87.62
315.542	74.62
315.771	89.62
316.001	83.62
316.23	81.62
316.46	84.62
316.689	93.62
316.919	80.62
317.148	84.62
317.377	78.62
317.607	72.62
317.836	80.62
318.065	77.62
318.295	80.62
318.524	72.62
318.753	95.62
318.983	78.62
319.212	85.62
319.441	90.62
319.67	78.62
319.9	85.62
320.129	93.62
320.358	76.62
320.587	89.62
320.816	81.62
321.046	89.62
321.275	73.62
321.504	77.62
321.733	89.62
321.962	81.62
322.191	96.62
322.42	81.62
322.649	93.62
322.878	94.62
323.108	93.62
323.337	88.62
323.566	81.62
323.795	73.62
324.024	91.62
324.253	77.62
324.482	84.62
324.71	75.62
324.939	99.62
325.168	85.62
325.397	82.62
325.626	92.62
325.855	82.62
326.084	73.62
326.313	98.62
326.542	85.62
326.77	78.62
326.999	77.62
327.228	91.62
327.457	93.62
327.686	74.62
327.914	89.62
328.143	108.62
328.372	85.62
328.6	82.62
328.829	96.62
329.058	100.62
329.287	92.62
329.515	79.62
329.744	77.62
329.972	86.62
330.201	93.62
330.43	89.62
330.658	76.62
330.887	106.62
331.115	98.62
331.344	79.62
331.572	83.62
331.801	78.62
332.03	91.62
332.258	84.62
332.486	84.62
332.715	86.62
332.943	100.62
333.172	88.62
333.4	74.62
333.629	93.62
333.857	87.62
334.085	72.62
334.314	88.62
334.542	101.62
334.771	82.62
334.999	89.62
335.227	77.62
335.455	99.62
335.684	86.62
335.912	82.62
336.14	80.62
336.369	74.62
336.597	77.62
336.825	87.62
337.053	90.62
337.281	82.62
337.51	92.62
337.738	86.62
337.966	92.62
338.194	83.62
338.422	82.62
338.65	89.62
338.878	94.62
339.106	65.62
339.334	89.62
339.562	75.62
339.79	99.62
340.018	74.62
340.246	74.62
340.474	90.62
340.702	71.62
340.93	67.62
341.158	78.62
341.386	83.62
341.614	99.62
341.842	89.62
342.07	91.62
342.298	80.62
342.526	81.62
342.754	73.62
342.981	95.62
343.209	88.62
343.437	83.62
343.665	77.62
343.893	92.62
344.12	98.62
344.348	94.62
344.576	89.62
344.804	90.62
345.031	90.62
345.259	78.62
345.487	84.62
345.714	96.62
345.942	85.62
346.17	80.62
346.397	100.62
346.625	84.62
346.853	83.62
347.08	89.62
347.308	73.62
347.535	92.62
347.763	77.62
347.99	90.62
348.218	100.62
348.445	85.62
348.673	81.62
348.9	88.62
349.128	84.62
349.355	86.62
349.583	87.62
349.81	88.62
350.037	80.62
350.265	83.62
350.492	86.62
350.72	70.62
350.947	87.62
351.174	92.62
351.402	80.62
351.629	77.62
351.856	93.62
352.083	86.62
352.311	97.62
352.538	75.62
352.765	72.62
352.992	86.62
353.22	89.62
353.447	86.62
353.674	85.62
353.901	87.62
354.128	83.62
354.355	81.62
354.583	75.62
354.81	91.62
355.037	82.62
355.264	83.62
355.491	72.62
355.718	89.62
355.945	84.62
356.172	95.62
356.399	90.62
356.626	108.62
356.853	92.62
357.08	93.62
357.307	83.62
357.534	86.62
357.761	89.62
357.988	92.62
358.215	80.62
358.441	90.62
358.668	77.62
358.895	78.62
359.122	77.62
359.349	69.62
359.576	87.62
359.802	69.62
360.029	91.62
360.256	89.62
360.483	86.62
360.709	93.62
360.936	97.62
361.163	83.62
361.39	94.62
361.616	82.62
361.843	87.62
362.07	87.62
362.296	81.62
362.523	87.62
362.749	91.62
362.976	82.62
363.203	106.62
363.429	83.62
363.656	76.62
363.882	72.62
364.109	94.62
364.335	85.62
364.562	88.62
364.788	88.62
365.015	85.62
365.241	92.62
365.468	82.62
365.694	91.62
365.92	85.62
366.147	90.62
366.373	67.62
366.599	78.62
366.826	73.62
367.052	80.62
367.278	102.62
367.505	99.62
367.731	91.62
367.957	89.62
368.184	86.62
368.41	79.62
368.636	78.62
368.862	89.62
369.089	100.62
369.315	78.62
369.541	86.62
369.767	95.62
369.993	98.62
370.219	89.62
370.445	75.62
370.672	77.62
370.898	82.62
371.124	87.62
371.35	102.62
371.576	79.62
371.802	90.62
372.028	94.62
372.254	84.62
372.48	81.62
372.706	77.62
372.932	92.62
373.158	88.62
373.384	72.62
373.61	98.62
373.835	97.62
374.061	70.62
374.287	100.62
374.513	87.62
374.739	77.62
374.965	75.62
375.191	95.62
375.416	70.62
375.642	81.62
375.868	77.62
376.094	94.62
376.319	100.62
376.545	81.62
376.771	96.62
376.997	82.62
377.222	92.62
377.448	103.62
377.674	93.62
377.899	85.62
378.125	76.62
378.35	101.62
378.576	89.62
378.802	82.62
379.027	85.62
379.253	96.62
379.478	77.62
379.704	87.62
379.929	89.62
380.155	84.62
380.38	89.62
380.606	100.62
380.831	88.62
381.057	97.62
381.282	96.62
381.507	93.62
381.733	87.62
381.958	81.62
382.184	97.62
382.409	98.62
382.634	89.62
382.86	99.62
383.085	91.62
383.31	86.62
383.535	93.62
383.761	108.62
383.986	84.62
384.211	87.62
384.436	97.62
384.662	98.62
384.887	81.62
385.112	84.62
385.337	92.62
385.562	81.62
385.787	90.62
386.013	99.62
386.238	95.62
386.463	78.62
386.688	96.62
386.913	82.62
387.138	92.62
387.363	73.62
387.588	84.62
387.813	89.62
388.038	71.62
388.263	102.62
388.488	90.62
388.713	84.62
388.938	79.62
389.163	101.62
389.387	84.62
389.612	82.62
389.837	97.62
390.062	84.62
390.287	79.62
390.512	97.62
390.736	84.62
390.961	93.62
391.186	95.62
391.411	89.62
391.636	92.62
391.86	86.62
392.085	93.62
392.31	92.62
392.534	90.62
392.759	87.62
392.984	86.62
393.208	101.62
393.433	96.62
393.658	81.62
393.882	80.62
394.107	78.62
394.331	75.62
394.556	94.62
394.78	114.62
395.005	89.62
395.229	94.62
395.454	94.62
395.678	89.62
395.903	88.62
396.127	83.62
396.352	93.62
396.576	111.62
396.801	92.62
397.025	77.62
397.249	100.62
397.474	104.62
397.698	102.62
397.922	101.62
398.147	96.62
398.371	96.62
398.595	104.62
398.82	95.62
399.044	106.62
399.268	98.62
399.492	99.62
399.717	97.62
399.941	99.62
400.165	90.62
400.389	91.62
400.613	92.62
400.837	85.62
401.062	92.62
401.286	93.62
401.51	104.62
401.734	91.62
401.958	94.62
402.182	90.62
402.406	100.62
402.63	88.62
402.854	89.62
403.078	111.62
403.302	94.62
403.526	106.62
403.75	104.62
403.974	88.62
404.198	100.62
404.422	83.62
404.645	104.62
404.869	97.62
405.093	101.62
405.317	104.62
405.541	95.62
405.765	90.62
405.988	109.62
406.212	120.62
406.436	111.62
406.66	97.62
406.883	80.62
407.107	83.62
407.331	89.62
407.555	98.62
407.778	95.62
408.002	107.62
408.226	102.62
408.449	76.62
408.673	99.62
408.896	102.62
409.12	89.62
409.344	96.62
409.567	109.62
409.791	100.62
410.014	100.62
410.238	91.62
410.461	92.62
410.685	113.62
410.908	94.62
411.132	99.62
411.355	108.62
411.578	108.62
411.802	113.62
412.025	106.62
412.249	98.62
412.472	90.62
412.695	97.62
412.919	90.62
413.142	84.62
413.365	91.62
413.589	93.62
413.812	94.62
414.035	121.62
414.258	104.62
414.482	96.62
414.705	93.62
414.928	96.62
415.151	91.62
415.374	100.62
415.597	95.62
415.821	95.62
416.044	100.62
416.267	100.62
416.49	105.62
416.713	106.62
416.936	93.62
417.159	99.62
417.382	92.62
417.605	118.62
417.828	104.62
418.051	106.62
418.274	96.62
418.497	101.62
418.72	93.62
418.943	94.62
419.166	95.62
419.389	102.62
419.611	106.62
419.834	101.62
420.057	112.62
420.28	107.62
420.503	102.62
420.726	122.62
420.948	109.62
421.171	106.62
421.394	109.62
421.617	109.62
421.839	96.62
422.062	98.62
422.285	98.62
422.507	94.62
422.73	100.62
422.953	99.62
423.175	85.62
423.398	95.62
423.621	95.62
423.843	116.62
424.066	102.62
424.288	102.62
424.511	90.62
424.733	99.62
424.956	94.62
425.178	108.62
425.401	104.62
425.623	115.62
425.846	107.62
426.068	108.62
426.291	126.62
426.513	100.62
426.735	108.62
426.958	118.62
427.18	107.62
427.402	99.62
427.625	96.62
427.847	93.62
428.069	109.62
428.292	98.62
428.514	93.62
428.736	106.62
428.958	99.62
429.181	91.62
429.403	121.62
429.625	107.62
429.847	110.62
430.069	103.62
430.292	92.62
430.514	107.62
430.736	109.62
430.958	116.62
431.18	102.62
431.402	88.62
431.624	96.62
431.846	103.62
432.068	94.62
432.29	90.62
432.512	92.62
432.734	97.62
432.956	102.62
433.178	106.62
433.4	108.62
433.622	107.62
433.844	109.62
434.066	88.62
434.287	67.62
434.509	106.62
434.731	92.62
434.953	100.62
435.175	102.62
435.397	113.62
435.618	105.62
435.84	103.62
436.062	96.62
436.284	98.62
436.505	99.62
436.727	105.62
436.949	103.62
437.17	91.62
437.392	117.62
437.614	98.62
437.835	89.62
438.057	91.62
438.278	93.62
438.5	96.62
438.721	101.62
438.943	112.62
439.165	112.62
439.386	115.62
439.608	100.62
439.829	122.62
440.05	116.62
440.272	120.62
440.493	106.62
440.715	117.62
440.936	130.62
441.158	120.62
441.379	120.62
441.6	122.62
441.822	115.62
442.043	118.62
442.264	102.62
442.486	103.62
442.707	105.62
442.928	109.62
443.149	100.62
443.371	101.62
443.592	107.62
443.813	107.62
444.034	111.62
444.255	106.62
444.476	122.62
444.698	108.62
444.919	107.62
445.14	227.62
445.361	147.62
445.582	126.62
445.803	124.62
446.024	98.62
446.245	105.62
446.466	112.62
446.687	108.62
446.908	109.62
447.129	114.62
447.35	126.62
447.571	106.62
447.792	106.62
448.013	103.62
448.234	123.62
448.455	106.62
448.675	102.62
448.896	114.62
449.117	105.62
449.338	101.62
449.559	107.62
449.779	122.62
450	97.62
450.221	112.62
450.442	98.62
450.662	106.62
450.883	110.62
451.104	108.62
451.324	105.62
451.545	105.62
451.766	91.62
451.986	99.62
452.207	107.62
452.428	93.62
452.648	104.62
452.869	123.62
453.089	92.62
453.31	82.62
453.53	106.62
453.751	85.62
453.971	91.62
454.192	94.62
454.412	92.62
454.633	97.62
454.853	94.62
455.073	102.62
455.294	99.62
455.514	109.62
455.734	90.62
455.955	95.62
456.175	92.62
456.395	86.62
456.616	90.62
456.836	93.62
457.056	97.62
457.276	93.62
457.497	77.62
457.717	96.62
457.937	96.62
458.157	97.62
458.377	85.62
458.598	96.62
458.818	90.62
459.038	89.62
459.258	88.62
459.478	84.62
459.698	86.62
459.918	106.62
460.138	109.62
460.358	96.62
460.578	92.62
460.798	108.62
461.018	100.62
461.238	90.62
461.458	100.62
461.678	88.62
461.898	101.62
462.118	96.62
462.338	96.62
462.558	94.62
462.777	104.62
462.997	92.62
463.217	100.62
463.437	93.62
463.657	86.62
463.876	94.62
464.096	110.62
464.316	93.62
464.536	90.62
464.755	97.62
464.975	99.62
465.195	98.62
465.414	105.62
465.634	99.62
465.854	101.62
466.073	95.62
466.293	101.62
466.512	97.62
466.732	90.62
466.951	111.62
467.171	97.62
467.391	99.62
467.61	99.62
467.829	114.62
468.049	117.62
468.268	108.62
468.488	108.62
468.707	108.62
468.927	107.62
469.146	90.62
469.365	108.62
469.585	113.62
469.804	121.62
470.023	109.62
470.243	104.62
470.462	123.62
470.681	98.62
470.901	114.62
471.12	112.62
471.339	114.62
471.558	115.62
471.777	112.62
471.997	103.62
472.216	104.62
472.435	93.62
472.654	92.62
472.873	101.62
473.092	109.62
473.311	104.62
473.53	97.62
473.749	101.62
473.968	111.62
474.187	104.62
474.406	103.62
474.625	102.62
474.844	117.62
475.063	102.62
475.282	109.62
475.501	102.62
475.72	96.62
475.939	104.62
476.158	110.62
476.377	116.62
476.596	127.62
476.814	102.62
477.033	104.62
477.252	83.62
477.471	93.62
477.69	107.62
477.908	112.62
478.127	96.62
478.346	97.62
478.564	105.62
478.783	101.62
479.002	99.62
479.22	100.62
479.439	86.62
479.658	105.62
479.876	98.62
480.095	100.62
480.313	108.62
480.532	97.62
480.751	87.62
480.969	89.62
481.188	84.62
481.406	88.62
481.624	92.62
481.843	86.62
482.061	96.62
482.28	112.62
482.498	102.62
482.717	101.62
482.935	100.62
483.153	105.62
483.372	105.62
483.59	89.62
483.808	107.62
484.027	115.62
484.245	117.62
484.463	112.62
484.681	121.62
484.9	117.62
485.118	106.62
485.336	101.62
485.554	97.62
485.772	87.62
485.99	93.62
486.209	92.62
486.427	98.62
486.645	95.62
486.863	108.62
487.081	118.62
487.299	98.62
487.517	118.62
487.735	132.62
487.953	127.62
488.171	136.62
488.389	117.62
488.607	124.62
488.825	109.62
489.043	100.62
489.261	116.62
489.479	115.62
489.696	107.62
489.914	106.62
490.132	102.62
490.35	117.62
490.568	121.62
490.786	116.62
491.003	128.62
491.221	131.62
491.439	140.62
491.657	125.62
491.874	137.62
492.092	159.62
492.31	150.62
492.527	164.62
492.745	153.62
492.963	141.62
493.18	124.62
493.398	122.62
493.615	130.62
493.833	108.62
494.05	127.62
494.268	130.62
494.485	128.62
494.703	116.62
494.92	132.62
495.138	123.62
495.355	119.62
495.573	123.62
495.79	118.62
496.008	119.62
496.225	124.62
496.442	116.62
496.66	122.62
496.877	122.62
497.094	129.62
497.312	136.62
497.529	134.62
497.746	115.62
497.963	99.62
498.181	124.62
498.398	105.62
498.615	98.62
498.832	104.62
499.049	85.62
499.267	98.62
499.484	120.62
499.701	103.62
499.918	112.62
500.135	96.62
500.352	99.62
500.569	109.62
500.786	113.62
501.003	118.62
501.22	98.62
501.437	122.62
501.654	117.62
501.871	106.62
502.088	110.62
502.305	103.62
502.522	112.62
502.739	110.62
502.956	104.62
503.172	98.62
503.389	104.62
503.606	106.62
503.823	92.62
504.04	94.62
504.256	102.62
504.473	93.62
504.69	95.62
504.907	117.62
505.123	107.62
505.34	105.62
505.557	91.62
505.773	106.62
505.99	107.62
506.207	98.62
506.423	108.62
506.64	107.62
506.856	94.62
507.073	106.62
507.289	101.62
507.506	101.62
507.722	98.62
507.939	83.62
508.155	83.62
508.372	100.62
508.588	83.62
508.805	92.62
509.021	104.62
509.238	98.62
509.454	99.62
509.67	86.62
509.887	92.62
510.103	99.62
510.319	96.62
510.536	73.62
510.752	73.62
510.968	85.62
511.184	76.62
511.401	82.62
511.617	78.62
511.833	82.62
512.049	89.62
512.265	98.62
512.481	84.62
512.698	96.62
512.914	90.62
513.13	91.62
513.346	86.62
513.562	80.62
513.778	82.62
513.994	82.62
514.21	93.62
514.426	90.62
514.642	95.62
