Data from Zn(NO3)2Standard.Agarose3%.GreenCap.LampEnergy10E.O_HRD10591_15-07-34-944.txt Node
Date: Mon Jul 22 15:07:34 EDT 2019
User: cochatt
Spectrometer: HR+D1059
Trigger mode: 1
Integration Time (sec): 1.000000E-1
Scans to average: 1
Electric dark correction enabled: true
Nonlinearity correction enabled: false
Boxcar width: 0
XAxis mode: Wavelengths
Number of Pixels in Spectrum: 2048
>>>>>Begin Spectral Data<<<<<
223.165	-8.44
223.4	-8.44
223.635	-8.44
223.869	-8.44
224.104	-30.44
224.338	-0.44
224.573	-16.44
224.808	-14.44
225.042	-4.44
225.277	-18.44
225.511	-6.44
225.746	15.56
225.98	5.56
226.215	5.56
226.449	12.56
226.683	21.56
226.918	22.56
227.152	24.56
227.387	29.56
227.621	32.56
227.856	49.56
228.09	42.56
228.324	51.56
228.559	55.56
228.793	58.56
229.027	62.56
229.262	64.56
229.496	73.56
229.73	68.56
229.964	58.56
230.199	81.56
230.433	69.56
230.667	68.56
230.901	68.56
231.136	80.56
231.37	71.56
231.604	70.56
231.838	73.56
232.072	76.56
232.306	83.56
232.541	86.56
232.775	78.56
233.009	76.56
233.243	87.56
233.477	75.56
233.711	86.56
233.945	83.56
234.179	84.56
234.413	78.56
234.647	69.56
234.881	71.56
235.115	82.56
235.349	73.56
235.583	93.56
235.817	80.56
236.051	89.56
236.285	78.56
236.519	78.56
236.753	83.56
236.987	68.56
237.221	80.56
237.455	92.56
237.689	73.56
237.922	78.56
238.156	72.56
238.39	66.56
238.624	67.56
238.858	72.56
239.091	72.56
239.325	82.56
239.559	87.56
239.793	77.56
240.027	96.56
240.26	85.56
240.494	75.56
240.728	71.56
240.961	74.56
241.195	84.56
241.429	83.56
241.662	69.56
241.896	88.56
242.13	70.56
242.363	63.56
242.597	74.56
242.83	84.56
243.064	84.56
243.298	81.56
243.531	87.56
243.765	77.56
243.998	63.56
244.232	77.56
244.465	89.56
244.699	81.56
244.932	78.56
245.166	76.56
245.399	73.56
245.633	79.56
245.866	79.56
246.099	76.56
246.333	76.56
246.566	73.56
246.8	76.56
247.033	84.56
247.266	76.56
247.5	90.56
247.733	82.56
247.966	81.56
248.2	92.56
248.433	77.56
248.666	87.56
248.899	85.56
249.133	74.56
249.366	77.56
249.599	89.56
249.832	94.56
250.066	91.56
250.299	79.56
250.532	80.56
250.765	71.56
250.998	74.56
251.231	85.56
251.465	81.56
251.698	76.56
251.931	82.56
252.164	79.56
252.397	89.56
252.63	92.56
252.863	79.56
253.096	72.56
253.329	96.56
253.562	102.56
253.795	91.56
254.028	81.56
254.261	76.56
254.494	95.56
254.727	84.56
254.96	88.56
255.193	68.56
255.426	82.56
255.659	82.56
255.892	77.56
256.124	72.56
256.357	85.56
256.59	73.56
256.823	69.56
257.056	76.56
257.289	77.56
257.521	85.56
257.754	81.56
257.987	88.56
258.22	87.56
258.452	76.56
258.685	81.56
258.918	78.56
259.151	84.56
259.383	76.56
259.616	75.56
259.849	89.56
260.081	88.56
260.314	84.56
260.547	74.56
260.779	87.56
261.012	73.56
261.244	82.56
261.477	73.56
261.71	84.56
261.942	64.56
262.175	84.56
262.407	97.56
262.64	77.56
262.872	87.56
263.105	74.56
263.337	75.56
263.57	73.56
263.802	80.56
264.035	71.56
264.267	82.56
264.499	76.56
264.732	82.56
264.964	89.56
265.197	74.56
265.429	90.56
265.661	78.56
265.894	84.56
266.126	76.56
266.358	76.56
266.591	71.56
266.823	73.56
267.055	77.56
267.287	86.56
267.52	86.56
267.752	72.56
267.984	86.56
268.216	91.56
268.448	78.56
268.681	84.56
268.913	89.56
269.145	79.56
269.377	70.56
269.609	83.56
269.841	72.56
270.073	71.56
270.306	87.56
270.538	78.56
270.77	76.56
271.002	82.56
271.234	88.56
271.466	67.56
271.698	90.56
271.93	84.56
272.162	90.56
272.394	90.56
272.626	76.56
272.858	74.56
273.09	86.56
273.322	89.56
273.553	84.56
273.785	88.56
274.017	83.56
274.249	71.56
274.481	70.56
274.713	83.56
274.945	76.56
275.176	92.56
275.408	89.56
275.64	78.56
275.872	92.56
276.104	78.56
276.335	84.56
276.567	88.56
276.799	90.56
277.031	93.56
277.262	81.56
277.494	81.56
277.726	75.56
277.957	83.56
278.189	81.56
278.421	81.56
278.652	82.56
278.884	76.56
279.115	68.56
279.347	81.56
279.579	87.56
279.81	74.56
280.042	82.56
280.273	73.56
280.505	81.56
280.736	79.56
280.968	90.56
281.199	81.56
281.431	95.56
281.662	85.56
281.894	81.56
282.125	89.56
282.356	83.56
282.588	91.56
282.819	70.56
283.051	82.56
283.282	73.56
283.513	77.56
283.745	75.56
283.976	76.56
284.207	84.56
284.439	79.56
284.67	94.56
284.901	88.56
285.132	91.56
285.364	78.56
285.595	91.56
285.826	80.56
286.057	84.56
286.288	86.56
286.52	84.56
286.751	85.56
286.982	89.56
287.213	79.56
287.444	84.56
287.675	95.56
287.906	86.56
288.138	91.56
288.369	79.56
288.6	89.56
288.831	96.56
289.062	90.56
289.293	88.56
289.524	81.56
289.755	77.56
289.986	76.56
290.217	60.56
290.448	85.56
290.679	80.56
290.91	95.56
291.141	99.56
291.371	93.56
291.602	91.56
291.833	84.56
292.064	87.56
292.295	70.56
292.526	86.56
292.757	80.56
292.987	78.56
293.218	81.56
293.449	87.56
293.68	75.56
293.91	77.56
294.141	67.56
294.372	83.56
294.603	87.56
294.833	88.56
295.064	84.56
295.295	81.56
295.525	91.56
295.756	88.56
295.987	88.56
296.217	88.56
296.448	84.56
296.679	84.56
296.909	78.56
297.14	74.56
297.37	79.56
297.601	94.56
297.831	80.56
298.062	84.56
298.292	96.56
298.523	75.56
298.753	91.56
298.984	90.56
299.214	77.56
299.445	90.56
299.675	86.56
299.905	87.56
300.136	92.56
300.366	83.56
300.597	80.56
300.827	98.56
301.057	95.56
301.288	96.56
301.518	94.56
301.748	78.56
301.979	92.56
302.209	92.56
302.439	96.56
302.669	93.56
302.9	82.56
303.13	87.56
303.36	73.56
303.59	90.56
303.82	78.56
304.051	87.56
304.281	88.56
304.511	90.56
304.741	85.56
304.971	95.56
305.201	82.56
305.431	78.56
305.661	76.56
305.891	82.56
306.121	85.56
306.352	81.56
306.582	84.56
306.812	89.56
307.042	76.56
307.272	88.56
307.502	92.56
307.731	92.56
307.961	95.56
308.191	81.56
308.421	87.56
308.651	78.56
308.881	95.56
309.111	91.56
309.341	81.56
309.571	76.56
309.8	81.56
310.03	87.56
310.26	86.56
310.49	84.56
310.72	92.56
310.949	83.56
311.179	83.56
311.409	81.56
311.639	86.56
311.868	77.56
312.098	86.56
312.328	89.56
312.557	92.56
312.787	97.56
313.017	98.56
313.246	84.56
313.476	83.56
313.706	84.56
313.935	83.56
314.165	103.56
314.394	77.56
314.624	86.56
314.853	89.56
315.083	76.56
315.312	73.56
315.542	67.56
315.771	87.56
316.001	86.56
316.23	90.56
316.46	86.56
316.689	74.56
316.919	88.56
317.148	98.56
317.377	92.56
317.607	85.56
317.836	84.56
318.065	76.56
318.295	81.56
318.524	95.56
318.753	99.56
318.983	77.56
319.212	90.56
319.441	96.56
319.67	84.56
319.9	87.56
320.129	82.56
320.358	77.56
320.587	101.56
320.816	75.56
321.046	87.56
321.275	85.56
321.504	74.56
321.733	76.56
321.962	88.56
322.191	92.56
322.42	83.56
322.649	92.56
322.878	85.56
323.108	76.56
323.337	99.56
323.566	73.56
323.795	74.56
324.024	86.56
324.253	78.56
324.482	83.56
324.71	84.56
324.939	92.56
325.168	86.56
325.397	74.56
325.626	93.56
325.855	71.56
326.084	88.56
326.313	89.56
326.542	109.56
326.77	68.56
326.999	96.56
327.228	95.56
327.457	86.56
327.686	88.56
327.914	84.56
328.143	89.56
328.372	89.56
328.6	81.56
328.829	88.56
329.058	83.56
329.287	85.56
329.515	91.56
329.744	75.56
329.972	89.56
330.201	81.56
330.43	77.56
330.658	80.56
330.887	82.56
331.115	76.56
331.344	84.56
331.572	84.56
331.801	89.56
332.03	95.56
332.258	78.56
332.486	91.56
332.715	86.56
332.943	82.56
333.172	77.56
333.4	76.56
333.629	83.56
333.857	76.56
334.085	86.56
334.314	86.56
334.542	90.56
334.771	81.56
334.999	83.56
335.227	77.56
335.455	77.56
335.684	89.56
335.912	98.56
336.14	68.56
336.369	79.56
336.597	81.56
336.825	86.56
337.053	93.56
337.281	89.56
337.51	88.56
337.738	92.56
337.966	87.56
338.194	69.56
338.422	84.56
338.65	76.56
338.878	109.56
339.106	87.56
339.334	85.56
339.562	85.56
339.79	76.56
340.018	83.56
340.246	81.56
340.474	90.56
340.702	92.56
340.93	86.56
341.158	85.56
341.386	82.56
341.614	88.56
341.842	79.56
342.07	84.56
342.298	84.56
342.526	88.56
342.754	77.56
342.981	88.56
343.209	87.56
343.437	94.56
343.665	96.56
343.893	95.56
344.12	81.56
344.348	85.56
344.576	84.56
344.804	81.56
345.031	68.56
345.259	79.56
345.487	69.56
345.714	76.56
345.942	69.56
346.17	84.56
346.397	81.56
346.625	87.56
346.853	91.56
347.08	82.56
347.308	92.56
347.535	77.56
347.763	79.56
347.99	83.56
348.218	93.56
348.445	82.56
348.673	81.56
348.9	92.56
349.128	77.56
349.355	93.56
349.583	93.56
349.81	83.56
350.037	71.56
350.265	81.56
350.492	100.56
350.72	99.56
350.947	96.56
351.174	67.56
351.402	69.56
351.629	82.56
351.856	81.56
352.083	79.56
352.311	75.56
352.538	77.56
352.765	84.56
352.992	92.56
353.22	92.56
353.447	73.56
353.674	69.56
353.901	85.56
354.128	89.56
354.355	90.56
354.583	93.56
354.81	91.56
355.037	82.56
355.264	81.56
355.491	78.56
355.718	80.56
355.945	80.56
356.172	82.56
356.399	84.56
356.626	77.56
356.853	78.56
357.08	95.56
357.307	84.56
357.534	88.56
357.761	81.56
357.988	88.56
358.215	90.56
358.441	93.56
358.668	73.56
358.895	95.56
359.122	81.56
359.349	70.56
359.576	74.56
359.802	85.56
360.029	81.56
360.256	75.56
360.483	81.56
360.709	75.56
360.936	91.56
361.163	87.56
361.39	87.56
361.616	80.56
361.843	76.56
362.07	83.56
362.296	87.56
362.523	80.56
362.749	83.56
362.976	87.56
363.203	78.56
363.429	81.56
363.656	100.56
363.882	85.56
364.109	85.56
364.335	85.56
364.562	82.56
364.788	70.56
365.015	83.56
365.241	99.56
365.468	93.56
365.694	87.56
365.92	79.56
366.147	84.56
366.373	84.56
366.599	89.56
366.826	81.56
367.052	99.56
367.278	80.56
367.505	75.56
367.731	85.56
367.957	88.56
368.184	85.56
368.41	80.56
368.636	81.56
368.862	101.56
369.089	99.56
369.315	82.56
369.541	93.56
369.767	99.56
369.993	84.56
370.219	82.56
370.445	80.56
370.672	77.56
370.898	77.56
371.124	80.56
371.35	83.56
371.576	74.56
371.802	72.56
372.028	83.56
372.254	81.56
372.48	84.56
372.706	71.56
372.932	85.56
373.158	87.56
373.384	85.56
373.61	74.56
373.835	93.56
374.061	80.56
374.287	73.56
374.513	92.56
374.739	82.56
374.965	79.56
375.191	89.56
375.416	76.56
375.642	91.56
375.868	89.56
376.094	92.56
376.319	83.56
376.545	98.56
376.771	87.56
376.997	83.56
377.222	99.56
377.448	84.56
377.674	75.56
377.899	85.56
378.125	77.56
378.35	89.56
378.576	88.56
378.802	89.56
379.027	79.56
379.253	78.56
379.478	91.56
379.704	84.56
379.929	91.56
380.155	90.56
380.38	85.56
380.606	83.56
380.831	84.56
381.057	93.56
381.282	97.56
381.507	91.56
381.733	84.56
381.958	91.56
382.184	93.56
382.409	95.56
382.634	80.56
382.86	83.56
383.085	96.56
383.31	85.56
383.535	82.56
383.761	92.56
383.986	88.56
384.211	88.56
384.436	82.56
384.662	80.56
384.887	90.56
385.112	83.56
385.337	84.56
385.562	78.56
385.787	105.56
386.013	101.56
386.238	84.56
386.463	98.56
386.688	89.56
386.913	82.56
387.138	83.56
387.363	84.56
387.588	92.56
387.813	83.56
388.038	88.56
388.263	84.56
388.488	91.56
388.713	91.56
388.938	99.56
389.163	98.56
389.387	89.56
389.612	84.56
389.837	83.56
390.062	99.56
390.287	89.56
390.512	99.56
390.736	97.56
390.961	83.56
391.186	87.56
391.411	97.56
391.636	83.56
391.86	87.56
392.085	100.56
392.31	75.56
392.534	86.56
392.759	86.56
392.984	106.56
393.208	90.56
393.433	90.56
393.658	102.56
393.882	97.56
394.107	88.56
394.331	77.56
394.556	91.56
394.78	88.56
395.005	88.56
395.229	87.56
395.454	98.56
395.678	100.56
395.903	84.56
396.127	98.56
396.352	88.56
396.576	93.56
396.801	86.56
397.025	115.56
397.249	89.56
397.474	89.56
397.698	87.56
397.922	99.56
398.147	94.56
398.371	94.56
398.595	103.56
398.82	91.56
399.044	92.56
399.268	103.56
399.492	97.56
399.717	99.56
399.941	97.56
400.165	97.56
400.389	87.56
400.613	102.56
400.837	96.56
401.062	91.56
401.286	103.56
401.51	95.56
401.734	84.56
401.958	107.56
402.182	99.56
402.406	102.56
402.63	89.56
402.854	99.56
403.078	84.56
403.302	93.56
403.526	85.56
403.75	106.56
403.974	91.56
404.198	90.56
404.422	105.56
404.645	107.56
404.869	91.56
405.093	84.56
405.317	97.56
405.541	93.56
405.765	94.56
405.988	99.56
406.212	105.56
406.436	96.56
406.66	92.56
406.883	87.56
407.107	99.56
407.331	95.56
407.555	90.56
407.778	84.56
408.002	85.56
408.226	88.56
408.449	97.56
408.673	105.56
408.896	111.56
409.12	100.56
409.344	105.56
409.567	94.56
409.791	88.56
410.014	97.56
410.238	108.56
410.461	99.56
410.685	101.56
410.908	95.56
411.132	92.56
411.355	103.56
411.578	96.56
411.802	85.56
412.025	90.56
412.249	116.56
412.472	86.56
412.695	105.56
412.919	104.56
413.142	89.56
413.365	97.56
413.589	90.56
413.812	93.56
414.035	92.56
414.258	115.56
414.482	101.56
414.705	93.56
414.928	96.56
415.151	99.56
415.374	95.56
415.597	97.56
415.821	102.56
416.044	91.56
416.267	104.56
416.49	87.56
416.713	103.56
416.936	93.56
417.159	100.56
417.382	115.56
417.605	115.56
417.828	111.56
418.051	94.56
418.274	113.56
418.497	88.56
418.72	96.56
418.943	101.56
419.166	98.56
419.389	116.56
419.611	107.56
419.834	101.56
420.057	104.56
420.28	95.56
420.503	109.56
420.726	106.56
420.948	97.56
421.171	96.56
421.394	107.56
421.617	105.56
421.839	103.56
422.062	108.56
422.285	117.56
422.507	109.56
422.73	100.56
422.953	112.56
423.175	97.56
423.398	83.56
423.621	113.56
423.843	100.56
424.066	101.56
424.288	99.56
424.511	100.56
424.733	104.56
424.956	114.56
425.178	104.56
425.401	120.56
425.623	108.56
425.846	91.56
426.068	106.56
426.291	87.56
426.513	98.56
426.735	117.56
426.958	108.56
427.18	107.56
427.402	115.56
427.625	102.56
427.847	112.56
428.069	106.56
428.292	88.56
428.514	107.56
428.736	107.56
428.958	108.56
429.181	113.56
429.403	102.56
429.625	117.56
429.847	105.56
430.069	111.56
430.292	112.56
430.514	116.56
430.736	101.56
430.958	108.56
431.18	107.56
431.402	92.56
431.624	91.56
431.846	92.56
432.068	83.56
432.29	92.56
432.512	91.56
432.734	93.56
432.956	87.56
433.178	107.56
433.4	91.56
433.622	108.56
433.844	112.56
434.066	91.56
434.287	92.56
434.509	85.56
434.731	91.56
434.953	78.56
435.175	103.56
435.397	96.56
435.618	89.56
435.84	106.56
436.062	99.56
436.284	96.56
436.505	87.56
436.727	98.56
436.949	99.56
437.17	91.56
437.392	105.56
437.614	111.56
437.835	73.56
438.057	85.56
438.278	96.56
438.5	101.56
438.721	114.56
438.943	105.56
439.165	103.56
439.386	101.56
439.608	99.56
439.829	117.56
440.05	115.56
440.272	104.56
440.493	119.56
440.715	97.56
440.936	120.56
441.158	111.56
441.379	107.56
441.6	117.56
441.822	121.56
442.043	126.56
442.264	115.56
442.486	115.56
442.707	109.56
442.928	115.56
443.149	116.56
443.371	101.56
443.592	108.56
443.813	96.56
444.034	105.56
444.255	99.56
444.476	97.56
444.698	114.56
444.919	115.56
445.14	212.56
445.361	155.56
445.582	107.56
445.803	115.56
446.024	112.56
446.245	124.56
446.466	115.56
446.687	119.56
446.908	120.56
447.129	101.56
447.35	108.56
447.571	101.56
447.792	116.56
448.013	111.56
448.234	100.56
448.455	107.56
448.675	109.56
448.896	103.56
449.117	102.56
449.338	106.56
449.559	108.56
449.779	100.56
450	98.56
450.221	119.56
450.442	95.56
450.662	105.56
450.883	118.56
451.104	89.56
451.324	116.56
451.545	96.56
451.766	111.56
451.986	97.56
452.207	101.56
452.428	121.56
452.648	115.56
452.869	86.56
453.089	91.56
453.31	95.56
453.53	99.56
453.751	90.56
453.971	89.56
454.192	96.56
454.412	101.56
454.633	97.56
454.853	89.56
455.073	86.56
455.294	106.56
455.514	103.56
455.734	105.56
455.955	89.56
456.175	102.56
456.395	107.56
456.616	107.56
456.836	91.56
457.056	106.56
457.276	88.56
457.497	90.56
457.717	96.56
457.937	96.56
458.157	82.56
458.377	104.56
458.598	100.56
458.818	92.56
459.038	81.56
459.258	82.56
459.478	95.56
459.698	96.56
459.918	99.56
460.138	85.56
460.358	90.56
460.578	104.56
460.798	103.56
461.018	96.56
461.238	101.56
461.458	107.56
461.678	101.56
461.898	88.56
462.118	114.56
462.338	92.56
462.558	98.56
462.777	94.56
462.997	89.56
463.217	81.56
463.437	95.56
463.657	94.56
463.876	90.56
464.096	96.56
464.316	84.56
464.536	89.56
464.755	95.56
464.975	100.56
465.195	103.56
465.414	99.56
465.634	91.56
465.854	86.56
466.073	108.56
466.293	105.56
466.512	89.56
466.732	106.56
466.951	90.56
467.171	100.56
467.391	106.56
467.61	102.56
467.829	115.56
468.049	107.56
468.268	102.56
468.488	95.56
468.707	95.56
468.927	120.56
469.146	104.56
469.365	98.56
469.585	92.56
469.804	101.56
470.023	109.56
470.243	99.56
470.462	104.56
470.681	111.56
470.901	120.56
471.12	95.56
471.339	105.56
471.558	114.56
471.777	115.56
471.997	112.56
472.216	99.56
472.435	105.56
472.654	101.56
472.873	102.56
473.092	88.56
473.311	97.56
473.53	112.56
473.749	92.56
473.968	97.56
474.187	96.56
474.406	88.56
474.625	88.56
474.844	94.56
475.063	112.56
475.282	97.56
475.501	102.56
475.72	115.56
475.939	111.56
476.158	105.56
476.377	99.56
476.596	96.56
476.814	104.56
477.033	95.56
477.252	112.56
477.471	97.56
477.69	102.56
477.908	111.56
478.127	118.56
478.346	103.56
478.564	100.56
478.783	113.56
479.002	115.56
479.22	113.56
479.439	108.56
479.658	110.56
479.876	108.56
480.095	96.56
480.313	109.56
480.532	102.56
480.751	100.56
480.969	86.56
481.188	88.56
481.406	71.56
481.624	86.56
481.843	81.56
482.061	96.56
482.28	106.56
482.498	101.56
482.717	95.56
482.935	105.56
483.153	115.56
483.372	130.56
483.59	107.56
483.808	113.56
484.027	103.56
484.245	112.56
484.463	109.56
484.681	119.56
484.9	98.56
485.118	111.56
485.336	93.56
485.554	82.56
485.772	85.56
485.99	92.56
486.209	88.56
486.427	82.56
486.645	106.56
486.863	106.56
487.081	100.56
487.299	109.56
487.517	116.56
487.735	105.56
487.953	120.56
488.171	122.56
488.389	128.56
488.607	113.56
488.825	114.56
489.043	117.56
489.261	133.56
489.479	115.56
489.696	106.56
489.914	104.56
490.132	121.56
490.35	118.56
490.568	134.56
490.786	132.56
491.003	126.56
491.221	127.56
491.439	126.56
491.657	122.56
491.874	142.56
492.092	140.56
492.31	151.56
492.527	143.56
492.745	151.56
492.963	140.56
493.18	124.56
493.398	121.56
493.615	139.56
493.833	138.56
494.05	123.56
494.268	129.56
494.485	122.56
494.703	119.56
494.92	122.56
495.138	122.56
495.355	136.56
495.573	131.56
495.79	129.56
496.008	116.56
496.225	123.56
496.442	125.56
496.66	122.56
496.877	135.56
497.094	122.56
497.312	117.56
497.529	126.56
497.746	126.56
497.963	115.56
498.181	123.56
498.398	103.56
498.615	100.56
498.832	94.56
499.049	100.56
499.267	104.56
499.484	97.56
499.701	113.56
499.918	106.56
500.135	99.56
500.352	113.56
500.569	113.56
500.786	106.56
501.003	111.56
501.22	118.56
501.437	111.56
501.654	93.56
501.871	95.56
502.088	100.56
502.305	101.56
502.522	103.56
502.739	99.56
502.956	102.56
503.172	109.56
503.389	107.56
503.606	98.56
503.823	119.56
504.04	106.56
504.256	87.56
504.473	106.56
504.69	110.56
504.907	96.56
505.123	89.56
505.34	101.56
505.557	94.56
505.773	100.56
505.99	113.56
506.207	99.56
506.423	100.56
506.64	99.56
506.856	97.56
507.073	95.56
507.289	102.56
507.506	104.56
507.722	95.56
507.939	97.56
508.155	111.56
508.372	76.56
508.588	83.56
508.805	91.56
509.021	84.56
509.238	91.56
509.454	106.56
509.67	94.56
509.887	100.56
510.103	95.56
510.319	95.56
510.536	88.56
510.752	74.56
510.968	91.56
511.184	84.56
511.401	82.56
511.617	80.56
511.833	93.56
512.049	85.56
512.265	92.56
512.481	89.56
512.698	93.56
512.914	85.56
513.13	99.56
513.346	84.56
513.562	84.56
513.778	88.56
513.994	86.56
514.21	92.56
514.426	84.56
514.642	91.56
514.858	79.56
515.074	87.56
