Data from Zn(NO3)2Standard.Agarose3%.GreenCap.LampEnergy10E.O_HRD10591_15-08-51-951.txt Node
Date: Mon Jul 22 15:08:51 EDT 2019
User: cochatt
Spectrometer: HR+D1059
Trigger mode: 1
Integration Time (sec): 1.000000E-1
Scans to average: 1
Electric dark correction enabled: true
Nonlinearity correction enabled: false
Boxcar width: 0
XAxis mode: Wavelengths
Number of Pixels in Spectrum: 2048
>>>>>Begin Spectral Data<<<<<
223.165	2.62
223.4	2.62
223.635	2.62
223.869	-19.38
224.104	-16.38
224.338	-22.38
224.573	-4.38
224.808	-17.38
225.042	-10.38
225.277	-16.38
225.511	-6.38
225.746	-10.38
225.98	14.62
226.215	17.62
226.449	5.62
226.683	29.62
226.918	24.62
227.152	28.62
227.387	37.62
227.621	35.62
227.856	36.62
228.09	45.62
228.324	52.62
228.559	57.62
228.793	74.62
229.027	62.62
229.262	78.62
229.496	73.62
229.73	67.62
229.964	74.62
230.199	74.62
230.433	81.62
230.667	73.62
230.901	81.62
231.136	74.62
231.37	84.62
231.604	92.62
231.838	77.62
232.072	77.62
232.306	82.62
232.541	76.62
232.775	86.62
233.009	79.62
233.243	89.62
233.477	82.62
233.711	90.62
233.945	71.62
234.179	79.62
234.413	80.62
234.647	75.62
234.881	78.62
235.115	78.62
235.349	65.62
235.583	92.62
235.817	82.62
236.051	81.62
236.285	76.62
236.519	81.62
236.753	65.62
236.987	83.62
237.221	53.62
237.455	82.62
237.689	82.62
237.922	80.62
238.156	66.62
238.39	74.62
238.624	67.62
238.858	62.62
239.091	66.62
239.325	80.62
239.559	87.62
239.793	75.62
240.027	69.62
240.26	81.62
240.494	83.62
240.728	71.62
240.961	80.62
241.195	84.62
241.429	76.62
241.662	70.62
241.896	83.62
242.13	83.62
242.363	96.62
242.597	82.62
242.83	85.62
243.064	76.62
243.298	77.62
243.531	75.62
243.765	81.62
243.998	75.62
244.232	82.62
244.465	62.62
244.699	65.62
244.932	69.62
245.166	78.62
245.399	66.62
245.633	78.62
245.866	76.62
246.099	87.62
246.333	72.62
246.566	68.62
246.8	67.62
247.033	78.62
247.266	63.62
247.5	74.62
247.733	74.62
247.966	69.62
248.2	69.62
248.433	68.62
248.666	70.62
248.899	77.62
249.133	67.62
249.366	68.62
249.599	73.62
249.832	82.62
250.066	82.62
250.299	67.62
250.532	78.62
250.765	76.62
250.998	76.62
251.231	76.62
251.465	85.62
251.698	66.62
251.931	79.62
252.164	74.62
252.397	90.62
252.63	87.62
252.863	74.62
253.096	76.62
253.329	66.62
253.562	63.62
253.795	82.62
254.028	88.62
254.261	77.62
254.494	89.62
254.727	80.62
254.96	81.62
255.193	78.62
255.426	80.62
255.659	86.62
255.892	88.62
256.124	71.62
256.357	81.62
256.59	79.62
256.823	86.62
257.056	81.62
257.289	93.62
257.521	65.62
257.754	81.62
257.987	76.62
258.22	75.62
258.452	94.62
258.685	84.62
258.918	84.62
259.151	87.62
259.383	79.62
259.616	88.62
259.849	77.62
260.081	81.62
260.314	64.62
260.547	89.62
260.779	83.62
261.012	83.62
261.244	72.62
261.477	90.62
261.71	77.62
261.942	80.62
262.175	73.62
262.407	81.62
262.64	89.62
262.872	83.62
263.105	83.62
263.337	71.62
263.57	81.62
263.802	79.62
264.035	83.62
264.267	88.62
264.499	90.62
264.732	85.62
264.964	92.62
265.197	99.62
265.429	83.62
265.661	86.62
265.894	93.62
266.126	86.62
266.358	87.62
266.591	72.62
266.823	73.62
267.055	75.62
267.287	71.62
267.52	84.62
267.752	89.62
267.984	91.62
268.216	71.62
268.448	91.62
268.681	64.62
268.913	84.62
269.145	80.62
269.377	68.62
269.609	76.62
269.841	71.62
270.073	68.62
270.306	83.62
270.538	89.62
270.77	79.62
271.002	77.62
271.234	97.62
271.466	86.62
271.698	83.62
271.93	80.62
272.162	84.62
272.394	84.62
272.626	79.62
272.858	77.62
273.09	87.62
273.322	81.62
273.553	94.62
273.785	75.62
274.017	80.62
274.249	75.62
274.481	75.62
274.713	79.62
274.945	83.62
275.176	90.62
275.408	85.62
275.64	89.62
275.872	72.62
276.104	76.62
276.335	83.62
276.567	80.62
276.799	83.62
277.031	90.62
277.262	83.62
277.494	82.62
277.726	88.62
277.957	98.62
278.189	83.62
278.421	78.62
278.652	75.62
278.884	89.62
279.115	92.62
279.347	81.62
279.579	92.62
279.81	77.62
280.042	85.62
280.273	80.62
280.505	74.62
280.736	83.62
280.968	94.62
281.199	99.62
281.431	92.62
281.662	80.62
281.894	70.62
282.125	94.62
282.356	99.62
282.588	93.62
282.819	92.62
283.051	86.62
283.282	79.62
283.513	96.62
283.745	72.62
283.976	78.62
284.207	88.62
284.439	87.62
284.67	89.62
284.901	86.62
285.132	88.62
285.364	84.62
285.595	73.62
285.826	77.62
286.057	93.62
286.288	71.62
286.52	69.62
286.751	77.62
286.982	71.62
287.213	71.62
287.444	76.62
287.675	87.62
287.906	83.62
288.138	91.62
288.369	96.62
288.6	82.62
288.831	77.62
289.062	94.62
289.293	75.62
289.524	79.62
289.755	81.62
289.986	96.62
290.217	89.62
290.448	91.62
290.679	70.62
290.91	77.62
291.141	81.62
291.371	81.62
291.602	79.62
291.833	106.62
292.064	91.62
292.295	71.62
292.526	87.62
292.757	85.62
292.987	78.62
293.218	81.62
293.449	81.62
293.68	75.62
293.91	85.62
294.141	91.62
294.372	91.62
294.603	88.62
294.833	71.62
295.064	86.62
295.295	82.62
295.525	78.62
295.756	84.62
295.987	84.62
296.217	86.62
296.448	92.62
296.679	90.62
296.909	78.62
297.14	67.62
297.37	92.62
297.601	88.62
297.831	82.62
298.062	90.62
298.292	90.62
298.523	87.62
298.753	88.62
298.984	82.62
299.214	90.62
299.445	97.62
299.675	86.62
299.905	85.62
300.136	89.62
300.366	83.62
300.597	92.62
300.827	79.62
301.057	73.62
301.288	82.62
301.518	83.62
301.748	91.62
301.979	81.62
302.209	84.62
302.439	82.62
302.669	72.62
302.9	84.62
303.13	84.62
303.36	88.62
303.59	60.62
303.82	81.62
304.051	75.62
304.281	86.62
304.511	95.62
304.741	84.62
304.971	81.62
305.201	93.62
305.431	84.62
305.661	92.62
305.891	84.62
306.121	82.62
306.352	91.62
306.582	77.62
306.812	77.62
307.042	88.62
307.272	71.62
307.502	88.62
307.731	88.62
307.961	85.62
308.191	78.62
308.421	84.62
308.651	90.62
308.881	94.62
309.111	88.62
309.341	80.62
309.571	73.62
309.8	84.62
310.03	83.62
310.26	81.62
310.49	83.62
310.72	82.62
310.949	80.62
311.179	91.62
311.409	85.62
311.639	82.62
311.868	90.62
312.098	83.62
312.328	77.62
312.557	91.62
312.787	84.62
313.017	75.62
313.246	83.62
313.476	77.62
313.706	78.62
313.935	78.62
314.165	97.62
314.394	86.62
314.624	84.62
314.853	86.62
315.083	82.62
315.312	85.62
315.542	80.62
315.771	86.62
316.001	89.62
316.23	95.62
316.46	83.62
316.689	77.62
316.919	83.62
317.148	78.62
317.377	88.62
317.607	64.62
317.836	87.62
318.065	79.62
318.295	88.62
318.524	84.62
318.753	83.62
318.983	77.62
319.212	85.62
319.441	86.62
319.67	81.62
319.9	89.62
320.129	77.62
320.358	83.62
320.587	94.62
320.816	74.62
321.046	83.62
321.275	85.62
321.504	93.62
321.733	87.62
321.962	87.62
322.191	91.62
322.42	90.62
322.649	72.62
322.878	89.62
323.108	93.62
323.337	77.62
323.566	80.62
323.795	85.62
324.024	83.62
324.253	87.62
324.482	80.62
324.71	83.62
324.939	94.62
325.168	78.62
325.397	78.62
325.626	80.62
325.855	79.62
326.084	96.62
326.313	81.62
326.542	82.62
326.77	90.62
326.999	78.62
327.228	100.62
327.457	82.62
327.686	74.62
327.914	90.62
328.143	79.62
328.372	80.62
328.6	96.62
328.829	80.62
329.058	80.62
329.287	81.62
329.515	83.62
329.744	90.62
329.972	96.62
330.201	83.62
330.43	89.62
330.658	88.62
330.887	98.62
331.115	104.62
331.344	85.62
331.572	88.62
331.801	83.62
332.03	95.62
332.258	82.62
332.486	75.62
332.715	85.62
332.943	80.62
333.172	88.62
333.4	91.62
333.629	69.62
333.857	86.62
334.085	87.62
334.314	77.62
334.542	88.62
334.771	95.62
334.999	89.62
335.227	82.62
335.455	95.62
335.684	84.62
335.912	68.62
336.14	83.62
336.369	79.62
336.597	79.62
336.825	82.62
337.053	90.62
337.281	90.62
337.51	85.62
337.738	73.62
337.966	83.62
338.194	92.62
338.422	82.62
338.65	77.62
338.878	90.62
339.106	79.62
339.334	89.62
339.562	78.62
339.79	82.62
340.018	74.62
340.246	85.62
340.474	85.62
340.702	84.62
340.93	83.62
341.158	89.62
341.386	76.62
341.614	69.62
341.842	86.62
342.07	72.62
342.298	87.62
342.526	92.62
342.754	88.62
342.981	81.62
343.209	78.62
343.437	83.62
343.665	72.62
343.893	81.62
344.12	86.62
344.348	85.62
344.576	84.62
344.804	72.62
345.031	88.62
345.259	87.62
345.487	80.62
345.714	81.62
345.942	81.62
346.17	86.62
346.397	89.62
346.625	87.62
346.853	91.62
347.08	81.62
347.308	85.62
347.535	87.62
347.763	92.62
347.99	87.62
348.218	92.62
348.445	92.62
348.673	94.62
348.9	73.62
349.128	86.62
349.355	72.62
349.583	85.62
349.81	83.62
350.037	90.62
350.265	81.62
350.492	74.62
350.72	83.62
350.947	91.62
351.174	97.62
351.402	88.62
351.629	83.62
351.856	88.62
352.083	95.62
352.311	67.62
352.538	94.62
352.765	91.62
352.992	83.62
353.22	94.62
353.447	82.62
353.674	78.62
353.901	85.62
354.128	87.62
354.355	81.62
354.583	83.62
354.81	74.62
355.037	87.62
355.264	88.62
355.491	75.62
355.718	67.62
355.945	85.62
356.172	80.62
356.399	81.62
356.626	97.62
356.853	76.62
357.08	84.62
357.307	96.62
357.534	97.62
357.761	75.62
357.988	89.62
358.215	63.62
358.441	90.62
358.668	86.62
358.895	83.62
359.122	72.62
359.349	90.62
359.576	80.62
359.802	92.62
360.029	87.62
360.256	84.62
360.483	82.62
360.709	74.62
360.936	94.62
361.163	76.62
361.39	74.62
361.616	75.62
361.843	83.62
362.07	99.62
362.296	78.62
362.523	81.62
362.749	93.62
362.976	77.62
363.203	82.62
363.429	90.62
363.656	77.62
363.882	72.62
364.109	80.62
364.335	85.62
364.562	80.62
364.788	85.62
365.015	78.62
365.241	81.62
365.468	78.62
365.694	84.62
365.92	82.62
366.147	83.62
366.373	92.62
366.599	78.62
366.826	84.62
367.052	81.62
367.278	78.62
367.505	91.62
367.731	93.62
367.957	93.62
368.184	97.62
368.41	91.62
368.636	97.62
368.862	88.62
369.089	74.62
369.315	73.62
369.541	85.62
369.767	75.62
369.993	84.62
370.219	91.62
370.445	97.62
370.672	98.62
370.898	100.62
371.124	81.62
371.35	76.62
371.576	88.62
371.802	95.62
372.028	80.62
372.254	92.62
372.48	85.62
372.706	70.62
372.932	84.62
373.158	79.62
373.384	98.62
373.61	82.62
373.835	79.62
374.061	74.62
374.287	84.62
374.513	91.62
374.739	93.62
374.965	75.62
375.191	93.62
375.416	73.62
375.642	80.62
375.868	96.62
376.094	93.62
376.319	81.62
376.545	88.62
376.771	91.62
376.997	67.62
377.222	86.62
377.448	82.62
377.674	79.62
377.899	91.62
378.125	88.62
378.35	91.62
378.576	93.62
378.802	96.62
379.027	82.62
379.253	97.62
379.478	91.62
379.704	91.62
379.929	86.62
380.155	73.62
380.38	86.62
380.606	89.62
380.831	101.62
381.057	96.62
381.282	83.62
381.507	80.62
381.733	82.62
381.958	85.62
382.184	86.62
382.409	78.62
382.634	95.62
382.86	93.62
383.085	88.62
383.31	90.62
383.535	92.62
383.761	86.62
383.986	86.62
384.211	89.62
384.436	94.62
384.662	107.62
384.887	114.62
385.112	89.62
385.337	94.62
385.562	88.62
385.787	82.62
386.013	85.62
386.238	89.62
386.463	80.62
386.688	87.62
386.913	97.62
387.138	91.62
387.363	99.62
387.588	90.62
387.813	96.62
388.038	85.62
388.263	86.62
388.488	101.62
388.713	95.62
388.938	89.62
389.163	87.62
389.387	81.62
389.612	92.62
389.837	88.62
390.062	84.62
390.287	111.62
390.512	102.62
390.736	79.62
390.961	86.62
391.186	78.62
391.411	97.62
391.636	79.62
391.86	84.62
392.085	87.62
392.31	84.62
392.534	92.62
392.759	95.62
392.984	86.62
393.208	99.62
393.433	100.62
393.658	109.62
393.882	92.62
394.107	93.62
394.331	100.62
394.556	100.62
394.78	96.62
395.005	94.62
395.229	87.62
395.454	89.62
395.678	87.62
395.903	84.62
396.127	90.62
396.352	93.62
396.576	79.62
396.801	96.62
397.025	88.62
397.249	99.62
397.474	106.62
397.698	100.62
397.922	97.62
398.147	92.62
398.371	91.62
398.595	89.62
398.82	98.62
399.044	99.62
399.268	100.62
399.492	103.62
399.717	90.62
399.941	92.62
400.165	98.62
400.389	101.62
400.613	96.62
400.837	104.62
401.062	91.62
401.286	102.62
401.51	91.62
401.734	93.62
401.958	96.62
402.182	85.62
402.406	83.62
402.63	97.62
402.854	84.62
403.078	96.62
403.302	92.62
403.526	102.62
403.75	86.62
403.974	103.62
404.198	91.62
404.422	106.62
404.645	93.62
404.869	89.62
405.093	98.62
405.317	101.62
405.541	103.62
405.765	91.62
405.988	88.62
406.212	84.62
406.436	92.62
406.66	93.62
406.883	103.62
407.107	107.62
407.331	81.62
407.555	88.62
407.778	82.62
408.002	87.62
408.226	86.62
408.449	105.62
408.673	92.62
408.896	112.62
409.12	91.62
409.344	103.62
409.567	104.62
409.791	97.62
410.014	93.62
410.238	98.62
410.461	102.62
410.685	107.62
410.908	100.62
411.132	110.62
411.355	88.62
411.578	100.62
411.802	91.62
412.025	103.62
412.249	97.62
412.472	103.62
412.695	108.62
412.919	105.62
413.142	97.62
413.365	101.62
413.589	115.62
413.812	98.62
414.035	90.62
414.258	107.62
414.482	102.62
414.705	114.62
414.928	91.62
415.151	112.62
415.374	99.62
415.597	86.62
415.821	99.62
416.044	106.62
416.267	107.62
416.49	104.62
416.713	103.62
416.936	98.62
417.159	88.62
417.382	95.62
417.605	107.62
417.828	95.62
418.051	108.62
418.274	93.62
418.497	112.62
418.72	111.62
418.943	120.62
419.166	117.62
419.389	104.62
419.611	93.62
419.834	92.62
420.057	103.62
420.28	107.62
420.503	96.62
420.726	111.62
420.948	101.62
421.171	102.62
421.394	97.62
421.617	103.62
421.839	104.62
422.062	94.62
422.285	106.62
422.507	99.62
422.73	116.62
422.953	109.62
423.175	119.62
423.398	100.62
423.621	101.62
423.843	104.62
424.066	111.62
424.288	119.62
424.511	114.62
424.733	112.62
424.956	98.62
425.178	116.62
425.401	101.62
425.623	93.62
425.846	126.62
426.068	99.62
426.291	118.62
426.513	102.62
426.735	104.62
426.958	103.62
427.18	100.62
427.402	91.62
427.625	103.62
427.847	98.62
428.069	102.62
428.292	107.62
428.514	112.62
428.736	117.62
428.958	107.62
429.181	110.62
429.403	106.62
429.625	104.62
429.847	103.62
430.069	99.62
430.292	109.62
430.514	104.62
430.736	98.62
430.958	107.62
431.18	95.62
431.402	104.62
431.624	88.62
431.846	93.62
432.068	100.62
432.29	88.62
432.512	97.62
432.734	97.62
432.956	108.62
433.178	113.62
433.4	113.62
433.622	119.62
433.844	97.62
434.066	106.62
434.287	96.62
434.509	96.62
434.731	97.62
434.953	87.62
435.175	106.62
435.397	103.62
435.618	89.62
435.84	94.62
436.062	108.62
436.284	107.62
436.505	117.62
436.727	106.62
436.949	107.62
437.17	109.62
437.392	104.62
437.614	97.62
437.835	107.62
438.057	92.62
438.278	116.62
438.5	94.62
438.721	103.62
438.943	99.62
439.165	111.62
439.386	114.62
439.608	107.62
439.829	113.62
440.05	103.62
440.272	113.62
440.493	119.62
440.715	121.62
440.936	107.62
441.158	111.62
441.379	104.62
441.6	92.62
441.822	99.62
442.043	129.62
442.264	118.62
442.486	111.62
442.707	103.62
442.928	100.62
443.149	108.62
443.371	119.62
443.592	113.62
443.813	102.62
444.034	118.62
444.255	111.62
444.476	105.62
444.698	111.62
444.919	115.62
445.14	234.62
445.361	170.62
445.582	98.62
445.803	99.62
446.024	114.62
446.245	121.62
446.466	105.62
446.687	115.62
446.908	117.62
447.129	99.62
447.35	92.62
447.571	111.62
447.792	106.62
448.013	106.62
448.234	128.62
448.455	113.62
448.675	113.62
448.896	111.62
449.117	96.62
449.338	101.62
449.559	111.62
449.779	108.62
450	117.62
450.221	94.62
450.442	95.62
450.662	112.62
450.883	98.62
451.104	116.62
451.324	119.62
451.545	95.62
451.766	107.62
451.986	112.62
452.207	95.62
452.428	106.62
452.648	109.62
452.869	120.62
453.089	97.62
453.31	84.62
453.53	105.62
453.751	100.62
453.971	96.62
454.192	106.62
454.412	101.62
454.633	93.62
454.853	101.62
455.073	107.62
455.294	113.62
455.514	102.62
455.734	107.62
455.955	105.62
456.175	106.62
456.395	98.62
456.616	89.62
456.836	100.62
457.056	71.62
457.276	79.62
457.497	88.62
457.717	100.62
457.937	111.62
458.157	99.62
458.377	88.62
458.598	91.62
458.818	96.62
459.038	97.62
459.258	87.62
459.478	91.62
459.698	89.62
459.918	84.62
460.138	87.62
460.358	101.62
460.578	98.62
460.798	97.62
461.018	94.62
461.238	96.62
461.458	112.62
461.678	90.62
461.898	96.62
462.118	101.62
462.338	107.62
462.558	101.62
462.777	88.62
462.997	99.62
463.217	88.62
463.437	79.62
463.657	88.62
463.876	100.62
464.096	86.62
464.316	100.62
464.536	92.62
464.755	90.62
464.975	91.62
465.195	106.62
465.414	111.62
465.634	83.62
465.854	98.62
466.073	99.62
466.293	89.62
466.512	97.62
466.732	105.62
466.951	103.62
467.171	108.62
467.391	105.62
467.61	113.62
467.829	106.62
468.049	101.62
468.268	124.62
468.488	117.62
468.707	97.62
468.927	96.62
469.146	107.62
469.365	103.62
469.585	118.62
469.804	109.62
470.023	109.62
470.243	103.62
470.462	112.62
470.681	107.62
470.901	113.62
471.12	104.62
471.339	98.62
471.558	110.62
471.777	109.62
471.997	103.62
472.216	114.62
472.435	101.62
472.654	101.62
472.873	103.62
473.092	113.62
473.311	101.62
473.53	109.62
473.749	114.62
473.968	99.62
474.187	97.62
474.406	101.62
474.625	106.62
474.844	112.62
475.063	113.62
475.282	105.62
475.501	102.62
475.72	108.62
475.939	96.62
476.158	95.62
476.377	104.62
476.596	97.62
476.814	106.62
477.033	92.62
477.252	99.62
477.471	105.62
477.69	109.62
477.908	117.62
478.127	104.62
478.346	104.62
478.564	103.62
478.783	111.62
479.002	117.62
479.22	122.62
479.439	125.62
479.658	108.62
479.876	108.62
480.095	84.62
480.313	108.62
480.532	103.62
480.751	97.62
480.969	85.62
481.188	85.62
481.406	87.62
481.624	90.62
481.843	92.62
482.061	94.62
482.28	88.62
482.498	105.62
482.717	93.62
482.935	107.62
483.153	101.62
483.372	108.62
483.59	114.62
483.808	112.62
484.027	108.62
484.245	108.62
484.463	115.62
484.681	121.62
484.9	108.62
485.118	122.62
485.336	107.62
485.554	111.62
485.772	99.62
485.99	111.62
486.209	81.62
486.427	96.62
486.645	102.62
486.863	114.62
487.081	115.62
487.299	133.62
487.517	111.62
487.735	116.62
487.953	120.62
488.171	128.62
488.389	126.62
488.607	127.62
488.825	100.62
489.043	113.62
489.261	106.62
489.479	104.62
489.696	104.62
489.914	116.62
490.132	100.62
490.35	112.62
490.568	104.62
490.786	128.62
491.003	126.62
491.221	125.62
491.439	133.62
491.657	119.62
491.874	144.62
492.092	146.62
492.31	148.62
492.527	158.62
492.745	159.62
492.963	148.62
493.18	122.62
493.398	131.62
493.615	116.62
493.833	130.62
494.05	130.62
494.268	132.62
494.485	131.62
494.703	117.62
494.92	133.62
495.138	135.62
495.355	135.62
495.573	123.62
495.79	126.62
496.008	126.62
496.225	125.62
496.442	124.62
496.66	125.62
496.877	134.62
497.094	121.62
497.312	144.62
497.529	115.62
497.746	135.62
497.963	98.62
498.181	104.62
498.398	101.62
498.615	96.62
498.832	107.62
499.049	85.62
499.267	90.62
499.484	106.62
499.701	103.62
499.918	103.62
500.135	121.62
500.352	119.62
500.569	106.62
500.786	120.62
501.003	108.62
501.22	116.62
501.437	102.62
501.654	108.62
501.871	98.62
502.088	112.62
502.305	108.62
502.522	114.62
502.739	106.62
502.956	112.62
503.172	100.62
503.389	113.62
503.606	100.62
503.823	104.62
504.04	95.62
504.256	95.62
504.473	101.62
504.69	101.62
504.907	104.62
505.123	87.62
505.34	99.62
505.557	104.62
505.773	90.62
505.99	103.62
506.207	101.62
506.423	100.62
506.64	107.62
506.856	108.62
507.073	104.62
507.289	95.62
507.506	104.62
507.722	107.62
507.939	112.62
508.155	103.62
508.372	95.62
508.588	104.62
508.805	107.62
509.021	95.62
509.238	90.62
509.454	97.62
509.67	95.62
509.887	87.62
510.103	88.62
510.319	88.62
510.536	100.62
510.752	89.62
510.968	88.62
511.184	78.62
511.401	84.62
511.617	77.62
511.833	83.62
512.049	97.62
512.265	84.62
512.481	87.62
512.698	86.62
512.914	81.62
513.13	89.62
513.346	92.62
513.562	94.62
513.778	77.62
513.994	83.62
514.21	82.62
514.426	92.62
