Data from Zn(NO3)2Standard.Agarose3%.GreenCap.LampEnergy5.5.E.O_HRD10591_15-01-00-767.txt Node
Date: Mon Jul 22 15:01:00 EDT 2019
User: cochatt
Spectrometer: HR+D1059
Trigger mode: 1
Integration Time (sec): 1.000000E-1
Scans to average: 1
Electric dark correction enabled: true
Nonlinearity correction enabled: false
Boxcar width: 0
XAxis mode: Wavelengths
Number of Pixels in Spectrum: 2048
>>>>>Begin Spectral Data<<<<<
223.165	-9.25
223.4	-9.25
223.635	-9.25
223.869	-12.25
224.104	-20.25
224.338	-13.25
224.573	-29.25
224.808	-14.25
225.042	-4.25
225.277	-19.25
225.511	-8.25
225.746	6.75
225.98	9.75
226.215	5.75
226.449	13.75
226.683	21.75
226.918	35.75
227.152	36.75
227.387	31.75
227.621	27.75
227.856	45.75
228.09	53.75
228.324	55.75
228.559	44.75
228.793	55.75
229.027	58.75
229.262	62.75
229.496	67.75
229.73	72.75
229.964	74.75
230.199	67.75
230.433	72.75
230.667	68.75
230.901	76.75
231.136	75.75
231.37	65.75
231.604	74.75
231.838	87.75
232.072	84.75
232.306	79.75
232.541	78.75
232.775	85.75
233.009	68.75
233.243	80.75
233.477	83.75
233.711	79.75
233.945	85.75
234.179	78.75
234.413	77.75
234.647	93.75
234.881	88.75
235.115	66.75
235.349	77.75
235.583	93.75
235.817	74.75
236.051	81.75
236.285	71.75
236.519	68.75
236.753	77.75
236.987	69.75
237.221	68.75
237.455	75.75
237.689	80.75
237.922	82.75
238.156	73.75
238.39	75.75
238.624	74.75
238.858	87.75
239.091	62.75
239.325	69.75
239.559	75.75
239.793	77.75
240.027	83.75
240.26	73.75
240.494	74.75
240.728	64.75
240.961	58.75
241.195	72.75
241.429	74.75
241.662	65.75
241.896	73.75
242.13	69.75
242.363	76.75
242.597	87.75
242.83	87.75
243.064	69.75
243.298	82.75
243.531	80.75
243.765	61.75
243.998	87.75
244.232	77.75
244.465	68.75
244.699	93.75
244.932	87.75
245.166	79.75
245.399	88.75
245.633	68.75
245.866	73.75
246.099	76.75
246.333	84.75
246.566	75.75
246.8	74.75
247.033	81.75
247.266	81.75
247.5	77.75
247.733	88.75
247.966	80.75
248.2	71.75
248.433	71.75
248.666	74.75
248.899	77.75
249.133	83.75
249.366	73.75
249.599	69.75
249.832	82.75
250.066	70.75
250.299	68.75
250.532	79.75
250.765	83.75
250.998	78.75
251.231	89.75
251.465	81.75
251.698	84.75
251.931	88.75
252.164	77.75
252.397	89.75
252.63	78.75
252.863	73.75
253.096	97.75
253.329	77.75
253.562	83.75
253.795	90.75
254.028	77.75
254.261	83.75
254.494	85.75
254.727	88.75
254.96	79.75
255.193	79.75
255.426	79.75
255.659	74.75
255.892	81.75
256.124	84.75
256.357	81.75
256.59	90.75
256.823	71.75
257.056	88.75
257.289	77.75
257.521	79.75
257.754	69.75
257.987	75.75
258.22	79.75
258.452	87.75
258.685	78.75
258.918	89.75
259.151	90.75
259.383	99.75
259.616	83.75
259.849	88.75
260.081	81.75
260.314	82.75
260.547	74.75
260.779	78.75
261.012	82.75
261.244	82.75
261.477	90.75
261.71	79.75
261.942	83.75
262.175	63.75
262.407	87.75
262.64	88.75
262.872	93.75
263.105	78.75
263.337	84.75
263.57	76.75
263.802	76.75
264.035	76.75
264.267	69.75
264.499	71.75
264.732	84.75
264.964	81.75
265.197	71.75
265.429	76.75
265.661	81.75
265.894	66.75
266.126	76.75
266.358	85.75
266.591	72.75
266.823	75.75
267.055	83.75
267.287	77.75
267.52	70.75
267.752	75.75
267.984	72.75
268.216	80.75
268.448	83.75
268.681	71.75
268.913	88.75
269.145	82.75
269.377	92.75
269.609	82.75
269.841	82.75
270.073	70.75
270.306	81.75
270.538	85.75
270.77	80.75
271.002	89.75
271.234	71.75
271.466	81.75
271.698	67.75
271.93	77.75
272.162	79.75
272.394	74.75
272.626	83.75
272.858	101.75
273.09	89.75
273.322	76.75
273.553	79.75
273.785	83.75
274.017	84.75
274.249	74.75
274.481	73.75
274.713	76.75
274.945	91.75
275.176	65.75
275.408	87.75
275.64	100.75
275.872	83.75
276.104	79.75
276.335	79.75
276.567	72.75
276.799	82.75
277.031	77.75
277.262	85.75
277.494	85.75
277.726	92.75
277.957	77.75
278.189	75.75
278.421	74.75
278.652	64.75
278.884	80.75
279.115	95.75
279.347	79.75
279.579	78.75
279.81	91.75
280.042	78.75
280.273	80.75
280.505	85.75
280.736	81.75
280.968	74.75
281.199	88.75
281.431	101.75
281.662	79.75
281.894	86.75
282.125	81.75
282.356	84.75
282.588	76.75
282.819	83.75
283.051	86.75
283.282	103.75
283.513	85.75
283.745	83.75
283.976	90.75
284.207	76.75
284.439	69.75
284.67	76.75
284.901	83.75
285.132	82.75
285.364	78.75
285.595	74.75
285.826	93.75
286.057	83.75
286.288	82.75
286.52	74.75
286.751	87.75
286.982	85.75
287.213	90.75
287.444	100.75
287.675	85.75
287.906	82.75
288.138	76.75
288.369	84.75
288.6	74.75
288.831	96.75
289.062	83.75
289.293	72.75
289.524	82.75
289.755	92.75
289.986	89.75
290.217	81.75
290.448	85.75
290.679	80.75
290.91	92.75
291.141	77.75
291.371	77.75
291.602	86.75
291.833	73.75
292.064	85.75
292.295	78.75
292.526	81.75
292.757	92.75
292.987	82.75
293.218	73.75
293.449	89.75
293.68	84.75
293.91	82.75
294.141	81.75
294.372	68.75
294.603	80.75
294.833	81.75
295.064	86.75
295.295	78.75
295.525	83.75
295.756	85.75
295.987	79.75
296.217	82.75
296.448	92.75
296.679	91.75
296.909	75.75
297.14	81.75
297.37	81.75
297.601	67.75
297.831	92.75
298.062	83.75
298.292	101.75
298.523	94.75
298.753	83.75
298.984	83.75
299.214	79.75
299.445	76.75
299.675	78.75
299.905	88.75
300.136	101.75
300.366	89.75
300.597	87.75
300.827	81.75
301.057	76.75
301.288	89.75
301.518	99.75
301.748	80.75
301.979	80.75
302.209	74.75
302.439	102.75
302.669	80.75
302.9	89.75
303.13	60.75
303.36	83.75
303.59	76.75
303.82	83.75
304.051	77.75
304.281	82.75
304.511	94.75
304.741	72.75
304.971	81.75
305.201	83.75
305.431	95.75
305.661	79.75
305.891	74.75
306.121	75.75
306.352	99.75
306.582	90.75
306.812	65.75
307.042	92.75
307.272	81.75
307.502	83.75
307.731	75.75
307.961	88.75
308.191	88.75
308.421	84.75
308.651	73.75
308.881	89.75
309.111	80.75
309.341	73.75
309.571	74.75
309.8	81.75
310.03	79.75
310.26	94.75
310.49	93.75
310.72	82.75
310.949	92.75
311.179	98.75
311.409	76.75
311.639	82.75
311.868	87.75
312.098	80.75
312.328	85.75
312.557	93.75
312.787	83.75
313.017	71.75
313.246	78.75
313.476	76.75
313.706	88.75
313.935	88.75
314.165	66.75
314.394	75.75
314.624	69.75
314.853	85.75
315.083	76.75
315.312	81.75
315.542	88.75
315.771	70.75
316.001	78.75
316.23	79.75
316.46	82.75
316.689	79.75
316.919	84.75
317.148	87.75
317.377	88.75
317.607	73.75
317.836	92.75
318.065	79.75
318.295	82.75
318.524	89.75
318.753	88.75
318.983	80.75
319.212	80.75
319.441	95.75
319.67	81.75
319.9	79.75
320.129	75.75
320.358	81.75
320.587	84.75
320.816	86.75
321.046	78.75
321.275	85.75
321.504	79.75
321.733	78.75
321.962	85.75
322.191	87.75
322.42	76.75
322.649	88.75
322.878	95.75
323.108	91.75
323.337	73.75
323.566	82.75
323.795	89.75
324.024	76.75
324.253	81.75
324.482	92.75
324.71	83.75
324.939	87.75
325.168	89.75
325.397	86.75
325.626	75.75
325.855	79.75
326.084	95.75
326.313	74.75
326.542	91.75
326.77	79.75
326.999	84.75
327.228	80.75
327.457	93.75
327.686	85.75
327.914	96.75
328.143	80.75
328.372	88.75
328.6	97.75
328.829	85.75
329.058	87.75
329.287	90.75
329.515	93.75
329.744	88.75
329.972	74.75
330.201	85.75
330.43	86.75
330.658	83.75
330.887	87.75
331.115	79.75
331.344	80.75
331.572	86.75
331.801	88.75
332.03	76.75
332.258	82.75
332.486	89.75
332.715	93.75
332.943	88.75
333.172	83.75
333.4	92.75
333.629	101.75
333.857	82.75
334.085	78.75
334.314	84.75
334.542	72.75
334.771	83.75
334.999	77.75
335.227	90.75
335.455	70.75
335.684	67.75
335.912	96.75
336.14	77.75
336.369	73.75
336.597	96.75
336.825	90.75
337.053	77.75
337.281	81.75
337.51	85.75
337.738	92.75
337.966	84.75
338.194	90.75
338.422	86.75
338.65	85.75
338.878	89.75
339.106	85.75
339.334	85.75
339.562	82.75
339.79	85.75
340.018	76.75
340.246	92.75
340.474	77.75
340.702	87.75
340.93	75.75
341.158	77.75
341.386	83.75
341.614	75.75
341.842	82.75
342.07	102.75
342.298	82.75
342.526	68.75
342.754	81.75
342.981	90.75
343.209	84.75
343.437	73.75
343.665	88.75
343.893	75.75
344.12	81.75
344.348	90.75
344.576	99.75
344.804	67.75
345.031	76.75
345.259	79.75
345.487	83.75
345.714	88.75
345.942	77.75
346.17	81.75
346.397	84.75
346.625	85.75
346.853	92.75
347.08	101.75
347.308	98.75
347.535	85.75
347.763	89.75
347.99	90.75
348.218	82.75
348.445	73.75
348.673	81.75
348.9	84.75
349.128	91.75
349.355	96.75
349.583	77.75
349.81	87.75
350.037	87.75
350.265	82.75
350.492	76.75
350.72	70.75
350.947	93.75
351.174	91.75
351.402	84.75
351.629	83.75
351.856	90.75
352.083	84.75
352.311	86.75
352.538	74.75
352.765	80.75
352.992	75.75
353.22	91.75
353.447	78.75
353.674	83.75
353.901	85.75
354.128	76.75
354.355	72.75
354.583	75.75
354.81	86.75
355.037	69.75
355.264	85.75
355.491	81.75
355.718	68.75
355.945	86.75
356.172	82.75
356.399	92.75
356.626	92.75
356.853	86.75
357.08	90.75
357.307	92.75
357.534	83.75
357.761	83.75
357.988	90.75
358.215	85.75
358.441	84.75
358.668	70.75
358.895	83.75
359.122	77.75
359.349	69.75
359.576	73.75
359.802	79.75
360.029	74.75
360.256	71.75
360.483	63.75
360.709	95.75
360.936	79.75
361.163	73.75
361.39	90.75
361.616	83.75
361.843	82.75
362.07	92.75
362.296	67.75
362.523	90.75
362.749	77.75
362.976	79.75
363.203	82.75
363.429	87.75
363.656	92.75
363.882	84.75
364.109	83.75
364.335	76.75
364.562	82.75
364.788	93.75
365.015	72.75
365.241	70.75
365.468	87.75
365.694	80.75
365.92	74.75
366.147	87.75
366.373	85.75
366.599	84.75
366.826	76.75
367.052	81.75
367.278	81.75
367.505	84.75
367.731	86.75
367.957	80.75
368.184	80.75
368.41	82.75
368.636	82.75
368.862	91.75
369.089	74.75
369.315	79.75
369.541	86.75
369.767	85.75
369.993	84.75
370.219	87.75
370.445	90.75
370.672	93.75
370.898	87.75
371.124	90.75
371.35	72.75
371.576	87.75
371.802	93.75
372.028	77.75
372.254	85.75
372.48	82.75
372.706	82.75
372.932	83.75
373.158	89.75
373.384	83.75
373.61	93.75
373.835	80.75
374.061	77.75
374.287	78.75
374.513	93.75
374.739	82.75
374.965	72.75
375.191	81.75
375.416	104.75
375.642	77.75
375.868	67.75
376.094	74.75
376.319	81.75
376.545	87.75
376.771	75.75
376.997	80.75
377.222	86.75
377.448	76.75
377.674	82.75
377.899	82.75
378.125	77.75
378.35	82.75
378.576	87.75
378.802	92.75
379.027	81.75
379.253	90.75
379.478	80.75
379.704	91.75
379.929	76.75
380.155	87.75
380.38	75.75
380.606	77.75
380.831	89.75
381.057	81.75
381.282	89.75
381.507	81.75
381.733	76.75
381.958	85.75
382.184	82.75
382.409	79.75
382.634	97.75
382.86	70.75
383.085	78.75
383.31	86.75
383.535	86.75
383.761	79.75
383.986	100.75
384.211	65.75
384.436	92.75
384.662	90.75
384.887	99.75
385.112	86.75
385.337	77.75
385.562	84.75
385.787	79.75
386.013	96.75
386.238	83.75
386.463	78.75
386.688	85.75
386.913	83.75
387.138	93.75
387.363	76.75
387.588	92.75
387.813	91.75
388.038	93.75
388.263	85.75
388.488	85.75
388.713	76.75
388.938	84.75
389.163	71.75
389.387	87.75
389.612	82.75
389.837	74.75
390.062	74.75
390.287	84.75
390.512	74.75
390.736	80.75
390.961	72.75
391.186	82.75
391.411	95.75
391.636	86.75
391.86	89.75
392.085	80.75
392.31	70.75
392.534	79.75
392.759	81.75
392.984	87.75
393.208	79.75
393.433	85.75
393.658	86.75
393.882	67.75
394.107	89.75
394.331	82.75
394.556	82.75
394.78	84.75
395.005	82.75
395.229	94.75
395.454	99.75
395.678	85.75
395.903	78.75
396.127	105.75
396.352	81.75
396.576	65.75
396.801	67.75
397.025	85.75
397.249	85.75
397.474	86.75
397.698	66.75
397.922	80.75
398.147	85.75
398.371	87.75
398.595	76.75
398.82	84.75
399.044	75.75
399.268	81.75
399.492	78.75
399.717	86.75
399.941	77.75
400.165	88.75
400.389	86.75
400.613	91.75
400.837	84.75
401.062	87.75
401.286	94.75
401.51	85.75
401.734	90.75
401.958	88.75
402.182	73.75
402.406	103.75
402.63	84.75
402.854	85.75
403.078	80.75
403.302	73.75
403.526	71.75
403.75	73.75
403.974	73.75
404.198	93.75
404.422	88.75
404.645	100.75
404.869	96.75
405.093	83.75
405.317	91.75
405.541	91.75
405.765	83.75
405.988	72.75
406.212	86.75
406.436	78.75
406.66	88.75
406.883	91.75
407.107	81.75
407.331	86.75
407.555	95.75
407.778	92.75
408.002	89.75
408.226	74.75
408.449	98.75
408.673	87.75
408.896	84.75
409.12	91.75
409.344	83.75
409.567	72.75
409.791	85.75
410.014	89.75
410.238	84.75
410.461	80.75
410.685	89.75
410.908	96.75
411.132	86.75
411.355	81.75
411.578	92.75
411.802	78.75
412.025	83.75
412.249	83.75
412.472	82.75
412.695	68.75
412.919	80.75
413.142	82.75
413.365	82.75
413.589	91.75
413.812	77.75
414.035	91.75
414.258	92.75
414.482	84.75
414.705	75.75
414.928	90.75
415.151	93.75
415.374	83.75
415.597	81.75
415.821	86.75
416.044	92.75
416.267	84.75
416.49	91.75
416.713	77.75
416.936	82.75
417.159	93.75
417.382	97.75
417.605	80.75
417.828	83.75
418.051	74.75
418.274	77.75
418.497	94.75
418.72	82.75
418.943	108.75
419.166	97.75
419.389	86.75
419.611	84.75
419.834	75.75
420.057	82.75
420.28	96.75
420.503	85.75
420.726	85.75
420.948	88.75
421.171	92.75
421.394	95.75
421.617	82.75
421.839	76.75
422.062	87.75
422.285	81.75
422.507	87.75
422.73	106.75
422.953	97.75
423.175	93.75
423.398	94.75
423.621	83.75
423.843	81.75
424.066	88.75
424.288	95.75
424.511	92.75
424.733	98.75
424.956	91.75
425.178	92.75
425.401	73.75
425.623	101.75
425.846	84.75
426.068	79.75
426.291	91.75
426.513	89.75
426.735	75.75
426.958	88.75
427.18	92.75
427.402	86.75
427.625	87.75
427.847	89.75
428.069	64.75
428.292	74.75
428.514	85.75
428.736	98.75
428.958	96.75
429.181	96.75
429.403	80.75
429.625	92.75
429.847	81.75
430.069	92.75
430.292	94.75
430.514	83.75
430.736	82.75
430.958	83.75
431.18	97.75
431.402	90.75
431.624	75.75
431.846	89.75
432.068	90.75
432.29	105.75
432.512	81.75
432.734	79.75
432.956	94.75
433.178	87.75
433.4	72.75
433.622	97.75
433.844	91.75
434.066	84.75
434.287	97.75
434.509	66.75
434.731	85.75
434.953	102.75
435.175	86.75
435.397	90.75
435.618	83.75
435.84	98.75
436.062	86.75
436.284	91.75
436.505	72.75
436.727	89.75
436.949	97.75
437.17	86.75
437.392	78.75
437.614	95.75
437.835	85.75
438.057	93.75
438.278	74.75
438.5	84.75
438.721	90.75
438.943	86.75
439.165	76.75
439.386	106.75
439.608	84.75
439.829	96.75
440.05	78.75
440.272	91.75
440.493	89.75
440.715	88.75
440.936	90.75
441.158	97.75
441.379	79.75
441.6	97.75
441.822	96.75
442.043	85.75
442.264	103.75
442.486	95.75
442.707	91.75
442.928	89.75
443.149	77.75
443.371	99.75
443.592	72.75
443.813	79.75
444.034	97.75
444.255	97.75
444.476	82.75
444.698	99.75
444.919	93.75
445.14	201.75
445.361	141.75
445.582	99.75
445.803	87.75
446.024	81.75
446.245	87.75
446.466	90.75
446.687	95.75
446.908	83.75
447.129	83.75
447.35	97.75
447.571	98.75
447.792	86.75
448.013	91.75
448.234	77.75
448.455	101.75
448.675	92.75
448.896	98.75
449.117	94.75
449.338	88.75
449.559	84.75
449.779	84.75
450	98.75
450.221	94.75
450.442	75.75
450.662	71.75
450.883	83.75
451.104	84.75
451.324	86.75
451.545	99.75
451.766	84.75
451.986	78.75
452.207	100.75
452.428	90.75
452.648	80.75
452.869	91.75
453.089	92.75
453.31	86.75
453.53	83.75
453.751	82.75
453.971	87.75
454.192	86.75
454.412	67.75
454.633	111.75
454.853	105.75
455.073	89.75
455.294	80.75
455.514	83.75
455.734	87.75
455.955	82.75
456.175	80.75
456.395	86.75
456.616	88.75
456.836	90.75
457.056	76.75
457.276	84.75
457.497	74.75
457.717	75.75
457.937	80.75
458.157	84.75
458.377	85.75
458.598	90.75
458.818	88.75
459.038	77.75
459.258	77.75
459.478	74.75
459.698	86.75
459.918	95.75
460.138	100.75
460.358	80.75
460.578	91.75
460.798	91.75
461.018	74.75
461.238	83.75
461.458	84.75
461.678	84.75
461.898	83.75
462.118	76.75
462.338	73.75
462.558	83.75
462.777	90.75
462.997	70.75
463.217	104.75
463.437	76.75
463.657	79.75
463.876	80.75
464.096	89.75
464.316	79.75
464.536	70.75
464.755	90.75
464.975	83.75
465.195	74.75
465.414	89.75
465.634	79.75
465.854	86.75
466.073	86.75
466.293	80.75
466.512	95.75
466.732	98.75
466.951	84.75
467.171	85.75
467.391	89.75
467.61	81.75
467.829	72.75
468.049	83.75
468.268	85.75
468.488	85.75
468.707	80.75
468.927	97.75
469.146	94.75
469.365	92.75
469.585	96.75
469.804	97.75
470.023	85.75
470.243	84.75
470.462	90.75
470.681	75.75
470.901	98.75
471.12	104.75
471.339	99.75
471.558	95.75
471.777	88.75
471.997	87.75
472.216	91.75
472.435	88.75
472.654	81.75
472.873	72.75
473.092	84.75
473.311	98.75
473.53	89.75
473.749	96.75
473.968	98.75
474.187	84.75
474.406	90.75
474.625	81.75
474.844	86.75
475.063	91.75
475.282	82.75
475.501	88.75
475.72	75.75
475.939	94.75
476.158	83.75
476.377	84.75
476.596	92.75
476.814	61.75
477.033	85.75
477.252	90.75
477.471	80.75
477.69	84.75
477.908	102.75
478.127	87.75
478.346	95.75
478.564	91.75
478.783	105.75
479.002	84.75
479.22	91.75
479.439	93.75
479.658	79.75
479.876	86.75
480.095	89.75
480.313	96.75
480.532	93.75
480.751	77.75
480.969	73.75
481.188	79.75
481.406	77.75
481.624	82.75
481.843	86.75
482.061	93.75
482.28	90.75
482.498	91.75
482.717	79.75
482.935	95.75
483.153	95.75
483.372	91.75
483.59	90.75
483.808	93.75
484.027	87.75
484.245	94.75
484.463	86.75
484.681	83.75
484.9	102.75
485.118	85.75
485.336	95.75
485.554	97.75
485.772	81.75
485.99	84.75
486.209	83.75
486.427	88.75
486.645	88.75
486.863	95.75
487.081	81.75
487.299	72.75
487.517	92.75
487.735	93.75
487.953	87.75
488.171	99.75
488.389	95.75
488.607	84.75
488.825	79.75
489.043	97.75
489.261	100.75
489.479	92.75
489.696	97.75
489.914	93.75
490.132	93.75
490.35	90.75
490.568	89.75
490.786	90.75
491.003	106.75
491.221	91.75
491.439	102.75
491.657	106.75
491.874	117.75
492.092	108.75
492.31	103.75
492.527	102.75
492.745	96.75
492.963	100.75
493.18	108.75
493.398	102.75
493.615	101.75
493.833	103.75
494.05	96.75
494.268	105.75
494.485	89.75
494.703	111.75
494.92	96.75
495.138	85.75
495.355	104.75
495.573	109.75
495.79	93.75
496.008	100.75
496.225	111.75
496.442	93.75
496.66	88.75
496.877	97.75
497.094	95.75
497.312	90.75
497.529	100.75
497.746	89.75
497.963	105.75
498.181	99.75
498.398	78.75
498.615	90.75
498.832	91.75
499.049	89.75
499.267	93.75
499.484	79.75
499.701	74.75
499.918	89.75
500.135	87.75
500.352	88.75
500.569	87.75
500.786	92.75
501.003	92.75
501.22	82.75
501.437	100.75
501.654	95.75
501.871	90.75
502.088	74.75
502.305	87.75
502.522	85.75
502.739	92.75
502.956	88.75
503.172	73.75
503.389	84.75
503.606	85.75
503.823	78.75
504.04	98.75
504.256	91.75
504.473	86.75
504.69	82.75
504.907	101.75
505.123	95.75
505.34	95.75
505.557	80.75
505.773	77.75
505.99	95.75
506.207	88.75
506.423	89.75
506.64	83.75
506.856	89.75
507.073	81.75
507.289	89.75
507.506	83.75
507.722	83.75
507.939	80.75
508.155	84.75
508.372	87.75
508.588	97.75
508.805	91.75
509.021	95.75
509.238	83.75
509.454	80.75
509.67	74.75
509.887	69.75
510.103	78.75
510.319	99.75
510.536	95.75
510.752	78.75
510.968	81.75
511.184	88.75
511.401	87.75
511.617	79.75
511.833	75.75
512.049	101.75
512.265	93.75
512.481	87.75
512.698	85.75
512.914	82.75
513.13	96.75
513.346	88.75
513.562	83.75
513.778	79.75
513.994	84.75
514.21	83.75
514.426	83.75
514.642	87.75
514.858	92.75
515.074	93.75
515.29	77.75
515.506	87.75
515.721	83.75
515.937	90.75
516.153	83.75
516.369	87.75
516.585	83.75
516.801	83.75
517.016	82.75
517.232	95.75
517.448	70.75
517.664	76.75
517.879	82.75
518.095	79.75
518.311	73.75
518.527	83.75
518.742	83.75
