Data from Zn(NO3)2Standard.Agarose3%.GreenCap.LampEnergy10E.O_HRD10591_15-08-29-949.txt Node
Date: Mon Jul 22 15:08:29 EDT 2019
User: cochatt
Spectrometer: HR+D1059
Trigger mode: 1
Integration Time (sec): 1.000000E-1
Scans to average: 1
Electric dark correction enabled: true
Nonlinearity correction enabled: false
Boxcar width: 0
XAxis mode: Wavelengths
Number of Pixels in Spectrum: 2048
>>>>>Begin Spectral Data<<<<<
223.165	-16.75
223.4	-16.75
223.635	-16.75
223.869	-13.75
224.104	-33.75
224.338	-18.75
224.573	-15.75
224.808	-8.75
225.042	-10.75
225.277	-11.75
225.511	10.25
225.746	10.25
225.98	7.25
226.215	14.25
226.449	18.25
226.683	2.25
226.918	29.25
227.152	38.25
227.387	22.25
227.621	47.25
227.856	38.25
228.09	50.25
228.324	53.25
228.559	56.25
228.793	50.25
229.027	58.25
229.262	60.25
229.496	64.25
229.73	68.25
229.964	78.25
230.199	90.25
230.433	83.25
230.667	73.25
230.901	70.25
231.136	77.25
231.37	77.25
231.604	65.25
231.838	79.25
232.072	80.25
232.306	89.25
232.541	82.25
232.775	102.25
233.009	87.25
233.243	84.25
233.477	85.25
233.711	99.25
233.945	86.25
234.179	77.25
234.413	89.25
234.647	72.25
234.881	86.25
235.115	96.25
235.349	78.25
235.583	86.25
235.817	80.25
236.051	82.25
236.285	83.25
236.519	93.25
236.753	79.25
236.987	68.25
237.221	80.25
237.455	80.25
237.689	76.25
237.922	73.25
238.156	100.25
238.39	80.25
238.624	86.25
238.858	82.25
239.091	57.25
239.325	84.25
239.559	74.25
239.793	83.25
240.027	77.25
240.26	89.25
240.494	68.25
240.728	66.25
240.961	78.25
241.195	88.25
241.429	91.25
241.662	74.25
241.896	87.25
242.13	76.25
242.363	74.25
242.597	90.25
242.83	80.25
243.064	72.25
243.298	60.25
243.531	75.25
243.765	75.25
243.998	86.25
244.232	76.25
244.465	82.25
244.699	93.25
244.932	73.25
245.166	92.25
245.399	70.25
245.633	69.25
245.866	90.25
246.099	84.25
246.333	89.25
246.566	84.25
246.8	74.25
247.033	86.25
247.266	100.25
247.5	70.25
247.733	91.25
247.966	97.25
248.2	77.25
248.433	74.25
248.666	79.25
248.899	88.25
249.133	75.25
249.366	98.25
249.599	84.25
249.832	92.25
250.066	81.25
250.299	81.25
250.532	84.25
250.765	92.25
250.998	79.25
251.231	88.25
251.465	62.25
251.698	59.25
251.931	78.25
252.164	82.25
252.397	95.25
252.63	70.25
252.863	86.25
253.096	76.25
253.329	79.25
253.562	91.25
253.795	82.25
254.028	71.25
254.261	90.25
254.494	91.25
254.727	81.25
254.96	68.25
255.193	87.25
255.426	88.25
255.659	70.25
255.892	79.25
256.124	93.25
256.357	75.25
256.59	86.25
256.823	62.25
257.056	71.25
257.289	76.25
257.521	95.25
257.754	87.25
257.987	86.25
258.22	79.25
258.452	78.25
258.685	85.25
258.918	77.25
259.151	76.25
259.383	85.25
259.616	94.25
259.849	99.25
260.081	82.25
260.314	79.25
260.547	81.25
260.779	91.25
261.012	71.25
261.244	93.25
261.477	88.25
261.71	86.25
261.942	78.25
262.175	91.25
262.407	86.25
262.64	77.25
262.872	92.25
263.105	86.25
263.337	84.25
263.57	77.25
263.802	80.25
264.035	83.25
264.267	93.25
264.499	71.25
264.732	91.25
264.964	90.25
265.197	74.25
265.429	83.25
265.661	84.25
265.894	87.25
266.126	87.25
266.358	75.25
266.591	86.25
266.823	82.25
267.055	91.25
267.287	80.25
267.52	87.25
267.752	93.25
267.984	88.25
268.216	66.25
268.448	92.25
268.681	86.25
268.913	82.25
269.145	74.25
269.377	79.25
269.609	73.25
269.841	83.25
270.073	85.25
270.306	90.25
270.538	92.25
270.77	77.25
271.002	81.25
271.234	92.25
271.466	100.25
271.698	86.25
271.93	95.25
272.162	80.25
272.394	77.25
272.626	76.25
272.858	81.25
273.09	86.25
273.322	91.25
273.553	83.25
273.785	83.25
274.017	81.25
274.249	76.25
274.481	85.25
274.713	90.25
274.945	88.25
275.176	74.25
275.408	97.25
275.64	86.25
275.872	86.25
276.104	90.25
276.335	85.25
276.567	79.25
276.799	95.25
277.031	80.25
277.262	90.25
277.494	76.25
277.726	86.25
277.957	90.25
278.189	89.25
278.421	87.25
278.652	80.25
278.884	83.25
279.115	92.25
279.347	88.25
279.579	78.25
279.81	85.25
280.042	88.25
280.273	100.25
280.505	92.25
280.736	94.25
280.968	95.25
281.199	91.25
281.431	98.25
281.662	85.25
281.894	98.25
282.125	89.25
282.356	86.25
282.588	77.25
282.819	80.25
283.051	99.25
283.282	83.25
283.513	87.25
283.745	96.25
283.976	78.25
284.207	88.25
284.439	81.25
284.67	82.25
284.901	95.25
285.132	82.25
285.364	96.25
285.595	77.25
285.826	78.25
286.057	85.25
286.288	79.25
286.52	86.25
286.751	91.25
286.982	94.25
287.213	85.25
287.444	89.25
287.675	90.25
287.906	90.25
288.138	88.25
288.369	95.25
288.6	76.25
288.831	95.25
289.062	97.25
289.293	83.25
289.524	90.25
289.755	83.25
289.986	85.25
290.217	104.25
290.448	79.25
290.679	87.25
290.91	94.25
291.141	88.25
291.371	88.25
291.602	95.25
291.833	81.25
292.064	85.25
292.295	83.25
292.526	85.25
292.757	91.25
292.987	88.25
293.218	87.25
293.449	89.25
293.68	79.25
293.91	75.25
294.141	73.25
294.372	82.25
294.603	87.25
294.833	77.25
295.064	80.25
295.295	83.25
295.525	87.25
295.756	78.25
295.987	91.25
296.217	94.25
296.448	80.25
296.679	78.25
296.909	93.25
297.14	80.25
297.37	95.25
297.601	92.25
297.831	81.25
298.062	95.25
298.292	86.25
298.523	81.25
298.753	79.25
298.984	80.25
299.214	78.25
299.445	84.25
299.675	83.25
299.905	92.25
300.136	93.25
300.366	92.25
300.597	89.25
300.827	93.25
301.057	94.25
301.288	75.25
301.518	78.25
301.748	84.25
301.979	87.25
302.209	74.25
302.439	78.25
302.669	89.25
302.9	87.25
303.13	81.25
303.36	78.25
303.59	86.25
303.82	95.25
304.051	90.25
304.281	85.25
304.511	88.25
304.741	80.25
304.971	84.25
305.201	92.25
305.431	83.25
305.661	87.25
305.891	87.25
306.121	95.25
306.352	96.25
306.582	86.25
306.812	76.25
307.042	88.25
307.272	98.25
307.502	83.25
307.731	87.25
307.961	86.25
308.191	86.25
308.421	86.25
308.651	74.25
308.881	88.25
309.111	78.25
309.341	95.25
309.571	101.25
309.8	83.25
310.03	80.25
310.26	93.25
310.49	82.25
310.72	85.25
310.949	80.25
311.179	90.25
311.409	79.25
311.639	87.25
311.868	107.25
312.098	93.25
312.328	94.25
312.557	84.25
312.787	79.25
313.017	92.25
313.246	92.25
313.476	82.25
313.706	81.25
313.935	88.25
314.165	89.25
314.394	96.25
314.624	98.25
314.853	86.25
315.083	91.25
315.312	79.25
315.542	82.25
315.771	84.25
316.001	75.25
316.23	80.25
316.46	87.25
316.689	94.25
316.919	92.25
317.148	80.25
317.377	95.25
317.607	99.25
317.836	90.25
318.065	106.25
318.295	86.25
318.524	98.25
318.753	80.25
318.983	74.25
319.212	78.25
319.441	95.25
319.67	79.25
319.9	75.25
320.129	87.25
320.358	84.25
320.587	83.25
320.816	89.25
321.046	80.25
321.275	98.25
321.504	92.25
321.733	89.25
321.962	88.25
322.191	79.25
322.42	78.25
322.649	81.25
322.878	85.25
323.108	91.25
323.337	76.25
323.566	87.25
323.795	85.25
324.024	86.25
324.253	92.25
324.482	92.25
324.71	85.25
324.939	100.25
325.168	75.25
325.397	83.25
325.626	87.25
325.855	94.25
326.084	99.25
326.313	83.25
326.542	78.25
326.77	74.25
326.999	78.25
327.228	92.25
327.457	87.25
327.686	83.25
327.914	102.25
328.143	98.25
328.372	78.25
328.6	81.25
328.829	99.25
329.058	88.25
329.287	82.25
329.515	91.25
329.744	78.25
329.972	79.25
330.201	78.25
330.43	94.25
330.658	85.25
330.887	75.25
331.115	76.25
331.344	82.25
331.572	88.25
331.801	78.25
332.03	72.25
332.258	79.25
332.486	85.25
332.715	94.25
332.943	83.25
333.172	87.25
333.4	85.25
333.629	78.25
333.857	76.25
334.085	76.25
334.314	78.25
334.542	93.25
334.771	90.25
334.999	88.25
335.227	91.25
335.455	85.25
335.684	92.25
335.912	100.25
336.14	86.25
336.369	82.25
336.597	93.25
336.825	86.25
337.053	75.25
337.281	82.25
337.51	84.25
337.738	92.25
337.966	90.25
338.194	87.25
338.422	77.25
338.65	100.25
338.878	78.25
339.106	77.25
339.334	88.25
339.562	97.25
339.79	96.25
340.018	90.25
340.246	78.25
340.474	86.25
340.702	77.25
340.93	86.25
341.158	88.25
341.386	82.25
341.614	80.25
341.842	85.25
342.07	78.25
342.298	91.25
342.526	97.25
342.754	95.25
342.981	87.25
343.209	90.25
343.437	85.25
343.665	84.25
343.893	74.25
344.12	100.25
344.348	93.25
344.576	92.25
344.804	76.25
345.031	77.25
345.259	88.25
345.487	87.25
345.714	82.25
345.942	91.25
346.17	90.25
346.397	92.25
346.625	84.25
346.853	89.25
347.08	86.25
347.308	78.25
347.535	83.25
347.763	86.25
347.99	86.25
348.218	94.25
348.445	85.25
348.673	68.25
348.9	93.25
349.128	95.25
349.355	77.25
349.583	75.25
349.81	95.25
350.037	85.25
350.265	90.25
350.492	79.25
350.72	94.25
350.947	84.25
351.174	93.25
351.402	88.25
351.629	79.25
351.856	84.25
352.083	85.25
352.311	83.25
352.538	74.25
352.765	92.25
352.992	94.25
353.22	92.25
353.447	92.25
353.674	84.25
353.901	83.25
354.128	83.25
354.355	102.25
354.583	80.25
354.81	87.25
355.037	93.25
355.264	90.25
355.491	71.25
355.718	91.25
355.945	88.25
356.172	77.25
356.399	86.25
356.626	77.25
356.853	83.25
357.08	94.25
357.307	87.25
357.534	84.25
357.761	88.25
357.988	100.25
358.215	87.25
358.441	77.25
358.668	81.25
358.895	86.25
359.122	86.25
359.349	82.25
359.576	83.25
359.802	75.25
360.029	72.25
360.256	93.25
360.483	77.25
360.709	86.25
360.936	86.25
361.163	80.25
361.39	77.25
361.616	76.25
361.843	82.25
362.07	89.25
362.296	96.25
362.523	93.25
362.749	81.25
362.976	85.25
363.203	85.25
363.429	92.25
363.656	70.25
363.882	87.25
364.109	84.25
364.335	75.25
364.562	83.25
364.788	70.25
365.015	74.25
365.241	78.25
365.468	85.25
365.694	78.25
365.92	83.25
366.147	95.25
366.373	83.25
366.599	88.25
366.826	91.25
367.052	93.25
367.278	79.25
367.505	89.25
367.731	84.25
367.957	80.25
368.184	79.25
368.41	87.25
368.636	110.25
368.862	84.25
369.089	84.25
369.315	82.25
369.541	85.25
369.767	83.25
369.993	95.25
370.219	95.25
370.445	94.25
370.672	83.25
370.898	94.25
371.124	86.25
371.35	85.25
371.576	85.25
371.802	91.25
372.028	90.25
372.254	95.25
372.48	91.25
372.706	84.25
372.932	89.25
373.158	84.25
373.384	92.25
373.61	88.25
373.835	88.25
374.061	83.25
374.287	103.25
374.513	94.25
374.739	88.25
374.965	92.25
375.191	99.25
375.416	89.25
375.642	88.25
375.868	90.25
376.094	93.25
376.319	76.25
376.545	98.25
376.771	84.25
376.997	95.25
377.222	84.25
377.448	86.25
377.674	106.25
377.899	88.25
378.125	94.25
378.35	93.25
378.576	88.25
378.802	96.25
379.027	98.25
379.253	92.25
379.478	83.25
379.704	86.25
379.929	80.25
380.155	90.25
380.38	89.25
380.606	84.25
380.831	86.25
381.057	93.25
381.282	80.25
381.507	90.25
381.733	96.25
381.958	77.25
382.184	81.25
382.409	96.25
382.634	99.25
382.86	94.25
383.085	101.25
383.31	89.25
383.535	84.25
383.761	102.25
383.986	85.25
384.211	101.25
384.436	90.25
384.662	87.25
384.887	100.25
385.112	97.25
385.337	100.25
385.562	96.25
385.787	86.25
386.013	87.25
386.238	92.25
386.463	95.25
386.688	95.25
386.913	85.25
387.138	87.25
387.363	99.25
387.588	103.25
387.813	99.25
388.038	96.25
388.263	78.25
388.488	95.25
388.713	100.25
388.938	93.25
389.163	94.25
389.387	95.25
389.612	85.25
389.837	93.25
390.062	98.25
390.287	95.25
390.512	108.25
390.736	83.25
390.961	89.25
391.186	98.25
391.411	88.25
391.636	87.25
391.86	102.25
392.085	105.25
392.31	86.25
392.534	84.25
392.759	98.25
392.984	91.25
393.208	91.25
393.433	103.25
393.658	89.25
393.882	106.25
394.107	98.25
394.331	77.25
394.556	114.25
394.78	96.25
395.005	106.25
395.229	99.25
395.454	102.25
395.678	94.25
395.903	87.25
396.127	117.25
396.352	94.25
396.576	100.25
396.801	97.25
397.025	83.25
397.249	81.25
397.474	90.25
397.698	101.25
397.922	100.25
398.147	92.25
398.371	96.25
398.595	98.25
398.82	93.25
399.044	88.25
399.268	101.25
399.492	101.25
399.717	106.25
399.941	95.25
400.165	94.25
400.389	80.25
400.613	94.25
400.837	99.25
401.062	89.25
401.286	104.25
401.51	107.25
401.734	94.25
401.958	115.25
402.182	102.25
402.406	106.25
402.63	111.25
402.854	99.25
403.078	80.25
403.302	105.25
403.526	102.25
403.75	94.25
403.974	98.25
404.198	99.25
404.422	86.25
404.645	102.25
404.869	106.25
405.093	86.25
405.317	104.25
405.541	100.25
405.765	103.25
405.988	89.25
406.212	103.25
406.436	92.25
406.66	98.25
406.883	116.25
407.107	106.25
407.331	92.25
407.555	102.25
407.778	91.25
408.002	114.25
408.226	112.25
408.449	96.25
408.673	122.25
408.896	114.25
409.12	103.25
409.344	84.25
409.567	99.25
409.791	102.25
410.014	109.25
410.238	102.25
410.461	107.25
410.685	95.25
410.908	111.25
411.132	102.25
411.355	105.25
411.578	102.25
411.802	87.25
412.025	102.25
412.249	117.25
412.472	96.25
412.695	106.25
412.919	108.25
413.142	120.25
413.365	95.25
413.589	101.25
413.812	109.25
414.035	116.25
414.258	109.25
414.482	110.25
414.705	106.25
414.928	103.25
415.151	107.25
415.374	94.25
415.597	114.25
415.821	116.25
416.044	107.25
416.267	92.25
416.49	99.25
416.713	97.25
416.936	85.25
417.159	115.25
417.382	110.25
417.605	104.25
417.828	106.25
418.051	95.25
418.274	105.25
418.497	97.25
418.72	114.25
418.943	115.25
419.166	110.25
419.389	103.25
419.611	114.25
419.834	97.25
420.057	111.25
420.28	103.25
420.503	106.25
420.726	106.25
420.948	115.25
421.171	100.25
421.394	92.25
421.617	119.25
421.839	102.25
422.062	88.25
422.285	121.25
422.507	90.25
422.73	108.25
422.953	115.25
423.175	103.25
423.398	90.25
423.621	103.25
423.843	109.25
424.066	108.25
424.288	110.25
424.511	116.25
424.733	98.25
424.956	110.25
425.178	102.25
425.401	114.25
425.623	114.25
425.846	105.25
426.068	118.25
426.291	116.25
426.513	104.25
426.735	108.25
426.958	114.25
427.18	102.25
427.402	111.25
427.625	97.25
427.847	109.25
428.069	111.25
428.292	98.25
428.514	116.25
428.736	108.25
428.958	113.25
429.181	103.25
429.403	105.25
429.625	87.25
429.847	87.25
430.069	101.25
430.292	106.25
430.514	104.25
430.736	105.25
430.958	100.25
431.18	104.25
431.402	98.25
431.624	114.25
431.846	98.25
432.068	93.25
432.29	111.25
432.512	100.25
432.734	103.25
432.956	96.25
433.178	108.25
433.4	119.25
433.622	110.25
433.844	116.25
434.066	105.25
434.287	94.25
434.509	109.25
434.731	100.25
434.953	96.25
435.175	109.25
435.397	112.25
435.618	91.25
435.84	99.25
436.062	107.25
436.284	111.25
436.505	109.25
436.727	106.25
436.949	102.25
437.17	110.25
437.392	103.25
437.614	92.25
437.835	102.25
438.057	95.25
438.278	102.25
438.5	114.25
438.721	122.25
438.943	115.25
439.165	117.25
439.386	107.25
439.608	108.25
439.829	106.25
440.05	103.25
440.272	116.25
440.493	100.25
440.715	126.25
440.936	123.25
441.158	120.25
441.379	106.25
441.6	111.25
441.822	129.25
442.043	117.25
442.264	119.25
442.486	116.25
442.707	117.25
442.928	108.25
443.149	114.25
443.371	118.25
443.592	107.25
443.813	122.25
444.034	122.25
444.255	106.25
444.476	117.25
444.698	104.25
444.919	118.25
445.14	252.25
445.361	179.25
445.582	122.25
445.803	125.25
446.024	128.25
446.245	109.25
446.466	122.25
446.687	105.25
446.908	103.25
447.129	123.25
447.35	127.25
447.571	129.25
447.792	131.25
448.013	115.25
448.234	116.25
448.455	107.25
448.675	119.25
448.896	118.25
449.117	98.25
449.338	105.25
449.559	116.25
449.779	122.25
450	105.25
450.221	110.25
450.442	120.25
450.662	114.25
450.883	111.25
451.104	101.25
451.324	108.25
451.545	116.25
451.766	100.25
451.986	111.25
452.207	116.25
452.428	103.25
452.648	111.25
452.869	114.25
453.089	116.25
453.31	106.25
453.53	100.25
453.751	88.25
453.971	96.25
454.192	91.25
454.412	81.25
454.633	85.25
454.853	109.25
455.073	120.25
455.294	105.25
455.514	108.25
455.734	120.25
455.955	107.25
456.175	106.25
456.395	107.25
456.616	87.25
456.836	77.25
457.056	101.25
457.276	83.25
457.497	92.25
457.717	91.25
457.937	90.25
458.157	99.25
458.377	91.25
458.598	86.25
458.818	86.25
459.038	102.25
459.258	78.25
459.478	88.25
459.698	86.25
459.918	89.25
460.138	87.25
460.358	99.25
460.578	105.25
460.798	98.25
461.018	91.25
461.238	115.25
461.458	122.25
461.678	109.25
461.898	98.25
462.118	102.25
462.338	108.25
462.558	101.25
462.777	94.25
462.997	100.25
463.217	93.25
463.437	101.25
463.657	102.25
463.876	84.25
464.096	107.25
464.316	102.25
464.536	101.25
464.755	88.25
464.975	99.25
465.195	110.25
465.414	118.25
465.634	116.25
465.854	102.25
466.073	96.25
466.293	95.25
466.512	106.25
466.732	111.25
466.951	118.25
467.171	110.25
467.391	121.25
467.61	110.25
467.829	121.25
468.049	118.25
468.268	109.25
468.488	119.25
468.707	99.25
468.927	102.25
469.146	99.25
469.365	110.25
469.585	116.25
469.804	108.25
470.023	119.25
470.243	119.25
470.462	119.25
470.681	109.25
470.901	120.25
471.12	130.25
471.339	112.25
471.558	106.25
471.777	110.25
471.997	102.25
472.216	114.25
472.435	108.25
472.654	86.25
472.873	101.25
473.092	93.25
473.311	93.25
473.53	97.25
473.749	106.25
473.968	121.25
474.187	101.25
474.406	84.25
474.625	114.25
474.844	117.25
475.063	112.25
475.282	96.25
475.501	82.25
475.72	101.25
475.939	96.25
476.158	101.25
476.377	106.25
476.596	119.25
476.814	98.25
477.033	103.25
477.252	90.25
477.471	101.25
477.69	124.25
477.908	119.25
478.127	114.25
478.346	107.25
478.564	98.25
478.783	107.25
479.002	103.25
479.22	114.25
479.439	104.25
479.658	111.25
479.876	100.25
480.095	94.25
480.313	103.25
480.532	107.25
480.751	99.25
480.969	88.25
481.188	107.25
481.406	104.25
481.624	108.25
481.843	85.25
482.061	93.25
482.28	103.25
482.498	109.25
482.717	102.25
482.935	104.25
483.153	126.25
483.372	118.25
483.59	109.25
483.808	118.25
484.027	114.25
484.245	111.25
484.463	120.25
484.681	116.25
484.9	124.25
485.118	130.25
485.336	101.25
485.554	114.25
485.772	103.25
485.99	83.25
486.209	99.25
486.427	106.25
486.645	99.25
486.863	131.25
487.081	116.25
487.299	114.25
487.517	119.25
487.735	115.25
487.953	127.25
488.171	132.25
488.389	125.25
488.607	131.25
488.825	118.25
489.043	111.25
489.261	114.25
489.479	103.25
489.696	126.25
489.914	92.25
490.132	113.25
490.35	126.25
490.568	124.25
490.786	133.25
491.003	134.25
491.221	125.25
491.439	131.25
491.657	135.25
491.874	141.25
492.092	146.25
492.31	161.25
492.527	158.25
492.745	144.25
492.963	141.25
493.18	132.25
493.398	130.25
493.615	134.25
493.833	132.25
494.05	145.25
494.268	135.25
494.485	136.25
494.703	128.25
494.92	144.25
495.138	142.25
495.355	124.25
495.573	134.25
495.79	144.25
496.008	141.25
496.225	134.25
496.442	108.25
496.66	129.25
496.877	120.25
497.094	127.25
497.312	124.25
497.529	141.25
497.746	116.25
497.963	100.25
498.181	112.25
498.398	115.25
498.615	106.25
498.832	98.25
499.049	97.25
499.267	117.25
499.484	103.25
499.701	120.25
499.918	107.25
500.135	124.25
500.352	132.25
500.569	120.25
500.786	120.25
501.003	122.25
501.22	118.25
501.437	111.25
501.654	104.25
501.871	100.25
502.088	111.25
502.305	122.25
502.522	112.25
502.739	112.25
502.956	111.25
503.172	108.25
503.389	102.25
503.606	84.25
503.823	101.25
504.04	106.25
504.256	114.25
504.473	102.25
504.69	101.25
504.907	108.25
505.123	100.25
505.34	104.25
505.557	110.25
505.773	104.25
505.99	97.25
506.207	92.25
506.423	112.25
506.64	119.25
506.856	109.25
507.073	107.25
507.289	102.25
507.506	100.25
507.722	105.25
507.939	102.25
508.155	93.25
508.372	103.25
508.588	107.25
508.805	115.25
509.021	103.25
509.238	99.25
509.454	87.25
509.67	98.25
509.887	91.25
510.103	76.25
510.319	92.25
510.536	101.25
510.752	101.25
510.968	90.25
511.184	86.25
511.401	91.25
511.617	94.25
511.833	99.25
512.049	86.25
512.265	95.25
512.481	79.25
512.698	98.25
512.914	92.25
513.13	90.25
513.346	98.25
