Data from Zn(NO3)2Standard.Agarose3%.GreenCap.LampEnergy10E.O_HRD10591_15-09-08-952.txt Node
Date: Mon Jul 22 15:09:08 EDT 2019
User: cochatt
Spectrometer: HR+D1059
Trigger mode: 1
Integration Time (sec): 1.000000E-1
Scans to average: 1
Electric dark correction enabled: true
Nonlinearity correction enabled: false
Boxcar width: 0
XAxis mode: Wavelengths
Number of Pixels in Spectrum: 2048
>>>>>Begin Spectral Data<<<<<
223.165	-11.94
223.4	-11.94
223.635	-11.94
223.869	-21.94
224.104	-12.94
224.338	-22.94
224.573	-15.94
224.808	-9.94
225.042	-0.94
225.277	-4.94
225.511	-10.94
225.746	0.06
225.98	6.06
226.215	3.06
226.449	20.06
226.683	19.06
226.918	19.06
227.152	45.06
227.387	24.06
227.621	41.06
227.856	37.06
228.09	46.06
228.324	43.06
228.559	47.06
228.793	69.06
229.027	63.06
229.262	62.06
229.496	62.06
229.73	76.06
229.964	73.06
230.199	66.06
230.433	86.06
230.667	66.06
230.901	78.06
231.136	85.06
231.37	74.06
231.604	75.06
231.838	82.06
232.072	67.06
232.306	70.06
232.541	80.06
232.775	89.06
233.009	76.06
233.243	78.06
233.477	93.06
233.711	83.06
233.945	70.06
234.179	88.06
234.413	90.06
234.647	81.06
234.881	87.06
235.115	74.06
235.349	87.06
235.583	75.06
235.817	85.06
236.051	93.06
236.285	66.06
236.519	74.06
236.753	70.06
236.987	83.06
237.221	98.06
237.455	85.06
237.689	82.06
237.922	80.06
238.156	86.06
238.39	74.06
238.624	72.06
238.858	85.06
239.091	86.06
239.325	78.06
239.559	85.06
239.793	95.06
240.027	66.06
240.26	81.06
240.494	77.06
240.728	78.06
240.961	59.06
241.195	79.06
241.429	72.06
241.662	86.06
241.896	81.06
242.13	79.06
242.363	64.06
242.597	68.06
242.83	84.06
243.064	85.06
243.298	83.06
243.531	82.06
243.765	74.06
243.998	75.06
244.232	88.06
244.465	84.06
244.699	92.06
244.932	74.06
245.166	73.06
245.399	78.06
245.633	80.06
245.866	72.06
246.099	82.06
246.333	80.06
246.566	86.06
246.8	81.06
247.033	84.06
247.266	91.06
247.5	75.06
247.733	81.06
247.966	91.06
248.2	64.06
248.433	75.06
248.666	89.06
248.899	95.06
249.133	78.06
249.366	97.06
249.599	84.06
249.832	84.06
250.066	82.06
250.299	76.06
250.532	91.06
250.765	94.06
250.998	75.06
251.231	81.06
251.465	90.06
251.698	92.06
251.931	84.06
252.164	83.06
252.397	65.06
252.63	79.06
252.863	97.06
253.096	80.06
253.329	71.06
253.562	94.06
253.795	88.06
254.028	88.06
254.261	89.06
254.494	103.06
254.727	74.06
254.96	79.06
255.193	81.06
255.426	89.06
255.659	71.06
255.892	80.06
256.124	69.06
256.357	71.06
256.59	78.06
256.823	79.06
257.056	89.06
257.289	74.06
257.521	81.06
257.754	84.06
257.987	89.06
258.22	84.06
258.452	78.06
258.685	71.06
258.918	70.06
259.151	88.06
259.383	82.06
259.616	94.06
259.849	91.06
260.081	93.06
260.314	89.06
260.547	74.06
260.779	75.06
261.012	86.06
261.244	78.06
261.477	89.06
261.71	92.06
261.942	74.06
262.175	92.06
262.407	69.06
262.64	74.06
262.872	79.06
263.105	75.06
263.337	82.06
263.57	74.06
263.802	87.06
264.035	90.06
264.267	101.06
264.499	80.06
264.732	82.06
264.964	102.06
265.197	86.06
265.429	73.06
265.661	92.06
265.894	99.06
266.126	87.06
266.358	77.06
266.591	97.06
266.823	87.06
267.055	77.06
267.287	76.06
267.52	75.06
267.752	93.06
267.984	82.06
268.216	86.06
268.448	89.06
268.681	80.06
268.913	84.06
269.145	76.06
269.377	82.06
269.609	81.06
269.841	93.06
270.073	78.06
270.306	81.06
270.538	89.06
270.77	83.06
271.002	76.06
271.234	88.06
271.466	85.06
271.698	89.06
271.93	89.06
272.162	77.06
272.394	75.06
272.626	94.06
272.858	88.06
273.09	89.06
273.322	86.06
273.553	74.06
273.785	67.06
274.017	69.06
274.249	83.06
274.481	88.06
274.713	85.06
274.945	89.06
275.176	76.06
275.408	83.06
275.64	78.06
275.872	78.06
276.104	87.06
276.335	77.06
276.567	82.06
276.799	88.06
277.031	84.06
277.262	72.06
277.494	89.06
277.726	90.06
277.957	77.06
278.189	85.06
278.421	73.06
278.652	90.06
278.884	81.06
279.115	67.06
279.347	77.06
279.579	85.06
279.81	81.06
280.042	78.06
280.273	65.06
280.505	85.06
280.736	77.06
280.968	78.06
281.199	82.06
281.431	80.06
281.662	83.06
281.894	91.06
282.125	85.06
282.356	83.06
282.588	83.06
282.819	76.06
283.051	93.06
283.282	79.06
283.513	77.06
283.745	77.06
283.976	86.06
284.207	95.06
284.439	82.06
284.67	81.06
284.901	90.06
285.132	88.06
285.364	83.06
285.595	100.06
285.826	93.06
286.057	97.06
286.288	81.06
286.52	76.06
286.751	90.06
286.982	74.06
287.213	70.06
287.444	85.06
287.675	97.06
287.906	85.06
288.138	102.06
288.369	85.06
288.6	90.06
288.831	78.06
289.062	100.06
289.293	83.06
289.524	75.06
289.755	76.06
289.986	83.06
290.217	76.06
290.448	84.06
290.679	64.06
290.91	84.06
291.141	90.06
291.371	80.06
291.602	77.06
291.833	85.06
292.064	92.06
292.295	84.06
292.526	86.06
292.757	86.06
292.987	72.06
293.218	77.06
293.449	86.06
293.68	80.06
293.91	91.06
294.141	90.06
294.372	86.06
294.603	91.06
294.833	91.06
295.064	85.06
295.295	92.06
295.525	86.06
295.756	82.06
295.987	84.06
296.217	78.06
296.448	78.06
296.679	90.06
296.909	96.06
297.14	97.06
297.37	89.06
297.601	88.06
297.831	83.06
298.062	77.06
298.292	85.06
298.523	85.06
298.753	81.06
298.984	88.06
299.214	92.06
299.445	79.06
299.675	74.06
299.905	81.06
300.136	86.06
300.366	92.06
300.597	91.06
300.827	80.06
301.057	81.06
301.288	89.06
301.518	100.06
301.748	96.06
301.979	70.06
302.209	88.06
302.439	88.06
302.669	94.06
302.9	85.06
303.13	98.06
303.36	78.06
303.59	93.06
303.82	86.06
304.051	94.06
304.281	82.06
304.511	98.06
304.741	85.06
304.971	93.06
305.201	74.06
305.431	81.06
305.661	80.06
305.891	84.06
306.121	83.06
306.352	98.06
306.582	88.06
306.812	92.06
307.042	89.06
307.272	79.06
307.502	97.06
307.731	86.06
307.961	90.06
308.191	90.06
308.421	93.06
308.651	89.06
308.881	94.06
309.111	90.06
309.341	77.06
309.571	85.06
309.8	89.06
310.03	87.06
310.26	86.06
310.49	93.06
310.72	85.06
310.949	84.06
311.179	74.06
311.409	86.06
311.639	95.06
311.868	75.06
312.098	80.06
312.328	69.06
312.557	81.06
312.787	83.06
313.017	84.06
313.246	85.06
313.476	79.06
313.706	99.06
313.935	93.06
314.165	87.06
314.394	94.06
314.624	95.06
314.853	95.06
315.083	79.06
315.312	94.06
315.542	101.06
315.771	86.06
316.001	78.06
316.23	76.06
316.46	85.06
316.689	90.06
316.919	75.06
317.148	82.06
317.377	88.06
317.607	91.06
317.836	83.06
318.065	87.06
318.295	78.06
318.524	101.06
318.753	84.06
318.983	87.06
319.212	82.06
319.441	80.06
319.67	86.06
319.9	101.06
320.129	91.06
320.358	90.06
320.587	90.06
320.816	90.06
321.046	75.06
321.275	75.06
321.504	82.06
321.733	93.06
321.962	79.06
322.191	89.06
322.42	93.06
322.649	85.06
322.878	90.06
323.108	90.06
323.337	98.06
323.566	89.06
323.795	85.06
324.024	88.06
324.253	87.06
324.482	85.06
324.71	91.06
324.939	94.06
325.168	76.06
325.397	82.06
325.626	93.06
325.855	100.06
326.084	82.06
326.313	93.06
326.542	71.06
326.77	91.06
326.999	81.06
327.228	80.06
327.457	94.06
327.686	83.06
327.914	91.06
328.143	86.06
328.372	79.06
328.6	84.06
328.829	84.06
329.058	89.06
329.287	82.06
329.515	81.06
329.744	89.06
329.972	87.06
330.201	79.06
330.43	87.06
330.658	84.06
330.887	97.06
331.115	100.06
331.344	91.06
331.572	97.06
331.801	79.06
332.03	93.06
332.258	82.06
332.486	85.06
332.715	82.06
332.943	70.06
333.172	82.06
333.4	78.06
333.629	89.06
333.857	101.06
334.085	89.06
334.314	70.06
334.542	83.06
334.771	97.06
334.999	92.06
335.227	81.06
335.455	95.06
335.684	77.06
335.912	82.06
336.14	86.06
336.369	97.06
336.597	83.06
336.825	72.06
337.053	73.06
337.281	87.06
337.51	79.06
337.738	87.06
337.966	86.06
338.194	76.06
338.422	89.06
338.65	87.06
338.878	80.06
339.106	91.06
339.334	88.06
339.562	87.06
339.79	76.06
340.018	81.06
340.246	85.06
340.474	82.06
340.702	77.06
340.93	86.06
341.158	75.06
341.386	90.06
341.614	82.06
341.842	86.06
342.07	99.06
342.298	86.06
342.526	94.06
342.754	88.06
342.981	68.06
343.209	102.06
343.437	93.06
343.665	91.06
343.893	86.06
344.12	86.06
344.348	88.06
344.576	82.06
344.804	84.06
345.031	83.06
345.259	83.06
345.487	84.06
345.714	76.06
345.942	86.06
346.17	100.06
346.397	91.06
346.625	97.06
346.853	88.06
347.08	79.06
347.308	97.06
347.535	61.06
347.763	90.06
347.99	79.06
348.218	85.06
348.445	85.06
348.673	74.06
348.9	86.06
349.128	94.06
349.355	90.06
349.583	87.06
349.81	77.06
350.037	81.06
350.265	94.06
350.492	83.06
350.72	81.06
350.947	86.06
351.174	77.06
351.402	92.06
351.629	82.06
351.856	77.06
352.083	75.06
352.311	101.06
352.538	88.06
352.765	83.06
352.992	83.06
353.22	89.06
353.447	94.06
353.674	102.06
353.901	102.06
354.128	84.06
354.355	98.06
354.583	86.06
354.81	82.06
355.037	83.06
355.264	73.06
355.491	89.06
355.718	78.06
355.945	84.06
356.172	76.06
356.399	77.06
356.626	91.06
356.853	88.06
357.08	81.06
357.307	85.06
357.534	85.06
357.761	93.06
357.988	78.06
358.215	93.06
358.441	81.06
358.668	77.06
358.895	65.06
359.122	92.06
359.349	89.06
359.576	88.06
359.802	87.06
360.029	85.06
360.256	80.06
360.483	100.06
360.709	83.06
360.936	89.06
361.163	89.06
361.39	85.06
361.616	91.06
361.843	94.06
362.07	79.06
362.296	97.06
362.523	87.06
362.749	101.06
362.976	76.06
363.203	66.06
363.429	79.06
363.656	87.06
363.882	84.06
364.109	79.06
364.335	79.06
364.562	76.06
364.788	77.06
365.015	92.06
365.241	85.06
365.468	79.06
365.694	69.06
365.92	84.06
366.147	91.06
366.373	79.06
366.599	79.06
366.826	84.06
367.052	72.06
367.278	98.06
367.505	74.06
367.731	92.06
367.957	89.06
368.184	89.06
368.41	81.06
368.636	97.06
368.862	90.06
369.089	85.06
369.315	88.06
369.541	81.06
369.767	86.06
369.993	92.06
370.219	97.06
370.445	85.06
370.672	96.06
370.898	91.06
371.124	93.06
371.35	71.06
371.576	76.06
371.802	100.06
372.028	86.06
372.254	101.06
372.48	86.06
372.706	75.06
372.932	85.06
373.158	89.06
373.384	88.06
373.61	89.06
373.835	96.06
374.061	88.06
374.287	78.06
374.513	78.06
374.739	75.06
374.965	90.06
375.191	89.06
375.416	88.06
375.642	89.06
375.868	98.06
376.094	84.06
376.319	96.06
376.545	93.06
376.771	86.06
376.997	96.06
377.222	103.06
377.448	79.06
377.674	81.06
377.899	91.06
378.125	89.06
378.35	90.06
378.576	82.06
378.802	87.06
379.027	95.06
379.253	78.06
379.478	102.06
379.704	98.06
379.929	86.06
380.155	79.06
380.38	89.06
380.606	100.06
380.831	95.06
381.057	110.06
381.282	90.06
381.507	84.06
381.733	91.06
381.958	82.06
382.184	87.06
382.409	90.06
382.634	101.06
382.86	96.06
383.085	84.06
383.31	91.06
383.535	94.06
383.761	83.06
383.986	89.06
384.211	97.06
384.436	105.06
384.662	95.06
384.887	81.06
385.112	89.06
385.337	93.06
385.562	89.06
385.787	86.06
386.013	91.06
386.238	108.06
386.463	93.06
386.688	97.06
386.913	91.06
387.138	93.06
387.363	89.06
387.588	104.06
387.813	77.06
388.038	89.06
388.263	94.06
388.488	91.06
388.713	79.06
388.938	84.06
389.163	91.06
389.387	87.06
389.612	99.06
389.837	86.06
390.062	93.06
390.287	79.06
390.512	88.06
390.736	94.06
390.961	86.06
391.186	101.06
391.411	107.06
391.636	103.06
391.86	91.06
392.085	90.06
392.31	116.06
392.534	93.06
392.759	98.06
392.984	93.06
393.208	100.06
393.433	96.06
393.658	99.06
393.882	97.06
394.107	91.06
394.331	102.06
394.556	90.06
394.78	106.06
395.005	109.06
395.229	85.06
395.454	90.06
395.678	91.06
395.903	96.06
396.127	108.06
396.352	90.06
396.576	102.06
396.801	89.06
397.025	85.06
397.249	101.06
397.474	93.06
397.698	94.06
397.922	94.06
398.147	96.06
398.371	87.06
398.595	116.06
398.82	94.06
399.044	105.06
399.268	98.06
399.492	101.06
399.717	99.06
399.941	103.06
400.165	106.06
400.389	95.06
400.613	93.06
400.837	87.06
401.062	97.06
401.286	89.06
401.51	98.06
401.734	93.06
401.958	97.06
402.182	107.06
402.406	89.06
402.63	101.06
402.854	101.06
403.078	100.06
403.302	89.06
403.526	96.06
403.75	100.06
403.974	113.06
404.198	104.06
404.422	100.06
404.645	104.06
404.869	109.06
405.093	79.06
405.317	95.06
405.541	108.06
405.765	93.06
405.988	111.06
406.212	99.06
406.436	91.06
406.66	93.06
406.883	102.06
407.107	86.06
407.331	101.06
407.555	103.06
407.778	105.06
408.002	95.06
408.226	102.06
408.449	108.06
408.673	98.06
408.896	98.06
409.12	93.06
409.344	105.06
409.567	101.06
409.791	107.06
410.014	117.06
410.238	118.06
410.461	94.06
410.685	102.06
410.908	99.06
411.132	106.06
411.355	108.06
411.578	107.06
411.802	117.06
412.025	102.06
412.249	109.06
412.472	97.06
412.695	96.06
412.919	114.06
413.142	95.06
413.365	111.06
413.589	90.06
413.812	105.06
414.035	111.06
414.258	114.06
414.482	115.06
414.705	101.06
414.928	102.06
415.151	110.06
415.374	103.06
415.597	122.06
415.821	95.06
416.044	78.06
416.267	106.06
416.49	94.06
416.713	108.06
416.936	91.06
417.159	109.06
417.382	93.06
417.605	98.06
417.828	101.06
418.051	98.06
418.274	110.06
418.497	108.06
418.72	97.06
418.943	103.06
419.166	112.06
419.389	101.06
419.611	100.06
419.834	94.06
420.057	106.06
420.28	106.06
420.503	113.06
420.726	96.06
420.948	115.06
421.171	96.06
421.394	102.06
421.617	124.06
421.839	104.06
422.062	109.06
422.285	113.06
422.507	112.06
422.73	95.06
422.953	108.06
423.175	97.06
423.398	98.06
423.621	121.06
423.843	104.06
424.066	109.06
424.288	111.06
424.511	101.06
424.733	122.06
424.956	110.06
425.178	108.06
425.401	113.06
425.623	115.06
425.846	109.06
426.068	109.06
426.291	111.06
426.513	111.06
426.735	115.06
426.958	111.06
427.18	95.06
427.402	117.06
427.625	107.06
427.847	101.06
428.069	110.06
428.292	120.06
428.514	98.06
428.736	109.06
428.958	106.06
429.181	108.06
429.403	102.06
429.625	107.06
429.847	111.06
430.069	107.06
430.292	97.06
430.514	87.06
430.736	90.06
430.958	115.06
431.18	114.06
431.402	89.06
431.624	103.06
431.846	95.06
432.068	104.06
432.29	94.06
432.512	101.06
432.734	102.06
432.956	109.06
433.178	113.06
433.4	104.06
433.622	116.06
433.844	113.06
434.066	101.06
434.287	105.06
434.509	87.06
434.731	80.06
434.953	90.06
435.175	102.06
435.397	107.06
435.618	104.06
435.84	88.06
436.062	99.06
436.284	116.06
436.505	104.06
436.727	109.06
436.949	102.06
437.17	117.06
437.392	91.06
437.614	109.06
437.835	88.06
438.057	88.06
438.278	94.06
438.5	98.06
438.721	87.06
438.943	109.06
439.165	105.06
439.386	111.06
439.608	107.06
439.829	110.06
440.05	123.06
440.272	125.06
440.493	107.06
440.715	117.06
440.936	104.06
441.158	116.06
441.379	123.06
441.6	116.06
441.822	118.06
442.043	111.06
442.264	107.06
442.486	101.06
442.707	102.06
442.928	105.06
443.149	115.06
443.371	119.06
443.592	122.06
443.813	129.06
444.034	113.06
444.255	115.06
444.476	114.06
444.698	103.06
444.919	100.06
445.14	230.06
445.361	180.06
445.582	114.06
445.803	113.06
446.024	125.06
446.245	121.06
446.466	123.06
446.687	111.06
446.908	121.06
447.129	116.06
447.35	107.06
447.571	113.06
447.792	123.06
448.013	125.06
448.234	115.06
448.455	122.06
448.675	111.06
448.896	107.06
449.117	104.06
449.338	108.06
449.559	110.06
449.779	124.06
450	114.06
450.221	120.06
450.442	101.06
450.662	101.06
450.883	109.06
451.104	108.06
451.324	116.06
451.545	91.06
451.766	113.06
451.986	109.06
452.207	113.06
452.428	117.06
452.648	96.06
452.869	91.06
453.089	114.06
453.31	111.06
453.53	101.06
453.751	102.06
453.971	92.06
454.192	105.06
454.412	109.06
454.633	93.06
454.853	108.06
455.073	107.06
455.294	116.06
455.514	99.06
455.734	108.06
455.955	110.06
456.175	99.06
456.395	104.06
456.616	96.06
456.836	101.06
457.056	90.06
457.276	97.06
457.497	95.06
457.717	113.06
457.937	105.06
458.157	91.06
458.377	99.06
458.598	91.06
458.818	89.06
459.038	99.06
459.258	97.06
459.478	101.06
459.698	83.06
459.918	89.06
460.138	87.06
460.358	109.06
460.578	107.06
460.798	97.06
461.018	93.06
461.238	107.06
461.458	116.06
461.678	94.06
461.898	94.06
462.118	98.06
462.338	91.06
462.558	101.06
462.777	105.06
462.997	103.06
463.217	103.06
463.437	99.06
463.657	118.06
463.876	90.06
464.096	101.06
464.316	88.06
464.536	97.06
464.755	94.06
464.975	114.06
465.195	108.06
465.414	99.06
465.634	89.06
465.854	101.06
466.073	108.06
466.293	101.06
466.512	110.06
466.732	110.06
466.951	120.06
467.171	104.06
467.391	90.06
467.61	108.06
467.829	106.06
468.049	110.06
468.268	105.06
468.488	113.06
468.707	117.06
468.927	121.06
469.146	117.06
469.365	106.06
469.585	110.06
469.804	114.06
470.023	109.06
470.243	121.06
470.462	115.06
470.681	116.06
470.901	103.06
471.12	123.06
471.339	120.06
471.558	121.06
471.777	100.06
471.997	95.06
472.216	113.06
472.435	96.06
472.654	90.06
472.873	105.06
473.092	115.06
473.311	96.06
473.53	99.06
473.749	107.06
473.968	108.06
474.187	106.06
474.406	109.06
474.625	101.06
474.844	113.06
475.063	106.06
475.282	103.06
475.501	100.06
475.72	115.06
475.939	101.06
476.158	119.06
476.377	113.06
476.596	111.06
476.814	102.06
477.033	98.06
477.252	114.06
477.471	100.06
477.69	97.06
477.908	118.06
478.127	107.06
478.346	110.06
478.564	111.06
478.783	101.06
479.002	122.06
479.22	108.06
479.439	111.06
479.658	101.06
479.876	104.06
480.095	107.06
480.313	102.06
480.532	101.06
480.751	113.06
480.969	92.06
481.188	79.06
481.406	94.06
481.624	89.06
481.843	87.06
482.061	86.06
482.28	100.06
482.498	100.06
482.717	112.06
482.935	119.06
483.153	106.06
483.372	115.06
483.59	125.06
483.808	111.06
484.027	103.06
484.245	97.06
484.463	108.06
484.681	119.06
484.9	111.06
485.118	101.06
485.336	101.06
485.554	88.06
485.772	105.06
485.99	99.06
486.209	94.06
486.427	106.06
486.645	103.06
486.863	108.06
487.081	123.06
487.299	106.06
487.517	106.06
487.735	121.06
487.953	126.06
488.171	143.06
488.389	131.06
488.607	128.06
488.825	115.06
489.043	110.06
489.261	125.06
489.479	107.06
489.696	108.06
489.914	116.06
490.132	127.06
490.35	120.06
490.568	122.06
490.786	135.06
491.003	124.06
491.221	127.06
491.439	132.06
491.657	142.06
491.874	153.06
492.092	149.06
492.31	165.06
492.527	149.06
492.745	136.06
492.963	148.06
493.18	134.06
493.398	135.06
493.615	137.06
493.833	121.06
494.05	119.06
494.268	134.06
494.485	115.06
494.703	137.06
494.92	124.06
495.138	113.06
495.355	131.06
495.573	135.06
495.79	111.06
496.008	124.06
496.225	118.06
496.442	115.06
496.66	134.06
496.877	125.06
497.094	111.06
497.312	108.06
497.529	116.06
497.746	106.06
497.963	106.06
498.181	109.06
498.398	113.06
498.615	116.06
498.832	106.06
499.049	99.06
499.267	87.06
499.484	105.06
499.701	98.06
499.918	110.06
500.135	122.06
500.352	122.06
500.569	106.06
500.786	120.06
501.003	104.06
501.22	106.06
501.437	110.06
501.654	114.06
501.871	113.06
502.088	119.06
502.305	95.06
502.522	99.06
502.739	95.06
502.956	107.06
503.172	99.06
503.389	117.06
503.606	115.06
503.823	120.06
504.04	94.06
504.256	102.06
504.473	82.06
504.69	87.06
504.907	79.06
505.123	107.06
505.34	101.06
505.557	105.06
505.773	107.06
505.99	108.06
506.207	94.06
506.423	95.06
506.64	99.06
506.856	104.06
507.073	108.06
507.289	91.06
507.506	108.06
507.722	99.06
507.939	102.06
508.155	88.06
508.372	96.06
508.588	103.06
508.805	105.06
509.021	93.06
509.238	110.06
509.454	98.06
509.67	90.06
509.887	122.06
510.103	77.06
510.319	87.06
510.536	76.06
510.752	82.06
510.968	86.06
511.184	75.06
511.401	81.06
511.617	93.06
511.833	90.06
512.049	93.06
512.265	98.06
512.481	86.06
512.698	85.06
512.914	92.06
513.13	85.06
513.346	99.06
513.562	91.06
