Data from Zn(NO3)2Standard.Agarose3%.GreenCap.LampEnergy10E.O_HRD10591_15-09-10-952.txt Node
Date: Mon Jul 22 15:09:10 EDT 2019
User: cochatt
Spectrometer: HR+D1059
Trigger mode: 1
Integration Time (sec): 1.000000E-1
Scans to average: 1
Electric dark correction enabled: true
Nonlinearity correction enabled: false
Boxcar width: 0
XAxis mode: Wavelengths
Number of Pixels in Spectrum: 2048
>>>>>Begin Spectral Data<<<<<
223.165	-21.44
223.4	-21.44
223.635	-21.44
223.869	-14.44
224.104	-26.44
224.338	-14.44
224.573	1.56
224.808	-14.44
225.042	4.56
225.277	-15.44
225.511	1.56
225.746	4.56
225.98	7.56
226.215	3.56
226.449	19.56
226.683	6.56
226.918	31.56
227.152	25.56
227.387	37.56
227.621	37.56
227.856	43.56
228.09	49.56
228.324	57.56
228.559	61.56
228.793	50.56
229.027	72.56
229.262	62.56
229.496	67.56
229.73	73.56
229.964	68.56
230.199	68.56
230.433	86.56
230.667	70.56
230.901	80.56
231.136	74.56
231.37	86.56
231.604	85.56
231.838	69.56
232.072	78.56
232.306	92.56
232.541	100.56
232.775	79.56
233.009	91.56
233.243	98.56
233.477	76.56
233.711	66.56
233.945	75.56
234.179	86.56
234.413	74.56
234.647	84.56
234.881	78.56
235.115	78.56
235.349	82.56
235.583	83.56
235.817	82.56
236.051	70.56
236.285	69.56
236.519	87.56
236.753	86.56
236.987	72.56
237.221	85.56
237.455	87.56
237.689	71.56
237.922	79.56
238.156	77.56
238.39	73.56
238.624	71.56
238.858	91.56
239.091	78.56
239.325	79.56
239.559	77.56
239.793	86.56
240.027	74.56
240.26	71.56
240.494	82.56
240.728	81.56
240.961	81.56
241.195	91.56
241.429	84.56
241.662	69.56
241.896	86.56
242.13	77.56
242.363	68.56
242.597	67.56
242.83	67.56
243.064	86.56
243.298	69.56
243.531	70.56
243.765	71.56
243.998	76.56
244.232	70.56
244.465	72.56
244.699	86.56
244.932	83.56
245.166	74.56
245.399	83.56
245.633	61.56
245.866	86.56
246.099	88.56
246.333	73.56
246.566	74.56
246.8	87.56
247.033	95.56
247.266	87.56
247.5	77.56
247.733	78.56
247.966	72.56
248.2	75.56
248.433	81.56
248.666	84.56
248.899	82.56
249.133	86.56
249.366	89.56
249.599	74.56
249.832	72.56
250.066	95.56
250.299	82.56
250.532	76.56
250.765	92.56
250.998	89.56
251.231	70.56
251.465	75.56
251.698	80.56
251.931	71.56
252.164	88.56
252.397	80.56
252.63	70.56
252.863	74.56
253.096	76.56
253.329	97.56
253.562	79.56
253.795	83.56
254.028	83.56
254.261	93.56
254.494	81.56
254.727	89.56
254.96	82.56
255.193	87.56
255.426	83.56
255.659	80.56
255.892	78.56
256.124	80.56
256.357	83.56
256.59	89.56
256.823	65.56
257.056	74.56
257.289	84.56
257.521	85.56
257.754	71.56
257.987	73.56
258.22	79.56
258.452	90.56
258.685	80.56
258.918	81.56
259.151	83.56
259.383	78.56
259.616	75.56
259.849	82.56
260.081	82.56
260.314	89.56
260.547	80.56
260.779	81.56
261.012	81.56
261.244	78.56
261.477	76.56
261.71	81.56
261.942	71.56
262.175	83.56
262.407	75.56
262.64	76.56
262.872	79.56
263.105	101.56
263.337	86.56
263.57	77.56
263.802	85.56
264.035	86.56
264.267	93.56
264.499	79.56
264.732	87.56
264.964	97.56
265.197	77.56
265.429	84.56
265.661	78.56
265.894	90.56
266.126	86.56
266.358	76.56
266.591	84.56
266.823	90.56
267.055	95.56
267.287	84.56
267.52	74.56
267.752	91.56
267.984	83.56
268.216	87.56
268.448	84.56
268.681	83.56
268.913	89.56
269.145	84.56
269.377	96.56
269.609	97.56
269.841	103.56
270.073	88.56
270.306	91.56
270.538	91.56
270.77	88.56
271.002	93.56
271.234	66.56
271.466	95.56
271.698	76.56
271.93	89.56
272.162	89.56
272.394	78.56
272.626	76.56
272.858	88.56
273.09	93.56
273.322	85.56
273.553	82.56
273.785	87.56
274.017	86.56
274.249	77.56
274.481	72.56
274.713	85.56
274.945	92.56
275.176	94.56
275.408	94.56
275.64	89.56
275.872	84.56
276.104	88.56
276.335	90.56
276.567	75.56
276.799	103.56
277.031	83.56
277.262	93.56
277.494	76.56
277.726	77.56
277.957	82.56
278.189	84.56
278.421	68.56
278.652	70.56
278.884	86.56
279.115	76.56
279.347	83.56
279.579	87.56
279.81	75.56
280.042	94.56
280.273	82.56
280.505	75.56
280.736	89.56
280.968	76.56
281.199	82.56
281.431	94.56
281.662	94.56
281.894	79.56
282.125	86.56
282.356	87.56
282.588	90.56
282.819	85.56
283.051	83.56
283.282	65.56
283.513	74.56
283.745	89.56
283.976	64.56
284.207	82.56
284.439	98.56
284.67	85.56
284.901	74.56
285.132	101.56
285.364	81.56
285.595	89.56
285.826	82.56
286.057	87.56
286.288	86.56
286.52	85.56
286.751	79.56
286.982	74.56
287.213	86.56
287.444	100.56
287.675	79.56
287.906	93.56
288.138	89.56
288.369	108.56
288.6	94.56
288.831	81.56
289.062	70.56
289.293	83.56
289.524	85.56
289.755	96.56
289.986	84.56
290.217	93.56
290.448	91.56
290.679	83.56
290.91	93.56
291.141	93.56
291.371	98.56
291.602	85.56
291.833	77.56
292.064	83.56
292.295	81.56
292.526	99.56
292.757	86.56
292.987	95.56
293.218	73.56
293.449	85.56
293.68	75.56
293.91	90.56
294.141	70.56
294.372	91.56
294.603	78.56
294.833	90.56
295.064	88.56
295.295	78.56
295.525	82.56
295.756	80.56
295.987	81.56
296.217	75.56
296.448	90.56
296.679	93.56
296.909	90.56
297.14	88.56
297.37	89.56
297.601	87.56
297.831	82.56
298.062	99.56
298.292	86.56
298.523	82.56
298.753	95.56
298.984	86.56
299.214	82.56
299.445	89.56
299.675	92.56
299.905	81.56
300.136	77.56
300.366	92.56
300.597	85.56
300.827	83.56
301.057	89.56
301.288	90.56
301.518	80.56
301.748	84.56
301.979	81.56
302.209	82.56
302.439	69.56
302.669	96.56
302.9	82.56
303.13	88.56
303.36	79.56
303.59	74.56
303.82	85.56
304.051	81.56
304.281	83.56
304.511	79.56
304.741	92.56
304.971	89.56
305.201	87.56
305.431	93.56
305.661	97.56
305.891	80.56
306.121	94.56
306.352	82.56
306.582	89.56
306.812	85.56
307.042	99.56
307.272	91.56
307.502	85.56
307.731	81.56
307.961	80.56
308.191	91.56
308.421	91.56
308.651	79.56
308.881	86.56
309.111	91.56
309.341	73.56
309.571	82.56
309.8	85.56
310.03	85.56
310.26	85.56
310.49	82.56
310.72	81.56
310.949	93.56
311.179	72.56
311.409	83.56
311.639	86.56
311.868	86.56
312.098	92.56
312.328	91.56
312.557	91.56
312.787	108.56
313.017	91.56
313.246	83.56
313.476	81.56
313.706	82.56
313.935	76.56
314.165	79.56
314.394	81.56
314.624	72.56
314.853	78.56
315.083	93.56
315.312	97.56
315.542	78.56
315.771	95.56
316.001	103.56
316.23	77.56
316.46	75.56
316.689	83.56
316.919	72.56
317.148	87.56
317.377	75.56
317.607	101.56
317.836	97.56
318.065	89.56
318.295	87.56
318.524	85.56
318.753	86.56
318.983	90.56
319.212	90.56
319.441	82.56
319.67	84.56
319.9	90.56
320.129	86.56
320.358	84.56
320.587	87.56
320.816	87.56
321.046	76.56
321.275	94.56
321.504	83.56
321.733	90.56
321.962	85.56
322.191	79.56
322.42	87.56
322.649	97.56
322.878	87.56
323.108	85.56
323.337	93.56
323.566	86.56
323.795	73.56
324.024	92.56
324.253	81.56
324.482	73.56
324.71	79.56
324.939	91.56
325.168	76.56
325.397	88.56
325.626	91.56
325.855	92.56
326.084	88.56
326.313	86.56
326.542	103.56
326.77	80.56
326.999	83.56
327.228	85.56
327.457	73.56
327.686	86.56
327.914	82.56
328.143	91.56
328.372	87.56
328.6	95.56
328.829	76.56
329.058	76.56
329.287	83.56
329.515	73.56
329.744	82.56
329.972	79.56
330.201	86.56
330.43	84.56
330.658	83.56
330.887	81.56
331.115	94.56
331.344	85.56
331.572	92.56
331.801	98.56
332.03	83.56
332.258	86.56
332.486	74.56
332.715	76.56
332.943	73.56
333.172	90.56
333.4	91.56
333.629	85.56
333.857	87.56
334.085	79.56
334.314	98.56
334.542	103.56
334.771	105.56
334.999	94.56
335.227	78.56
335.455	91.56
335.684	88.56
335.912	90.56
336.14	92.56
336.369	96.56
336.597	86.56
336.825	87.56
337.053	96.56
337.281	90.56
337.51	76.56
337.738	82.56
337.966	81.56
338.194	85.56
338.422	102.56
338.65	93.56
338.878	80.56
339.106	83.56
339.334	83.56
339.562	93.56
339.79	80.56
340.018	78.56
340.246	81.56
340.474	82.56
340.702	86.56
340.93	84.56
341.158	80.56
341.386	93.56
341.614	94.56
341.842	90.56
342.07	91.56
342.298	77.56
342.526	85.56
342.754	83.56
342.981	73.56
343.209	91.56
343.437	99.56
343.665	79.56
343.893	95.56
344.12	93.56
344.348	75.56
344.576	86.56
344.804	96.56
345.031	85.56
345.259	82.56
345.487	83.56
345.714	87.56
345.942	92.56
346.17	83.56
346.397	82.56
346.625	94.56
346.853	89.56
347.08	74.56
347.308	90.56
347.535	85.56
347.763	83.56
347.99	74.56
348.218	86.56
348.445	94.56
348.673	76.56
348.9	84.56
349.128	79.56
349.355	76.56
349.583	84.56
349.81	80.56
350.037	80.56
350.265	82.56
350.492	78.56
350.72	92.56
350.947	97.56
351.174	83.56
351.402	86.56
351.629	89.56
351.856	86.56
352.083	81.56
352.311	87.56
352.538	80.56
352.765	85.56
352.992	98.56
353.22	82.56
353.447	87.56
353.674	81.56
353.901	88.56
354.128	78.56
354.355	96.56
354.583	92.56
354.81	98.56
355.037	87.56
355.264	78.56
355.491	80.56
355.718	90.56
355.945	81.56
356.172	89.56
356.399	91.56
356.626	89.56
356.853	75.56
357.08	95.56
357.307	89.56
357.534	85.56
357.761	101.56
357.988	91.56
358.215	76.56
358.441	92.56
358.668	99.56
358.895	83.56
359.122	77.56
359.349	87.56
359.576	83.56
359.802	91.56
360.029	86.56
360.256	80.56
360.483	91.56
360.709	84.56
360.936	91.56
361.163	95.56
361.39	92.56
361.616	68.56
361.843	90.56
362.07	90.56
362.296	78.56
362.523	85.56
362.749	85.56
362.976	79.56
363.203	76.56
363.429	89.56
363.656	77.56
363.882	78.56
364.109	76.56
364.335	94.56
364.562	95.56
364.788	88.56
365.015	80.56
365.241	72.56
365.468	93.56
365.694	85.56
365.92	74.56
366.147	70.56
366.373	72.56
366.599	77.56
366.826	75.56
367.052	89.56
367.278	86.56
367.505	88.56
367.731	86.56
367.957	99.56
368.184	77.56
368.41	85.56
368.636	89.56
368.862	87.56
369.089	86.56
369.315	77.56
369.541	82.56
369.767	74.56
369.993	80.56
370.219	87.56
370.445	78.56
370.672	77.56
370.898	92.56
371.124	87.56
371.35	93.56
371.576	84.56
371.802	89.56
372.028	82.56
372.254	89.56
372.48	95.56
372.706	96.56
372.932	97.56
373.158	93.56
373.384	76.56
373.61	90.56
373.835	94.56
374.061	86.56
374.287	84.56
374.513	87.56
374.739	83.56
374.965	84.56
375.191	88.56
375.416	91.56
375.642	89.56
375.868	84.56
376.094	74.56
376.319	82.56
376.545	67.56
376.771	82.56
376.997	93.56
377.222	89.56
377.448	82.56
377.674	78.56
377.899	87.56
378.125	87.56
378.35	91.56
378.576	76.56
378.802	94.56
379.027	90.56
379.253	89.56
379.478	103.56
379.704	93.56
379.929	107.56
380.155	78.56
380.38	97.56
380.606	84.56
380.831	98.56
381.057	107.56
381.282	87.56
381.507	74.56
381.733	100.56
381.958	97.56
382.184	85.56
382.409	75.56
382.634	91.56
382.86	88.56
383.085	97.56
383.31	88.56
383.535	104.56
383.761	94.56
383.986	85.56
384.211	86.56
384.436	91.56
384.662	84.56
384.887	85.56
385.112	86.56
385.337	98.56
385.562	101.56
385.787	97.56
386.013	93.56
386.238	104.56
386.463	89.56
386.688	92.56
386.913	88.56
387.138	88.56
387.363	75.56
387.588	81.56
387.813	103.56
388.038	95.56
388.263	94.56
388.488	90.56
388.713	82.56
388.938	94.56
389.163	95.56
389.387	91.56
389.612	85.56
389.837	90.56
390.062	93.56
390.287	84.56
390.512	94.56
390.736	92.56
390.961	93.56
391.186	97.56
391.411	82.56
391.636	81.56
391.86	93.56
392.085	86.56
392.31	103.56
392.534	103.56
392.759	86.56
392.984	95.56
393.208	96.56
393.433	87.56
393.658	97.56
393.882	83.56
394.107	101.56
394.331	102.56
394.556	82.56
394.78	93.56
395.005	90.56
395.229	114.56
395.454	96.56
395.678	105.56
395.903	107.56
396.127	86.56
396.352	89.56
396.576	83.56
396.801	92.56
397.025	87.56
397.249	103.56
397.474	91.56
397.698	90.56
397.922	92.56
398.147	92.56
398.371	97.56
398.595	91.56
398.82	88.56
399.044	84.56
399.268	95.56
399.492	78.56
399.717	96.56
399.941	95.56
400.165	87.56
400.389	97.56
400.613	98.56
400.837	96.56
401.062	101.56
401.286	100.56
401.51	100.56
401.734	84.56
401.958	96.56
402.182	97.56
402.406	88.56
402.63	84.56
402.854	97.56
403.078	100.56
403.302	98.56
403.526	102.56
403.75	112.56
403.974	101.56
404.198	99.56
404.422	90.56
404.645	94.56
404.869	83.56
405.093	107.56
405.317	95.56
405.541	94.56
405.765	98.56
405.988	112.56
406.212	100.56
406.436	105.56
406.66	101.56
406.883	90.56
407.107	84.56
407.331	91.56
407.555	108.56
407.778	94.56
408.002	95.56
408.226	115.56
408.449	94.56
408.673	99.56
408.896	102.56
409.12	107.56
409.344	123.56
409.567	110.56
409.791	115.56
410.014	104.56
410.238	103.56
410.461	104.56
410.685	100.56
410.908	93.56
411.132	106.56
411.355	100.56
411.578	98.56
411.802	110.56
412.025	98.56
412.249	98.56
412.472	91.56
412.695	95.56
412.919	103.56
413.142	107.56
413.365	117.56
413.589	108.56
413.812	88.56
414.035	107.56
414.258	106.56
414.482	103.56
414.705	95.56
414.928	93.56
415.151	98.56
415.374	94.56
415.597	106.56
415.821	90.56
416.044	100.56
416.267	110.56
416.49	115.56
416.713	93.56
416.936	112.56
417.159	110.56
417.382	102.56
417.605	92.56
417.828	103.56
418.051	98.56
418.274	109.56
418.497	99.56
418.72	97.56
418.943	104.56
419.166	115.56
419.389	105.56
419.611	115.56
419.834	108.56
420.057	99.56
420.28	101.56
420.503	96.56
420.726	90.56
420.948	100.56
421.171	103.56
421.394	121.56
421.617	117.56
421.839	102.56
422.062	101.56
422.285	101.56
422.507	114.56
422.73	101.56
422.953	113.56
423.175	107.56
423.398	99.56
423.621	111.56
423.843	111.56
424.066	101.56
424.288	98.56
424.511	101.56
424.733	109.56
424.956	95.56
425.178	104.56
425.401	110.56
425.623	118.56
425.846	131.56
426.068	105.56
426.291	100.56
426.513	117.56
426.735	108.56
426.958	117.56
427.18	94.56
427.402	108.56
427.625	111.56
427.847	100.56
428.069	106.56
428.292	106.56
428.514	111.56
428.736	104.56
428.958	113.56
429.181	113.56
429.403	110.56
429.625	92.56
429.847	103.56
430.069	106.56
430.292	108.56
430.514	104.56
430.736	96.56
430.958	116.56
431.18	107.56
431.402	97.56
431.624	96.56
431.846	114.56
432.068	77.56
432.29	84.56
432.512	106.56
432.734	102.56
432.956	108.56
433.178	117.56
433.4	117.56
433.622	116.56
433.844	108.56
434.066	97.56
434.287	107.56
434.509	85.56
434.731	99.56
434.953	90.56
435.175	94.56
435.397	96.56
435.618	102.56
435.84	111.56
436.062	117.56
436.284	103.56
436.505	108.56
436.727	108.56
436.949	102.56
437.17	103.56
437.392	114.56
437.614	79.56
437.835	90.56
438.057	90.56
438.278	103.56
438.5	104.56
438.721	105.56
438.943	113.56
439.165	104.56
439.386	109.56
439.608	129.56
439.829	107.56
440.05	124.56
440.272	113.56
440.493	100.56
440.715	97.56
440.936	97.56
441.158	108.56
441.379	114.56
441.6	105.56
441.822	106.56
442.043	99.56
442.264	96.56
442.486	94.56
442.707	104.56
442.928	108.56
443.149	108.56
443.371	115.56
443.592	103.56
443.813	123.56
444.034	115.56
444.255	97.56
444.476	96.56
444.698	119.56
444.919	101.56
445.14	245.56
445.361	189.56
445.582	113.56
445.803	110.56
446.024	114.56
446.245	112.56
446.466	114.56
446.687	114.56
446.908	107.56
447.129	124.56
447.35	111.56
447.571	100.56
447.792	122.56
448.013	113.56
448.234	109.56
448.455	97.56
448.675	120.56
448.896	111.56
449.117	113.56
449.338	109.56
449.559	109.56
449.779	126.56
450	107.56
450.221	105.56
450.442	116.56
450.662	115.56
450.883	103.56
451.104	110.56
451.324	116.56
451.545	101.56
451.766	104.56
451.986	104.56
452.207	94.56
452.428	98.56
452.648	94.56
452.869	91.56
453.089	97.56
453.31	100.56
453.53	97.56
453.751	88.56
453.971	93.56
454.192	88.56
454.412	95.56
454.633	109.56
454.853	107.56
455.073	124.56
455.294	108.56
455.514	107.56
455.734	102.56
455.955	98.56
456.175	89.56
456.395	93.56
456.616	101.56
456.836	84.56
457.056	111.56
457.276	87.56
457.497	104.56
457.717	85.56
457.937	108.56
458.157	102.56
458.377	86.56
458.598	84.56
458.818	113.56
459.038	109.56
459.258	80.56
459.478	103.56
459.698	93.56
459.918	97.56
460.138	88.56
460.358	90.56
460.578	108.56
460.798	99.56
461.018	101.56
461.238	92.56
461.458	95.56
461.678	97.56
461.898	83.56
462.118	93.56
462.338	97.56
462.558	107.56
462.777	99.56
462.997	100.56
463.217	96.56
463.437	90.56
463.657	94.56
463.876	97.56
464.096	105.56
464.316	91.56
464.536	106.56
464.755	109.56
464.975	103.56
465.195	107.56
465.414	93.56
465.634	99.56
465.854	109.56
466.073	118.56
466.293	93.56
466.512	93.56
466.732	103.56
466.951	109.56
467.171	109.56
467.391	117.56
467.61	99.56
467.829	105.56
468.049	122.56
468.268	107.56
468.488	108.56
468.707	106.56
468.927	110.56
469.146	109.56
469.365	123.56
469.585	114.56
469.804	121.56
470.023	102.56
470.243	97.56
470.462	102.56
470.681	119.56
470.901	123.56
471.12	114.56
471.339	111.56
471.558	122.56
471.777	117.56
471.997	106.56
472.216	117.56
472.435	92.56
472.654	100.56
472.873	79.56
473.092	97.56
473.311	95.56
473.53	98.56
473.749	123.56
473.968	109.56
474.187	115.56
474.406	110.56
474.625	109.56
474.844	118.56
475.063	108.56
475.282	91.56
475.501	80.56
475.72	122.56
475.939	113.56
476.158	121.56
476.377	115.56
476.596	99.56
476.814	109.56
477.033	97.56
477.252	98.56
477.471	106.56
477.69	100.56
477.908	110.56
478.127	110.56
478.346	107.56
478.564	103.56
478.783	101.56
479.002	115.56
479.22	116.56
479.439	113.56
479.658	92.56
479.876	103.56
480.095	122.56
480.313	99.56
480.532	98.56
480.751	100.56
480.969	82.56
481.188	85.56
481.406	85.56
481.624	103.56
481.843	86.56
482.061	84.56
482.28	105.56
482.498	115.56
482.717	109.56
482.935	95.56
483.153	97.56
483.372	115.56
483.59	122.56
483.808	110.56
484.027	124.56
484.245	111.56
484.463	110.56
484.681	123.56
484.9	97.56
485.118	109.56
485.336	115.56
485.554	111.56
485.772	95.56
485.99	92.56
486.209	97.56
486.427	104.56
486.645	94.56
486.863	110.56
487.081	95.56
487.299	122.56
487.517	119.56
487.735	123.56
487.953	127.56
488.171	136.56
488.389	123.56
488.607	109.56
488.825	107.56
489.043	105.56
489.261	113.56
489.479	108.56
489.696	121.56
489.914	104.56
490.132	115.56
490.35	115.56
490.568	121.56
490.786	134.56
491.003	122.56
491.221	125.56
491.439	137.56
491.657	148.56
491.874	144.56
492.092	155.56
492.31	153.56
492.527	146.56
492.745	129.56
492.963	139.56
493.18	137.56
493.398	145.56
493.615	141.56
493.833	125.56
494.05	137.56
494.268	115.56
494.485	143.56
494.703	124.56
494.92	115.56
495.138	137.56
495.355	142.56
495.573	127.56
495.79	123.56
496.008	138.56
496.225	121.56
496.442	122.56
496.66	133.56
496.877	134.56
497.094	121.56
497.312	126.56
497.529	133.56
497.746	110.56
497.963	108.56
498.181	119.56
498.398	108.56
498.615	105.56
498.832	95.56
499.049	95.56
499.267	119.56
499.484	102.56
499.701	101.56
499.918	127.56
500.135	114.56
500.352	95.56
500.569	112.56
500.786	126.56
501.003	118.56
501.22	118.56
501.437	107.56
501.654	94.56
501.871	113.56
502.088	111.56
502.305	113.56
502.522	120.56
502.739	104.56
502.956	107.56
503.172	113.56
503.389	131.56
503.606	98.56
503.823	101.56
504.04	107.56
504.256	86.56
504.473	109.56
504.69	111.56
504.907	108.56
505.123	109.56
505.34	118.56
505.557	113.56
505.773	99.56
505.99	106.56
506.207	112.56
506.423	105.56
506.64	107.56
506.856	110.56
507.073	107.56
507.289	128.56
507.506	105.56
507.722	107.56
507.939	95.56
508.155	91.56
508.372	103.56
508.588	104.56
508.805	106.56
509.021	99.56
509.238	94.56
509.454	105.56
509.67	88.56
509.887	101.56
510.103	99.56
510.319	83.56
510.536	93.56
510.752	108.56
510.968	87.56
511.184	99.56
511.401	88.56
511.617	93.56
511.833	85.56
512.049	86.56
512.265	100.56
512.481	103.56
512.698	102.56
512.914	103.56
513.13	95.56
513.346	85.56
513.562	91.56
513.778	92.56
513.994	98.56
