Data from Zn(NO3)2Standard.Agarose3%.GreenCap.LampEnergy10E.O_HRD10591_15-08-54-952.txt Node
Date: Mon Jul 22 15:08:54 EDT 2019
User: cochatt
Spectrometer: HR+D1059
Trigger mode: 1
Integration Time (sec): 1.000000E-1
Scans to average: 1
Electric dark correction enabled: true
Nonlinearity correction enabled: false
Boxcar width: 0
XAxis mode: Wavelengths
Number of Pixels in Spectrum: 2048
>>>>>Begin Spectral Data<<<<<
223.165	-9.31
223.4	-9.31
223.635	-9.31
223.869	-7.31
224.104	-15.31
224.338	-10.31
224.573	-18.31
224.808	-18.31
225.042	-11.31
225.277	-16.31
225.511	-3.31
225.746	3.69
225.98	15.69
226.215	10.69
226.449	3.69
226.683	15.69
226.918	18.69
227.152	41.69
227.387	37.69
227.621	40.69
227.856	35.69
228.09	51.69
228.324	42.69
228.559	50.69
228.793	64.69
229.027	51.69
229.262	44.69
229.496	64.69
229.73	65.69
229.964	66.69
230.199	85.69
230.433	70.69
230.667	63.69
230.901	69.69
231.136	72.69
231.37	68.69
231.604	79.69
231.838	74.69
232.072	61.69
232.306	86.69
232.541	78.69
232.775	81.69
233.009	76.69
233.243	73.69
233.477	75.69
233.711	87.69
233.945	91.69
234.179	87.69
234.413	86.69
234.647	88.69
234.881	70.69
235.115	73.69
235.349	83.69
235.583	75.69
235.817	89.69
236.051	75.69
236.285	74.69
236.519	77.69
236.753	83.69
236.987	75.69
237.221	72.69
237.455	80.69
237.689	70.69
237.922	77.69
238.156	70.69
238.39	78.69
238.624	73.69
238.858	75.69
239.091	81.69
239.325	82.69
239.559	82.69
239.793	68.69
240.027	66.69
240.26	61.69
240.494	65.69
240.728	76.69
240.961	81.69
241.195	87.69
241.429	87.69
241.662	76.69
241.896	75.69
242.13	75.69
242.363	76.69
242.597	88.69
242.83	86.69
243.064	88.69
243.298	62.69
243.531	79.69
243.765	78.69
243.998	88.69
244.232	73.69
244.465	66.69
244.699	76.69
244.932	87.69
245.166	75.69
245.399	77.69
245.633	75.69
245.866	65.69
246.099	79.69
246.333	78.69
246.566	64.69
246.8	75.69
247.033	71.69
247.266	72.69
247.5	78.69
247.733	75.69
247.966	90.69
248.2	81.69
248.433	73.69
248.666	75.69
248.899	67.69
249.133	64.69
249.366	70.69
249.599	76.69
249.832	88.69
250.066	71.69
250.299	82.69
250.532	64.69
250.765	78.69
250.998	81.69
251.231	82.69
251.465	69.69
251.698	66.69
251.931	73.69
252.164	70.69
252.397	71.69
252.63	67.69
252.863	71.69
253.096	84.69
253.329	83.69
253.562	73.69
253.795	67.69
254.028	88.69
254.261	91.69
254.494	77.69
254.727	90.69
254.96	79.69
255.193	81.69
255.426	82.69
255.659	77.69
255.892	82.69
256.124	68.69
256.357	82.69
256.59	76.69
256.823	82.69
257.056	79.69
257.289	68.69
257.521	68.69
257.754	81.69
257.987	80.69
258.22	80.69
258.452	79.69
258.685	70.69
258.918	84.69
259.151	91.69
259.383	83.69
259.616	87.69
259.849	90.69
260.081	78.69
260.314	91.69
260.547	82.69
260.779	76.69
261.012	73.69
261.244	80.69
261.477	68.69
261.71	75.69
261.942	79.69
262.175	72.69
262.407	81.69
262.64	82.69
262.872	92.69
263.105	67.69
263.337	95.69
263.57	85.69
263.802	86.69
264.035	88.69
264.267	77.69
264.499	67.69
264.732	75.69
264.964	86.69
265.197	81.69
265.429	91.69
265.661	79.69
265.894	84.69
266.126	69.69
266.358	88.69
266.591	89.69
266.823	87.69
267.055	93.69
267.287	83.69
267.52	80.69
267.752	89.69
267.984	88.69
268.216	85.69
268.448	92.69
268.681	95.69
268.913	83.69
269.145	86.69
269.377	80.69
269.609	98.69
269.841	75.69
270.073	86.69
270.306	76.69
270.538	86.69
270.77	76.69
271.002	81.69
271.234	85.69
271.466	78.69
271.698	82.69
271.93	69.69
272.162	69.69
272.394	86.69
272.626	85.69
272.858	82.69
273.09	96.69
273.322	85.69
273.553	86.69
273.785	79.69
274.017	82.69
274.249	88.69
274.481	93.69
274.713	80.69
274.945	78.69
275.176	85.69
275.408	80.69
275.64	84.69
275.872	75.69
276.104	83.69
276.335	67.69
276.567	92.69
276.799	83.69
277.031	92.69
277.262	103.69
277.494	81.69
277.726	78.69
277.957	72.69
278.189	80.69
278.421	69.69
278.652	83.69
278.884	83.69
279.115	67.69
279.347	91.69
279.579	85.69
279.81	73.69
280.042	80.69
280.273	88.69
280.505	75.69
280.736	91.69
280.968	78.69
281.199	83.69
281.431	83.69
281.662	86.69
281.894	97.69
282.125	75.69
282.356	76.69
282.588	55.69
282.819	85.69
283.051	84.69
283.282	73.69
283.513	81.69
283.745	80.69
283.976	79.69
284.207	78.69
284.439	83.69
284.67	88.69
284.901	78.69
285.132	76.69
285.364	96.69
285.595	83.69
285.826	81.69
286.057	81.69
286.288	76.69
286.52	86.69
286.751	68.69
286.982	91.69
287.213	73.69
287.444	87.69
287.675	73.69
287.906	85.69
288.138	69.69
288.369	72.69
288.6	77.69
288.831	83.69
289.062	88.69
289.293	83.69
289.524	79.69
289.755	79.69
289.986	81.69
290.217	80.69
290.448	87.69
290.679	75.69
290.91	86.69
291.141	85.69
291.371	70.69
291.602	83.69
291.833	78.69
292.064	92.69
292.295	66.69
292.526	87.69
292.757	83.69
292.987	79.69
293.218	89.69
293.449	78.69
293.68	75.69
293.91	83.69
294.141	83.69
294.372	87.69
294.603	94.69
294.833	83.69
295.064	83.69
295.295	80.69
295.525	83.69
295.756	82.69
295.987	89.69
296.217	92.69
296.448	75.69
296.679	88.69
296.909	83.69
297.14	74.69
297.37	85.69
297.601	88.69
297.831	70.69
298.062	80.69
298.292	86.69
298.523	84.69
298.753	86.69
298.984	80.69
299.214	83.69
299.445	83.69
299.675	81.69
299.905	80.69
300.136	84.69
300.366	72.69
300.597	74.69
300.827	80.69
301.057	78.69
301.288	83.69
301.518	80.69
301.748	83.69
301.979	77.69
302.209	73.69
302.439	91.69
302.669	88.69
302.9	75.69
303.13	76.69
303.36	70.69
303.59	76.69
303.82	96.69
304.051	82.69
304.281	85.69
304.511	79.69
304.741	96.69
304.971	68.69
305.201	76.69
305.431	72.69
305.661	86.69
305.891	91.69
306.121	73.69
306.352	92.69
306.582	91.69
306.812	96.69
307.042	69.69
307.272	78.69
307.502	87.69
307.731	92.69
307.961	99.69
308.191	91.69
308.421	83.69
308.651	103.69
308.881	79.69
309.111	83.69
309.341	95.69
309.571	83.69
309.8	91.69
310.03	85.69
310.26	77.69
310.49	82.69
310.72	94.69
310.949	84.69
311.179	87.69
311.409	84.69
311.639	85.69
311.868	68.69
312.098	92.69
312.328	83.69
312.557	71.69
312.787	87.69
313.017	70.69
313.246	77.69
313.476	81.69
313.706	81.69
313.935	80.69
314.165	71.69
314.394	81.69
314.624	92.69
314.853	79.69
315.083	81.69
315.312	71.69
315.542	77.69
315.771	88.69
316.001	81.69
316.23	76.69
316.46	83.69
316.689	79.69
316.919	85.69
317.148	74.69
317.377	83.69
317.607	76.69
317.836	80.69
318.065	84.69
318.295	88.69
318.524	79.69
318.753	67.69
318.983	74.69
319.212	91.69
319.441	90.69
319.67	82.69
319.9	87.69
320.129	80.69
320.358	80.69
320.587	80.69
320.816	85.69
321.046	83.69
321.275	77.69
321.504	67.69
321.733	81.69
321.962	84.69
322.191	76.69
322.42	81.69
322.649	97.69
322.878	87.69
323.108	85.69
323.337	76.69
323.566	90.69
323.795	94.69
324.024	76.69
324.253	91.69
324.482	77.69
324.71	89.69
324.939	102.69
325.168	85.69
325.397	82.69
325.626	88.69
325.855	67.69
326.084	70.69
326.313	80.69
326.542	76.69
326.77	106.69
326.999	75.69
327.228	81.69
327.457	80.69
327.686	83.69
327.914	79.69
328.143	89.69
328.372	71.69
328.6	76.69
328.829	90.69
329.058	82.69
329.287	67.69
329.515	73.69
329.744	83.69
329.972	79.69
330.201	92.69
330.43	95.69
330.658	76.69
330.887	90.69
331.115	77.69
331.344	67.69
331.572	83.69
331.801	82.69
332.03	90.69
332.258	83.69
332.486	88.69
332.715	66.69
332.943	78.69
333.172	87.69
333.4	96.69
333.629	81.69
333.857	76.69
334.085	74.69
334.314	75.69
334.542	96.69
334.771	90.69
334.999	85.69
335.227	84.69
335.455	77.69
335.684	90.69
335.912	80.69
336.14	77.69
336.369	76.69
336.597	85.69
336.825	76.69
337.053	76.69
337.281	84.69
337.51	96.69
337.738	96.69
337.966	75.69
338.194	89.69
338.422	76.69
338.65	81.69
338.878	77.69
339.106	82.69
339.334	75.69
339.562	81.69
339.79	93.69
340.018	76.69
340.246	90.69
340.474	81.69
340.702	84.69
340.93	88.69
341.158	89.69
341.386	85.69
341.614	86.69
341.842	94.69
342.07	70.69
342.298	88.69
342.526	76.69
342.754	82.69
342.981	90.69
343.209	78.69
343.437	90.69
343.665	88.69
343.893	90.69
344.12	81.69
344.348	75.69
344.576	73.69
344.804	85.69
345.031	73.69
345.259	88.69
345.487	92.69
345.714	84.69
345.942	77.69
346.17	89.69
346.397	79.69
346.625	83.69
346.853	94.69
347.08	87.69
347.308	92.69
347.535	87.69
347.763	73.69
347.99	90.69
348.218	85.69
348.445	80.69
348.673	81.69
348.9	96.69
349.128	89.69
349.355	76.69
349.583	84.69
349.81	86.69
350.037	81.69
350.265	81.69
350.492	70.69
350.72	80.69
350.947	73.69
351.174	76.69
351.402	74.69
351.629	80.69
351.856	79.69
352.083	81.69
352.311	83.69
352.538	84.69
352.765	87.69
352.992	84.69
353.22	87.69
353.447	76.69
353.674	85.69
353.901	81.69
354.128	82.69
354.355	96.69
354.583	89.69
354.81	77.69
355.037	80.69
355.264	92.69
355.491	81.69
355.718	87.69
355.945	72.69
356.172	77.69
356.399	72.69
356.626	71.69
356.853	85.69
357.08	84.69
357.307	81.69
357.534	69.69
357.761	70.69
357.988	92.69
358.215	84.69
358.441	66.69
358.668	86.69
358.895	77.69
359.122	91.69
359.349	85.69
359.576	78.69
359.802	63.69
360.029	82.69
360.256	86.69
360.483	77.69
360.709	73.69
360.936	80.69
361.163	92.69
361.39	79.69
361.616	74.69
361.843	90.69
362.07	76.69
362.296	93.69
362.523	78.69
362.749	71.69
362.976	94.69
363.203	81.69
363.429	84.69
363.656	84.69
363.882	86.69
364.109	94.69
364.335	78.69
364.562	79.69
364.788	83.69
365.015	82.69
365.241	90.69
365.468	66.69
365.694	82.69
365.92	88.69
366.147	84.69
366.373	81.69
366.599	90.69
366.826	84.69
367.052	86.69
367.278	82.69
367.505	91.69
367.731	80.69
367.957	74.69
368.184	67.69
368.41	72.69
368.636	85.69
368.862	84.69
369.089	80.69
369.315	74.69
369.541	88.69
369.767	89.69
369.993	77.69
370.219	88.69
370.445	85.69
370.672	81.69
370.898	84.69
371.124	76.69
371.35	107.69
371.576	68.69
371.802	86.69
372.028	94.69
372.254	81.69
372.48	88.69
372.706	87.69
372.932	90.69
373.158	99.69
373.384	90.69
373.61	76.69
373.835	79.69
374.061	83.69
374.287	81.69
374.513	81.69
374.739	83.69
374.965	85.69
375.191	90.69
375.416	89.69
375.642	86.69
375.868	103.69
376.094	87.69
376.319	89.69
376.545	80.69
376.771	99.69
376.997	84.69
377.222	90.69
377.448	92.69
377.674	83.69
377.899	74.69
378.125	95.69
378.35	87.69
378.576	93.69
378.802	86.69
379.027	71.69
379.253	84.69
379.478	95.69
379.704	74.69
379.929	83.69
380.155	83.69
380.38	82.69
380.606	88.69
380.831	94.69
381.057	92.69
381.282	93.69
381.507	87.69
381.733	86.69
381.958	88.69
382.184	84.69
382.409	89.69
382.634	89.69
382.86	96.69
383.085	93.69
383.31	90.69
383.535	97.69
383.761	88.69
383.986	68.69
384.211	68.69
384.436	87.69
384.662	82.69
384.887	60.69
385.112	88.69
385.337	83.69
385.562	80.69
385.787	69.69
386.013	85.69
386.238	87.69
386.463	100.69
386.688	91.69
386.913	84.69
387.138	87.69
387.363	63.69
387.588	95.69
387.813	89.69
388.038	100.69
388.263	91.69
388.488	84.69
388.713	99.69
388.938	84.69
389.163	93.69
389.387	81.69
389.612	85.69
389.837	81.69
390.062	69.69
390.287	88.69
390.512	83.69
390.736	99.69
390.961	91.69
391.186	97.69
391.411	90.69
391.636	94.69
391.86	90.69
392.085	88.69
392.31	87.69
392.534	80.69
392.759	95.69
392.984	71.69
393.208	104.69
393.433	100.69
393.658	93.69
393.882	92.69
394.107	86.69
394.331	84.69
394.556	95.69
394.78	104.69
395.005	84.69
395.229	82.69
395.454	88.69
395.678	70.69
395.903	99.69
396.127	95.69
396.352	97.69
396.576	83.69
396.801	99.69
397.025	90.69
397.249	82.69
397.474	92.69
397.698	88.69
397.922	85.69
398.147	83.69
398.371	87.69
398.595	82.69
398.82	93.69
399.044	99.69
399.268	73.69
399.492	97.69
399.717	77.69
399.941	89.69
400.165	97.69
400.389	99.69
400.613	87.69
400.837	91.69
401.062	88.69
401.286	95.69
401.51	108.69
401.734	104.69
401.958	84.69
402.182	79.69
402.406	97.69
402.63	83.69
402.854	89.69
403.078	96.69
403.302	84.69
403.526	83.69
403.75	100.69
403.974	95.69
404.198	88.69
404.422	91.69
404.645	97.69
404.869	107.69
405.093	101.69
405.317	97.69
405.541	88.69
405.765	93.69
405.988	106.69
406.212	102.69
406.436	90.69
406.66	102.69
406.883	103.69
407.107	100.69
407.331	97.69
407.555	90.69
407.778	105.69
408.002	103.69
408.226	102.69
408.449	108.69
408.673	109.69
408.896	112.69
409.12	90.69
409.344	88.69
409.567	102.69
409.791	95.69
410.014	97.69
410.238	105.69
410.461	98.69
410.685	97.69
410.908	99.69
411.132	93.69
411.355	103.69
411.578	103.69
411.802	93.69
412.025	102.69
412.249	101.69
412.472	109.69
412.695	92.69
412.919	88.69
413.142	104.69
413.365	105.69
413.589	85.69
413.812	72.69
414.035	106.69
414.258	100.69
414.482	95.69
414.705	95.69
414.928	95.69
415.151	107.69
415.374	105.69
415.597	92.69
415.821	94.69
416.044	99.69
416.267	107.69
416.49	105.69
416.713	81.69
416.936	92.69
417.159	95.69
417.382	106.69
417.605	93.69
417.828	88.69
418.051	113.69
418.274	112.69
418.497	99.69
418.72	102.69
418.943	80.69
419.166	118.69
419.389	106.69
419.611	102.69
419.834	106.69
420.057	108.69
420.28	105.69
420.503	90.69
420.726	104.69
420.948	114.69
421.171	99.69
421.394	92.69
421.617	93.69
421.839	101.69
422.062	112.69
422.285	89.69
422.507	90.69
422.73	93.69
422.953	100.69
423.175	105.69
423.398	100.69
423.621	107.69
423.843	88.69
424.066	110.69
424.288	100.69
424.511	117.69
424.733	114.69
424.956	114.69
425.178	112.69
425.401	105.69
425.623	111.69
425.846	101.69
426.068	105.69
426.291	104.69
426.513	102.69
426.735	97.69
426.958	111.69
427.18	105.69
427.402	109.69
427.625	102.69
427.847	117.69
428.069	116.69
428.292	97.69
428.514	94.69
428.736	109.69
428.958	96.69
429.181	115.69
429.403	106.69
429.625	115.69
429.847	106.69
430.069	103.69
430.292	110.69
430.514	104.69
430.736	109.69
430.958	104.69
431.18	110.69
431.402	108.69
431.624	94.69
431.846	97.69
432.068	94.69
432.29	95.69
432.512	96.69
432.734	104.69
432.956	113.69
433.178	108.69
433.4	108.69
433.622	116.69
433.844	100.69
434.066	94.69
434.287	88.69
434.509	85.69
434.731	86.69
434.953	89.69
435.175	93.69
435.397	99.69
435.618	116.69
435.84	86.69
436.062	82.69
436.284	104.69
436.505	116.69
436.727	117.69
436.949	114.69
437.17	106.69
437.392	96.69
437.614	103.69
437.835	83.69
438.057	100.69
438.278	99.69
438.5	93.69
438.721	105.69
438.943	105.69
439.165	105.69
439.386	104.69
439.608	107.69
439.829	104.69
440.05	109.69
440.272	113.69
440.493	111.69
440.715	116.69
440.936	97.69
441.158	95.69
441.379	99.69
441.6	111.69
441.822	106.69
442.043	108.69
442.264	114.69
442.486	101.69
442.707	88.69
442.928	116.69
443.149	101.69
443.371	130.69
443.592	113.69
443.813	99.69
444.034	91.69
444.255	115.69
444.476	104.69
444.698	99.69
444.919	119.69
445.14	255.69
445.361	169.69
445.582	109.69
445.803	102.69
446.024	116.69
446.245	121.69
446.466	133.69
446.687	117.69
446.908	117.69
447.129	120.69
447.35	111.69
447.571	118.69
447.792	113.69
448.013	108.69
448.234	107.69
448.455	111.69
448.675	106.69
448.896	95.69
449.117	107.69
449.338	88.69
449.559	109.69
449.779	114.69
450	112.69
450.221	116.69
450.442	108.69
450.662	95.69
450.883	107.69
451.104	107.69
451.324	91.69
451.545	95.69
451.766	111.69
451.986	114.69
452.207	107.69
452.428	96.69
452.648	83.69
452.869	105.69
453.089	104.69
453.31	99.69
453.53	94.69
453.751	89.69
453.971	81.69
454.192	90.69
454.412	95.69
454.633	91.69
454.853	97.69
455.073	96.69
455.294	100.69
455.514	107.69
455.734	96.69
455.955	93.69
456.175	99.69
456.395	111.69
456.616	93.69
456.836	97.69
457.056	90.69
457.276	83.69
457.497	84.69
457.717	100.69
457.937	89.69
458.157	93.69
458.377	99.69
458.598	85.69
458.818	92.69
459.038	89.69
459.258	77.69
459.478	87.69
459.698	97.69
459.918	92.69
460.138	94.69
460.358	91.69
460.578	97.69
460.798	105.69
461.018	103.69
461.238	93.69
461.458	99.69
461.678	96.69
461.898	99.69
462.118	95.69
462.338	103.69
462.558	99.69
462.777	91.69
462.997	89.69
463.217	101.69
463.437	84.69
463.657	93.69
463.876	93.69
464.096	85.69
464.316	89.69
464.536	108.69
464.755	101.69
464.975	101.69
465.195	105.69
465.414	91.69
465.634	92.69
465.854	92.69
466.073	102.69
466.293	105.69
466.512	89.69
466.732	91.69
466.951	107.69
467.171	96.69
467.391	77.69
467.61	117.69
467.829	115.69
468.049	107.69
468.268	107.69
468.488	100.69
468.707	101.69
468.927	118.69
469.146	95.69
469.365	111.69
469.585	123.69
469.804	97.69
470.023	127.69
470.243	124.69
470.462	125.69
470.681	114.69
470.901	98.69
471.12	117.69
471.339	121.69
471.558	106.69
471.777	118.69
471.997	101.69
472.216	121.69
472.435	92.69
472.654	96.69
472.873	95.69
473.092	94.69
473.311	107.69
473.53	113.69
473.749	116.69
473.968	104.69
474.187	99.69
474.406	106.69
474.625	94.69
474.844	111.69
475.063	95.69
475.282	112.69
475.501	109.69
475.72	111.69
475.939	110.69
476.158	99.69
476.377	103.69
476.596	100.69
476.814	116.69
477.033	89.69
477.252	96.69
477.471	111.69
477.69	128.69
477.908	118.69
478.127	99.69
478.346	98.69
478.564	86.69
478.783	102.69
479.002	114.69
479.22	113.69
479.439	118.69
479.658	109.69
479.876	86.69
480.095	99.69
480.313	114.69
480.532	95.69
480.751	102.69
480.969	94.69
481.188	89.69
481.406	91.69
481.624	92.69
481.843	91.69
482.061	98.69
482.28	103.69
482.498	75.69
482.717	76.69
482.935	113.69
483.153	112.69
483.372	125.69
483.59	118.69
483.808	119.69
484.027	109.69
484.245	88.69
484.463	97.69
484.681	124.69
484.9	98.69
485.118	108.69
485.336	96.69
485.554	94.69
485.772	88.69
485.99	99.69
486.209	93.69
486.427	93.69
486.645	106.69
486.863	100.69
487.081	108.69
487.299	100.69
487.517	114.69
487.735	105.69
487.953	129.69
488.171	121.69
488.389	117.69
488.607	108.69
488.825	125.69
489.043	101.69
489.261	100.69
489.479	94.69
489.696	119.69
489.914	102.69
490.132	112.69
490.35	121.69
490.568	120.69
490.786	123.69
491.003	107.69
491.221	116.69
491.439	127.69
491.657	133.69
491.874	151.69
492.092	148.69
492.31	150.69
492.527	158.69
492.745	132.69
492.963	135.69
493.18	124.69
493.398	137.69
493.615	127.69
493.833	115.69
494.05	125.69
494.268	126.69
494.485	113.69
494.703	136.69
494.92	136.69
495.138	125.69
495.355	127.69
495.573	127.69
495.79	133.69
496.008	122.69
496.225	125.69
496.442	125.69
496.66	120.69
496.877	143.69
497.094	135.69
497.312	121.69
497.529	131.69
497.746	112.69
497.963	113.69
498.181	102.69
498.398	107.69
498.615	99.69
498.832	78.69
499.049	97.69
499.267	113.69
499.484	105.69
499.701	102.69
499.918	106.69
500.135	100.69
500.352	116.69
500.569	113.69
500.786	114.69
501.003	105.69
501.22	113.69
501.437	99.69
501.654	113.69
501.871	98.69
502.088	98.69
502.305	112.69
502.522	113.69
502.739	112.69
502.956	121.69
503.172	117.69
503.389	102.69
503.606	89.69
503.823	91.69
504.04	96.69
504.256	105.69
504.473	113.69
504.69	115.69
504.907	104.69
505.123	113.69
505.34	104.69
505.557	104.69
505.773	96.69
505.99	89.69
506.207	104.69
506.423	114.69
506.64	114.69
506.856	94.69
507.073	94.69
507.289	103.69
507.506	81.69
507.722	108.69
507.939	102.69
508.155	91.69
508.372	100.69
508.588	108.69
508.805	88.69
509.021	85.69
509.238	104.69
509.454	102.69
509.67	97.69
509.887	95.69
510.103	108.69
510.319	99.69
510.536	86.69
510.752	87.69
510.968	96.69
511.184	87.69
511.401	82.69
511.617	88.69
511.833	74.69
512.049	82.69
512.265	80.69
512.481	96.69
512.698	91.69
512.914	90.69
513.13	93.69
513.346	94.69
513.562	84.69
513.778	94.69
513.994	75.69
514.21	89.69
514.426	100.69
514.642	91.69
514.858	78.69
515.074	82.69
