Data from Zn(NO3)2Standard.Agarose3%.GreenCap.LampEnergy10E.O_HRD10591_15-08-20-948.txt Node
Date: Mon Jul 22 15:08:20 EDT 2019
User: cochatt
Spectrometer: HR+D1059
Trigger mode: 1
Integration Time (sec): 1.000000E-1
Scans to average: 1
Electric dark correction enabled: true
Nonlinearity correction enabled: false
Boxcar width: 0
XAxis mode: Wavelengths
Number of Pixels in Spectrum: 2048
>>>>>Begin Spectral Data<<<<<
223.165	-10.06
223.4	-10.06
223.635	-10.06
223.869	-16.06
224.104	-14.06
224.338	-14.06
224.573	-17.06
224.808	-14.06
225.042	-13.06
225.277	4.94
225.511	-2.06
225.746	1.94
225.98	-6.06
226.215	5.94
226.449	8.94
226.683	14.94
226.918	38.94
227.152	30.94
227.387	36.94
227.621	54.94
227.856	63.94
228.09	55.94
228.324	45.94
228.559	46.94
228.793	59.94
229.027	63.94
229.262	73.94
229.496	70.94
229.73	78.94
229.964	68.94
230.199	57.94
230.433	72.94
230.667	59.94
230.901	85.94
231.136	57.94
231.37	51.94
231.604	69.94
231.838	68.94
232.072	66.94
232.306	85.94
232.541	72.94
232.775	85.94
233.009	81.94
233.243	83.94
233.477	71.94
233.711	75.94
233.945	79.94
234.179	79.94
234.413	75.94
234.647	87.94
234.881	77.94
235.115	75.94
235.349	81.94
235.583	83.94
235.817	70.94
236.051	78.94
236.285	71.94
236.519	66.94
236.753	75.94
236.987	75.94
237.221	84.94
237.455	78.94
237.689	73.94
237.922	71.94
238.156	80.94
238.39	67.94
238.624	58.94
238.858	77.94
239.091	89.94
239.325	63.94
239.559	74.94
239.793	66.94
240.027	71.94
240.26	68.94
240.494	73.94
240.728	70.94
240.961	61.94
241.195	70.94
241.429	51.94
241.662	72.94
241.896	73.94
242.13	80.94
242.363	70.94
242.597	70.94
242.83	66.94
243.064	76.94
243.298	67.94
243.531	73.94
243.765	89.94
243.998	77.94
244.232	72.94
244.465	74.94
244.699	78.94
244.932	69.94
245.166	63.94
245.399	89.94
245.633	67.94
245.866	73.94
246.099	81.94
246.333	76.94
246.566	74.94
246.8	66.94
247.033	70.94
247.266	78.94
247.5	72.94
247.733	68.94
247.966	77.94
248.2	84.94
248.433	79.94
248.666	72.94
248.899	71.94
249.133	73.94
249.366	85.94
249.599	70.94
249.832	67.94
250.066	62.94
250.299	77.94
250.532	68.94
250.765	79.94
250.998	80.94
251.231	67.94
251.465	75.94
251.698	75.94
251.931	69.94
252.164	91.94
252.397	71.94
252.63	83.94
252.863	69.94
253.096	71.94
253.329	75.94
253.562	74.94
253.795	81.94
254.028	77.94
254.261	69.94
254.494	88.94
254.727	88.94
254.96	81.94
255.193	80.94
255.426	83.94
255.659	80.94
255.892	75.94
256.124	74.94
256.357	88.94
256.59	72.94
256.823	92.94
257.056	73.94
257.289	86.94
257.521	87.94
257.754	83.94
257.987	81.94
258.22	84.94
258.452	90.94
258.685	97.94
258.918	75.94
259.151	73.94
259.383	78.94
259.616	71.94
259.849	78.94
260.081	75.94
260.314	88.94
260.547	86.94
260.779	81.94
261.012	98.94
261.244	80.94
261.477	82.94
261.71	72.94
261.942	87.94
262.175	92.94
262.407	77.94
262.64	74.94
262.872	81.94
263.105	84.94
263.337	85.94
263.57	83.94
263.802	78.94
264.035	73.94
264.267	72.94
264.499	69.94
264.732	74.94
264.964	89.94
265.197	90.94
265.429	86.94
265.661	74.94
265.894	68.94
266.126	86.94
266.358	85.94
266.591	83.94
266.823	71.94
267.055	77.94
267.287	88.94
267.52	76.94
267.752	80.94
267.984	74.94
268.216	88.94
268.448	81.94
268.681	73.94
268.913	69.94
269.145	88.94
269.377	80.94
269.609	75.94
269.841	86.94
270.073	71.94
270.306	83.94
270.538	73.94
270.77	71.94
271.002	82.94
271.234	81.94
271.466	91.94
271.698	71.94
271.93	75.94
272.162	74.94
272.394	81.94
272.626	83.94
272.858	86.94
273.09	85.94
273.322	88.94
273.553	81.94
273.785	71.94
274.017	85.94
274.249	83.94
274.481	84.94
274.713	88.94
274.945	90.94
275.176	79.94
275.408	81.94
275.64	88.94
275.872	75.94
276.104	84.94
276.335	82.94
276.567	72.94
276.799	75.94
277.031	91.94
277.262	70.94
277.494	80.94
277.726	78.94
277.957	62.94
278.189	80.94
278.421	80.94
278.652	85.94
278.884	79.94
279.115	72.94
279.347	64.94
279.579	87.94
279.81	79.94
280.042	99.94
280.273	71.94
280.505	94.94
280.736	79.94
280.968	80.94
281.199	84.94
281.431	83.94
281.662	75.94
281.894	74.94
282.125	83.94
282.356	97.94
282.588	82.94
282.819	79.94
283.051	87.94
283.282	66.94
283.513	79.94
283.745	81.94
283.976	74.94
284.207	71.94
284.439	85.94
284.67	84.94
284.901	79.94
285.132	75.94
285.364	74.94
285.595	83.94
285.826	73.94
286.057	78.94
286.288	77.94
286.52	95.94
286.751	94.94
286.982	78.94
287.213	86.94
287.444	74.94
287.675	78.94
287.906	77.94
288.138	71.94
288.369	74.94
288.6	103.94
288.831	73.94
289.062	74.94
289.293	65.94
289.524	83.94
289.755	86.94
289.986	85.94
290.217	79.94
290.448	87.94
290.679	77.94
290.91	88.94
291.141	81.94
291.371	84.94
291.602	79.94
291.833	85.94
292.064	76.94
292.295	69.94
292.526	79.94
292.757	66.94
292.987	76.94
293.218	79.94
293.449	91.94
293.68	76.94
293.91	91.94
294.141	81.94
294.372	87.94
294.603	95.94
294.833	70.94
295.064	74.94
295.295	97.94
295.525	89.94
295.756	83.94
295.987	78.94
296.217	83.94
296.448	82.94
296.679	84.94
296.909	93.94
297.14	83.94
297.37	81.94
297.601	88.94
297.831	103.94
298.062	83.94
298.292	80.94
298.523	74.94
298.753	85.94
298.984	84.94
299.214	85.94
299.445	81.94
299.675	94.94
299.905	89.94
300.136	77.94
300.366	75.94
300.597	92.94
300.827	69.94
301.057	73.94
301.288	68.94
301.518	95.94
301.748	81.94
301.979	80.94
302.209	83.94
302.439	71.94
302.669	82.94
302.9	90.94
303.13	78.94
303.36	84.94
303.59	94.94
303.82	88.94
304.051	77.94
304.281	91.94
304.511	85.94
304.741	77.94
304.971	88.94
305.201	85.94
305.431	93.94
305.661	74.94
305.891	82.94
306.121	73.94
306.352	79.94
306.582	83.94
306.812	92.94
307.042	80.94
307.272	70.94
307.502	83.94
307.731	82.94
307.961	102.94
308.191	76.94
308.421	81.94
308.651	91.94
308.881	78.94
309.111	82.94
309.341	68.94
309.571	88.94
309.8	81.94
310.03	92.94
310.26	93.94
310.49	66.94
310.72	72.94
310.949	75.94
311.179	71.94
311.409	78.94
311.639	83.94
311.868	96.94
312.098	80.94
312.328	88.94
312.557	66.94
312.787	68.94
313.017	71.94
313.246	84.94
313.476	87.94
313.706	81.94
313.935	101.94
314.165	71.94
314.394	92.94
314.624	75.94
314.853	90.94
315.083	89.94
315.312	79.94
315.542	83.94
315.771	96.94
316.001	91.94
316.23	86.94
316.46	79.94
316.689	85.94
316.919	72.94
317.148	73.94
317.377	79.94
317.607	85.94
317.836	79.94
318.065	82.94
318.295	75.94
318.524	75.94
318.753	73.94
318.983	98.94
319.212	99.94
319.441	88.94
319.67	78.94
319.9	68.94
320.129	69.94
320.358	78.94
320.587	82.94
320.816	100.94
321.046	76.94
321.275	81.94
321.504	94.94
321.733	87.94
321.962	82.94
322.191	79.94
322.42	90.94
322.649	82.94
322.878	73.94
323.108	81.94
323.337	80.94
323.566	93.94
323.795	75.94
324.024	66.94
324.253	82.94
324.482	81.94
324.71	84.94
324.939	74.94
325.168	68.94
325.397	96.94
325.626	98.94
325.855	100.94
326.084	86.94
326.313	85.94
326.542	87.94
326.77	96.94
326.999	79.94
327.228	75.94
327.457	84.94
327.686	73.94
327.914	84.94
328.143	85.94
328.372	81.94
328.6	86.94
328.829	89.94
329.058	104.94
329.287	73.94
329.515	79.94
329.744	87.94
329.972	79.94
330.201	81.94
330.43	90.94
330.658	80.94
330.887	79.94
331.115	73.94
331.344	91.94
331.572	91.94
331.801	82.94
332.03	84.94
332.258	61.94
332.486	83.94
332.715	78.94
332.943	81.94
333.172	75.94
333.4	77.94
333.629	83.94
333.857	76.94
334.085	79.94
334.314	88.94
334.542	94.94
334.771	80.94
334.999	86.94
335.227	76.94
335.455	85.94
335.684	78.94
335.912	80.94
336.14	70.94
336.369	75.94
336.597	89.94
336.825	75.94
337.053	74.94
337.281	79.94
337.51	78.94
337.738	78.94
337.966	92.94
338.194	82.94
338.422	88.94
338.65	87.94
338.878	85.94
339.106	71.94
339.334	74.94
339.562	68.94
339.79	67.94
340.018	85.94
340.246	84.94
340.474	81.94
340.702	80.94
340.93	82.94
341.158	82.94
341.386	98.94
341.614	97.94
341.842	71.94
342.07	98.94
342.298	77.94
342.526	78.94
342.754	85.94
342.981	84.94
343.209	78.94
343.437	91.94
343.665	82.94
343.893	80.94
344.12	78.94
344.348	81.94
344.576	79.94
344.804	87.94
345.031	65.94
345.259	66.94
345.487	73.94
345.714	75.94
345.942	72.94
346.17	91.94
346.397	80.94
346.625	82.94
346.853	94.94
347.08	86.94
347.308	83.94
347.535	72.94
347.763	65.94
347.99	81.94
348.218	93.94
348.445	85.94
348.673	96.94
348.9	80.94
349.128	89.94
349.355	77.94
349.583	92.94
349.81	68.94
350.037	83.94
350.265	78.94
350.492	95.94
350.72	88.94
350.947	83.94
351.174	88.94
351.402	81.94
351.629	73.94
351.856	84.94
352.083	83.94
352.311	88.94
352.538	89.94
352.765	84.94
352.992	82.94
353.22	82.94
353.447	93.94
353.674	74.94
353.901	86.94
354.128	85.94
354.355	74.94
354.583	88.94
354.81	81.94
355.037	92.94
355.264	89.94
355.491	76.94
355.718	77.94
355.945	86.94
356.172	83.94
356.399	100.94
356.626	93.94
356.853	81.94
357.08	80.94
357.307	93.94
357.534	79.94
357.761	75.94
357.988	82.94
358.215	71.94
358.441	73.94
358.668	94.94
358.895	81.94
359.122	70.94
359.349	77.94
359.576	71.94
359.802	80.94
360.029	88.94
360.256	74.94
360.483	74.94
360.709	77.94
360.936	84.94
361.163	90.94
361.39	80.94
361.616	87.94
361.843	74.94
362.07	73.94
362.296	74.94
362.523	83.94
362.749	92.94
362.976	88.94
363.203	79.94
363.429	80.94
363.656	85.94
363.882	82.94
364.109	81.94
364.335	86.94
364.562	74.94
364.788	88.94
365.015	81.94
365.241	85.94
365.468	79.94
365.694	69.94
365.92	75.94
366.147	85.94
366.373	75.94
366.599	82.94
366.826	83.94
367.052	96.94
367.278	83.94
367.505	91.94
367.731	92.94
367.957	97.94
368.184	84.94
368.41	90.94
368.636	96.94
368.862	90.94
369.089	75.94
369.315	81.94
369.541	82.94
369.767	80.94
369.993	93.94
370.219	89.94
370.445	90.94
370.672	90.94
370.898	73.94
371.124	80.94
371.35	84.94
371.576	85.94
371.802	74.94
372.028	88.94
372.254	76.94
372.48	82.94
372.706	82.94
372.932	83.94
373.158	78.94
373.384	82.94
373.61	72.94
373.835	96.94
374.061	84.94
374.287	79.94
374.513	86.94
374.739	83.94
374.965	90.94
375.191	89.94
375.416	85.94
375.642	87.94
375.868	78.94
376.094	84.94
376.319	79.94
376.545	82.94
376.771	84.94
376.997	73.94
377.222	76.94
377.448	68.94
377.674	74.94
377.899	83.94
378.125	90.94
378.35	97.94
378.576	87.94
378.802	87.94
379.027	89.94
379.253	87.94
379.478	101.94
379.704	85.94
379.929	75.94
380.155	83.94
380.38	88.94
380.606	101.94
380.831	104.94
381.057	101.94
381.282	94.94
381.507	84.94
381.733	81.94
381.958	93.94
382.184	82.94
382.409	87.94
382.634	95.94
382.86	92.94
383.085	98.94
383.31	87.94
383.535	85.94
383.761	81.94
383.986	97.94
384.211	92.94
384.436	90.94
384.662	81.94
384.887	103.94
385.112	89.94
385.337	83.94
385.562	79.94
385.787	100.94
386.013	86.94
386.238	93.94
386.463	82.94
386.688	83.94
386.913	96.94
387.138	96.94
387.363	86.94
387.588	104.94
387.813	86.94
388.038	93.94
388.263	80.94
388.488	80.94
388.713	97.94
388.938	100.94
389.163	85.94
389.387	80.94
389.612	77.94
389.837	76.94
390.062	96.94
390.287	99.94
390.512	98.94
390.736	98.94
390.961	79.94
391.186	98.94
391.411	80.94
391.636	97.94
391.86	88.94
392.085	86.94
392.31	96.94
392.534	78.94
392.759	96.94
392.984	90.94
393.208	86.94
393.433	87.94
393.658	87.94
393.882	82.94
394.107	77.94
394.331	80.94
394.556	92.94
394.78	88.94
395.005	85.94
395.229	81.94
395.454	102.94
395.678	108.94
395.903	91.94
396.127	100.94
396.352	88.94
396.576	96.94
396.801	95.94
397.025	80.94
397.249	90.94
397.474	96.94
397.698	101.94
397.922	96.94
398.147	86.94
398.371	79.94
398.595	93.94
398.82	93.94
399.044	86.94
399.268	93.94
399.492	100.94
399.717	89.94
399.941	86.94
400.165	100.94
400.389	94.94
400.613	97.94
400.837	101.94
401.062	87.94
401.286	92.94
401.51	95.94
401.734	86.94
401.958	83.94
402.182	97.94
402.406	102.94
402.63	102.94
402.854	103.94
403.078	99.94
403.302	93.94
403.526	96.94
403.75	106.94
403.974	95.94
404.198	108.94
404.422	95.94
404.645	84.94
404.869	95.94
405.093	101.94
405.317	107.94
405.541	93.94
405.765	82.94
405.988	82.94
406.212	91.94
406.436	99.94
406.66	100.94
406.883	96.94
407.107	95.94
407.331	94.94
407.555	93.94
407.778	102.94
408.002	82.94
408.226	99.94
408.449	96.94
408.673	93.94
408.896	109.94
409.12	104.94
409.344	90.94
409.567	91.94
409.791	103.94
410.014	102.94
410.238	85.94
410.461	103.94
410.685	104.94
410.908	100.94
411.132	96.94
411.355	90.94
411.578	90.94
411.802	92.94
412.025	103.94
412.249	105.94
412.472	110.94
412.695	104.94
412.919	94.94
413.142	104.94
413.365	103.94
413.589	98.94
413.812	107.94
414.035	99.94
414.258	103.94
414.482	107.94
414.705	100.94
414.928	103.94
415.151	98.94
415.374	108.94
415.597	116.94
415.821	100.94
416.044	93.94
416.267	118.94
416.49	113.94
416.713	105.94
416.936	115.94
417.159	104.94
417.382	96.94
417.605	94.94
417.828	97.94
418.051	100.94
418.274	93.94
418.497	92.94
418.72	96.94
418.943	98.94
419.166	111.94
419.389	86.94
419.611	106.94
419.834	94.94
420.057	99.94
420.28	97.94
420.503	85.94
420.726	106.94
420.948	105.94
421.171	110.94
421.394	96.94
421.617	92.94
421.839	102.94
422.062	99.94
422.285	121.94
422.507	121.94
422.73	97.94
422.953	100.94
423.175	102.94
423.398	79.94
423.621	103.94
423.843	107.94
424.066	102.94
424.288	91.94
424.511	101.94
424.733	116.94
424.956	104.94
425.178	110.94
425.401	105.94
425.623	111.94
425.846	106.94
426.068	100.94
426.291	116.94
426.513	102.94
426.735	104.94
426.958	100.94
427.18	104.94
427.402	95.94
427.625	83.94
427.847	98.94
428.069	104.94
428.292	100.94
428.514	110.94
428.736	91.94
428.958	99.94
429.181	98.94
429.403	89.94
429.625	116.94
429.847	91.94
430.069	98.94
430.292	113.94
430.514	97.94
430.736	95.94
430.958	92.94
431.18	97.94
431.402	109.94
431.624	113.94
431.846	96.94
432.068	87.94
432.29	99.94
432.512	106.94
432.734	93.94
432.956	104.94
433.178	107.94
433.4	111.94
433.622	111.94
433.844	111.94
434.066	105.94
434.287	95.94
434.509	98.94
434.731	90.94
434.953	85.94
435.175	93.94
435.397	108.94
435.618	101.94
435.84	86.94
436.062	97.94
436.284	110.94
436.505	97.94
436.727	109.94
436.949	109.94
437.17	120.94
437.392	102.94
437.614	97.94
437.835	101.94
438.057	95.94
438.278	91.94
438.5	96.94
438.721	89.94
438.943	110.94
439.165	115.94
439.386	97.94
439.608	105.94
439.829	90.94
440.05	120.94
440.272	103.94
440.493	110.94
440.715	113.94
440.936	112.94
441.158	94.94
441.379	115.94
441.6	113.94
441.822	122.94
442.043	106.94
442.264	106.94
442.486	117.94
442.707	125.94
442.928	114.94
443.149	111.94
443.371	110.94
443.592	106.94
443.813	111.94
444.034	121.94
444.255	104.94
444.476	105.94
444.698	112.94
444.919	100.94
445.14	195.94
445.361	153.94
445.582	109.94
445.803	106.94
446.024	116.94
446.245	111.94
446.466	96.94
446.687	121.94
446.908	109.94
447.129	107.94
447.35	119.94
447.571	111.94
447.792	105.94
448.013	114.94
448.234	104.94
448.455	115.94
448.675	95.94
448.896	98.94
449.117	101.94
449.338	93.94
449.559	96.94
449.779	114.94
450	125.94
450.221	103.94
450.442	106.94
450.662	106.94
450.883	101.94
451.104	122.94
451.324	119.94
451.545	114.94
451.766	101.94
451.986	118.94
452.207	92.94
452.428	104.94
452.648	107.94
452.869	90.94
453.089	89.94
453.31	97.94
453.53	106.94
453.751	86.94
453.971	91.94
454.192	90.94
454.412	90.94
454.633	92.94
454.853	86.94
455.073	96.94
455.294	106.94
455.514	103.94
455.734	106.94
455.955	101.94
456.175	102.94
456.395	91.94
456.616	100.94
456.836	98.94
457.056	96.94
457.276	85.94
457.497	102.94
457.717	88.94
457.937	113.94
458.157	83.94
458.377	82.94
458.598	86.94
458.818	93.94
459.038	85.94
459.258	87.94
459.478	93.94
459.698	83.94
459.918	102.94
460.138	97.94
460.358	102.94
460.578	98.94
460.798	91.94
461.018	93.94
461.238	98.94
461.458	95.94
461.678	96.94
461.898	107.94
462.118	97.94
462.338	102.94
462.558	81.94
462.777	78.94
462.997	100.94
463.217	87.94
463.437	92.94
463.657	87.94
463.876	98.94
464.096	79.94
464.316	95.94
464.536	102.94
464.755	68.94
464.975	82.94
465.195	99.94
465.414	103.94
465.634	107.94
465.854	88.94
466.073	95.94
466.293	90.94
466.512	105.94
466.732	78.94
466.951	104.94
467.171	105.94
467.391	112.94
467.61	105.94
467.829	102.94
468.049	102.94
468.268	85.94
468.488	86.94
468.707	87.94
468.927	106.94
469.146	109.94
469.365	106.94
469.585	102.94
469.804	93.94
470.023	115.94
470.243	106.94
470.462	110.94
470.681	122.94
470.901	113.94
471.12	116.94
471.339	97.94
471.558	101.94
471.777	121.94
471.997	112.94
472.216	101.94
472.435	105.94
472.654	94.94
472.873	94.94
473.092	96.94
473.311	101.94
473.53	89.94
473.749	95.94
473.968	110.94
474.187	113.94
474.406	99.94
474.625	91.94
474.844	94.94
475.063	93.94
475.282	107.94
475.501	98.94
475.72	97.94
475.939	84.94
476.158	101.94
476.377	89.94
476.596	93.94
476.814	82.94
477.033	83.94
477.252	96.94
477.471	96.94
477.69	110.94
477.908	95.94
478.127	87.94
478.346	106.94
478.564	103.94
478.783	100.94
479.002	105.94
479.22	106.94
479.439	95.94
479.658	113.94
479.876	102.94
480.095	88.94
480.313	104.94
480.532	93.94
480.751	107.94
480.969	90.94
481.188	89.94
481.406	91.94
481.624	89.94
481.843	101.94
482.061	87.94
482.28	96.94
482.498	93.94
482.717	82.94
482.935	97.94
483.153	107.94
483.372	104.94
483.59	109.94
483.808	117.94
484.027	110.94
484.245	95.94
484.463	111.94
484.681	121.94
484.9	102.94
485.118	98.94
485.336	107.94
485.554	101.94
485.772	93.94
485.99	96.94
486.209	86.94
486.427	98.94
486.645	87.94
486.863	109.94
487.081	107.94
487.299	114.94
487.517	114.94
487.735	125.94
487.953	124.94
488.171	119.94
488.389	109.94
488.607	103.94
488.825	107.94
489.043	112.94
489.261	97.94
489.479	122.94
489.696	115.94
489.914	92.94
490.132	100.94
490.35	112.94
490.568	102.94
490.786	121.94
491.003	133.94
491.221	118.94
491.439	135.94
491.657	132.94
491.874	123.94
492.092	153.94
492.31	168.94
492.527	154.94
492.745	148.94
492.963	142.94
493.18	126.94
493.398	132.94
493.615	123.94
493.833	125.94
494.05	131.94
494.268	112.94
494.485	120.94
494.703	137.94
494.92	135.94
495.138	113.94
495.355	116.94
495.573	114.94
495.79	121.94
496.008	122.94
496.225	126.94
496.442	122.94
496.66	121.94
496.877	124.94
497.094	106.94
497.312	102.94
497.529	128.94
497.746	108.94
497.963	112.94
498.181	100.94
498.398	101.94
498.615	101.94
498.832	95.94
499.049	95.94
499.267	97.94
499.484	115.94
499.701	107.94
499.918	106.94
500.135	109.94
500.352	119.94
500.569	107.94
500.786	113.94
501.003	109.94
501.22	111.94
501.437	102.94
501.654	116.94
501.871	120.94
502.088	93.94
502.305	109.94
502.522	119.94
502.739	100.94
502.956	107.94
503.172	101.94
503.389	76.94
503.606	89.94
503.823	103.94
504.04	97.94
504.256	98.94
504.473	103.94
504.69	90.94
504.907	101.94
505.123	102.94
505.34	100.94
505.557	88.94
505.773	104.94
505.99	91.94
506.207	84.94
506.423	91.94
506.64	94.94
506.856	105.94
507.073	83.94
507.289	93.94
507.506	107.94
507.722	93.94
507.939	100.94
508.155	87.94
508.372	103.94
508.588	102.94
508.805	89.94
509.021	97.94
509.238	83.94
509.454	100.94
509.67	90.94
509.887	83.94
510.103	86.94
510.319	76.94
510.536	95.94
510.752	77.94
510.968	82.94
511.184	75.94
511.401	83.94
511.617	86.94
511.833	78.94
512.049	81.94
512.265	71.94
512.481	79.94
512.698	82.94
512.914	90.94
513.13	91.94
513.346	87.94
513.562	81.94
513.778	81.94
513.994	85.94
514.21	92.94
514.426	85.94
514.642	86.94
514.858	88.94
515.074	81.94
