Data from Zn(NO3)2Standard.Agarose3%.GreenCap.LampEnergy5.5.E.O_HRD10591_15-01-14-768.txt Node
Date: Mon Jul 22 15:01:14 EDT 2019
User: cochatt
Spectrometer: HR+D1059
Trigger mode: 1
Integration Time (sec): 1.000000E-1
Scans to average: 1
Electric dark correction enabled: true
Nonlinearity correction enabled: false
Boxcar width: 0
XAxis mode: Wavelengths
Number of Pixels in Spectrum: 2048
>>>>>Begin Spectral Data<<<<<
223.165	-23.19
223.4	-23.19
223.635	-23.19
223.869	-24.19
224.104	-14.19
224.338	-10.19
224.573	-15.19
224.808	-9.19
225.042	-20.19
225.277	-8.19
225.511	0.81
225.746	-2.19
225.98	19.81
226.215	11.81
226.449	7.81
226.683	20.81
226.918	27.81
227.152	37.81
227.387	26.81
227.621	43.81
227.856	36.81
228.09	39.81
228.324	59.81
228.559	48.81
228.793	54.81
229.027	62.81
229.262	65.81
229.496	69.81
229.73	65.81
229.964	47.81
230.199	73.81
230.433	87.81
230.667	84.81
230.901	77.81
231.136	74.81
231.37	78.81
231.604	79.81
231.838	74.81
232.072	85.81
232.306	81.81
232.541	86.81
232.775	84.81
233.009	91.81
233.243	79.81
233.477	99.81
233.711	68.81
233.945	81.81
234.179	73.81
234.413	85.81
234.647	75.81
234.881	86.81
235.115	85.81
235.349	76.81
235.583	86.81
235.817	80.81
236.051	79.81
236.285	74.81
236.519	87.81
236.753	88.81
236.987	82.81
237.221	77.81
237.455	71.81
237.689	74.81
237.922	87.81
238.156	69.81
238.39	61.81
238.624	80.81
238.858	82.81
239.091	79.81
239.325	66.81
239.559	83.81
239.793	101.81
240.027	83.81
240.26	86.81
240.494	84.81
240.728	66.81
240.961	81.81
241.195	69.81
241.429	80.81
241.662	87.81
241.896	78.81
242.13	88.81
242.363	70.81
242.597	68.81
242.83	80.81
243.064	80.81
243.298	69.81
243.531	90.81
243.765	73.81
243.998	81.81
244.232	77.81
244.465	98.81
244.699	86.81
244.932	76.81
245.166	81.81
245.399	69.81
245.633	96.81
245.866	77.81
246.099	72.81
246.333	80.81
246.566	76.81
246.8	80.81
247.033	82.81
247.266	78.81
247.5	65.81
247.733	65.81
247.966	62.81
248.2	68.81
248.433	76.81
248.666	85.81
248.899	69.81
249.133	73.81
249.366	79.81
249.599	80.81
249.832	74.81
250.066	65.81
250.299	61.81
250.532	82.81
250.765	79.81
250.998	86.81
251.231	84.81
251.465	70.81
251.698	80.81
251.931	83.81
252.164	86.81
252.397	85.81
252.63	93.81
252.863	77.81
253.096	74.81
253.329	94.81
253.562	82.81
253.795	76.81
254.028	74.81
254.261	84.81
254.494	71.81
254.727	87.81
254.96	85.81
255.193	79.81
255.426	85.81
255.659	80.81
255.892	85.81
256.124	80.81
256.357	79.81
256.59	72.81
256.823	80.81
257.056	79.81
257.289	84.81
257.521	82.81
257.754	82.81
257.987	77.81
258.22	81.81
258.452	70.81
258.685	70.81
258.918	79.81
259.151	73.81
259.383	93.81
259.616	78.81
259.849	72.81
260.081	94.81
260.314	76.81
260.547	76.81
260.779	81.81
261.012	69.81
261.244	78.81
261.477	86.81
261.71	83.81
261.942	73.81
262.175	88.81
262.407	78.81
262.64	83.81
262.872	78.81
263.105	91.81
263.337	86.81
263.57	81.81
263.802	79.81
264.035	94.81
264.267	87.81
264.499	75.81
264.732	78.81
264.964	83.81
265.197	86.81
265.429	91.81
265.661	75.81
265.894	81.81
266.126	82.81
266.358	91.81
266.591	85.81
266.823	79.81
267.055	94.81
267.287	79.81
267.52	83.81
267.752	89.81
267.984	84.81
268.216	65.81
268.448	80.81
268.681	88.81
268.913	90.81
269.145	86.81
269.377	88.81
269.609	86.81
269.841	74.81
270.073	89.81
270.306	93.81
270.538	90.81
270.77	84.81
271.002	85.81
271.234	96.81
271.466	93.81
271.698	77.81
271.93	75.81
272.162	96.81
272.394	72.81
272.626	79.81
272.858	93.81
273.09	85.81
273.322	78.81
273.553	88.81
273.785	89.81
274.017	79.81
274.249	88.81
274.481	81.81
274.713	89.81
274.945	89.81
275.176	88.81
275.408	85.81
275.64	89.81
275.872	82.81
276.104	95.81
276.335	87.81
276.567	84.81
276.799	81.81
277.031	75.81
277.262	84.81
277.494	74.81
277.726	98.81
277.957	87.81
278.189	87.81
278.421	81.81
278.652	78.81
278.884	79.81
279.115	78.81
279.347	77.81
279.579	88.81
279.81	84.81
280.042	96.81
280.273	66.81
280.505	83.81
280.736	90.81
280.968	90.81
281.199	80.81
281.431	101.81
281.662	82.81
281.894	89.81
282.125	75.81
282.356	92.81
282.588	90.81
282.819	97.81
283.051	86.81
283.282	90.81
283.513	75.81
283.745	78.81
283.976	82.81
284.207	78.81
284.439	83.81
284.67	82.81
284.901	70.81
285.132	75.81
285.364	95.81
285.595	76.81
285.826	72.81
286.057	77.81
286.288	85.81
286.52	66.81
286.751	93.81
286.982	78.81
287.213	76.81
287.444	87.81
287.675	90.81
287.906	90.81
288.138	80.81
288.369	90.81
288.6	96.81
288.831	83.81
289.062	77.81
289.293	79.81
289.524	80.81
289.755	78.81
289.986	76.81
290.217	82.81
290.448	80.81
290.679	71.81
290.91	85.81
291.141	85.81
291.371	93.81
291.602	79.81
291.833	77.81
292.064	85.81
292.295	81.81
292.526	85.81
292.757	93.81
292.987	91.81
293.218	87.81
293.449	98.81
293.68	88.81
293.91	85.81
294.141	91.81
294.372	84.81
294.603	83.81
294.833	86.81
295.064	84.81
295.295	94.81
295.525	98.81
295.756	90.81
295.987	93.81
296.217	76.81
296.448	79.81
296.679	83.81
296.909	81.81
297.14	87.81
297.37	87.81
297.601	102.81
297.831	77.81
298.062	91.81
298.292	84.81
298.523	85.81
298.753	88.81
298.984	85.81
299.214	86.81
299.445	90.81
299.675	99.81
299.905	83.81
300.136	72.81
300.366	77.81
300.597	86.81
300.827	77.81
301.057	80.81
301.288	85.81
301.518	93.81
301.748	89.81
301.979	89.81
302.209	85.81
302.439	82.81
302.669	83.81
302.9	84.81
303.13	83.81
303.36	102.81
303.59	75.81
303.82	89.81
304.051	79.81
304.281	86.81
304.511	97.81
304.741	94.81
304.971	92.81
305.201	90.81
305.431	89.81
305.661	97.81
305.891	95.81
306.121	79.81
306.352	74.81
306.582	84.81
306.812	93.81
307.042	82.81
307.272	87.81
307.502	85.81
307.731	89.81
307.961	78.81
308.191	80.81
308.421	90.81
308.651	87.81
308.881	99.81
309.111	87.81
309.341	78.81
309.571	77.81
309.8	94.81
310.03	91.81
310.26	91.81
310.49	89.81
310.72	91.81
310.949	92.81
311.179	83.81
311.409	87.81
311.639	98.81
311.868	86.81
312.098	90.81
312.328	80.81
312.557	96.81
312.787	82.81
313.017	82.81
313.246	85.81
313.476	98.81
313.706	79.81
313.935	81.81
314.165	89.81
314.394	83.81
314.624	83.81
314.853	89.81
315.083	87.81
315.312	76.81
315.542	97.81
315.771	89.81
316.001	88.81
316.23	86.81
316.46	99.81
316.689	83.81
316.919	94.81
317.148	88.81
317.377	93.81
317.607	81.81
317.836	83.81
318.065	89.81
318.295	89.81
318.524	91.81
318.753	88.81
318.983	82.81
319.212	88.81
319.441	78.81
319.67	96.81
319.9	74.81
320.129	82.81
320.358	108.81
320.587	84.81
320.816	78.81
321.046	89.81
321.275	89.81
321.504	79.81
321.733	84.81
321.962	92.81
322.191	88.81
322.42	82.81
322.649	85.81
322.878	95.81
323.108	95.81
323.337	86.81
323.566	92.81
323.795	99.81
324.024	80.81
324.253	84.81
324.482	87.81
324.71	82.81
324.939	73.81
325.168	85.81
325.397	82.81
325.626	88.81
325.855	83.81
326.084	74.81
326.313	87.81
326.542	92.81
326.77	91.81
326.999	77.81
327.228	84.81
327.457	90.81
327.686	85.81
327.914	75.81
328.143	67.81
328.372	89.81
328.6	88.81
328.829	96.81
329.058	83.81
329.287	80.81
329.515	84.81
329.744	90.81
329.972	70.81
330.201	77.81
330.43	88.81
330.658	94.81
330.887	79.81
331.115	73.81
331.344	88.81
331.572	78.81
331.801	88.81
332.03	81.81
332.258	91.81
332.486	86.81
332.715	83.81
332.943	84.81
333.172	76.81
333.4	96.81
333.629	79.81
333.857	97.81
334.085	84.81
334.314	82.81
334.542	76.81
334.771	75.81
334.999	83.81
335.227	76.81
335.455	90.81
335.684	87.81
335.912	90.81
336.14	82.81
336.369	95.81
336.597	85.81
336.825	97.81
337.053	83.81
337.281	77.81
337.51	83.81
337.738	90.81
337.966	85.81
338.194	87.81
338.422	98.81
338.65	87.81
338.878	80.81
339.106	103.81
339.334	87.81
339.562	85.81
339.79	88.81
340.018	87.81
340.246	78.81
340.474	87.81
340.702	92.81
340.93	91.81
341.158	79.81
341.386	83.81
341.614	99.81
341.842	95.81
342.07	78.81
342.298	79.81
342.526	89.81
342.754	74.81
342.981	97.81
343.209	93.81
343.437	100.81
343.665	83.81
343.893	71.81
344.12	86.81
344.348	90.81
344.576	80.81
344.804	92.81
345.031	76.81
345.259	97.81
345.487	86.81
345.714	87.81
345.942	99.81
346.17	88.81
346.397	101.81
346.625	80.81
346.853	90.81
347.08	77.81
347.308	65.81
347.535	100.81
347.763	87.81
347.99	74.81
348.218	85.81
348.445	87.81
348.673	79.81
348.9	89.81
349.128	87.81
349.355	78.81
349.583	77.81
349.81	92.81
350.037	92.81
350.265	76.81
350.492	98.81
350.72	86.81
350.947	92.81
351.174	82.81
351.402	86.81
351.629	76.81
351.856	85.81
352.083	78.81
352.311	75.81
352.538	88.81
352.765	67.81
352.992	97.81
353.22	76.81
353.447	85.81
353.674	76.81
353.901	73.81
354.128	93.81
354.355	87.81
354.583	91.81
354.81	80.81
355.037	91.81
355.264	91.81
355.491	74.81
355.718	85.81
355.945	103.81
356.172	84.81
356.399	93.81
356.626	79.81
356.853	91.81
357.08	88.81
357.307	82.81
357.534	87.81
357.761	76.81
357.988	77.81
358.215	87.81
358.441	92.81
358.668	89.81
358.895	76.81
359.122	80.81
359.349	73.81
359.576	85.81
359.802	76.81
360.029	80.81
360.256	93.81
360.483	85.81
360.709	76.81
360.936	79.81
361.163	63.81
361.39	92.81
361.616	83.81
361.843	93.81
362.07	74.81
362.296	74.81
362.523	87.81
362.749	93.81
362.976	88.81
363.203	84.81
363.429	95.81
363.656	93.81
363.882	72.81
364.109	89.81
364.335	88.81
364.562	76.81
364.788	83.81
365.015	86.81
365.241	75.81
365.468	89.81
365.694	83.81
365.92	81.81
366.147	101.81
366.373	85.81
366.599	83.81
366.826	91.81
367.052	77.81
367.278	86.81
367.505	88.81
367.731	84.81
367.957	86.81
368.184	98.81
368.41	88.81
368.636	93.81
368.862	80.81
369.089	68.81
369.315	85.81
369.541	88.81
369.767	88.81
369.993	81.81
370.219	84.81
370.445	84.81
370.672	90.81
370.898	92.81
371.124	86.81
371.35	81.81
371.576	90.81
371.802	94.81
372.028	75.81
372.254	89.81
372.48	83.81
372.706	88.81
372.932	85.81
373.158	93.81
373.384	87.81
373.61	75.81
373.835	76.81
374.061	85.81
374.287	94.81
374.513	80.81
374.739	95.81
374.965	84.81
375.191	92.81
375.416	78.81
375.642	89.81
375.868	88.81
376.094	76.81
376.319	78.81
376.545	66.81
376.771	70.81
376.997	83.81
377.222	85.81
377.448	77.81
377.674	73.81
377.899	84.81
378.125	71.81
378.35	83.81
378.576	74.81
378.802	93.81
379.027	92.81
379.253	77.81
379.478	77.81
379.704	75.81
379.929	89.81
380.155	79.81
380.38	85.81
380.606	81.81
380.831	87.81
381.057	89.81
381.282	80.81
381.507	89.81
381.733	87.81
381.958	82.81
382.184	83.81
382.409	82.81
382.634	80.81
382.86	82.81
383.085	90.81
383.31	94.81
383.535	84.81
383.761	82.81
383.986	79.81
384.211	88.81
384.436	88.81
384.662	88.81
384.887	82.81
385.112	71.81
385.337	81.81
385.562	81.81
385.787	85.81
386.013	104.81
386.238	83.81
386.463	99.81
386.688	88.81
386.913	93.81
387.138	94.81
387.363	80.81
387.588	87.81
387.813	91.81
388.038	91.81
388.263	87.81
388.488	90.81
388.713	97.81
388.938	82.81
389.163	75.81
389.387	87.81
389.612	105.81
389.837	90.81
390.062	99.81
390.287	82.81
390.512	81.81
390.736	85.81
390.961	86.81
391.186	75.81
391.411	96.81
391.636	91.81
391.86	86.81
392.085	84.81
392.31	82.81
392.534	98.81
392.759	99.81
392.984	89.81
393.208	80.81
393.433	90.81
393.658	80.81
393.882	80.81
394.107	81.81
394.331	90.81
394.556	71.81
394.78	85.81
395.005	93.81
395.229	85.81
395.454	83.81
395.678	83.81
395.903	74.81
396.127	86.81
396.352	69.81
396.576	87.81
396.801	90.81
397.025	84.81
397.249	81.81
397.474	88.81
397.698	85.81
397.922	89.81
398.147	90.81
398.371	84.81
398.595	86.81
398.82	76.81
399.044	77.81
399.268	103.81
399.492	85.81
399.717	86.81
399.941	72.81
400.165	76.81
400.389	92.81
400.613	79.81
400.837	82.81
401.062	79.81
401.286	93.81
401.51	91.81
401.734	94.81
401.958	90.81
402.182	92.81
402.406	100.81
402.63	79.81
402.854	87.81
403.078	86.81
403.302	81.81
403.526	82.81
403.75	86.81
403.974	81.81
404.198	87.81
404.422	80.81
404.645	88.81
404.869	83.81
405.093	101.81
405.317	81.81
405.541	94.81
405.765	67.81
405.988	86.81
406.212	91.81
406.436	83.81
406.66	80.81
406.883	92.81
407.107	89.81
407.331	79.81
407.555	74.81
407.778	84.81
408.002	73.81
408.226	93.81
408.449	98.81
408.673	70.81
408.896	99.81
409.12	77.81
409.344	99.81
409.567	92.81
409.791	92.81
410.014	87.81
410.238	81.81
410.461	99.81
410.685	93.81
410.908	88.81
411.132	104.81
411.355	88.81
411.578	81.81
411.802	82.81
412.025	67.81
412.249	80.81
412.472	80.81
412.695	85.81
412.919	59.81
413.142	84.81
413.365	91.81
413.589	81.81
413.812	82.81
414.035	90.81
414.258	89.81
414.482	86.81
414.705	97.81
414.928	88.81
415.151	92.81
415.374	97.81
415.597	98.81
415.821	89.81
416.044	95.81
416.267	96.81
416.49	97.81
416.713	100.81
416.936	99.81
417.159	95.81
417.382	86.81
417.605	74.81
417.828	94.81
418.051	90.81
418.274	85.81
418.497	96.81
418.72	89.81
418.943	95.81
419.166	86.81
419.389	92.81
419.611	91.81
419.834	91.81
420.057	88.81
420.28	95.81
420.503	100.81
420.726	70.81
420.948	82.81
421.171	100.81
421.394	93.81
421.617	109.81
421.839	96.81
422.062	88.81
422.285	86.81
422.507	97.81
422.73	80.81
422.953	93.81
423.175	76.81
423.398	88.81
423.621	81.81
423.843	91.81
424.066	76.81
424.288	94.81
424.511	95.81
424.733	93.81
424.956	101.81
425.178	100.81
425.401	89.81
425.623	98.81
425.846	83.81
426.068	86.81
426.291	105.81
426.513	93.81
426.735	103.81
426.958	91.81
427.18	87.81
427.402	97.81
427.625	89.81
427.847	95.81
428.069	81.81
428.292	91.81
428.514	82.81
428.736	98.81
428.958	92.81
429.181	94.81
429.403	86.81
429.625	87.81
429.847	91.81
430.069	91.81
430.292	86.81
430.514	74.81
430.736	74.81
430.958	89.81
431.18	102.81
431.402	97.81
431.624	87.81
431.846	94.81
432.068	83.81
432.29	73.81
432.512	92.81
432.734	106.81
432.956	105.81
433.178	87.81
433.4	91.81
433.622	109.81
433.844	88.81
434.066	84.81
434.287	76.81
434.509	89.81
434.731	88.81
434.953	89.81
435.175	84.81
435.397	87.81
435.618	93.81
435.84	99.81
436.062	90.81
436.284	95.81
436.505	102.81
436.727	87.81
436.949	87.81
437.17	94.81
437.392	76.81
437.614	79.81
437.835	87.81
438.057	96.81
438.278	84.81
438.5	92.81
438.721	94.81
438.943	90.81
439.165	78.81
439.386	76.81
439.608	91.81
439.829	105.81
440.05	95.81
440.272	79.81
440.493	102.81
440.715	86.81
440.936	89.81
441.158	90.81
441.379	88.81
441.6	81.81
441.822	87.81
442.043	86.81
442.264	89.81
442.486	81.81
442.707	88.81
442.928	81.81
443.149	105.81
443.371	94.81
443.592	99.81
443.813	101.81
444.034	100.81
444.255	89.81
444.476	102.81
444.698	100.81
444.919	71.81
445.14	181.81
445.361	149.81
445.582	92.81
445.803	102.81
446.024	88.81
446.245	111.81
446.466	98.81
446.687	107.81
446.908	83.81
447.129	108.81
447.35	88.81
447.571	101.81
447.792	107.81
448.013	96.81
448.234	96.81
448.455	97.81
448.675	86.81
448.896	92.81
449.117	86.81
449.338	98.81
449.559	107.81
449.779	79.81
450	85.81
450.221	91.81
450.442	85.81
450.662	86.81
450.883	98.81
451.104	94.81
451.324	80.81
451.545	74.81
451.766	91.81
451.986	94.81
452.207	85.81
452.428	81.81
452.648	88.81
452.869	83.81
453.089	93.81
453.31	97.81
453.53	81.81
453.751	90.81
453.971	97.81
454.192	86.81
454.412	82.81
454.633	106.81
454.853	94.81
455.073	94.81
455.294	93.81
455.514	89.81
455.734	84.81
455.955	85.81
456.175	73.81
456.395	90.81
456.616	72.81
456.836	87.81
457.056	99.81
457.276	91.81
457.497	82.81
457.717	86.81
457.937	92.81
458.157	98.81
458.377	99.81
458.598	89.81
458.818	93.81
459.038	80.81
459.258	82.81
459.478	90.81
459.698	80.81
459.918	97.81
460.138	92.81
460.358	82.81
460.578	98.81
460.798	83.81
461.018	89.81
461.238	90.81
461.458	91.81
461.678	90.81
461.898	82.81
462.118	85.81
462.338	88.81
462.558	85.81
462.777	93.81
462.997	84.81
463.217	95.81
463.437	88.81
463.657	89.81
463.876	94.81
464.096	83.81
464.316	79.81
464.536	101.81
464.755	96.81
464.975	85.81
465.195	97.81
465.414	92.81
465.634	85.81
465.854	92.81
466.073	93.81
466.293	85.81
466.512	85.81
466.732	81.81
466.951	89.81
467.171	109.81
467.391	98.81
467.61	86.81
467.829	90.81
468.049	79.81
468.268	93.81
468.488	84.81
468.707	77.81
468.927	91.81
469.146	90.81
469.365	94.81
469.585	102.81
469.804	86.81
470.023	85.81
470.243	88.81
470.462	87.81
470.681	86.81
470.901	74.81
471.12	88.81
471.339	96.81
471.558	95.81
471.777	97.81
471.997	99.81
472.216	102.81
472.435	88.81
472.654	86.81
472.873	90.81
473.092	92.81
473.311	80.81
473.53	72.81
473.749	101.81
473.968	86.81
474.187	82.81
474.406	97.81
474.625	87.81
474.844	93.81
475.063	95.81
475.282	74.81
475.501	80.81
475.72	87.81
475.939	87.81
476.158	97.81
476.377	90.81
476.596	92.81
476.814	89.81
477.033	92.81
477.252	101.81
477.471	82.81
477.69	95.81
477.908	98.81
478.127	97.81
478.346	88.81
478.564	92.81
478.783	83.81
479.002	89.81
479.22	96.81
479.439	88.81
479.658	94.81
479.876	92.81
480.095	93.81
480.313	89.81
480.532	90.81
480.751	98.81
480.969	86.81
481.188	81.81
481.406	77.81
481.624	90.81
481.843	80.81
482.061	94.81
482.28	78.81
482.498	82.81
482.717	95.81
482.935	84.81
483.153	85.81
483.372	99.81
483.59	108.81
483.808	102.81
484.027	100.81
484.245	94.81
484.463	114.81
484.681	90.81
484.9	99.81
485.118	88.81
485.336	90.81
485.554	77.81
485.772	92.81
485.99	92.81
486.209	85.81
486.427	95.81
486.645	92.81
486.863	99.81
487.081	97.81
487.299	82.81
487.517	86.81
487.735	86.81
487.953	103.81
488.171	88.81
488.389	94.81
488.607	102.81
488.825	90.81
489.043	90.81
489.261	99.81
489.479	82.81
489.696	88.81
489.914	101.81
490.132	106.81
490.35	99.81
490.568	100.81
490.786	97.81
491.003	94.81
491.221	101.81
491.439	105.81
491.657	110.81
491.874	98.81
492.092	109.81
492.31	108.81
492.527	116.81
492.745	94.81
492.963	120.81
493.18	101.81
493.398	94.81
493.615	109.81
493.833	107.81
494.05	95.81
494.268	104.81
494.485	98.81
494.703	107.81
494.92	108.81
495.138	95.81
495.355	103.81
495.573	98.81
495.79	103.81
496.008	107.81
496.225	102.81
496.442	85.81
496.66	124.81
496.877	90.81
497.094	109.81
497.312	106.81
497.529	88.81
497.746	102.81
497.963	105.81
498.181	90.81
498.398	94.81
498.615	91.81
498.832	95.81
499.049	90.81
499.267	98.81
499.484	92.81
499.701	94.81
499.918	87.81
500.135	86.81
500.352	92.81
500.569	93.81
500.786	103.81
501.003	99.81
501.22	90.81
501.437	101.81
501.654	90.81
501.871	94.81
502.088	94.81
502.305	99.81
502.522	82.81
502.739	91.81
502.956	97.81
503.172	86.81
503.389	88.81
503.606	88.81
503.823	79.81
504.04	90.81
504.256	87.81
504.473	83.81
504.69	100.81
504.907	99.81
505.123	87.81
505.34	106.81
505.557	80.81
505.773	88.81
505.99	97.81
506.207	79.81
506.423	89.81
506.64	86.81
506.856	86.81
507.073	84.81
507.289	102.81
507.506	81.81
507.722	82.81
507.939	94.81
508.155	104.81
508.372	86.81
508.588	90.81
508.805	102.81
509.021	76.81
509.238	95.81
509.454	90.81
509.67	73.81
509.887	87.81
510.103	88.81
510.319	89.81
510.536	78.81
510.752	79.81
510.968	78.81
511.184	93.81
511.401	89.81
511.617	80.81
511.833	89.81
512.049	85.81
512.265	109.81
512.481	96.81
512.698	90.81
512.914	79.81
513.13	79.81
513.346	90.81
513.562	89.81
513.778	79.81
513.994	87.81
514.21	85.81
514.426	82.81
514.642	86.81
514.858	81.81
515.074	84.81
515.29	82.81
515.506	95.81
515.721	75.81
515.937	85.81
516.153	85.81
516.369	93.81
516.585	90.81
516.801	71.81
517.016	90.81
517.232	91.81
517.448	95.81
517.664	84.81
517.879	88.81
518.095	93.81
