Data from Zn(NO3)2Standard.Agarose3%.GreenCap.LampEnergy10E.O_HRD10591_15-07-21-944.txt Node
Date: Mon Jul 22 15:07:21 EDT 2019
User: cochatt
Spectrometer: HR+D1059
Trigger mode: 1
Integration Time (sec): 1.000000E-1
Scans to average: 1
Electric dark correction enabled: true
Nonlinearity correction enabled: false
Boxcar width: 0
XAxis mode: Wavelengths
Number of Pixels in Spectrum: 2048
>>>>>Begin Spectral Data<<<<<
223.165	-8.75
223.4	-8.75
223.635	-8.75
223.869	-21.75
224.104	-5.75
224.338	-3.75
224.573	-35.75
224.808	-10.75
225.042	-11.75
225.277	-8.75
225.511	1.25
225.746	12.25
225.98	2.25
226.215	7.25
226.449	14.25
226.683	17.25
226.918	29.25
227.152	23.25
227.387	28.25
227.621	44.25
227.856	28.25
228.09	41.25
228.324	52.25
228.559	52.25
228.793	57.25
229.027	45.25
229.262	62.25
229.496	62.25
229.73	59.25
229.964	75.25
230.199	76.25
230.433	62.25
230.667	88.25
230.901	67.25
231.136	70.25
231.37	81.25
231.604	83.25
231.838	84.25
232.072	75.25
232.306	88.25
232.541	85.25
232.775	84.25
233.009	82.25
233.243	76.25
233.477	75.25
233.711	87.25
233.945	87.25
234.179	85.25
234.413	72.25
234.647	84.25
234.881	93.25
235.115	81.25
235.349	67.25
235.583	78.25
235.817	86.25
236.051	78.25
236.285	69.25
236.519	81.25
236.753	81.25
236.987	82.25
237.221	67.25
237.455	76.25
237.689	71.25
237.922	86.25
238.156	80.25
238.39	66.25
238.624	77.25
238.858	82.25
239.091	76.25
239.325	75.25
239.559	76.25
239.793	76.25
240.027	76.25
240.26	90.25
240.494	70.25
240.728	86.25
240.961	73.25
241.195	89.25
241.429	69.25
241.662	85.25
241.896	86.25
242.13	77.25
242.363	76.25
242.597	72.25
242.83	62.25
243.064	62.25
243.298	82.25
243.531	77.25
243.765	84.25
243.998	77.25
244.232	70.25
244.465	76.25
244.699	84.25
244.932	88.25
245.166	70.25
245.399	86.25
245.633	76.25
245.866	83.25
246.099	82.25
246.333	82.25
246.566	69.25
246.8	76.25
247.033	78.25
247.266	83.25
247.5	83.25
247.733	84.25
247.966	83.25
248.2	76.25
248.433	78.25
248.666	80.25
248.899	82.25
249.133	74.25
249.366	89.25
249.599	73.25
249.832	74.25
250.066	74.25
250.299	86.25
250.532	88.25
250.765	98.25
250.998	82.25
251.231	75.25
251.465	77.25
251.698	84.25
251.931	74.25
252.164	86.25
252.397	92.25
252.63	82.25
252.863	62.25
253.096	84.25
253.329	76.25
253.562	70.25
253.795	80.25
254.028	91.25
254.261	87.25
254.494	76.25
254.727	85.25
254.96	79.25
255.193	76.25
255.426	64.25
255.659	75.25
255.892	92.25
256.124	83.25
256.357	83.25
256.59	97.25
256.823	82.25
257.056	75.25
257.289	85.25
257.521	77.25
257.754	77.25
257.987	75.25
258.22	83.25
258.452	66.25
258.685	72.25
258.918	76.25
259.151	74.25
259.383	85.25
259.616	83.25
259.849	69.25
260.081	92.25
260.314	71.25
260.547	85.25
260.779	85.25
261.012	86.25
261.244	92.25
261.477	84.25
261.71	80.25
261.942	77.25
262.175	70.25
262.407	76.25
262.64	77.25
262.872	81.25
263.105	82.25
263.337	85.25
263.57	89.25
263.802	96.25
264.035	92.25
264.267	84.25
264.499	78.25
264.732	83.25
264.964	85.25
265.197	80.25
265.429	73.25
265.661	72.25
265.894	89.25
266.126	88.25
266.358	91.25
266.591	85.25
266.823	76.25
267.055	57.25
267.287	89.25
267.52	76.25
267.752	82.25
267.984	85.25
268.216	82.25
268.448	82.25
268.681	88.25
268.913	80.25
269.145	87.25
269.377	94.25
269.609	75.25
269.841	70.25
270.073	79.25
270.306	84.25
270.538	76.25
270.77	84.25
271.002	78.25
271.234	88.25
271.466	86.25
271.698	88.25
271.93	80.25
272.162	84.25
272.394	91.25
272.626	66.25
272.858	88.25
273.09	72.25
273.322	87.25
273.553	78.25
273.785	90.25
274.017	80.25
274.249	81.25
274.481	87.25
274.713	83.25
274.945	83.25
275.176	86.25
275.408	86.25
275.64	82.25
275.872	80.25
276.104	92.25
276.335	84.25
276.567	80.25
276.799	84.25
277.031	83.25
277.262	91.25
277.494	84.25
277.726	77.25
277.957	88.25
278.189	79.25
278.421	86.25
278.652	84.25
278.884	83.25
279.115	101.25
279.347	84.25
279.579	94.25
279.81	84.25
280.042	89.25
280.273	84.25
280.505	85.25
280.736	82.25
280.968	91.25
281.199	77.25
281.431	83.25
281.662	88.25
281.894	88.25
282.125	97.25
282.356	86.25
282.588	93.25
282.819	76.25
283.051	81.25
283.282	87.25
283.513	86.25
283.745	83.25
283.976	75.25
284.207	86.25
284.439	80.25
284.67	67.25
284.901	90.25
285.132	88.25
285.364	79.25
285.595	75.25
285.826	69.25
286.057	87.25
286.288	77.25
286.52	87.25
286.751	85.25
286.982	75.25
287.213	74.25
287.444	85.25
287.675	98.25
287.906	72.25
288.138	87.25
288.369	77.25
288.6	88.25
288.831	82.25
289.062	89.25
289.293	87.25
289.524	92.25
289.755	91.25
289.986	84.25
290.217	80.25
290.448	93.25
290.679	89.25
290.91	93.25
291.141	78.25
291.371	91.25
291.602	87.25
291.833	71.25
292.064	86.25
292.295	94.25
292.526	82.25
292.757	83.25
292.987	86.25
293.218	88.25
293.449	68.25
293.68	77.25
293.91	77.25
294.141	72.25
294.372	81.25
294.603	78.25
294.833	80.25
295.064	81.25
295.295	88.25
295.525	94.25
295.756	85.25
295.987	96.25
296.217	90.25
296.448	78.25
296.679	81.25
296.909	85.25
297.14	86.25
297.37	86.25
297.601	61.25
297.831	75.25
298.062	70.25
298.292	77.25
298.523	103.25
298.753	87.25
298.984	87.25
299.214	83.25
299.445	86.25
299.675	69.25
299.905	81.25
300.136	87.25
300.366	76.25
300.597	90.25
300.827	92.25
301.057	88.25
301.288	79.25
301.518	86.25
301.748	87.25
301.979	97.25
302.209	91.25
302.439	88.25
302.669	95.25
302.9	90.25
303.13	89.25
303.36	84.25
303.59	82.25
303.82	82.25
304.051	85.25
304.281	99.25
304.511	95.25
304.741	88.25
304.971	88.25
305.201	86.25
305.431	96.25
305.661	93.25
305.891	91.25
306.121	99.25
306.352	76.25
306.582	90.25
306.812	87.25
307.042	76.25
307.272	77.25
307.502	77.25
307.731	88.25
307.961	81.25
308.191	84.25
308.421	94.25
308.651	97.25
308.881	81.25
309.111	92.25
309.341	87.25
309.571	91.25
309.8	85.25
310.03	76.25
310.26	81.25
310.49	88.25
310.72	82.25
310.949	90.25
311.179	79.25
311.409	88.25
311.639	74.25
311.868	92.25
312.098	86.25
312.328	90.25
312.557	92.25
312.787	83.25
313.017	90.25
313.246	86.25
313.476	75.25
313.706	93.25
313.935	88.25
314.165	104.25
314.394	70.25
314.624	90.25
314.853	97.25
315.083	98.25
315.312	78.25
315.542	78.25
315.771	86.25
316.001	93.25
316.23	92.25
316.46	85.25
316.689	82.25
316.919	84.25
317.148	78.25
317.377	97.25
317.607	112.25
317.836	91.25
318.065	94.25
318.295	94.25
318.524	89.25
318.753	83.25
318.983	94.25
319.212	77.25
319.441	72.25
319.67	94.25
319.9	95.25
320.129	87.25
320.358	80.25
320.587	84.25
320.816	75.25
321.046	82.25
321.275	77.25
321.504	95.25
321.733	89.25
321.962	84.25
322.191	88.25
322.42	83.25
322.649	85.25
322.878	93.25
323.108	79.25
323.337	90.25
323.566	83.25
323.795	84.25
324.024	95.25
324.253	85.25
324.482	78.25
324.71	88.25
324.939	76.25
325.168	90.25
325.397	82.25
325.626	88.25
325.855	91.25
326.084	80.25
326.313	82.25
326.542	83.25
326.77	76.25
326.999	94.25
327.228	78.25
327.457	82.25
327.686	89.25
327.914	79.25
328.143	73.25
328.372	82.25
328.6	85.25
328.829	80.25
329.058	80.25
329.287	80.25
329.515	82.25
329.744	79.25
329.972	97.25
330.201	103.25
330.43	88.25
330.658	96.25
330.887	91.25
331.115	89.25
331.344	92.25
331.572	103.25
331.801	92.25
332.03	76.25
332.258	83.25
332.486	98.25
332.715	90.25
332.943	86.25
333.172	92.25
333.4	92.25
333.629	79.25
333.857	85.25
334.085	86.25
334.314	93.25
334.542	78.25
334.771	84.25
334.999	84.25
335.227	91.25
335.455	86.25
335.684	86.25
335.912	90.25
336.14	84.25
336.369	86.25
336.597	84.25
336.825	81.25
337.053	76.25
337.281	93.25
337.51	82.25
337.738	87.25
337.966	68.25
338.194	85.25
338.422	78.25
338.65	90.25
338.878	85.25
339.106	96.25
339.334	84.25
339.562	86.25
339.79	102.25
340.018	74.25
340.246	72.25
340.474	81.25
340.702	82.25
340.93	82.25
341.158	83.25
341.386	95.25
341.614	103.25
341.842	84.25
342.07	72.25
342.298	82.25
342.526	88.25
342.754	86.25
342.981	83.25
343.209	76.25
343.437	86.25
343.665	82.25
343.893	93.25
344.12	86.25
344.348	88.25
344.576	93.25
344.804	80.25
345.031	96.25
345.259	96.25
345.487	89.25
345.714	78.25
345.942	91.25
346.17	89.25
346.397	75.25
346.625	91.25
346.853	95.25
347.08	94.25
347.308	86.25
347.535	86.25
347.763	91.25
347.99	97.25
348.218	82.25
348.445	91.25
348.673	93.25
348.9	94.25
349.128	81.25
349.355	91.25
349.583	80.25
349.81	69.25
350.037	88.25
350.265	95.25
350.492	90.25
350.72	97.25
350.947	90.25
351.174	86.25
351.402	77.25
351.629	77.25
351.856	85.25
352.083	86.25
352.311	82.25
352.538	96.25
352.765	81.25
352.992	88.25
353.22	97.25
353.447	79.25
353.674	87.25
353.901	85.25
354.128	94.25
354.355	84.25
354.583	85.25
354.81	79.25
355.037	88.25
355.264	76.25
355.491	76.25
355.718	87.25
355.945	86.25
356.172	92.25
356.399	82.25
356.626	76.25
356.853	93.25
357.08	92.25
357.307	86.25
357.534	88.25
357.761	89.25
357.988	91.25
358.215	80.25
358.441	73.25
358.668	73.25
358.895	99.25
359.122	72.25
359.349	82.25
359.576	88.25
359.802	84.25
360.029	83.25
360.256	79.25
360.483	75.25
360.709	95.25
360.936	92.25
361.163	69.25
361.39	81.25
361.616	86.25
361.843	100.25
362.07	97.25
362.296	85.25
362.523	74.25
362.749	71.25
362.976	77.25
363.203	81.25
363.429	80.25
363.656	86.25
363.882	76.25
364.109	85.25
364.335	98.25
364.562	73.25
364.788	84.25
365.015	89.25
365.241	76.25
365.468	96.25
365.694	88.25
365.92	85.25
366.147	93.25
366.373	89.25
366.599	78.25
366.826	80.25
367.052	94.25
367.278	92.25
367.505	101.25
367.731	92.25
367.957	86.25
368.184	84.25
368.41	83.25
368.636	76.25
368.862	105.25
369.089	91.25
369.315	89.25
369.541	83.25
369.767	89.25
369.993	84.25
370.219	97.25
370.445	83.25
370.672	77.25
370.898	94.25
371.124	104.25
371.35	91.25
371.576	85.25
371.802	87.25
372.028	104.25
372.254	90.25
372.48	90.25
372.706	91.25
372.932	89.25
373.158	86.25
373.384	71.25
373.61	85.25
373.835	83.25
374.061	80.25
374.287	90.25
374.513	86.25
374.739	88.25
374.965	77.25
375.191	76.25
375.416	91.25
375.642	91.25
375.868	81.25
376.094	95.25
376.319	84.25
376.545	85.25
376.771	84.25
376.997	84.25
377.222	76.25
377.448	97.25
377.674	92.25
377.899	86.25
378.125	94.25
378.35	92.25
378.576	99.25
378.802	85.25
379.027	94.25
379.253	93.25
379.478	93.25
379.704	84.25
379.929	96.25
380.155	84.25
380.38	91.25
380.606	91.25
380.831	95.25
381.057	98.25
381.282	89.25
381.507	89.25
381.733	88.25
381.958	75.25
382.184	92.25
382.409	88.25
382.634	86.25
382.86	85.25
383.085	87.25
383.31	75.25
383.535	103.25
383.761	84.25
383.986	82.25
384.211	82.25
384.436	91.25
384.662	76.25
384.887	89.25
385.112	106.25
385.337	87.25
385.562	84.25
385.787	83.25
386.013	95.25
386.238	103.25
386.463	99.25
386.688	92.25
386.913	78.25
387.138	81.25
387.363	88.25
387.588	92.25
387.813	92.25
388.038	100.25
388.263	112.25
388.488	89.25
388.713	94.25
388.938	82.25
389.163	80.25
389.387	99.25
389.612	95.25
389.837	91.25
390.062	93.25
390.287	89.25
390.512	87.25
390.736	89.25
390.961	89.25
391.186	96.25
391.411	86.25
391.636	93.25
391.86	95.25
392.085	86.25
392.31	86.25
392.534	97.25
392.759	80.25
392.984	84.25
393.208	84.25
393.433	86.25
393.658	96.25
393.882	89.25
394.107	96.25
394.331	107.25
394.556	97.25
394.78	96.25
395.005	94.25
395.229	100.25
395.454	95.25
395.678	91.25
395.903	96.25
396.127	93.25
396.352	113.25
396.576	82.25
396.801	106.25
397.025	96.25
397.249	97.25
397.474	94.25
397.698	97.25
397.922	90.25
398.147	102.25
398.371	98.25
398.595	123.25
398.82	108.25
399.044	88.25
399.268	100.25
399.492	101.25
399.717	93.25
399.941	87.25
400.165	97.25
400.389	108.25
400.613	100.25
400.837	99.25
401.062	100.25
401.286	103.25
401.51	96.25
401.734	88.25
401.958	94.25
402.182	100.25
402.406	100.25
402.63	92.25
402.854	87.25
403.078	95.25
403.302	96.25
403.526	99.25
403.75	100.25
403.974	99.25
404.198	89.25
404.422	86.25
404.645	90.25
404.869	101.25
405.093	100.25
405.317	97.25
405.541	90.25
405.765	87.25
405.988	95.25
406.212	87.25
406.436	117.25
406.66	96.25
406.883	102.25
407.107	104.25
407.331	100.25
407.555	105.25
407.778	98.25
408.002	91.25
408.226	97.25
408.449	89.25
408.673	101.25
408.896	96.25
409.12	94.25
409.344	118.25
409.567	108.25
409.791	113.25
410.014	99.25
410.238	88.25
410.461	109.25
410.685	105.25
410.908	101.25
411.132	105.25
411.355	92.25
411.578	91.25
411.802	93.25
412.025	104.25
412.249	89.25
412.472	109.25
412.695	123.25
412.919	92.25
413.142	107.25
413.365	103.25
413.589	105.25
413.812	93.25
414.035	106.25
414.258	108.25
414.482	90.25
414.705	103.25
414.928	105.25
415.151	106.25
415.374	103.25
415.597	93.25
415.821	97.25
416.044	104.25
416.267	97.25
416.49	114.25
416.713	101.25
416.936	98.25
417.159	104.25
417.382	107.25
417.605	116.25
417.828	127.25
418.051	117.25
418.274	93.25
418.497	109.25
418.72	94.25
418.943	109.25
419.166	109.25
419.389	108.25
419.611	107.25
419.834	119.25
420.057	107.25
420.28	115.25
420.503	103.25
420.726	92.25
420.948	107.25
421.171	100.25
421.394	93.25
421.617	117.25
421.839	119.25
422.062	105.25
422.285	118.25
422.507	98.25
422.73	101.25
422.953	100.25
423.175	105.25
423.398	105.25
423.621	107.25
423.843	98.25
424.066	105.25
424.288	103.25
424.511	109.25
424.733	124.25
424.956	102.25
425.178	99.25
425.401	117.25
425.623	107.25
425.846	97.25
426.068	103.25
426.291	105.25
426.513	109.25
426.735	116.25
426.958	98.25
427.18	110.25
427.402	121.25
427.625	109.25
427.847	109.25
428.069	99.25
428.292	97.25
428.514	93.25
428.736	114.25
428.958	101.25
429.181	117.25
429.403	89.25
429.625	106.25
429.847	91.25
430.069	114.25
430.292	97.25
430.514	95.25
430.736	114.25
430.958	105.25
431.18	117.25
431.402	90.25
431.624	95.25
431.846	98.25
432.068	99.25
432.29	94.25
432.512	112.25
432.734	104.25
432.956	105.25
433.178	120.25
433.4	116.25
433.622	117.25
433.844	108.25
434.066	97.25
434.287	75.25
434.509	87.25
434.731	94.25
434.953	99.25
435.175	108.25
435.397	94.25
435.618	103.25
435.84	112.25
436.062	86.25
436.284	102.25
436.505	101.25
436.727	104.25
436.949	116.25
437.17	104.25
437.392	97.25
437.614	119.25
437.835	90.25
438.057	99.25
438.278	82.25
438.5	93.25
438.721	111.25
438.943	119.25
439.165	93.25
439.386	108.25
439.608	102.25
439.829	105.25
440.05	109.25
440.272	109.25
440.493	98.25
440.715	117.25
440.936	105.25
441.158	113.25
441.379	130.25
441.6	126.25
441.822	130.25
442.043	118.25
442.264	101.25
442.486	111.25
442.707	100.25
442.928	120.25
443.149	104.25
443.371	117.25
443.592	119.25
443.813	126.25
444.034	107.25
444.255	109.25
444.476	117.25
444.698	104.25
444.919	103.25
445.14	214.25
445.361	154.25
445.582	112.25
445.803	106.25
446.024	119.25
446.245	115.25
446.466	118.25
446.687	119.25
446.908	126.25
447.129	116.25
447.35	113.25
447.571	124.25
447.792	110.25
448.013	119.25
448.234	116.25
448.455	97.25
448.675	112.25
448.896	114.25
449.117	118.25
449.338	121.25
449.559	112.25
449.779	116.25
450	104.25
450.221	94.25
450.442	112.25
450.662	108.25
450.883	120.25
451.104	101.25
451.324	110.25
451.545	126.25
451.766	103.25
451.986	94.25
452.207	106.25
452.428	102.25
452.648	113.25
452.869	91.25
453.089	100.25
453.31	101.25
453.53	96.25
453.751	98.25
453.971	102.25
454.192	89.25
454.412	83.25
454.633	99.25
454.853	96.25
455.073	94.25
455.294	101.25
455.514	117.25
455.734	103.25
455.955	92.25
456.175	98.25
456.395	108.25
456.616	90.25
456.836	107.25
457.056	91.25
457.276	114.25
457.497	100.25
457.717	98.25
457.937	97.25
458.157	92.25
458.377	102.25
458.598	109.25
458.818	91.25
459.038	86.25
459.258	98.25
459.478	95.25
459.698	92.25
459.918	72.25
460.138	97.25
460.358	101.25
460.578	103.25
460.798	94.25
461.018	95.25
461.238	106.25
461.458	93.25
461.678	94.25
461.898	98.25
462.118	113.25
462.338	97.25
462.558	106.25
462.777	88.25
462.997	100.25
463.217	93.25
463.437	99.25
463.657	91.25
463.876	96.25
464.096	96.25
464.316	109.25
464.536	98.25
464.755	98.25
464.975	85.25
465.195	99.25
465.414	97.25
465.634	107.25
465.854	98.25
466.073	97.25
466.293	112.25
466.512	126.25
466.732	115.25
466.951	117.25
467.171	98.25
467.391	109.25
467.61	92.25
467.829	104.25
468.049	105.25
468.268	125.25
468.488	96.25
468.707	103.25
468.927	117.25
469.146	96.25
469.365	106.25
469.585	103.25
469.804	112.25
470.023	114.25
470.243	124.25
470.462	114.25
470.681	106.25
470.901	112.25
471.12	104.25
471.339	112.25
471.558	102.25
471.777	104.25
471.997	90.25
472.216	107.25
472.435	105.25
472.654	107.25
472.873	101.25
473.092	92.25
473.311	92.25
473.53	99.25
473.749	94.25
473.968	104.25
474.187	102.25
474.406	86.25
474.625	117.25
474.844	104.25
475.063	90.25
475.282	109.25
475.501	97.25
475.72	99.25
475.939	90.25
476.158	106.25
476.377	108.25
476.596	96.25
476.814	104.25
477.033	92.25
477.252	97.25
477.471	104.25
477.69	100.25
477.908	98.25
478.127	105.25
478.346	116.25
478.564	115.25
478.783	97.25
479.002	122.25
479.22	122.25
479.439	115.25
479.658	97.25
479.876	79.25
480.095	99.25
480.313	96.25
480.532	113.25
480.751	91.25
480.969	77.25
481.188	92.25
481.406	80.25
481.624	94.25
481.843	93.25
482.061	88.25
482.28	102.25
482.498	88.25
482.717	94.25
482.935	103.25
483.153	104.25
483.372	112.25
483.59	110.25
483.808	123.25
484.027	112.25
484.245	116.25
484.463	105.25
484.681	120.25
484.9	101.25
485.118	116.25
485.336	106.25
485.554	82.25
485.772	81.25
485.99	95.25
486.209	97.25
486.427	102.25
486.645	101.25
486.863	105.25
487.081	110.25
487.299	87.25
487.517	112.25
487.735	118.25
487.953	120.25
488.171	127.25
488.389	125.25
488.607	116.25
488.825	118.25
489.043	102.25
489.261	105.25
489.479	113.25
489.696	107.25
489.914	106.25
490.132	112.25
490.35	117.25
490.568	121.25
490.786	116.25
491.003	122.25
491.221	112.25
491.439	128.25
491.657	142.25
491.874	151.25
492.092	134.25
492.31	148.25
492.527	157.25
492.745	125.25
492.963	151.25
493.18	134.25
493.398	150.25
493.615	129.25
493.833	124.25
494.05	143.25
494.268	116.25
494.485	123.25
494.703	123.25
494.92	133.25
495.138	126.25
495.355	130.25
495.573	138.25
495.79	132.25
496.008	132.25
496.225	131.25
496.442	113.25
496.66	100.25
496.877	114.25
497.094	114.25
497.312	121.25
497.529	119.25
497.746	116.25
497.963	102.25
498.181	121.25
498.398	104.25
498.615	96.25
498.832	106.25
499.049	97.25
499.267	100.25
499.484	106.25
499.701	113.25
499.918	112.25
500.135	106.25
500.352	106.25
500.569	94.25
500.786	116.25
501.003	103.25
501.22	111.25
501.437	118.25
501.654	105.25
501.871	86.25
502.088	114.25
502.305	113.25
502.522	108.25
502.739	114.25
502.956	113.25
503.172	101.25
503.389	98.25
503.606	93.25
503.823	104.25
504.04	99.25
504.256	104.25
504.473	97.25
504.69	78.25
504.907	97.25
505.123	109.25
505.34	100.25
505.557	104.25
505.773	103.25
505.99	104.25
506.207	89.25
506.423	90.25
506.64	104.25
506.856	94.25
507.073	99.25
507.289	104.25
507.506	117.25
507.722	87.25
507.939	89.25
508.155	101.25
508.372	95.25
508.588	105.25
508.805	84.25
509.021	95.25
509.238	92.25
509.454	78.25
509.67	88.25
509.887	97.25
510.103	92.25
510.319	94.25
510.536	92.25
510.752	90.25
510.968	86.25
511.184	87.25
511.401	88.25
511.617	90.25
511.833	77.25
512.049	92.25
512.265	91.25
512.481	99.25
512.698	77.25
512.914	72.25
513.13	89.25
513.346	99.25
513.562	85.25
513.778	90.25
513.994	94.25
514.21	90.25
514.426	79.25
514.642	83.25
