Data from Zn(NO3)2Standard.Agarose3%.GreenCap.LampEnergy10E.O_HRD10591_15-07-22-944.txt Node
Date: Mon Jul 22 15:07:22 EDT 2019
User: cochatt
Spectrometer: HR+D1059
Trigger mode: 1
Integration Time (sec): 1.000000E-1
Scans to average: 1
Electric dark correction enabled: true
Nonlinearity correction enabled: false
Boxcar width: 0
XAxis mode: Wavelengths
Number of Pixels in Spectrum: 2048
>>>>>Begin Spectral Data<<<<<
223.165	-11.88
223.4	-11.88
223.635	-11.88
223.869	-21.88
224.104	-20.88
224.338	-11.88
224.573	-14.88
224.808	-18.88
225.042	1.12
225.277	12.12
225.511	-12.88
225.746	3.12
225.98	5.12
226.215	2.12
226.449	21.12
226.683	13.12
226.918	24.12
227.152	31.12
227.387	33.12
227.621	38.12
227.856	46.12
228.09	59.12
228.324	54.12
228.559	61.12
228.793	55.12
229.027	54.12
229.262	64.12
229.496	69.12
229.73	69.12
229.964	74.12
230.199	67.12
230.433	66.12
230.667	68.12
230.901	75.12
231.136	69.12
231.37	78.12
231.604	84.12
231.838	91.12
232.072	73.12
232.306	83.12
232.541	86.12
232.775	73.12
233.009	73.12
233.243	86.12
233.477	71.12
233.711	74.12
233.945	74.12
234.179	93.12
234.413	81.12
234.647	86.12
234.881	72.12
235.115	84.12
235.349	72.12
235.583	79.12
235.817	85.12
236.051	75.12
236.285	73.12
236.519	83.12
236.753	78.12
236.987	70.12
237.221	75.12
237.455	80.12
237.689	77.12
237.922	81.12
238.156	76.12
238.39	76.12
238.624	83.12
238.858	83.12
239.091	79.12
239.325	85.12
239.559	61.12
239.793	76.12
240.027	86.12
240.26	75.12
240.494	76.12
240.728	62.12
240.961	73.12
241.195	82.12
241.429	72.12
241.662	57.12
241.896	89.12
242.13	89.12
242.363	96.12
242.597	76.12
242.83	79.12
243.064	78.12
243.298	85.12
243.531	80.12
243.765	77.12
243.998	74.12
244.232	86.12
244.465	74.12
244.699	95.12
244.932	72.12
245.166	87.12
245.399	64.12
245.633	75.12
245.866	72.12
246.099	80.12
246.333	82.12
246.566	68.12
246.8	83.12
247.033	71.12
247.266	75.12
247.5	65.12
247.733	73.12
247.966	71.12
248.2	80.12
248.433	78.12
248.666	86.12
248.899	82.12
249.133	67.12
249.366	77.12
249.599	72.12
249.832	71.12
250.066	83.12
250.299	76.12
250.532	88.12
250.765	76.12
250.998	79.12
251.231	83.12
251.465	79.12
251.698	83.12
251.931	67.12
252.164	82.12
252.397	88.12
252.63	79.12
252.863	82.12
253.096	100.12
253.329	76.12
253.562	85.12
253.795	81.12
254.028	82.12
254.261	76.12
254.494	95.12
254.727	83.12
254.96	93.12
255.193	88.12
255.426	78.12
255.659	81.12
255.892	76.12
256.124	77.12
256.357	86.12
256.59	91.12
256.823	71.12
257.056	75.12
257.289	77.12
257.521	75.12
257.754	94.12
257.987	61.12
258.22	93.12
258.452	82.12
258.685	87.12
258.918	81.12
259.151	89.12
259.383	93.12
259.616	89.12
259.849	70.12
260.081	93.12
260.314	82.12
260.547	80.12
260.779	89.12
261.012	86.12
261.244	72.12
261.477	78.12
261.71	85.12
261.942	77.12
262.175	77.12
262.407	77.12
262.64	71.12
262.872	71.12
263.105	84.12
263.337	91.12
263.57	86.12
263.802	98.12
264.035	95.12
264.267	89.12
264.499	85.12
264.732	86.12
264.964	96.12
265.197	89.12
265.429	82.12
265.661	85.12
265.894	87.12
266.126	88.12
266.358	88.12
266.591	95.12
266.823	75.12
267.055	87.12
267.287	94.12
267.52	94.12
267.752	86.12
267.984	92.12
268.216	91.12
268.448	103.12
268.681	84.12
268.913	88.12
269.145	83.12
269.377	71.12
269.609	83.12
269.841	91.12
270.073	78.12
270.306	84.12
270.538	86.12
270.77	92.12
271.002	79.12
271.234	97.12
271.466	70.12
271.698	76.12
271.93	85.12
272.162	85.12
272.394	89.12
272.626	75.12
272.858	84.12
273.09	78.12
273.322	101.12
273.553	60.12
273.785	94.12
274.017	92.12
274.249	84.12
274.481	64.12
274.713	91.12
274.945	71.12
275.176	96.12
275.408	73.12
275.64	87.12
275.872	90.12
276.104	74.12
276.335	75.12
276.567	75.12
276.799	79.12
277.031	89.12
277.262	89.12
277.494	72.12
277.726	79.12
277.957	78.12
278.189	87.12
278.421	88.12
278.652	84.12
278.884	77.12
279.115	84.12
279.347	80.12
279.579	93.12
279.81	86.12
280.042	86.12
280.273	94.12
280.505	82.12
280.736	84.12
280.968	79.12
281.199	91.12
281.431	73.12
281.662	90.12
281.894	78.12
282.125	83.12
282.356	78.12
282.588	87.12
282.819	85.12
283.051	75.12
283.282	74.12
283.513	97.12
283.745	95.12
283.976	97.12
284.207	74.12
284.439	71.12
284.67	70.12
284.901	89.12
285.132	78.12
285.364	75.12
285.595	85.12
285.826	73.12
286.057	99.12
286.288	81.12
286.52	88.12
286.751	97.12
286.982	95.12
287.213	95.12
287.444	77.12
287.675	89.12
287.906	91.12
288.138	85.12
288.369	88.12
288.6	85.12
288.831	87.12
289.062	92.12
289.293	78.12
289.524	75.12
289.755	80.12
289.986	82.12
290.217	81.12
290.448	77.12
290.679	85.12
290.91	83.12
291.141	86.12
291.371	78.12
291.602	94.12
291.833	82.12
292.064	87.12
292.295	80.12
292.526	95.12
292.757	98.12
292.987	100.12
293.218	98.12
293.449	88.12
293.68	75.12
293.91	91.12
294.141	76.12
294.372	86.12
294.603	95.12
294.833	90.12
295.064	97.12
295.295	89.12
295.525	78.12
295.756	82.12
295.987	77.12
296.217	105.12
296.448	87.12
296.679	85.12
296.909	87.12
297.14	92.12
297.37	90.12
297.601	83.12
297.831	88.12
298.062	88.12
298.292	94.12
298.523	88.12
298.753	90.12
298.984	87.12
299.214	81.12
299.445	84.12
299.675	93.12
299.905	87.12
300.136	86.12
300.366	91.12
300.597	79.12
300.827	82.12
301.057	87.12
301.288	79.12
301.518	83.12
301.748	82.12
301.979	87.12
302.209	80.12
302.439	84.12
302.669	75.12
302.9	87.12
303.13	89.12
303.36	80.12
303.59	90.12
303.82	73.12
304.051	79.12
304.281	99.12
304.511	83.12
304.741	72.12
304.971	88.12
305.201	94.12
305.431	77.12
305.661	89.12
305.891	88.12
306.121	93.12
306.352	92.12
306.582	76.12
306.812	91.12
307.042	83.12
307.272	87.12
307.502	82.12
307.731	87.12
307.961	82.12
308.191	90.12
308.421	97.12
308.651	85.12
308.881	79.12
309.111	79.12
309.341	74.12
309.571	85.12
309.8	77.12
310.03	90.12
310.26	91.12
310.49	88.12
310.72	98.12
310.949	84.12
311.179	98.12
311.409	85.12
311.639	82.12
311.868	87.12
312.098	100.12
312.328	88.12
312.557	81.12
312.787	78.12
313.017	66.12
313.246	87.12
313.476	91.12
313.706	80.12
313.935	86.12
314.165	96.12
314.394	93.12
314.624	98.12
314.853	95.12
315.083	86.12
315.312	83.12
315.542	87.12
315.771	86.12
316.001	92.12
316.23	95.12
316.46	78.12
316.689	85.12
316.919	87.12
317.148	83.12
317.377	74.12
317.607	79.12
317.836	79.12
318.065	85.12
318.295	78.12
318.524	89.12
318.753	77.12
318.983	91.12
319.212	98.12
319.441	70.12
319.67	85.12
319.9	78.12
320.129	79.12
320.358	83.12
320.587	83.12
320.816	76.12
321.046	87.12
321.275	99.12
321.504	91.12
321.733	78.12
321.962	103.12
322.191	97.12
322.42	98.12
322.649	95.12
322.878	78.12
323.108	89.12
323.337	79.12
323.566	78.12
323.795	88.12
324.024	80.12
324.253	73.12
324.482	102.12
324.71	82.12
324.939	86.12
325.168	88.12
325.397	95.12
325.626	86.12
325.855	88.12
326.084	86.12
326.313	87.12
326.542	97.12
326.77	85.12
326.999	92.12
327.228	101.12
327.457	83.12
327.686	72.12
327.914	87.12
328.143	93.12
328.372	92.12
328.6	98.12
328.829	94.12
329.058	91.12
329.287	85.12
329.515	76.12
329.744	70.12
329.972	83.12
330.201	90.12
330.43	80.12
330.658	86.12
330.887	87.12
331.115	88.12
331.344	98.12
331.572	95.12
331.801	85.12
332.03	85.12
332.258	86.12
332.486	87.12
332.715	88.12
332.943	76.12
333.172	74.12
333.4	83.12
333.629	90.12
333.857	83.12
334.085	80.12
334.314	93.12
334.542	94.12
334.771	81.12
334.999	88.12
335.227	76.12
335.455	73.12
335.684	87.12
335.912	83.12
336.14	86.12
336.369	84.12
336.597	69.12
336.825	87.12
337.053	80.12
337.281	91.12
337.51	90.12
337.738	80.12
337.966	79.12
338.194	84.12
338.422	92.12
338.65	87.12
338.878	89.12
339.106	92.12
339.334	92.12
339.562	93.12
339.79	82.12
340.018	90.12
340.246	78.12
340.474	84.12
340.702	78.12
340.93	96.12
341.158	101.12
341.386	80.12
341.614	89.12
341.842	82.12
342.07	90.12
342.298	79.12
342.526	73.12
342.754	83.12
342.981	103.12
343.209	83.12
343.437	89.12
343.665	76.12
343.893	92.12
344.12	88.12
344.348	80.12
344.576	67.12
344.804	86.12
345.031	87.12
345.259	89.12
345.487	85.12
345.714	85.12
345.942	90.12
346.17	84.12
346.397	78.12
346.625	81.12
346.853	70.12
347.08	77.12
347.308	88.12
347.535	77.12
347.763	82.12
347.99	85.12
348.218	82.12
348.445	70.12
348.673	83.12
348.9	96.12
349.128	82.12
349.355	87.12
349.583	90.12
349.81	82.12
350.037	90.12
350.265	81.12
350.492	88.12
350.72	92.12
350.947	78.12
351.174	82.12
351.402	89.12
351.629	77.12
351.856	79.12
352.083	82.12
352.311	85.12
352.538	80.12
352.765	81.12
352.992	89.12
353.22	100.12
353.447	86.12
353.674	85.12
353.901	79.12
354.128	77.12
354.355	70.12
354.583	77.12
354.81	90.12
355.037	77.12
355.264	83.12
355.491	87.12
355.718	88.12
355.945	84.12
356.172	80.12
356.399	93.12
356.626	76.12
356.853	92.12
357.08	79.12
357.307	87.12
357.534	90.12
357.761	94.12
357.988	91.12
358.215	92.12
358.441	82.12
358.668	74.12
358.895	77.12
359.122	86.12
359.349	88.12
359.576	77.12
359.802	80.12
360.029	70.12
360.256	87.12
360.483	74.12
360.709	90.12
360.936	87.12
361.163	101.12
361.39	77.12
361.616	90.12
361.843	87.12
362.07	72.12
362.296	71.12
362.523	87.12
362.749	95.12
362.976	94.12
363.203	90.12
363.429	88.12
363.656	85.12
363.882	93.12
364.109	96.12
364.335	84.12
364.562	82.12
364.788	91.12
365.015	93.12
365.241	98.12
365.468	99.12
365.694	84.12
365.92	82.12
366.147	71.12
366.373	91.12
366.599	78.12
366.826	93.12
367.052	70.12
367.278	85.12
367.505	80.12
367.731	86.12
367.957	96.12
368.184	87.12
368.41	87.12
368.636	93.12
368.862	90.12
369.089	88.12
369.315	85.12
369.541	84.12
369.767	69.12
369.993	95.12
370.219	87.12
370.445	97.12
370.672	95.12
370.898	90.12
371.124	81.12
371.35	88.12
371.576	84.12
371.802	90.12
372.028	87.12
372.254	74.12
372.48	78.12
372.706	77.12
372.932	85.12
373.158	84.12
373.384	88.12
373.61	95.12
373.835	87.12
374.061	85.12
374.287	91.12
374.513	94.12
374.739	109.12
374.965	94.12
375.191	76.12
375.416	99.12
375.642	85.12
375.868	85.12
376.094	92.12
376.319	87.12
376.545	84.12
376.771	85.12
376.997	90.12
377.222	76.12
377.448	85.12
377.674	84.12
377.899	87.12
378.125	79.12
378.35	73.12
378.576	89.12
378.802	93.12
379.027	95.12
379.253	83.12
379.478	80.12
379.704	85.12
379.929	74.12
380.155	88.12
380.38	82.12
380.606	97.12
380.831	85.12
381.057	95.12
381.282	88.12
381.507	93.12
381.733	87.12
381.958	104.12
382.184	86.12
382.409	75.12
382.634	73.12
382.86	90.12
383.085	84.12
383.31	92.12
383.535	82.12
383.761	92.12
383.986	92.12
384.211	83.12
384.436	86.12
384.662	64.12
384.887	87.12
385.112	75.12
385.337	87.12
385.562	88.12
385.787	89.12
386.013	91.12
386.238	97.12
386.463	82.12
386.688	73.12
386.913	83.12
387.138	93.12
387.363	99.12
387.588	96.12
387.813	97.12
388.038	85.12
388.263	82.12
388.488	81.12
388.713	73.12
388.938	82.12
389.163	84.12
389.387	97.12
389.612	80.12
389.837	90.12
390.062	95.12
390.287	89.12
390.512	85.12
390.736	85.12
390.961	94.12
391.186	99.12
391.411	78.12
391.636	80.12
391.86	78.12
392.085	76.12
392.31	86.12
392.534	89.12
392.759	95.12
392.984	98.12
393.208	91.12
393.433	103.12
393.658	95.12
393.882	94.12
394.107	90.12
394.331	89.12
394.556	95.12
394.78	77.12
395.005	93.12
395.229	104.12
395.454	93.12
395.678	83.12
395.903	95.12
396.127	86.12
396.352	97.12
396.576	89.12
396.801	80.12
397.025	96.12
397.249	92.12
397.474	91.12
397.698	102.12
397.922	99.12
398.147	95.12
398.371	93.12
398.595	104.12
398.82	89.12
399.044	96.12
399.268	104.12
399.492	86.12
399.717	101.12
399.941	100.12
400.165	76.12
400.389	94.12
400.613	85.12
400.837	83.12
401.062	97.12
401.286	92.12
401.51	92.12
401.734	99.12
401.958	94.12
402.182	90.12
402.406	102.12
402.63	94.12
402.854	88.12
403.078	99.12
403.302	101.12
403.526	103.12
403.75	86.12
403.974	95.12
404.198	103.12
404.422	90.12
404.645	98.12
404.869	100.12
405.093	102.12
405.317	86.12
405.541	117.12
405.765	96.12
405.988	93.12
406.212	95.12
406.436	101.12
406.66	105.12
406.883	96.12
407.107	97.12
407.331	93.12
407.555	100.12
407.778	98.12
408.002	103.12
408.226	90.12
408.449	101.12
408.673	96.12
408.896	103.12
409.12	99.12
409.344	106.12
409.567	87.12
409.791	110.12
410.014	110.12
410.238	92.12
410.461	107.12
410.685	109.12
410.908	109.12
411.132	93.12
411.355	98.12
411.578	103.12
411.802	98.12
412.025	105.12
412.249	99.12
412.472	86.12
412.695	100.12
412.919	103.12
413.142	115.12
413.365	100.12
413.589	101.12
413.812	85.12
414.035	110.12
414.258	92.12
414.482	115.12
414.705	107.12
414.928	100.12
415.151	97.12
415.374	90.12
415.597	107.12
415.821	98.12
416.044	113.12
416.267	110.12
416.49	103.12
416.713	118.12
416.936	98.12
417.159	96.12
417.382	104.12
417.605	95.12
417.828	103.12
418.051	116.12
418.274	117.12
418.497	110.12
418.72	110.12
418.943	98.12
419.166	98.12
419.389	102.12
419.611	113.12
419.834	115.12
420.057	120.12
420.28	104.12
420.503	92.12
420.726	99.12
420.948	100.12
421.171	109.12
421.394	113.12
421.617	103.12
421.839	104.12
422.062	111.12
422.285	118.12
422.507	103.12
422.73	99.12
422.953	115.12
423.175	107.12
423.398	93.12
423.621	92.12
423.843	105.12
424.066	112.12
424.288	111.12
424.511	125.12
424.733	110.12
424.956	116.12
425.178	102.12
425.401	123.12
425.623	101.12
425.846	103.12
426.068	103.12
426.291	109.12
426.513	102.12
426.735	101.12
426.958	108.12
427.18	103.12
427.402	113.12
427.625	98.12
427.847	102.12
428.069	116.12
428.292	109.12
428.514	100.12
428.736	116.12
428.958	106.12
429.181	111.12
429.403	110.12
429.625	110.12
429.847	103.12
430.069	116.12
430.292	89.12
430.514	101.12
430.736	96.12
430.958	108.12
431.18	98.12
431.402	96.12
431.624	103.12
431.846	85.12
432.068	94.12
432.29	92.12
432.512	85.12
432.734	99.12
432.956	125.12
433.178	101.12
433.4	127.12
433.622	102.12
433.844	96.12
434.066	104.12
434.287	102.12
434.509	83.12
434.731	78.12
434.953	97.12
435.175	95.12
435.397	102.12
435.618	97.12
435.84	90.12
436.062	101.12
436.284	122.12
436.505	99.12
436.727	99.12
436.949	110.12
437.17	108.12
437.392	103.12
437.614	98.12
437.835	86.12
438.057	98.12
438.278	106.12
438.5	106.12
438.721	120.12
438.943	101.12
439.165	113.12
439.386	104.12
439.608	120.12
439.829	108.12
440.05	106.12
440.272	89.12
440.493	108.12
440.715	112.12
440.936	113.12
441.158	107.12
441.379	104.12
441.6	105.12
441.822	110.12
442.043	116.12
442.264	119.12
442.486	110.12
442.707	115.12
442.928	107.12
443.149	109.12
443.371	121.12
443.592	117.12
443.813	114.12
444.034	110.12
444.255	125.12
444.476	85.12
444.698	118.12
444.919	92.12
445.14	226.12
445.361	163.12
445.582	115.12
445.803	121.12
446.024	121.12
446.245	116.12
446.466	119.12
446.687	114.12
446.908	131.12
447.129	116.12
447.35	115.12
447.571	110.12
447.792	119.12
448.013	99.12
448.234	106.12
448.455	119.12
448.675	105.12
448.896	106.12
449.117	109.12
449.338	98.12
449.559	113.12
449.779	107.12
450	113.12
450.221	106.12
450.442	109.12
450.662	104.12
450.883	105.12
451.104	108.12
451.324	123.12
451.545	102.12
451.766	111.12
451.986	103.12
452.207	101.12
452.428	102.12
452.648	100.12
452.869	113.12
453.089	100.12
453.31	96.12
453.53	101.12
453.751	93.12
453.971	86.12
454.192	85.12
454.412	78.12
454.633	101.12
454.853	106.12
455.073	103.12
455.294	96.12
455.514	94.12
455.734	108.12
455.955	113.12
456.175	105.12
456.395	87.12
456.616	93.12
456.836	100.12
457.056	93.12
457.276	87.12
457.497	91.12
457.717	93.12
457.937	102.12
458.157	95.12
458.377	96.12
458.598	94.12
458.818	84.12
459.038	84.12
459.258	76.12
459.478	75.12
459.698	79.12
459.918	104.12
460.138	82.12
460.358	102.12
460.578	96.12
460.798	96.12
461.018	110.12
461.238	111.12
461.458	98.12
461.678	87.12
461.898	111.12
462.118	104.12
462.338	103.12
462.558	114.12
462.777	94.12
462.997	95.12
463.217	87.12
463.437	95.12
463.657	93.12
463.876	94.12
464.096	92.12
464.316	87.12
464.536	99.12
464.755	109.12
464.975	106.12
465.195	111.12
465.414	109.12
465.634	113.12
465.854	102.12
466.073	110.12
466.293	96.12
466.512	101.12
466.732	111.12
466.951	101.12
467.171	113.12
467.391	105.12
467.61	110.12
467.829	98.12
468.049	99.12
468.268	109.12
468.488	105.12
468.707	117.12
468.927	97.12
469.146	93.12
469.365	105.12
469.585	120.12
469.804	103.12
470.023	123.12
470.243	118.12
470.462	117.12
470.681	95.12
470.901	124.12
471.12	111.12
471.339	99.12
471.558	97.12
471.777	96.12
471.997	99.12
472.216	98.12
472.435	102.12
472.654	98.12
472.873	86.12
473.092	114.12
473.311	91.12
473.53	102.12
473.749	104.12
473.968	88.12
474.187	97.12
474.406	94.12
474.625	102.12
474.844	100.12
475.063	102.12
475.282	91.12
475.501	103.12
475.72	109.12
475.939	99.12
476.158	113.12
476.377	116.12
476.596	106.12
476.814	105.12
477.033	86.12
477.252	120.12
477.471	116.12
477.69	110.12
477.908	97.12
478.127	118.12
478.346	94.12
478.564	102.12
478.783	105.12
479.002	106.12
479.22	105.12
479.439	102.12
479.658	107.12
479.876	97.12
480.095	102.12
480.313	90.12
480.532	94.12
480.751	108.12
480.969	92.12
481.188	86.12
481.406	100.12
481.624	94.12
481.843	76.12
482.061	93.12
482.28	105.12
482.498	94.12
482.717	90.12
482.935	92.12
483.153	121.12
483.372	117.12
483.59	110.12
483.808	127.12
484.027	121.12
484.245	132.12
484.463	117.12
484.681	123.12
484.9	116.12
485.118	128.12
485.336	106.12
485.554	95.12
485.772	89.12
485.99	92.12
486.209	94.12
486.427	97.12
486.645	106.12
486.863	118.12
487.081	113.12
487.299	106.12
487.517	110.12
487.735	120.12
487.953	137.12
488.171	140.12
488.389	134.12
488.607	106.12
488.825	97.12
489.043	94.12
489.261	109.12
489.479	99.12
489.696	117.12
489.914	96.12
490.132	116.12
490.35	110.12
490.568	126.12
490.786	136.12
491.003	125.12
491.221	141.12
491.439	138.12
491.657	146.12
491.874	148.12
492.092	147.12
492.31	144.12
492.527	163.12
492.745	145.12
492.963	128.12
493.18	133.12
493.398	127.12
493.615	126.12
493.833	133.12
494.05	130.12
494.268	119.12
494.485	130.12
494.703	122.12
494.92	133.12
495.138	113.12
495.355	123.12
495.573	135.12
495.79	134.12
496.008	125.12
496.225	119.12
496.442	122.12
496.66	123.12
496.877	126.12
497.094	123.12
497.312	125.12
497.529	112.12
497.746	115.12
497.963	118.12
498.181	104.12
498.398	117.12
498.615	104.12
498.832	107.12
499.049	118.12
499.267	100.12
499.484	108.12
499.701	111.12
499.918	110.12
500.135	107.12
500.352	115.12
500.569	110.12
500.786	117.12
501.003	101.12
501.22	123.12
501.437	112.12
501.654	102.12
501.871	94.12
502.088	113.12
502.305	115.12
502.522	115.12
502.739	101.12
502.956	116.12
503.172	97.12
503.389	108.12
503.606	99.12
503.823	109.12
504.04	86.12
504.256	107.12
504.473	99.12
504.69	105.12
504.907	85.12
505.123	88.12
505.34	107.12
505.557	117.12
505.773	103.12
505.99	102.12
506.207	105.12
506.423	111.12
506.64	99.12
506.856	95.12
507.073	97.12
507.289	98.12
507.506	107.12
507.722	105.12
507.939	78.12
508.155	97.12
508.372	88.12
508.588	96.12
508.805	104.12
509.021	97.12
509.238	91.12
509.454	98.12
509.67	85.12
509.887	97.12
510.103	93.12
510.319	97.12
510.536	89.12
510.752	86.12
510.968	83.12
511.184	97.12
511.401	98.12
511.617	86.12
511.833	76.12
512.049	104.12
512.265	89.12
512.481	100.12
512.698	98.12
512.914	83.12
513.13	97.12
513.346	82.12
513.562	79.12
513.778	74.12
513.994	90.12
514.21	85.12
514.426	83.12
