Data from Zn(NO3)2Standard.Agarose3%.GreenCap.LampEnergy5.5.E.O_HRD10591_15-01-57-768.txt Node
Date: Mon Jul 22 15:01:57 EDT 2019
User: cochatt
Spectrometer: HR+D1059
Trigger mode: 1
Integration Time (sec): 1.000000E-1
Scans to average: 1
Electric dark correction enabled: true
Nonlinearity correction enabled: false
Boxcar width: 0
XAxis mode: Wavelengths
Number of Pixels in Spectrum: 2048
>>>>>Begin Spectral Data<<<<<
223.165	-17.69
223.4	-17.69
223.635	-17.69
223.869	-8.69
224.104	-20.69
224.338	-20.69
224.573	-16.69
224.808	-16.69
225.042	3.31
225.277	4.31
225.511	-12.69
225.746	2.31
225.98	-9.69
226.215	7.31
226.449	21.31
226.683	7.31
226.918	23.31
227.152	54.31
227.387	31.31
227.621	40.31
227.856	52.31
228.09	40.31
228.324	24.31
228.559	58.31
228.793	58.31
229.027	60.31
229.262	59.31
229.496	73.31
229.73	65.31
229.964	63.31
230.199	72.31
230.433	75.31
230.667	70.31
230.901	85.31
231.136	76.31
231.37	82.31
231.604	93.31
231.838	74.31
232.072	67.31
232.306	68.31
232.541	73.31
232.775	75.31
233.009	76.31
233.243	82.31
233.477	81.31
233.711	79.31
233.945	85.31
234.179	88.31
234.413	90.31
234.647	78.31
234.881	68.31
235.115	91.31
235.349	70.31
235.583	85.31
235.817	77.31
236.051	85.31
236.285	78.31
236.519	82.31
236.753	73.31
236.987	79.31
237.221	85.31
237.455	76.31
237.689	64.31
237.922	80.31
238.156	78.31
238.39	79.31
238.624	78.31
238.858	79.31
239.091	73.31
239.325	81.31
239.559	78.31
239.793	80.31
240.027	72.31
240.26	72.31
240.494	89.31
240.728	89.31
240.961	80.31
241.195	77.31
241.429	80.31
241.662	58.31
241.896	81.31
242.13	72.31
242.363	68.31
242.597	69.31
242.83	95.31
243.064	82.31
243.298	69.31
243.531	74.31
243.765	75.31
243.998	68.31
244.232	72.31
244.465	93.31
244.699	77.31
244.932	71.31
245.166	70.31
245.399	79.31
245.633	68.31
245.866	82.31
246.099	69.31
246.333	77.31
246.566	68.31
246.8	74.31
247.033	84.31
247.266	75.31
247.5	75.31
247.733	74.31
247.966	65.31
248.2	85.31
248.433	93.31
248.666	83.31
248.899	79.31
249.133	78.31
249.366	76.31
249.599	75.31
249.832	77.31
250.066	88.31
250.299	75.31
250.532	75.31
250.765	79.31
250.998	71.31
251.231	81.31
251.465	93.31
251.698	79.31
251.931	84.31
252.164	70.31
252.397	69.31
252.63	74.31
252.863	75.31
253.096	88.31
253.329	80.31
253.562	77.31
253.795	75.31
254.028	91.31
254.261	83.31
254.494	79.31
254.727	88.31
254.96	66.31
255.193	77.31
255.426	82.31
255.659	71.31
255.892	81.31
256.124	90.31
256.357	80.31
256.59	85.31
256.823	75.31
257.056	78.31
257.289	79.31
257.521	74.31
257.754	83.31
257.987	76.31
258.22	95.31
258.452	86.31
258.685	85.31
258.918	87.31
259.151	74.31
259.383	94.31
259.616	96.31
259.849	81.31
260.081	96.31
260.314	69.31
260.547	78.31
260.779	84.31
261.012	75.31
261.244	74.31
261.477	89.31
261.71	71.31
261.942	76.31
262.175	93.31
262.407	97.31
262.64	85.31
262.872	87.31
263.105	92.31
263.337	91.31
263.57	83.31
263.802	85.31
264.035	74.31
264.267	90.31
264.499	84.31
264.732	71.31
264.964	70.31
265.197	66.31
265.429	88.31
265.661	78.31
265.894	82.31
266.126	76.31
266.358	73.31
266.591	81.31
266.823	66.31
267.055	82.31
267.287	87.31
267.52	79.31
267.752	68.31
267.984	91.31
268.216	85.31
268.448	93.31
268.681	81.31
268.913	86.31
269.145	78.31
269.377	90.31
269.609	83.31
269.841	90.31
270.073	97.31
270.306	97.31
270.538	82.31
270.77	73.31
271.002	82.31
271.234	83.31
271.466	95.31
271.698	80.31
271.93	90.31
272.162	90.31
272.394	82.31
272.626	80.31
272.858	84.31
273.09	84.31
273.322	89.31
273.553	75.31
273.785	92.31
274.017	84.31
274.249	88.31
274.481	92.31
274.713	93.31
274.945	80.31
275.176	99.31
275.408	97.31
275.64	77.31
275.872	84.31
276.104	81.31
276.335	95.31
276.567	81.31
276.799	89.31
277.031	87.31
277.262	81.31
277.494	68.31
277.726	90.31
277.957	79.31
278.189	86.31
278.421	73.31
278.652	82.31
278.884	72.31
279.115	70.31
279.347	82.31
279.579	67.31
279.81	85.31
280.042	77.31
280.273	86.31
280.505	80.31
280.736	73.31
280.968	74.31
281.199	76.31
281.431	92.31
281.662	91.31
281.894	63.31
282.125	96.31
282.356	94.31
282.588	95.31
282.819	78.31
283.051	82.31
283.282	81.31
283.513	96.31
283.745	84.31
283.976	75.31
284.207	87.31
284.439	84.31
284.67	73.31
284.901	74.31
285.132	94.31
285.364	96.31
285.595	84.31
285.826	81.31
286.057	88.31
286.288	75.31
286.52	78.31
286.751	74.31
286.982	76.31
287.213	78.31
287.444	73.31
287.675	74.31
287.906	78.31
288.138	75.31
288.369	82.31
288.6	86.31
288.831	81.31
289.062	91.31
289.293	97.31
289.524	89.31
289.755	83.31
289.986	97.31
290.217	78.31
290.448	91.31
290.679	93.31
290.91	89.31
291.141	80.31
291.371	65.31
291.602	81.31
291.833	85.31
292.064	82.31
292.295	87.31
292.526	90.31
292.757	76.31
292.987	75.31
293.218	88.31
293.449	92.31
293.68	84.31
293.91	90.31
294.141	95.31
294.372	81.31
294.603	90.31
294.833	99.31
295.064	85.31
295.295	89.31
295.525	83.31
295.756	74.31
295.987	91.31
296.217	107.31
296.448	83.31
296.679	107.31
296.909	85.31
297.14	85.31
297.37	86.31
297.601	90.31
297.831	88.31
298.062	66.31
298.292	87.31
298.523	80.31
298.753	86.31
298.984	85.31
299.214	88.31
299.445	81.31
299.675	90.31
299.905	84.31
300.136	93.31
300.366	88.31
300.597	84.31
300.827	76.31
301.057	84.31
301.288	93.31
301.518	82.31
301.748	89.31
301.979	75.31
302.209	88.31
302.439	98.31
302.669	83.31
302.9	74.31
303.13	86.31
303.36	72.31
303.59	81.31
303.82	94.31
304.051	71.31
304.281	105.31
304.511	90.31
304.741	84.31
304.971	80.31
305.201	84.31
305.431	92.31
305.661	89.31
305.891	83.31
306.121	90.31
306.352	88.31
306.582	77.31
306.812	80.31
307.042	82.31
307.272	87.31
307.502	72.31
307.731	83.31
307.961	89.31
308.191	81.31
308.421	73.31
308.651	92.31
308.881	91.31
309.111	89.31
309.341	94.31
309.571	82.31
309.8	76.31
310.03	78.31
310.26	83.31
310.49	82.31
310.72	68.31
310.949	77.31
311.179	89.31
311.409	81.31
311.639	92.31
311.868	71.31
312.098	86.31
312.328	86.31
312.557	86.31
312.787	66.31
313.017	84.31
313.246	85.31
313.476	87.31
313.706	77.31
313.935	96.31
314.165	74.31
314.394	94.31
314.624	71.31
314.853	80.31
315.083	79.31
315.312	90.31
315.542	98.31
315.771	73.31
316.001	75.31
316.23	95.31
316.46	89.31
316.689	82.31
316.919	87.31
317.148	94.31
317.377	103.31
317.607	84.31
317.836	95.31
318.065	85.31
318.295	81.31
318.524	94.31
318.753	91.31
318.983	80.31
319.212	78.31
319.441	76.31
319.67	77.31
319.9	80.31
320.129	82.31
320.358	82.31
320.587	98.31
320.816	82.31
321.046	81.31
321.275	83.31
321.504	84.31
321.733	93.31
321.962	73.31
322.191	74.31
322.42	79.31
322.649	82.31
322.878	88.31
323.108	93.31
323.337	85.31
323.566	89.31
323.795	73.31
324.024	84.31
324.253	93.31
324.482	92.31
324.71	91.31
324.939	83.31
325.168	87.31
325.397	92.31
325.626	87.31
325.855	89.31
326.084	77.31
326.313	81.31
326.542	78.31
326.77	92.31
326.999	75.31
327.228	77.31
327.457	82.31
327.686	76.31
327.914	81.31
328.143	88.31
328.372	90.31
328.6	85.31
328.829	83.31
329.058	90.31
329.287	85.31
329.515	73.31
329.744	78.31
329.972	78.31
330.201	100.31
330.43	75.31
330.658	84.31
330.887	87.31
331.115	81.31
331.344	88.31
331.572	80.31
331.801	90.31
332.03	67.31
332.258	77.31
332.486	85.31
332.715	84.31
332.943	86.31
333.172	92.31
333.4	84.31
333.629	90.31
333.857	87.31
334.085	83.31
334.314	78.31
334.542	81.31
334.771	84.31
334.999	82.31
335.227	84.31
335.455	97.31
335.684	82.31
335.912	76.31
336.14	77.31
336.369	82.31
336.597	79.31
336.825	77.31
337.053	82.31
337.281	80.31
337.51	74.31
337.738	91.31
337.966	81.31
338.194	70.31
338.422	86.31
338.65	74.31
338.878	83.31
339.106	86.31
339.334	86.31
339.562	85.31
339.79	72.31
340.018	75.31
340.246	89.31
340.474	92.31
340.702	84.31
340.93	76.31
341.158	84.31
341.386	75.31
341.614	86.31
341.842	101.31
342.07	76.31
342.298	76.31
342.526	91.31
342.754	94.31
342.981	92.31
343.209	73.31
343.437	90.31
343.665	89.31
343.893	91.31
344.12	89.31
344.348	81.31
344.576	83.31
344.804	76.31
345.031	105.31
345.259	84.31
345.487	85.31
345.714	73.31
345.942	82.31
346.17	88.31
346.397	74.31
346.625	94.31
346.853	80.31
347.08	89.31
347.308	78.31
347.535	78.31
347.763	80.31
347.99	90.31
348.218	83.31
348.445	84.31
348.673	106.31
348.9	86.31
349.128	76.31
349.355	81.31
349.583	73.31
349.81	85.31
350.037	89.31
350.265	82.31
350.492	86.31
350.72	86.31
350.947	88.31
351.174	78.31
351.402	64.31
351.629	85.31
351.856	86.31
352.083	72.31
352.311	84.31
352.538	80.31
352.765	87.31
352.992	86.31
353.22	76.31
353.447	94.31
353.674	92.31
353.901	68.31
354.128	91.31
354.355	73.31
354.583	73.31
354.81	86.31
355.037	96.31
355.264	99.31
355.491	81.31
355.718	76.31
355.945	86.31
356.172	78.31
356.399	85.31
356.626	77.31
356.853	82.31
357.08	78.31
357.307	74.31
357.534	84.31
357.761	100.31
357.988	73.31
358.215	71.31
358.441	88.31
358.668	84.31
358.895	79.31
359.122	82.31
359.349	75.31
359.576	80.31
359.802	80.31
360.029	85.31
360.256	80.31
360.483	79.31
360.709	78.31
360.936	80.31
361.163	77.31
361.39	72.31
361.616	89.31
361.843	88.31
362.07	95.31
362.296	85.31
362.523	69.31
362.749	81.31
362.976	82.31
363.203	92.31
363.429	87.31
363.656	80.31
363.882	87.31
364.109	104.31
364.335	85.31
364.562	80.31
364.788	72.31
365.015	88.31
365.241	86.31
365.468	86.31
365.694	78.31
365.92	84.31
366.147	70.31
366.373	81.31
366.599	75.31
366.826	82.31
367.052	84.31
367.278	92.31
367.505	89.31
367.731	84.31
367.957	91.31
368.184	91.31
368.41	77.31
368.636	66.31
368.862	77.31
369.089	91.31
369.315	88.31
369.541	94.31
369.767	86.31
369.993	104.31
370.219	85.31
370.445	85.31
370.672	83.31
370.898	75.31
371.124	74.31
371.35	75.31
371.576	82.31
371.802	83.31
372.028	75.31
372.254	82.31
372.48	61.31
372.706	72.31
372.932	71.31
373.158	84.31
373.384	80.31
373.61	94.31
373.835	85.31
374.061	72.31
374.287	88.31
374.513	90.31
374.739	76.31
374.965	86.31
375.191	82.31
375.416	77.31
375.642	80.31
375.868	80.31
376.094	92.31
376.319	78.31
376.545	86.31
376.771	73.31
376.997	92.31
377.222	88.31
377.448	83.31
377.674	73.31
377.899	89.31
378.125	81.31
378.35	83.31
378.576	81.31
378.802	87.31
379.027	88.31
379.253	83.31
379.478	93.31
379.704	86.31
379.929	80.31
380.155	78.31
380.38	74.31
380.606	81.31
380.831	75.31
381.057	89.31
381.282	92.31
381.507	91.31
381.733	90.31
381.958	82.31
382.184	90.31
382.409	84.31
382.634	73.31
382.86	89.31
383.085	89.31
383.31	85.31
383.535	90.31
383.761	92.31
383.986	97.31
384.211	85.31
384.436	75.31
384.662	78.31
384.887	84.31
385.112	88.31
385.337	87.31
385.562	69.31
385.787	77.31
386.013	100.31
386.238	84.31
386.463	85.31
386.688	77.31
386.913	76.31
387.138	68.31
387.363	70.31
387.588	78.31
387.813	90.31
388.038	93.31
388.263	84.31
388.488	88.31
388.713	79.31
388.938	76.31
389.163	72.31
389.387	91.31
389.612	95.31
389.837	73.31
390.062	83.31
390.287	90.31
390.512	85.31
390.736	83.31
390.961	71.31
391.186	103.31
391.411	86.31
391.636	105.31
391.86	91.31
392.085	78.31
392.31	87.31
392.534	72.31
392.759	80.31
392.984	91.31
393.208	77.31
393.433	72.31
393.658	93.31
393.882	94.31
394.107	83.31
394.331	84.31
394.556	70.31
394.78	75.31
395.005	70.31
395.229	87.31
395.454	80.31
395.678	86.31
395.903	87.31
396.127	85.31
396.352	81.31
396.576	76.31
396.801	94.31
397.025	84.31
397.249	95.31
397.474	103.31
397.698	87.31
397.922	85.31
398.147	78.31
398.371	74.31
398.595	79.31
398.82	79.31
399.044	80.31
399.268	95.31
399.492	95.31
399.717	96.31
399.941	82.31
400.165	84.31
400.389	81.31
400.613	84.31
400.837	83.31
401.062	74.31
401.286	87.31
401.51	82.31
401.734	83.31
401.958	74.31
402.182	89.31
402.406	84.31
402.63	82.31
402.854	68.31
403.078	69.31
403.302	84.31
403.526	86.31
403.75	80.31
403.974	78.31
404.198	88.31
404.422	94.31
404.645	76.31
404.869	87.31
405.093	90.31
405.317	91.31
405.541	88.31
405.765	92.31
405.988	82.31
406.212	74.31
406.436	70.31
406.66	79.31
406.883	81.31
407.107	81.31
407.331	89.31
407.555	91.31
407.778	92.31
408.002	83.31
408.226	91.31
408.449	75.31
408.673	73.31
408.896	84.31
409.12	83.31
409.344	83.31
409.567	92.31
409.791	86.31
410.014	85.31
410.238	86.31
410.461	86.31
410.685	109.31
410.908	85.31
411.132	89.31
411.355	88.31
411.578	77.31
411.802	97.31
412.025	73.31
412.249	85.31
412.472	69.31
412.695	94.31
412.919	68.31
413.142	81.31
413.365	76.31
413.589	82.31
413.812	83.31
414.035	87.31
414.258	85.31
414.482	82.31
414.705	84.31
414.928	89.31
415.151	82.31
415.374	82.31
415.597	92.31
415.821	85.31
416.044	87.31
416.267	86.31
416.49	103.31
416.713	82.31
416.936	94.31
417.159	84.31
417.382	84.31
417.605	85.31
417.828	74.31
418.051	94.31
418.274	86.31
418.497	88.31
418.72	97.31
418.943	82.31
419.166	95.31
419.389	92.31
419.611	84.31
419.834	75.31
420.057	83.31
420.28	86.31
420.503	81.31
420.726	96.31
420.948	86.31
421.171	91.31
421.394	91.31
421.617	97.31
421.839	69.31
422.062	84.31
422.285	92.31
422.507	90.31
422.73	81.31
422.953	86.31
423.175	82.31
423.398	103.31
423.621	88.31
423.843	84.31
424.066	100.31
424.288	92.31
424.511	88.31
424.733	91.31
424.956	93.31
425.178	98.31
425.401	92.31
425.623	86.31
425.846	82.31
426.068	73.31
426.291	73.31
426.513	72.31
426.735	89.31
426.958	85.31
427.18	73.31
427.402	89.31
427.625	87.31
427.847	75.31
428.069	81.31
428.292	101.31
428.514	79.31
428.736	91.31
428.958	83.31
429.181	89.31
429.403	73.31
429.625	93.31
429.847	98.31
430.069	88.31
430.292	85.31
430.514	79.31
430.736	80.31
430.958	82.31
431.18	83.31
431.402	84.31
431.624	98.31
431.846	88.31
432.068	76.31
432.29	81.31
432.512	88.31
432.734	81.31
432.956	68.31
433.178	78.31
433.4	98.31
433.622	85.31
433.844	86.31
434.066	77.31
434.287	85.31
434.509	77.31
434.731	103.31
434.953	80.31
435.175	76.31
435.397	89.31
435.618	92.31
435.84	86.31
436.062	85.31
436.284	73.31
436.505	78.31
436.727	77.31
436.949	82.31
437.17	91.31
437.392	90.31
437.614	81.31
437.835	89.31
438.057	91.31
438.278	83.31
438.5	82.31
438.721	99.31
438.943	94.31
439.165	94.31
439.386	98.31
439.608	91.31
439.829	101.31
440.05	87.31
440.272	87.31
440.493	85.31
440.715	100.31
440.936	92.31
441.158	100.31
441.379	92.31
441.6	104.31
441.822	93.31
442.043	102.31
442.264	96.31
442.486	75.31
442.707	86.31
442.928	96.31
443.149	90.31
443.371	88.31
443.592	73.31
443.813	96.31
444.034	94.31
444.255	99.31
444.476	96.31
444.698	92.31
444.919	88.31
445.14	225.31
445.361	153.31
445.582	91.31
445.803	98.31
446.024	108.31
446.245	91.31
446.466	90.31
446.687	92.31
446.908	112.31
447.129	93.31
447.35	91.31
447.571	100.31
447.792	81.31
448.013	83.31
448.234	86.31
448.455	80.31
448.675	93.31
448.896	94.31
449.117	94.31
449.338	90.31
449.559	97.31
449.779	97.31
450	89.31
450.221	86.31
450.442	84.31
450.662	76.31
450.883	88.31
451.104	93.31
451.324	96.31
451.545	79.31
451.766	83.31
451.986	78.31
452.207	80.31
452.428	87.31
452.648	98.31
452.869	83.31
453.089	68.31
453.31	90.31
453.53	80.31
453.751	92.31
453.971	84.31
454.192	97.31
454.412	72.31
454.633	81.31
454.853	88.31
455.073	82.31
455.294	77.31
455.514	92.31
455.734	73.31
455.955	101.31
456.175	80.31
456.395	79.31
456.616	85.31
456.836	88.31
457.056	86.31
457.276	80.31
457.497	77.31
457.717	80.31
457.937	73.31
458.157	78.31
458.377	88.31
458.598	87.31
458.818	87.31
459.038	77.31
459.258	74.31
459.478	94.31
459.698	82.31
459.918	92.31
460.138	84.31
460.358	84.31
460.578	85.31
460.798	98.31
461.018	84.31
461.238	94.31
461.458	97.31
461.678	81.31
461.898	64.31
462.118	77.31
462.338	82.31
462.558	87.31
462.777	67.31
462.997	82.31
463.217	91.31
463.437	104.31
463.657	91.31
463.876	88.31
464.096	87.31
464.316	91.31
464.536	76.31
464.755	90.31
464.975	95.31
465.195	86.31
465.414	90.31
465.634	82.31
465.854	84.31
466.073	82.31
466.293	73.31
466.512	86.31
466.732	99.31
466.951	97.31
467.171	97.31
467.391	81.31
467.61	75.31
467.829	105.31
468.049	90.31
468.268	92.31
468.488	89.31
468.707	74.31
468.927	86.31
469.146	97.31
469.365	89.31
469.585	87.31
469.804	88.31
470.023	82.31
470.243	81.31
470.462	89.31
470.681	99.31
470.901	100.31
471.12	84.31
471.339	93.31
471.558	95.31
471.777	87.31
471.997	97.31
472.216	82.31
472.435	79.31
472.654	80.31
472.873	90.31
473.092	86.31
473.311	82.31
473.53	96.31
473.749	90.31
473.968	91.31
474.187	89.31
474.406	92.31
474.625	95.31
474.844	92.31
475.063	87.31
475.282	94.31
475.501	92.31
475.72	91.31
475.939	87.31
476.158	96.31
476.377	93.31
476.596	85.31
476.814	92.31
477.033	75.31
477.252	87.31
477.471	103.31
477.69	93.31
477.908	97.31
478.127	90.31
478.346	86.31
478.564	90.31
478.783	91.31
479.002	95.31
479.22	85.31
479.439	105.31
479.658	90.31
479.876	89.31
480.095	84.31
480.313	85.31
480.532	92.31
480.751	94.31
480.969	81.31
481.188	81.31
481.406	85.31
481.624	78.31
481.843	79.31
482.061	77.31
482.28	84.31
482.498	82.31
482.717	89.31
482.935	86.31
483.153	78.31
483.372	89.31
483.59	84.31
483.808	86.31
484.027	88.31
484.245	96.31
484.463	94.31
484.681	105.31
484.9	107.31
485.118	95.31
485.336	96.31
485.554	84.31
485.772	93.31
485.99	92.31
486.209	75.31
486.427	76.31
486.645	85.31
486.863	89.31
487.081	85.31
487.299	100.31
487.517	78.31
487.735	96.31
487.953	116.31
488.171	101.31
488.389	97.31
488.607	99.31
488.825	98.31
489.043	82.31
489.261	91.31
489.479	99.31
489.696	103.31
489.914	99.31
490.132	76.31
490.35	100.31
490.568	92.31
490.786	97.31
491.003	97.31
491.221	96.31
491.439	98.31
491.657	91.31
491.874	101.31
492.092	98.31
492.31	105.31
492.527	115.31
492.745	99.31
492.963	100.31
493.18	105.31
493.398	116.31
493.615	99.31
493.833	103.31
494.05	98.31
494.268	95.31
494.485	106.31
494.703	104.31
494.92	91.31
495.138	105.31
495.355	104.31
495.573	103.31
495.79	103.31
496.008	100.31
496.225	100.31
496.442	85.31
496.66	111.31
496.877	94.31
497.094	107.31
497.312	101.31
497.529	91.31
497.746	97.31
497.963	91.31
498.181	101.31
498.398	92.31
498.615	88.31
498.832	77.31
499.049	97.31
499.267	104.31
499.484	92.31
499.701	95.31
499.918	92.31
500.135	86.31
500.352	96.31
500.569	96.31
500.786	87.31
501.003	104.31
501.22	98.31
501.437	79.31
501.654	92.31
501.871	77.31
502.088	100.31
502.305	92.31
502.522	102.31
502.739	89.31
502.956	89.31
503.172	92.31
503.389	75.31
503.606	88.31
503.823	92.31
504.04	115.31
504.256	101.31
504.473	83.31
504.69	93.31
504.907	76.31
505.123	83.31
505.34	96.31
505.557	100.31
505.773	84.31
505.99	89.31
506.207	95.31
506.423	100.31
506.64	77.31
506.856	69.31
507.073	89.31
507.289	93.31
507.506	102.31
507.722	99.31
507.939	100.31
508.155	89.31
508.372	86.31
508.588	85.31
508.805	90.31
509.021	84.31
509.238	89.31
509.454	93.31
509.67	85.31
509.887	84.31
510.103	84.31
510.319	73.31
510.536	75.31
510.752	77.31
510.968	66.31
511.184	89.31
511.401	80.31
511.617	88.31
511.833	92.31
512.049	70.31
512.265	86.31
512.481	85.31
512.698	99.31
512.914	96.31
513.13	78.31
513.346	76.31
513.562	83.31
513.778	83.31
513.994	88.31
514.21	86.31
514.426	68.31
514.642	96.31
514.858	88.31
515.074	86.31
515.29	84.31
515.506	86.31
515.721	71.31
515.937	82.31
516.153	86.31
516.369	80.31
516.585	93.31
516.801	81.31
517.016	83.31
517.232	91.31
517.448	102.31
517.664	99.31
517.879	95.31
518.095	87.31
518.311	86.31
518.527	77.31
