Data from Zn(NO3)2Standard.Agarose3%.GreenCap.LampEnergy5.5.E.O_HRD10591_15-04-01-768.txt Node
Date: Mon Jul 22 15:04:01 EDT 2019
User: cochatt
Spectrometer: HR+D1059
Trigger mode: 1
Integration Time (sec): 1.000000E-1
Scans to average: 1
Electric dark correction enabled: true
Nonlinearity correction enabled: false
Boxcar width: 0
XAxis mode: Wavelengths
Number of Pixels in Spectrum: 2048
>>>>>Begin Spectral Data<<<<<
223.165	-6.06
223.4	-6.06
223.635	-6.06
223.869	-10.06
224.104	-5.06
224.338	-14.06
224.573	-3.06
224.808	-6.06
225.042	-11.06
225.277	3.94
225.511	-16.06
225.746	5.94
225.98	-0.06
226.215	-7.06
226.449	10.94
226.683	11.94
226.918	15.94
227.152	29.94
227.387	35.94
227.621	41.94
227.856	32.94
228.09	58.94
228.324	48.94
228.559	44.94
228.793	43.94
229.027	56.94
229.262	77.94
229.496	71.94
229.73	76.94
229.964	70.94
230.199	74.94
230.433	81.94
230.667	80.94
230.901	76.94
231.136	84.94
231.37	74.94
231.604	64.94
231.838	78.94
232.072	84.94
232.306	76.94
232.541	77.94
232.775	92.94
233.009	80.94
233.243	94.94
233.477	77.94
233.711	74.94
233.945	74.94
234.179	89.94
234.413	82.94
234.647	78.94
234.881	85.94
235.115	91.94
235.349	74.94
235.583	77.94
235.817	79.94
236.051	73.94
236.285	77.94
236.519	90.94
236.753	73.94
236.987	69.94
237.221	85.94
237.455	71.94
237.689	77.94
237.922	85.94
238.156	80.94
238.39	69.94
238.624	86.94
238.858	88.94
239.091	64.94
239.325	84.94
239.559	77.94
239.793	78.94
240.027	89.94
240.26	77.94
240.494	94.94
240.728	86.94
240.961	78.94
241.195	65.94
241.429	84.94
241.662	97.94
241.896	79.94
242.13	67.94
242.363	74.94
242.597	88.94
242.83	72.94
243.064	72.94
243.298	87.94
243.531	79.94
243.765	73.94
243.998	87.94
244.232	85.94
244.465	67.94
244.699	69.94
244.932	83.94
245.166	76.94
245.399	80.94
245.633	90.94
245.866	85.94
246.099	86.94
246.333	86.94
246.566	92.94
246.8	64.94
247.033	82.94
247.266	91.94
247.5	76.94
247.733	86.94
247.966	89.94
248.2	80.94
248.433	85.94
248.666	85.94
248.899	78.94
249.133	99.94
249.366	101.94
249.599	75.94
249.832	81.94
250.066	82.94
250.299	81.94
250.532	88.94
250.765	92.94
250.998	76.94
251.231	69.94
251.465	92.94
251.698	92.94
251.931	84.94
252.164	84.94
252.397	69.94
252.63	72.94
252.863	68.94
253.096	98.94
253.329	67.94
253.562	86.94
253.795	63.94
254.028	81.94
254.261	78.94
254.494	76.94
254.727	84.94
254.96	90.94
255.193	86.94
255.426	78.94
255.659	97.94
255.892	99.94
256.124	84.94
256.357	82.94
256.59	64.94
256.823	77.94
257.056	64.94
257.289	73.94
257.521	85.94
257.754	90.94
257.987	83.94
258.22	72.94
258.452	78.94
258.685	84.94
258.918	87.94
259.151	80.94
259.383	94.94
259.616	83.94
259.849	78.94
260.081	85.94
260.314	80.94
260.547	75.94
260.779	83.94
261.012	86.94
261.244	80.94
261.477	93.94
261.71	77.94
261.942	81.94
262.175	85.94
262.407	71.94
262.64	83.94
262.872	81.94
263.105	70.94
263.337	89.94
263.57	83.94
263.802	87.94
264.035	93.94
264.267	77.94
264.499	91.94
264.732	88.94
264.964	66.94
265.197	75.94
265.429	78.94
265.661	82.94
265.894	78.94
266.126	98.94
266.358	89.94
266.591	85.94
266.823	80.94
267.055	81.94
267.287	82.94
267.52	89.94
267.752	90.94
267.984	75.94
268.216	75.94
268.448	89.94
268.681	76.94
268.913	83.94
269.145	92.94
269.377	82.94
269.609	92.94
269.841	75.94
270.073	97.94
270.306	104.94
270.538	82.94
270.77	89.94
271.002	91.94
271.234	81.94
271.466	70.94
271.698	87.94
271.93	74.94
272.162	83.94
272.394	75.94
272.626	78.94
272.858	75.94
273.09	85.94
273.322	75.94
273.553	84.94
273.785	72.94
274.017	87.94
274.249	76.94
274.481	98.94
274.713	84.94
274.945	80.94
275.176	76.94
275.408	80.94
275.64	76.94
275.872	96.94
276.104	72.94
276.335	69.94
276.567	89.94
276.799	97.94
277.031	87.94
277.262	88.94
277.494	95.94
277.726	92.94
277.957	91.94
278.189	77.94
278.421	84.94
278.652	94.94
278.884	92.94
279.115	84.94
279.347	89.94
279.579	100.94
279.81	74.94
280.042	76.94
280.273	81.94
280.505	96.94
280.736	77.94
280.968	79.94
281.199	77.94
281.431	71.94
281.662	83.94
281.894	90.94
282.125	90.94
282.356	75.94
282.588	80.94
282.819	76.94
283.051	89.94
283.282	64.94
283.513	95.94
283.745	83.94
283.976	83.94
284.207	97.94
284.439	86.94
284.67	93.94
284.901	86.94
285.132	81.94
285.364	90.94
285.595	99.94
285.826	91.94
286.057	83.94
286.288	81.94
286.52	95.94
286.751	83.94
286.982	94.94
287.213	89.94
287.444	97.94
287.675	92.94
287.906	96.94
288.138	85.94
288.369	94.94
288.6	91.94
288.831	84.94
289.062	93.94
289.293	82.94
289.524	84.94
289.755	79.94
289.986	97.94
290.217	82.94
290.448	93.94
290.679	87.94
290.91	93.94
291.141	88.94
291.371	75.94
291.602	83.94
291.833	82.94
292.064	88.94
292.295	93.94
292.526	78.94
292.757	81.94
292.987	82.94
293.218	90.94
293.449	90.94
293.68	92.94
293.91	80.94
294.141	73.94
294.372	73.94
294.603	90.94
294.833	82.94
295.064	81.94
295.295	82.94
295.525	90.94
295.756	90.94
295.987	91.94
296.217	89.94
296.448	80.94
296.679	87.94
296.909	78.94
297.14	74.94
297.37	73.94
297.601	92.94
297.831	81.94
298.062	79.94
298.292	89.94
298.523	81.94
298.753	91.94
298.984	97.94
299.214	89.94
299.445	83.94
299.675	89.94
299.905	87.94
300.136	87.94
300.366	80.94
300.597	80.94
300.827	84.94
301.057	84.94
301.288	86.94
301.518	73.94
301.748	92.94
301.979	87.94
302.209	83.94
302.439	82.94
302.669	84.94
302.9	87.94
303.13	88.94
303.36	76.94
303.59	88.94
303.82	89.94
304.051	81.94
304.281	110.94
304.511	105.94
304.741	94.94
304.971	89.94
305.201	96.94
305.431	74.94
305.661	74.94
305.891	84.94
306.121	79.94
306.352	78.94
306.582	94.94
306.812	81.94
307.042	89.94
307.272	88.94
307.502	91.94
307.731	89.94
307.961	84.94
308.191	97.94
308.421	92.94
308.651	85.94
308.881	84.94
309.111	100.94
309.341	86.94
309.571	88.94
309.8	89.94
310.03	81.94
310.26	65.94
310.49	86.94
310.72	96.94
310.949	86.94
311.179	80.94
311.409	65.94
311.639	84.94
311.868	92.94
312.098	87.94
312.328	87.94
312.557	85.94
312.787	84.94
313.017	85.94
313.246	96.94
313.476	94.94
313.706	82.94
313.935	90.94
314.165	96.94
314.394	81.94
314.624	91.94
314.853	92.94
315.083	81.94
315.312	77.94
315.542	101.94
315.771	78.94
316.001	77.94
316.23	100.94
316.46	99.94
316.689	85.94
316.919	103.94
317.148	98.94
317.377	96.94
317.607	72.94
317.836	78.94
318.065	85.94
318.295	84.94
318.524	78.94
318.753	86.94
318.983	78.94
319.212	96.94
319.441	75.94
319.67	92.94
319.9	73.94
320.129	84.94
320.358	86.94
320.587	99.94
320.816	73.94
321.046	83.94
321.275	104.94
321.504	95.94
321.733	78.94
321.962	91.94
322.191	79.94
322.42	75.94
322.649	78.94
322.878	82.94
323.108	81.94
323.337	94.94
323.566	78.94
323.795	83.94
324.024	97.94
324.253	72.94
324.482	70.94
324.71	78.94
324.939	85.94
325.168	101.94
325.397	78.94
325.626	95.94
325.855	82.94
326.084	83.94
326.313	91.94
326.542	87.94
326.77	84.94
326.999	78.94
327.228	82.94
327.457	88.94
327.686	83.94
327.914	91.94
328.143	80.94
328.372	91.94
328.6	84.94
328.829	106.94
329.058	82.94
329.287	90.94
329.515	82.94
329.744	79.94
329.972	86.94
330.201	92.94
330.43	76.94
330.658	89.94
330.887	96.94
331.115	85.94
331.344	97.94
331.572	87.94
331.801	92.94
332.03	80.94
332.258	80.94
332.486	90.94
332.715	81.94
332.943	81.94
333.172	91.94
333.4	78.94
333.629	88.94
333.857	80.94
334.085	80.94
334.314	71.94
334.542	88.94
334.771	94.94
334.999	94.94
335.227	97.94
335.455	81.94
335.684	90.94
335.912	92.94
336.14	79.94
336.369	92.94
336.597	82.94
336.825	85.94
337.053	88.94
337.281	91.94
337.51	92.94
337.738	95.94
337.966	79.94
338.194	74.94
338.422	91.94
338.65	90.94
338.878	94.94
339.106	87.94
339.334	68.94
339.562	83.94
339.79	73.94
340.018	92.94
340.246	81.94
340.474	95.94
340.702	94.94
340.93	82.94
341.158	77.94
341.386	81.94
341.614	96.94
341.842	88.94
342.07	78.94
342.298	94.94
342.526	96.94
342.754	78.94
342.981	71.94
343.209	77.94
343.437	86.94
343.665	77.94
343.893	95.94
344.12	82.94
344.348	75.94
344.576	86.94
344.804	81.94
345.031	92.94
345.259	83.94
345.487	77.94
345.714	77.94
345.942	83.94
346.17	81.94
346.397	71.94
346.625	85.94
346.853	78.94
347.08	79.94
347.308	85.94
347.535	90.94
347.763	85.94
347.99	82.94
348.218	80.94
348.445	73.94
348.673	86.94
348.9	89.94
349.128	87.94
349.355	89.94
349.583	97.94
349.81	81.94
350.037	73.94
350.265	94.94
350.492	80.94
350.72	93.94
350.947	78.94
351.174	98.94
351.402	73.94
351.629	94.94
351.856	78.94
352.083	70.94
352.311	84.94
352.538	75.94
352.765	86.94
352.992	67.94
353.22	78.94
353.447	83.94
353.674	80.94
353.901	82.94
354.128	89.94
354.355	72.94
354.583	79.94
354.81	93.94
355.037	82.94
355.264	80.94
355.491	91.94
355.718	77.94
355.945	85.94
356.172	78.94
356.399	85.94
356.626	83.94
356.853	85.94
357.08	61.94
357.307	77.94
357.534	83.94
357.761	95.94
357.988	74.94
358.215	89.94
358.441	85.94
358.668	83.94
358.895	84.94
359.122	71.94
359.349	97.94
359.576	86.94
359.802	85.94
360.029	84.94
360.256	85.94
360.483	89.94
360.709	78.94
360.936	93.94
361.163	99.94
361.39	75.94
361.616	82.94
361.843	88.94
362.07	90.94
362.296	95.94
362.523	80.94
362.749	75.94
362.976	88.94
363.203	98.94
363.429	78.94
363.656	75.94
363.882	86.94
364.109	100.94
364.335	98.94
364.562	72.94
364.788	77.94
365.015	91.94
365.241	84.94
365.468	70.94
365.694	83.94
365.92	97.94
366.147	84.94
366.373	74.94
366.599	92.94
366.826	90.94
367.052	94.94
367.278	84.94
367.505	81.94
367.731	80.94
367.957	91.94
368.184	81.94
368.41	73.94
368.636	87.94
368.862	78.94
369.089	73.94
369.315	83.94
369.541	82.94
369.767	85.94
369.993	89.94
370.219	83.94
370.445	90.94
370.672	89.94
370.898	71.94
371.124	72.94
371.35	100.94
371.576	74.94
371.802	89.94
372.028	78.94
372.254	87.94
372.48	76.94
372.706	85.94
372.932	81.94
373.158	87.94
373.384	90.94
373.61	82.94
373.835	71.94
374.061	85.94
374.287	85.94
374.513	81.94
374.739	84.94
374.965	83.94
375.191	74.94
375.416	90.94
375.642	83.94
375.868	81.94
376.094	97.94
376.319	91.94
376.545	83.94
376.771	100.94
376.997	89.94
377.222	86.94
377.448	87.94
377.674	88.94
377.899	89.94
378.125	86.94
378.35	78.94
378.576	84.94
378.802	84.94
379.027	85.94
379.253	93.94
379.478	90.94
379.704	74.94
379.929	69.94
380.155	94.94
380.38	89.94
380.606	84.94
380.831	88.94
381.057	89.94
381.282	87.94
381.507	97.94
381.733	78.94
381.958	82.94
382.184	92.94
382.409	85.94
382.634	93.94
382.86	87.94
383.085	98.94
383.31	78.94
383.535	90.94
383.761	88.94
383.986	78.94
384.211	99.94
384.436	84.94
384.662	100.94
384.887	89.94
385.112	84.94
385.337	76.94
385.562	77.94
385.787	84.94
386.013	79.94
386.238	82.94
386.463	98.94
386.688	65.94
386.913	75.94
387.138	86.94
387.363	81.94
387.588	86.94
387.813	78.94
388.038	74.94
388.263	79.94
388.488	91.94
388.713	73.94
388.938	80.94
389.163	90.94
389.387	82.94
389.612	79.94
389.837	90.94
390.062	89.94
390.287	89.94
390.512	76.94
390.736	72.94
390.961	83.94
391.186	85.94
391.411	72.94
391.636	96.94
391.86	81.94
392.085	93.94
392.31	88.94
392.534	90.94
392.759	88.94
392.984	78.94
393.208	94.94
393.433	89.94
393.658	78.94
393.882	82.94
394.107	97.94
394.331	91.94
394.556	92.94
394.78	72.94
395.005	82.94
395.229	84.94
395.454	87.94
395.678	86.94
395.903	101.94
396.127	101.94
396.352	87.94
396.576	82.94
396.801	74.94
397.025	87.94
397.249	89.94
397.474	89.94
397.698	100.94
397.922	86.94
398.147	87.94
398.371	82.94
398.595	91.94
398.82	89.94
399.044	80.94
399.268	83.94
399.492	90.94
399.717	102.94
399.941	68.94
400.165	73.94
400.389	70.94
400.613	87.94
400.837	93.94
401.062	91.94
401.286	82.94
401.51	95.94
401.734	92.94
401.958	92.94
402.182	91.94
402.406	73.94
402.63	86.94
402.854	73.94
403.078	78.94
403.302	93.94
403.526	101.94
403.75	90.94
403.974	77.94
404.198	90.94
404.422	93.94
404.645	76.94
404.869	83.94
405.093	101.94
405.317	86.94
405.541	89.94
405.765	79.94
405.988	93.94
406.212	101.94
406.436	88.94
406.66	90.94
406.883	78.94
407.107	74.94
407.331	92.94
407.555	86.94
407.778	78.94
408.002	89.94
408.226	93.94
408.449	84.94
408.673	102.94
408.896	96.94
409.12	82.94
409.344	85.94
409.567	88.94
409.791	76.94
410.014	100.94
410.238	80.94
410.461	85.94
410.685	96.94
410.908	86.94
411.132	95.94
411.355	80.94
411.578	80.94
411.802	97.94
412.025	96.94
412.249	83.94
412.472	88.94
412.695	85.94
412.919	81.94
413.142	73.94
413.365	82.94
413.589	88.94
413.812	72.94
414.035	93.94
414.258	93.94
414.482	89.94
414.705	84.94
414.928	90.94
415.151	87.94
415.374	92.94
415.597	85.94
415.821	78.94
416.044	88.94
416.267	79.94
416.49	93.94
416.713	79.94
416.936	99.94
417.159	94.94
417.382	81.94
417.605	83.94
417.828	99.94
418.051	84.94
418.274	77.94
418.497	84.94
418.72	95.94
418.943	109.94
419.166	93.94
419.389	86.94
419.611	94.94
419.834	95.94
420.057	88.94
420.28	88.94
420.503	91.94
420.726	99.94
420.948	87.94
421.171	97.94
421.394	82.94
421.617	90.94
421.839	93.94
422.062	101.94
422.285	88.94
422.507	97.94
422.73	94.94
422.953	103.94
423.175	96.94
423.398	94.94
423.621	88.94
423.843	99.94
424.066	88.94
424.288	100.94
424.511	89.94
424.733	97.94
424.956	80.94
425.178	90.94
425.401	103.94
425.623	76.94
425.846	90.94
426.068	96.94
426.291	93.94
426.513	81.94
426.735	99.94
426.958	74.94
427.18	90.94
427.402	93.94
427.625	102.94
427.847	81.94
428.069	92.94
428.292	84.94
428.514	80.94
428.736	98.94
428.958	80.94
429.181	90.94
429.403	86.94
429.625	93.94
429.847	83.94
430.069	82.94
430.292	90.94
430.514	89.94
430.736	86.94
430.958	94.94
431.18	90.94
431.402	96.94
431.624	95.94
431.846	81.94
432.068	77.94
432.29	86.94
432.512	81.94
432.734	93.94
432.956	98.94
433.178	89.94
433.4	88.94
433.622	82.94
433.844	97.94
434.066	88.94
434.287	78.94
434.509	90.94
434.731	76.94
434.953	92.94
435.175	93.94
435.397	94.94
435.618	85.94
435.84	80.94
436.062	84.94
436.284	93.94
436.505	91.94
436.727	92.94
436.949	83.94
437.17	85.94
437.392	94.94
437.614	91.94
437.835	71.94
438.057	83.94
438.278	77.94
438.5	75.94
438.721	98.94
438.943	86.94
439.165	98.94
439.386	89.94
439.608	85.94
439.829	100.94
440.05	84.94
440.272	96.94
440.493	97.94
440.715	89.94
440.936	95.94
441.158	76.94
441.379	103.94
441.6	97.94
441.822	90.94
442.043	88.94
442.264	89.94
442.486	89.94
442.707	95.94
442.928	106.94
443.149	88.94
443.371	94.94
443.592	98.94
443.813	98.94
444.034	88.94
444.255	93.94
444.476	89.94
444.698	84.94
444.919	93.94
445.14	200.94
445.361	135.94
445.582	91.94
445.803	92.94
446.024	91.94
446.245	100.94
446.466	90.94
446.687	87.94
446.908	78.94
447.129	100.94
447.35	90.94
447.571	86.94
447.792	79.94
448.013	82.94
448.234	80.94
448.455	74.94
448.675	81.94
448.896	86.94
449.117	97.94
449.338	104.94
449.559	101.94
449.779	91.94
450	82.94
450.221	86.94
450.442	94.94
450.662	93.94
450.883	97.94
451.104	92.94
451.324	96.94
451.545	89.94
451.766	87.94
451.986	64.94
452.207	103.94
452.428	93.94
452.648	85.94
452.869	89.94
453.089	98.94
453.31	84.94
453.53	92.94
453.751	86.94
453.971	84.94
454.192	73.94
454.412	97.94
454.633	92.94
454.853	92.94
455.073	88.94
455.294	90.94
455.514	85.94
455.734	80.94
455.955	78.94
456.175	89.94
456.395	82.94
456.616	88.94
456.836	86.94
457.056	74.94
457.276	82.94
457.497	87.94
457.717	77.94
457.937	85.94
458.157	86.94
458.377	85.94
458.598	84.94
458.818	76.94
459.038	84.94
459.258	66.94
459.478	90.94
459.698	86.94
459.918	83.94
460.138	83.94
460.358	81.94
460.578	80.94
460.798	71.94
461.018	78.94
461.238	100.94
461.458	88.94
461.678	82.94
461.898	91.94
462.118	84.94
462.338	98.94
462.558	87.94
462.777	86.94
462.997	82.94
463.217	93.94
463.437	96.94
463.657	87.94
463.876	69.94
464.096	79.94
464.316	77.94
464.536	88.94
464.755	86.94
464.975	105.94
465.195	81.94
465.414	77.94
465.634	74.94
465.854	83.94
466.073	84.94
466.293	78.94
466.512	102.94
466.732	91.94
466.951	100.94
467.171	91.94
467.391	84.94
467.61	84.94
467.829	85.94
468.049	89.94
468.268	84.94
468.488	86.94
468.707	89.94
468.927	84.94
469.146	92.94
469.365	82.94
469.585	82.94
469.804	90.94
470.023	94.94
470.243	96.94
470.462	90.94
470.681	82.94
470.901	104.94
471.12	96.94
471.339	102.94
471.558	96.94
471.777	96.94
471.997	85.94
472.216	95.94
472.435	89.94
472.654	85.94
472.873	80.94
473.092	89.94
473.311	88.94
473.53	83.94
473.749	94.94
473.968	94.94
474.187	81.94
474.406	74.94
474.625	90.94
474.844	99.94
475.063	89.94
475.282	76.94
475.501	86.94
475.72	95.94
475.939	94.94
476.158	89.94
476.377	91.94
476.596	89.94
476.814	89.94
477.033	82.94
477.252	84.94
477.471	83.94
477.69	76.94
477.908	91.94
478.127	89.94
478.346	90.94
478.564	100.94
478.783	98.94
479.002	90.94
479.22	91.94
479.439	89.94
479.658	94.94
479.876	93.94
480.095	81.94
480.313	87.94
480.532	82.94
480.751	91.94
480.969	88.94
481.188	79.94
481.406	90.94
481.624	79.94
481.843	99.94
482.061	86.94
482.28	90.94
482.498	79.94
482.717	84.94
482.935	84.94
483.153	83.94
483.372	92.94
483.59	87.94
483.808	93.94
484.027	76.94
484.245	90.94
484.463	99.94
484.681	90.94
484.9	86.94
485.118	74.94
485.336	98.94
485.554	86.94
485.772	81.94
485.99	100.94
486.209	97.94
486.427	81.94
486.645	80.94
486.863	95.94
487.081	97.94
487.299	95.94
487.517	85.94
487.735	102.94
487.953	115.94
488.171	94.94
488.389	101.94
488.607	93.94
488.825	102.94
489.043	97.94
489.261	94.94
489.479	93.94
489.696	94.94
489.914	78.94
490.132	99.94
490.35	98.94
490.568	99.94
490.786	90.94
491.003	84.94
491.221	94.94
491.439	90.94
491.657	97.94
491.874	112.94
492.092	103.94
492.31	112.94
492.527	114.94
492.745	101.94
492.963	123.94
493.18	110.94
493.398	98.94
493.615	82.94
493.833	96.94
494.05	86.94
494.268	101.94
494.485	94.94
494.703	93.94
494.92	73.94
495.138	92.94
495.355	102.94
495.573	116.94
495.79	95.94
496.008	102.94
496.225	106.94
496.442	114.94
496.66	91.94
496.877	105.94
497.094	102.94
497.312	99.94
497.529	88.94
497.746	98.94
497.963	87.94
498.181	79.94
498.398	99.94
498.615	83.94
498.832	78.94
499.049	77.94
499.267	74.94
499.484	90.94
499.701	92.94
499.918	82.94
500.135	86.94
500.352	85.94
500.569	83.94
500.786	85.94
501.003	82.94
501.22	83.94
501.437	103.94
501.654	90.94
501.871	87.94
502.088	82.94
502.305	99.94
502.522	112.94
502.739	90.94
502.956	84.94
503.172	100.94
503.389	96.94
503.606	95.94
503.823	95.94
504.04	83.94
504.256	96.94
504.473	106.94
504.69	83.94
504.907	86.94
505.123	84.94
505.34	81.94
505.557	77.94
505.773	90.94
505.99	88.94
506.207	76.94
506.423	90.94
506.64	92.94
506.856	82.94
507.073	75.94
507.289	85.94
507.506	100.94
507.722	93.94
507.939	96.94
508.155	73.94
508.372	78.94
508.588	78.94
508.805	69.94
509.021	95.94
509.238	78.94
509.454	79.94
509.67	98.94
509.887	79.94
510.103	72.94
510.319	83.94
510.536	86.94
510.752	81.94
510.968	81.94
511.184	82.94
511.401	70.94
511.617	85.94
511.833	76.94
512.049	87.94
512.265	73.94
512.481	80.94
512.698	86.94
512.914	83.94
513.13	91.94
513.346	85.94
513.562	90.94
513.778	80.94
513.994	92.94
514.21	86.94
514.426	91.94
514.642	85.94
514.858	92.94
515.074	76.94
515.29	86.94
515.506	101.94
515.721	99.94
515.937	75.94
516.153	92.94
516.369	90.94
516.585	82.94
516.801	88.94
517.016	85.94
517.232	83.94
517.448	95.94
517.664	75.94
517.879	79.94
518.095	88.94
518.311	86.94
518.527	93.94
