Data from Zn(NO3)2Standard.Agarose3%.GreenCap.LampEnergy10E.O_HRD10591_15-08-01-947.txt Node
Date: Mon Jul 22 15:08:01 EDT 2019
User: cochatt
Spectrometer: HR+D1059
Trigger mode: 1
Integration Time (sec): 1.000000E-1
Scans to average: 1
Electric dark correction enabled: true
Nonlinearity correction enabled: false
Boxcar width: 0
XAxis mode: Wavelengths
Number of Pixels in Spectrum: 2048
>>>>>Begin Spectral Data<<<<<
223.165	-15.56
223.4	-15.56
223.635	-15.56
223.869	-10.56
224.104	-10.56
224.338	-13.56
224.573	-20.56
224.808	-1.56
225.042	-21.56
225.277	0.44
225.511	-7.56
225.746	1.44
225.98	-1.56
226.215	10.44
226.449	15.44
226.683	24.44
226.918	22.44
227.152	28.44
227.387	33.44
227.621	33.44
227.856	53.44
228.09	48.44
228.324	44.44
228.559	64.44
228.793	53.44
229.027	43.44
229.262	72.44
229.496	60.44
229.73	76.44
229.964	68.44
230.199	56.44
230.433	76.44
230.667	75.44
230.901	86.44
231.136	68.44
231.37	76.44
231.604	67.44
231.838	65.44
232.072	74.44
232.306	82.44
232.541	76.44
232.775	81.44
233.009	80.44
233.243	72.44
233.477	78.44
233.711	95.44
233.945	80.44
234.179	77.44
234.413	71.44
234.647	75.44
234.881	80.44
235.115	77.44
235.349	88.44
235.583	83.44
235.817	76.44
236.051	73.44
236.285	80.44
236.519	70.44
236.753	94.44
236.987	89.44
237.221	85.44
237.455	79.44
237.689	63.44
237.922	63.44
238.156	64.44
238.39	75.44
238.624	79.44
238.858	80.44
239.091	72.44
239.325	67.44
239.559	79.44
239.793	72.44
240.027	78.44
240.26	73.44
240.494	82.44
240.728	71.44
240.961	98.44
241.195	84.44
241.429	61.44
241.662	76.44
241.896	67.44
242.13	80.44
242.363	60.44
242.597	69.44
242.83	84.44
243.064	68.44
243.298	81.44
243.531	67.44
243.765	82.44
243.998	83.44
244.232	81.44
244.465	80.44
244.699	77.44
244.932	77.44
245.166	83.44
245.399	80.44
245.633	87.44
245.866	73.44
246.099	70.44
246.333	86.44
246.566	78.44
246.8	86.44
247.033	84.44
247.266	77.44
247.5	66.44
247.733	73.44
247.966	81.44
248.2	76.44
248.433	82.44
248.666	86.44
248.899	88.44
249.133	86.44
249.366	86.44
249.599	74.44
249.832	75.44
250.066	73.44
250.299	75.44
250.532	87.44
250.765	76.44
250.998	84.44
251.231	76.44
251.465	78.44
251.698	74.44
251.931	73.44
252.164	75.44
252.397	80.44
252.63	80.44
252.863	77.44
253.096	94.44
253.329	73.44
253.562	78.44
253.795	90.44
254.028	83.44
254.261	75.44
254.494	79.44
254.727	87.44
254.96	94.44
255.193	84.44
255.426	74.44
255.659	96.44
255.892	78.44
256.124	75.44
256.357	74.44
256.59	86.44
256.823	77.44
257.056	91.44
257.289	70.44
257.521	67.44
257.754	75.44
257.987	86.44
258.22	84.44
258.452	61.44
258.685	70.44
258.918	78.44
259.151	76.44
259.383	80.44
259.616	82.44
259.849	89.44
260.081	81.44
260.314	76.44
260.547	74.44
260.779	86.44
261.012	81.44
261.244	71.44
261.477	84.44
261.71	79.44
261.942	82.44
262.175	75.44
262.407	83.44
262.64	87.44
262.872	75.44
263.105	65.44
263.337	75.44
263.57	83.44
263.802	74.44
264.035	71.44
264.267	92.44
264.499	68.44
264.732	76.44
264.964	81.44
265.197	90.44
265.429	77.44
265.661	66.44
265.894	78.44
266.126	72.44
266.358	66.44
266.591	80.44
266.823	82.44
267.055	80.44
267.287	72.44
267.52	81.44
267.752	82.44
267.984	82.44
268.216	83.44
268.448	84.44
268.681	82.44
268.913	68.44
269.145	86.44
269.377	88.44
269.609	83.44
269.841	75.44
270.073	86.44
270.306	84.44
270.538	86.44
270.77	65.44
271.002	88.44
271.234	81.44
271.466	72.44
271.698	72.44
271.93	76.44
272.162	96.44
272.394	78.44
272.626	82.44
272.858	79.44
273.09	81.44
273.322	84.44
273.553	92.44
273.785	92.44
274.017	90.44
274.249	83.44
274.481	83.44
274.713	77.44
274.945	82.44
275.176	86.44
275.408	78.44
275.64	72.44
275.872	79.44
276.104	86.44
276.335	84.44
276.567	77.44
276.799	75.44
277.031	91.44
277.262	87.44
277.494	72.44
277.726	97.44
277.957	81.44
278.189	99.44
278.421	80.44
278.652	87.44
278.884	90.44
279.115	73.44
279.347	78.44
279.579	79.44
279.81	77.44
280.042	92.44
280.273	82.44
280.505	86.44
280.736	82.44
280.968	79.44
281.199	86.44
281.431	85.44
281.662	95.44
281.894	86.44
282.125	78.44
282.356	81.44
282.588	73.44
282.819	102.44
283.051	85.44
283.282	89.44
283.513	91.44
283.745	81.44
283.976	70.44
284.207	85.44
284.439	84.44
284.67	94.44
284.901	84.44
285.132	86.44
285.364	77.44
285.595	85.44
285.826	85.44
286.057	83.44
286.288	84.44
286.52	86.44
286.751	81.44
286.982	75.44
287.213	77.44
287.444	89.44
287.675	86.44
287.906	92.44
288.138	81.44
288.369	81.44
288.6	95.44
288.831	86.44
289.062	76.44
289.293	80.44
289.524	87.44
289.755	80.44
289.986	79.44
290.217	78.44
290.448	97.44
290.679	88.44
290.91	103.44
291.141	91.44
291.371	72.44
291.602	77.44
291.833	90.44
292.064	91.44
292.295	89.44
292.526	74.44
292.757	89.44
292.987	86.44
293.218	72.44
293.449	74.44
293.68	87.44
293.91	85.44
294.141	83.44
294.372	96.44
294.603	85.44
294.833	75.44
295.064	96.44
295.295	96.44
295.525	92.44
295.756	92.44
295.987	83.44
296.217	80.44
296.448	81.44
296.679	87.44
296.909	64.44
297.14	90.44
297.37	75.44
297.601	72.44
297.831	94.44
298.062	103.44
298.292	90.44
298.523	89.44
298.753	90.44
298.984	76.44
299.214	84.44
299.445	87.44
299.675	89.44
299.905	81.44
300.136	87.44
300.366	88.44
300.597	83.44
300.827	90.44
301.057	81.44
301.288	89.44
301.518	90.44
301.748	85.44
301.979	96.44
302.209	73.44
302.439	85.44
302.669	74.44
302.9	75.44
303.13	74.44
303.36	80.44
303.59	92.44
303.82	83.44
304.051	74.44
304.281	81.44
304.511	94.44
304.741	111.44
304.971	89.44
305.201	89.44
305.431	80.44
305.661	83.44
305.891	73.44
306.121	94.44
306.352	92.44
306.582	87.44
306.812	96.44
307.042	86.44
307.272	88.44
307.502	77.44
307.731	76.44
307.961	88.44
308.191	80.44
308.421	92.44
308.651	69.44
308.881	96.44
309.111	82.44
309.341	76.44
309.571	86.44
309.8	85.44
310.03	72.44
310.26	107.44
310.49	86.44
310.72	84.44
310.949	84.44
311.179	83.44
311.409	80.44
311.639	88.44
311.868	87.44
312.098	94.44
312.328	86.44
312.557	86.44
312.787	76.44
313.017	83.44
313.246	94.44
313.476	89.44
313.706	80.44
313.935	79.44
314.165	64.44
314.394	77.44
314.624	86.44
314.853	83.44
315.083	79.44
315.312	85.44
315.542	76.44
315.771	86.44
316.001	80.44
316.23	79.44
316.46	77.44
316.689	73.44
316.919	75.44
317.148	103.44
317.377	93.44
317.607	84.44
317.836	74.44
318.065	99.44
318.295	83.44
318.524	98.44
318.753	107.44
318.983	82.44
319.212	105.44
319.441	89.44
319.67	91.44
319.9	73.44
320.129	81.44
320.358	80.44
320.587	90.44
320.816	82.44
321.046	83.44
321.275	99.44
321.504	86.44
321.733	79.44
321.962	87.44
322.191	96.44
322.42	73.44
322.649	77.44
322.878	86.44
323.108	94.44
323.337	81.44
323.566	88.44
323.795	79.44
324.024	72.44
324.253	82.44
324.482	89.44
324.71	82.44
324.939	97.44
325.168	83.44
325.397	90.44
325.626	86.44
325.855	92.44
326.084	81.44
326.313	89.44
326.542	78.44
326.77	69.44
326.999	84.44
327.228	80.44
327.457	74.44
327.686	82.44
327.914	80.44
328.143	84.44
328.372	81.44
328.6	93.44
328.829	89.44
329.058	76.44
329.287	80.44
329.515	97.44
329.744	82.44
329.972	83.44
330.201	84.44
330.43	95.44
330.658	59.44
330.887	87.44
331.115	83.44
331.344	82.44
331.572	84.44
331.801	75.44
332.03	74.44
332.258	80.44
332.486	75.44
332.715	74.44
332.943	87.44
333.172	90.44
333.4	91.44
333.629	82.44
333.857	74.44
334.085	86.44
334.314	88.44
334.542	98.44
334.771	91.44
334.999	85.44
335.227	87.44
335.455	95.44
335.684	79.44
335.912	96.44
336.14	73.44
336.369	88.44
336.597	80.44
336.825	94.44
337.053	56.44
337.281	75.44
337.51	76.44
337.738	83.44
337.966	88.44
338.194	76.44
338.422	78.44
338.65	88.44
338.878	87.44
339.106	100.44
339.334	97.44
339.562	84.44
339.79	90.44
340.018	94.44
340.246	70.44
340.474	66.44
340.702	71.44
340.93	78.44
341.158	79.44
341.386	87.44
341.614	79.44
341.842	80.44
342.07	77.44
342.298	75.44
342.526	73.44
342.754	78.44
342.981	70.44
343.209	81.44
343.437	79.44
343.665	88.44
343.893	86.44
344.12	89.44
344.348	88.44
344.576	91.44
344.804	71.44
345.031	81.44
345.259	82.44
345.487	85.44
345.714	73.44
345.942	76.44
346.17	97.44
346.397	79.44
346.625	82.44
346.853	86.44
347.08	79.44
347.308	87.44
347.535	90.44
347.763	76.44
347.99	88.44
348.218	91.44
348.445	75.44
348.673	83.44
348.9	70.44
349.128	95.44
349.355	87.44
349.583	98.44
349.81	75.44
350.037	77.44
350.265	77.44
350.492	85.44
350.72	82.44
350.947	80.44
351.174	81.44
351.402	93.44
351.629	78.44
351.856	88.44
352.083	90.44
352.311	73.44
352.538	80.44
352.765	90.44
352.992	82.44
353.22	85.44
353.447	79.44
353.674	90.44
353.901	89.44
354.128	87.44
354.355	83.44
354.583	64.44
354.81	83.44
355.037	72.44
355.264	78.44
355.491	82.44
355.718	78.44
355.945	98.44
356.172	74.44
356.399	85.44
356.626	80.44
356.853	80.44
357.08	77.44
357.307	85.44
357.534	90.44
357.761	82.44
357.988	86.44
358.215	87.44
358.441	90.44
358.668	83.44
358.895	74.44
359.122	75.44
359.349	86.44
359.576	85.44
359.802	67.44
360.029	71.44
360.256	85.44
360.483	72.44
360.709	82.44
360.936	86.44
361.163	76.44
361.39	87.44
361.616	87.44
361.843	83.44
362.07	86.44
362.296	91.44
362.523	75.44
362.749	76.44
362.976	97.44
363.203	78.44
363.429	70.44
363.656	74.44
363.882	89.44
364.109	91.44
364.335	83.44
364.562	75.44
364.788	82.44
365.015	85.44
365.241	83.44
365.468	82.44
365.694	76.44
365.92	70.44
366.147	81.44
366.373	64.44
366.599	82.44
366.826	74.44
367.052	76.44
367.278	92.44
367.505	94.44
367.731	86.44
367.957	82.44
368.184	97.44
368.41	84.44
368.636	71.44
368.862	78.44
369.089	83.44
369.315	102.44
369.541	92.44
369.767	82.44
369.993	94.44
370.219	84.44
370.445	85.44
370.672	76.44
370.898	84.44
371.124	99.44
371.35	77.44
371.576	87.44
371.802	86.44
372.028	84.44
372.254	101.44
372.48	87.44
372.706	69.44
372.932	92.44
373.158	91.44
373.384	87.44
373.61	103.44
373.835	90.44
374.061	92.44
374.287	88.44
374.513	81.44
374.739	57.44
374.965	82.44
375.191	85.44
375.416	98.44
375.642	81.44
375.868	82.44
376.094	70.44
376.319	80.44
376.545	80.44
376.771	84.44
376.997	76.44
377.222	88.44
377.448	91.44
377.674	85.44
377.899	81.44
378.125	85.44
378.35	94.44
378.576	72.44
378.802	88.44
379.027	94.44
379.253	85.44
379.478	98.44
379.704	76.44
379.929	86.44
380.155	100.44
380.38	92.44
380.606	86.44
380.831	73.44
381.057	91.44
381.282	101.44
381.507	91.44
381.733	88.44
381.958	84.44
382.184	79.44
382.409	87.44
382.634	84.44
382.86	82.44
383.085	83.44
383.31	79.44
383.535	81.44
383.761	81.44
383.986	85.44
384.211	78.44
384.436	89.44
384.662	82.44
384.887	96.44
385.112	88.44
385.337	91.44
385.562	95.44
385.787	94.44
386.013	90.44
386.238	85.44
386.463	85.44
386.688	86.44
386.913	84.44
387.138	85.44
387.363	79.44
387.588	91.44
387.813	83.44
388.038	86.44
388.263	94.44
388.488	84.44
388.713	80.44
388.938	85.44
389.163	91.44
389.387	102.44
389.612	85.44
389.837	97.44
390.062	84.44
390.287	87.44
390.512	87.44
390.736	81.44
390.961	80.44
391.186	92.44
391.411	95.44
391.636	102.44
391.86	97.44
392.085	92.44
392.31	89.44
392.534	83.44
392.759	86.44
392.984	88.44
393.208	90.44
393.433	95.44
393.658	93.44
393.882	92.44
394.107	96.44
394.331	94.44
394.556	94.44
394.78	77.44
395.005	80.44
395.229	85.44
395.454	91.44
395.678	89.44
395.903	90.44
396.127	97.44
396.352	84.44
396.576	94.44
396.801	94.44
397.025	100.44
397.249	106.44
397.474	85.44
397.698	86.44
397.922	92.44
398.147	85.44
398.371	90.44
398.595	102.44
398.82	86.44
399.044	95.44
399.268	102.44
399.492	82.44
399.717	90.44
399.941	96.44
400.165	92.44
400.389	102.44
400.613	99.44
400.837	89.44
401.062	83.44
401.286	84.44
401.51	94.44
401.734	85.44
401.958	90.44
402.182	84.44
402.406	97.44
402.63	104.44
402.854	91.44
403.078	91.44
403.302	106.44
403.526	115.44
403.75	90.44
403.974	92.44
404.198	99.44
404.422	84.44
404.645	96.44
404.869	84.44
405.093	78.44
405.317	103.44
405.541	97.44
405.765	91.44
405.988	96.44
406.212	110.44
406.436	94.44
406.66	95.44
406.883	95.44
407.107	95.44
407.331	93.44
407.555	108.44
407.778	84.44
408.002	98.44
408.226	99.44
408.449	81.44
408.673	87.44
408.896	107.44
409.12	104.44
409.344	81.44
409.567	98.44
409.791	80.44
410.014	78.44
410.238	90.44
410.461	96.44
410.685	89.44
410.908	114.44
411.132	94.44
411.355	96.44
411.578	98.44
411.802	99.44
412.025	88.44
412.249	99.44
412.472	89.44
412.695	87.44
412.919	91.44
413.142	108.44
413.365	99.44
413.589	100.44
413.812	86.44
414.035	91.44
414.258	88.44
414.482	116.44
414.705	101.44
414.928	103.44
415.151	87.44
415.374	88.44
415.597	105.44
415.821	96.44
416.044	105.44
416.267	104.44
416.49	104.44
416.713	91.44
416.936	89.44
417.159	107.44
417.382	97.44
417.605	107.44
417.828	103.44
418.051	94.44
418.274	96.44
418.497	88.44
418.72	104.44
418.943	96.44
419.166	91.44
419.389	94.44
419.611	102.44
419.834	101.44
420.057	97.44
420.28	109.44
420.503	99.44
420.726	110.44
420.948	94.44
421.171	96.44
421.394	108.44
421.617	108.44
421.839	102.44
422.062	103.44
422.285	103.44
422.507	116.44
422.73	106.44
422.953	105.44
423.175	91.44
423.398	103.44
423.621	101.44
423.843	94.44
424.066	94.44
424.288	98.44
424.511	103.44
424.733	115.44
424.956	105.44
425.178	116.44
425.401	114.44
425.623	105.44
425.846	94.44
426.068	94.44
426.291	109.44
426.513	105.44
426.735	94.44
426.958	95.44
427.18	101.44
427.402	94.44
427.625	112.44
427.847	106.44
428.069	112.44
428.292	101.44
428.514	106.44
428.736	109.44
428.958	87.44
429.181	105.44
429.403	99.44
429.625	95.44
429.847	101.44
430.069	107.44
430.292	99.44
430.514	96.44
430.736	114.44
430.958	118.44
431.18	104.44
431.402	91.44
431.624	84.44
431.846	84.44
432.068	95.44
432.29	83.44
432.512	94.44
432.734	87.44
432.956	108.44
433.178	101.44
433.4	105.44
433.622	110.44
433.844	107.44
434.066	86.44
434.287	92.44
434.509	89.44
434.731	95.44
434.953	93.44
435.175	104.44
435.397	109.44
435.618	96.44
435.84	93.44
436.062	99.44
436.284	106.44
436.505	102.44
436.727	106.44
436.949	99.44
437.17	104.44
437.392	105.44
437.614	111.44
437.835	96.44
438.057	80.44
438.278	100.44
438.5	104.44
438.721	111.44
438.943	112.44
439.165	101.44
439.386	104.44
439.608	114.44
439.829	104.44
440.05	105.44
440.272	111.44
440.493	116.44
440.715	110.44
440.936	108.44
441.158	104.44
441.379	113.44
441.6	99.44
441.822	104.44
442.043	107.44
442.264	112.44
442.486	118.44
442.707	107.44
442.928	101.44
443.149	101.44
443.371	100.44
443.592	105.44
443.813	102.44
444.034	114.44
444.255	106.44
444.476	98.44
444.698	100.44
444.919	105.44
445.14	194.44
445.361	159.44
445.582	108.44
445.803	108.44
446.024	90.44
446.245	113.44
446.466	119.44
446.687	116.44
446.908	112.44
447.129	122.44
447.35	108.44
447.571	132.44
447.792	105.44
448.013	112.44
448.234	117.44
448.455	102.44
448.675	108.44
448.896	127.44
449.117	107.44
449.338	96.44
449.559	104.44
449.779	106.44
450	85.44
450.221	118.44
450.442	108.44
450.662	122.44
450.883	93.44
451.104	114.44
451.324	104.44
451.545	90.44
451.766	99.44
451.986	95.44
452.207	101.44
452.428	98.44
452.648	100.44
452.869	99.44
453.089	85.44
453.31	78.44
453.53	105.44
453.751	86.44
453.971	72.44
454.192	80.44
454.412	84.44
454.633	103.44
454.853	108.44
455.073	110.44
455.294	106.44
455.514	96.44
455.734	95.44
455.955	107.44
456.175	88.44
456.395	89.44
456.616	93.44
456.836	82.44
457.056	97.44
457.276	112.44
457.497	98.44
457.717	88.44
457.937	94.44
458.157	101.44
458.377	99.44
458.598	95.44
458.818	87.44
459.038	82.44
459.258	78.44
459.478	77.44
459.698	83.44
459.918	99.44
460.138	89.44
460.358	91.44
460.578	81.44
460.798	94.44
461.018	101.44
461.238	109.44
461.458	113.44
461.678	106.44
461.898	103.44
462.118	106.44
462.338	86.44
462.558	97.44
462.777	97.44
462.997	101.44
463.217	76.44
463.437	86.44
463.657	89.44
463.876	88.44
464.096	96.44
464.316	101.44
464.536	96.44
464.755	94.44
464.975	108.44
465.195	97.44
465.414	98.44
465.634	107.44
465.854	104.44
466.073	117.44
466.293	89.44
466.512	107.44
466.732	97.44
466.951	105.44
467.171	98.44
467.391	101.44
467.61	113.44
467.829	122.44
468.049	114.44
468.268	108.44
468.488	102.44
468.707	93.44
468.927	105.44
469.146	102.44
469.365	116.44
469.585	120.44
469.804	100.44
470.023	104.44
470.243	103.44
470.462	119.44
470.681	116.44
470.901	117.44
471.12	110.44
471.339	114.44
471.558	102.44
471.777	112.44
471.997	111.44
472.216	108.44
472.435	99.44
472.654	100.44
472.873	90.44
473.092	102.44
473.311	118.44
473.53	101.44
473.749	99.44
473.968	107.44
474.187	108.44
474.406	94.44
474.625	106.44
474.844	97.44
475.063	110.44
475.282	87.44
475.501	104.44
475.72	107.44
475.939	91.44
476.158	110.44
476.377	96.44
476.596	89.44
476.814	88.44
477.033	87.44
477.252	89.44
477.471	97.44
477.69	100.44
477.908	109.44
478.127	125.44
478.346	103.44
478.564	96.44
478.783	100.44
479.002	99.44
479.22	103.44
479.439	113.44
479.658	95.44
479.876	98.44
480.095	110.44
480.313	110.44
480.532	102.44
480.751	104.44
480.969	84.44
481.188	81.44
481.406	70.44
481.624	80.44
481.843	100.44
482.061	94.44
482.28	112.44
482.498	95.44
482.717	87.44
482.935	85.44
483.153	94.44
483.372	111.44
483.59	114.44
483.808	111.44
484.027	113.44
484.245	112.44
484.463	121.44
484.681	118.44
484.9	115.44
485.118	107.44
485.336	100.44
485.554	97.44
485.772	91.44
485.99	93.44
486.209	95.44
486.427	86.44
486.645	97.44
486.863	100.44
487.081	103.44
487.299	112.44
487.517	118.44
487.735	122.44
487.953	135.44
488.171	137.44
488.389	134.44
488.607	120.44
488.825	103.44
489.043	102.44
489.261	109.44
489.479	112.44
489.696	116.44
489.914	122.44
490.132	118.44
490.35	108.44
490.568	121.44
490.786	113.44
491.003	129.44
491.221	137.44
491.439	142.44
491.657	126.44
491.874	155.44
492.092	154.44
492.31	154.44
492.527	128.44
492.745	134.44
492.963	143.44
493.18	131.44
493.398	126.44
493.615	133.44
493.833	115.44
494.05	123.44
494.268	121.44
494.485	130.44
494.703	118.44
494.92	120.44
495.138	123.44
495.355	125.44
495.573	126.44
495.79	144.44
496.008	118.44
496.225	126.44
496.442	114.44
496.66	126.44
496.877	126.44
497.094	136.44
497.312	132.44
497.529	112.44
497.746	105.44
497.963	112.44
498.181	100.44
498.398	108.44
498.615	102.44
498.832	103.44
499.049	104.44
499.267	99.44
499.484	91.44
499.701	101.44
499.918	104.44
500.135	103.44
500.352	105.44
500.569	98.44
500.786	95.44
501.003	115.44
501.22	93.44
501.437	114.44
501.654	113.44
501.871	116.44
502.088	113.44
502.305	88.44
502.522	119.44
502.739	121.44
502.956	97.44
503.172	92.44
503.389	102.44
503.606	101.44
503.823	111.44
504.04	110.44
504.256	94.44
504.473	94.44
504.69	89.44
504.907	100.44
505.123	90.44
505.34	96.44
505.557	104.44
505.773	103.44
505.99	96.44
506.207	82.44
506.423	102.44
506.64	105.44
506.856	103.44
507.073	100.44
507.289	98.44
507.506	103.44
507.722	101.44
507.939	102.44
508.155	111.44
508.372	96.44
508.588	107.44
508.805	104.44
509.021	101.44
509.238	86.44
509.454	101.44
509.67	92.44
509.887	84.44
510.103	84.44
510.319	89.44
510.536	100.44
510.752	87.44
510.968	88.44
511.184	90.44
511.401	98.44
511.617	76.44
511.833	96.44
512.049	76.44
512.265	93.44
512.481	89.44
512.698	85.44
512.914	80.44
513.13	77.44
513.346	83.44
513.562	94.44
513.778	95.44
513.994	86.44
514.21	73.44
514.426	92.44
514.642	80.44
514.858	84.44
515.074	80.44
