Data from Zn(NO3)2Standard.Agarose3%.GreenCap.LampEnergy5.5.E.O_HRD10591_15-00-14-767.txt Node
Date: Mon Jul 22 15:00:14 EDT 2019
User: cochatt
Spectrometer: HR+D1059
Trigger mode: 1
Integration Time (sec): 1.000000E-1
Scans to average: 1
Electric dark correction enabled: true
Nonlinearity correction enabled: false
Boxcar width: 0
XAxis mode: Wavelengths
Number of Pixels in Spectrum: 2048
>>>>>Begin Spectral Data<<<<<
223.165	-0.62
223.4	-0.62
223.635	-0.62
223.869	-16.62
224.104	-19.62
224.338	-9.62
224.573	-20.62
224.808	-16.62
225.042	2.38
225.277	-0.62
225.511	-4.62
225.746	4.38
225.98	-1.62
226.215	4.38
226.449	3.38
226.683	10.38
226.918	34.38
227.152	31.38
227.387	34.38
227.621	47.38
227.856	42.38
228.09	31.38
228.324	44.38
228.559	58.38
228.793	51.38
229.027	61.38
229.262	70.38
229.496	63.38
229.73	65.38
229.964	68.38
230.199	71.38
230.433	81.38
230.667	68.38
230.901	64.38
231.136	87.38
231.37	79.38
231.604	80.38
231.838	81.38
232.072	70.38
232.306	82.38
232.541	89.38
232.775	79.38
233.009	89.38
233.243	81.38
233.477	76.38
233.711	83.38
233.945	78.38
234.179	83.38
234.413	71.38
234.647	75.38
234.881	76.38
235.115	73.38
235.349	70.38
235.583	71.38
235.817	76.38
236.051	79.38
236.285	75.38
236.519	89.38
236.753	88.38
236.987	83.38
237.221	77.38
237.455	75.38
237.689	77.38
237.922	79.38
238.156	71.38
238.39	63.38
238.624	88.38
238.858	75.38
239.091	91.38
239.325	77.38
239.559	80.38
239.793	76.38
240.027	84.38
240.26	74.38
240.494	77.38
240.728	80.38
240.961	82.38
241.195	63.38
241.429	83.38
241.662	83.38
241.896	61.38
242.13	75.38
242.363	65.38
242.597	72.38
242.83	62.38
243.064	80.38
243.298	74.38
243.531	77.38
243.765	68.38
243.998	77.38
244.232	85.38
244.465	71.38
244.699	75.38
244.932	65.38
245.166	77.38
245.399	69.38
245.633	80.38
245.866	78.38
246.099	75.38
246.333	81.38
246.566	73.38
246.8	74.38
247.033	89.38
247.266	72.38
247.5	82.38
247.733	76.38
247.966	84.38
248.2	78.38
248.433	72.38
248.666	65.38
248.899	75.38
249.133	66.38
249.366	74.38
249.599	72.38
249.832	68.38
250.066	75.38
250.299	76.38
250.532	72.38
250.765	75.38
250.998	87.38
251.231	70.38
251.465	65.38
251.698	68.38
251.931	77.38
252.164	82.38
252.397	77.38
252.63	72.38
252.863	73.38
253.096	85.38
253.329	72.38
253.562	82.38
253.795	74.38
254.028	79.38
254.261	67.38
254.494	71.38
254.727	83.38
254.96	74.38
255.193	83.38
255.426	80.38
255.659	87.38
255.892	94.38
256.124	68.38
256.357	83.38
256.59	74.38
256.823	83.38
257.056	74.38
257.289	81.38
257.521	67.38
257.754	84.38
257.987	84.38
258.22	77.38
258.452	73.38
258.685	82.38
258.918	86.38
259.151	80.38
259.383	81.38
259.616	83.38
259.849	89.38
260.081	68.38
260.314	79.38
260.547	78.38
260.779	81.38
261.012	79.38
261.244	86.38
261.477	79.38
261.71	78.38
261.942	75.38
262.175	69.38
262.407	66.38
262.64	77.38
262.872	66.38
263.105	73.38
263.337	64.38
263.57	85.38
263.802	87.38
264.035	85.38
264.267	98.38
264.499	74.38
264.732	61.38
264.964	75.38
265.197	83.38
265.429	77.38
265.661	79.38
265.894	73.38
266.126	83.38
266.358	76.38
266.591	82.38
266.823	54.38
267.055	86.38
267.287	67.38
267.52	75.38
267.752	100.38
267.984	82.38
268.216	69.38
268.448	86.38
268.681	92.38
268.913	89.38
269.145	73.38
269.377	79.38
269.609	79.38
269.841	76.38
270.073	78.38
270.306	78.38
270.538	78.38
270.77	78.38
271.002	65.38
271.234	86.38
271.466	93.38
271.698	87.38
271.93	80.38
272.162	80.38
272.394	73.38
272.626	73.38
272.858	86.38
273.09	97.38
273.322	81.38
273.553	79.38
273.785	84.38
274.017	85.38
274.249	86.38
274.481	82.38
274.713	92.38
274.945	85.38
275.176	78.38
275.408	73.38
275.64	92.38
275.872	82.38
276.104	84.38
276.335	89.38
276.567	67.38
276.799	81.38
277.031	82.38
277.262	86.38
277.494	79.38
277.726	86.38
277.957	67.38
278.189	89.38
278.421	86.38
278.652	82.38
278.884	74.38
279.115	81.38
279.347	72.38
279.579	80.38
279.81	82.38
280.042	85.38
280.273	79.38
280.505	92.38
280.736	75.38
280.968	73.38
281.199	72.38
281.431	76.38
281.662	84.38
281.894	82.38
282.125	82.38
282.356	95.38
282.588	75.38
282.819	83.38
283.051	92.38
283.282	69.38
283.513	80.38
283.745	71.38
283.976	70.38
284.207	74.38
284.439	82.38
284.67	84.38
284.901	93.38
285.132	86.38
285.364	78.38
285.595	77.38
285.826	78.38
286.057	79.38
286.288	77.38
286.52	81.38
286.751	87.38
286.982	98.38
287.213	81.38
287.444	82.38
287.675	81.38
287.906	94.38
288.138	84.38
288.369	88.38
288.6	87.38
288.831	91.38
289.062	84.38
289.293	79.38
289.524	78.38
289.755	74.38
289.986	73.38
290.217	68.38
290.448	74.38
290.679	96.38
290.91	87.38
291.141	90.38
291.371	87.38
291.602	82.38
291.833	73.38
292.064	64.38
292.295	76.38
292.526	85.38
292.757	85.38
292.987	92.38
293.218	79.38
293.449	84.38
293.68	76.38
293.91	84.38
294.141	76.38
294.372	90.38
294.603	89.38
294.833	80.38
295.064	91.38
295.295	86.38
295.525	79.38
295.756	88.38
295.987	74.38
296.217	95.38
296.448	84.38
296.679	73.38
296.909	90.38
297.14	95.38
297.37	96.38
297.601	79.38
297.831	66.38
298.062	88.38
298.292	81.38
298.523	83.38
298.753	84.38
298.984	76.38
299.214	83.38
299.445	64.38
299.675	65.38
299.905	89.38
300.136	79.38
300.366	76.38
300.597	107.38
300.827	72.38
301.057	83.38
301.288	87.38
301.518	73.38
301.748	69.38
301.979	73.38
302.209	86.38
302.439	84.38
302.669	80.38
302.9	76.38
303.13	68.38
303.36	84.38
303.59	81.38
303.82	83.38
304.051	88.38
304.281	80.38
304.511	86.38
304.741	85.38
304.971	73.38
305.201	88.38
305.431	91.38
305.661	75.38
305.891	81.38
306.121	85.38
306.352	80.38
306.582	76.38
306.812	92.38
307.042	89.38
307.272	78.38
307.502	81.38
307.731	88.38
307.961	86.38
308.191	82.38
308.421	89.38
308.651	66.38
308.881	87.38
309.111	73.38
309.341	70.38
309.571	79.38
309.8	89.38
310.03	76.38
310.26	94.38
310.49	89.38
310.72	76.38
310.949	91.38
311.179	80.38
311.409	94.38
311.639	78.38
311.868	79.38
312.098	91.38
312.328	75.38
312.557	86.38
312.787	82.38
313.017	79.38
313.246	84.38
313.476	93.38
313.706	84.38
313.935	94.38
314.165	89.38
314.394	88.38
314.624	68.38
314.853	71.38
315.083	60.38
315.312	80.38
315.542	84.38
315.771	73.38
316.001	88.38
316.23	86.38
316.46	89.38
316.689	87.38
316.919	67.38
317.148	62.38
317.377	95.38
317.607	81.38
317.836	82.38
318.065	72.38
318.295	70.38
318.524	86.38
318.753	90.38
318.983	83.38
319.212	84.38
319.441	88.38
319.67	89.38
319.9	79.38
320.129	84.38
320.358	90.38
320.587	68.38
320.816	84.38
321.046	89.38
321.275	96.38
321.504	90.38
321.733	84.38
321.962	78.38
322.191	83.38
322.42	76.38
322.649	89.38
322.878	85.38
323.108	99.38
323.337	86.38
323.566	84.38
323.795	79.38
324.024	79.38
324.253	92.38
324.482	83.38
324.71	75.38
324.939	80.38
325.168	86.38
325.397	91.38
325.626	84.38
325.855	94.38
326.084	82.38
326.313	99.38
326.542	88.38
326.77	75.38
326.999	80.38
327.228	77.38
327.457	79.38
327.686	87.38
327.914	84.38
328.143	74.38
328.372	90.38
328.6	88.38
328.829	89.38
329.058	86.38
329.287	70.38
329.515	74.38
329.744	73.38
329.972	101.38
330.201	82.38
330.43	91.38
330.658	77.38
330.887	91.38
331.115	71.38
331.344	84.38
331.572	98.38
331.801	83.38
332.03	80.38
332.258	91.38
332.486	90.38
332.715	93.38
332.943	80.38
333.172	82.38
333.4	86.38
333.629	90.38
333.857	100.38
334.085	92.38
334.314	94.38
334.542	86.38
334.771	88.38
334.999	77.38
335.227	71.38
335.455	90.38
335.684	82.38
335.912	79.38
336.14	85.38
336.369	81.38
336.597	87.38
336.825	81.38
337.053	59.38
337.281	81.38
337.51	91.38
337.738	102.38
337.966	97.38
338.194	107.38
338.422	83.38
338.65	84.38
338.878	87.38
339.106	70.38
339.334	94.38
339.562	81.38
339.79	62.38
340.018	82.38
340.246	82.38
340.474	95.38
340.702	85.38
340.93	82.38
341.158	91.38
341.386	82.38
341.614	75.38
341.842	78.38
342.07	82.38
342.298	89.38
342.526	77.38
342.754	80.38
342.981	84.38
343.209	79.38
343.437	72.38
343.665	85.38
343.893	83.38
344.12	83.38
344.348	91.38
344.576	94.38
344.804	76.38
345.031	93.38
345.259	77.38
345.487	86.38
345.714	88.38
345.942	80.38
346.17	71.38
346.397	83.38
346.625	69.38
346.853	82.38
347.08	87.38
347.308	80.38
347.535	80.38
347.763	86.38
347.99	75.38
348.218	79.38
348.445	72.38
348.673	71.38
348.9	86.38
349.128	81.38
349.355	76.38
349.583	96.38
349.81	92.38
350.037	90.38
350.265	68.38
350.492	90.38
350.72	72.38
350.947	90.38
351.174	78.38
351.402	87.38
351.629	73.38
351.856	75.38
352.083	68.38
352.311	81.38
352.538	76.38
352.765	70.38
352.992	86.38
353.22	78.38
353.447	79.38
353.674	77.38
353.901	82.38
354.128	80.38
354.355	89.38
354.583	80.38
354.81	83.38
355.037	69.38
355.264	90.38
355.491	80.38
355.718	101.38
355.945	86.38
356.172	80.38
356.399	75.38
356.626	81.38
356.853	82.38
357.08	90.38
357.307	82.38
357.534	82.38
357.761	67.38
357.988	82.38
358.215	92.38
358.441	88.38
358.668	75.38
358.895	82.38
359.122	76.38
359.349	74.38
359.576	83.38
359.802	91.38
360.029	79.38
360.256	89.38
360.483	87.38
360.709	91.38
360.936	83.38
361.163	81.38
361.39	92.38
361.616	84.38
361.843	84.38
362.07	85.38
362.296	84.38
362.523	91.38
362.749	89.38
362.976	89.38
363.203	90.38
363.429	76.38
363.656	79.38
363.882	75.38
364.109	91.38
364.335	85.38
364.562	76.38
364.788	84.38
365.015	68.38
365.241	82.38
365.468	81.38
365.694	81.38
365.92	82.38
366.147	81.38
366.373	94.38
366.599	86.38
366.826	80.38
367.052	78.38
367.278	91.38
367.505	92.38
367.731	72.38
367.957	78.38
368.184	79.38
368.41	87.38
368.636	83.38
368.862	85.38
369.089	76.38
369.315	79.38
369.541	81.38
369.767	87.38
369.993	77.38
370.219	88.38
370.445	76.38
370.672	82.38
370.898	77.38
371.124	64.38
371.35	79.38
371.576	77.38
371.802	76.38
372.028	88.38
372.254	83.38
372.48	91.38
372.706	85.38
372.932	88.38
373.158	91.38
373.384	89.38
373.61	81.38
373.835	85.38
374.061	81.38
374.287	69.38
374.513	85.38
374.739	84.38
374.965	86.38
375.191	82.38
375.416	75.38
375.642	80.38
375.868	82.38
376.094	95.38
376.319	76.38
376.545	82.38
376.771	82.38
376.997	86.38
377.222	79.38
377.448	79.38
377.674	82.38
377.899	74.38
378.125	84.38
378.35	72.38
378.576	70.38
378.802	83.38
379.027	70.38
379.253	81.38
379.478	80.38
379.704	82.38
379.929	82.38
380.155	82.38
380.38	89.38
380.606	75.38
380.831	82.38
381.057	88.38
381.282	85.38
381.507	76.38
381.733	90.38
381.958	79.38
382.184	73.38
382.409	84.38
382.634	82.38
382.86	77.38
383.085	89.38
383.31	75.38
383.535	80.38
383.761	71.38
383.986	70.38
384.211	75.38
384.436	78.38
384.662	75.38
384.887	78.38
385.112	79.38
385.337	90.38
385.562	73.38
385.787	77.38
386.013	90.38
386.238	90.38
386.463	73.38
386.688	82.38
386.913	72.38
387.138	74.38
387.363	76.38
387.588	88.38
387.813	86.38
388.038	74.38
388.263	93.38
388.488	82.38
388.713	84.38
388.938	75.38
389.163	98.38
389.387	83.38
389.612	82.38
389.837	87.38
390.062	86.38
390.287	90.38
390.512	82.38
390.736	75.38
390.961	102.38
391.186	89.38
391.411	88.38
391.636	78.38
391.86	93.38
392.085	68.38
392.31	88.38
392.534	95.38
392.759	87.38
392.984	74.38
393.208	82.38
393.433	84.38
393.658	80.38
393.882	87.38
394.107	79.38
394.331	75.38
394.556	74.38
394.78	83.38
395.005	80.38
395.229	70.38
395.454	79.38
395.678	79.38
395.903	78.38
396.127	86.38
396.352	79.38
396.576	85.38
396.801	79.38
397.025	79.38
397.249	85.38
397.474	94.38
397.698	92.38
397.922	83.38
398.147	80.38
398.371	92.38
398.595	95.38
398.82	89.38
399.044	86.38
399.268	91.38
399.492	90.38
399.717	84.38
399.941	79.38
400.165	71.38
400.389	74.38
400.613	90.38
400.837	85.38
401.062	80.38
401.286	80.38
401.51	88.38
401.734	91.38
401.958	84.38
402.182	103.38
402.406	88.38
402.63	77.38
402.854	94.38
403.078	75.38
403.302	82.38
403.526	76.38
403.75	76.38
403.974	84.38
404.198	84.38
404.422	81.38
404.645	74.38
404.869	86.38
405.093	87.38
405.317	80.38
405.541	79.38
405.765	81.38
405.988	91.38
406.212	86.38
406.436	86.38
406.66	82.38
406.883	72.38
407.107	84.38
407.331	69.38
407.555	89.38
407.778	94.38
408.002	74.38
408.226	72.38
408.449	86.38
408.673	79.38
408.896	89.38
409.12	78.38
409.344	83.38
409.567	79.38
409.791	79.38
410.014	73.38
410.238	74.38
410.461	82.38
410.685	86.38
410.908	87.38
411.132	91.38
411.355	76.38
411.578	87.38
411.802	77.38
412.025	92.38
412.249	90.38
412.472	83.38
412.695	90.38
412.919	74.38
413.142	78.38
413.365	84.38
413.589	74.38
413.812	84.38
414.035	83.38
414.258	77.38
414.482	98.38
414.705	86.38
414.928	87.38
415.151	83.38
415.374	74.38
415.597	83.38
415.821	80.38
416.044	81.38
416.267	96.38
416.49	83.38
416.713	70.38
416.936	77.38
417.159	80.38
417.382	70.38
417.605	84.38
417.828	100.38
418.051	90.38
418.274	83.38
418.497	77.38
418.72	79.38
418.943	81.38
419.166	78.38
419.389	81.38
419.611	70.38
419.834	73.38
420.057	80.38
420.28	88.38
420.503	79.38
420.726	75.38
420.948	80.38
421.171	85.38
421.394	82.38
421.617	79.38
421.839	75.38
422.062	76.38
422.285	92.38
422.507	91.38
422.73	92.38
422.953	75.38
423.175	91.38
423.398	89.38
423.621	72.38
423.843	90.38
424.066	76.38
424.288	83.38
424.511	83.38
424.733	76.38
424.956	77.38
425.178	78.38
425.401	73.38
425.623	67.38
425.846	85.38
426.068	79.38
426.291	90.38
426.513	91.38
426.735	87.38
426.958	76.38
427.18	75.38
427.402	78.38
427.625	85.38
427.847	79.38
428.069	82.38
428.292	82.38
428.514	82.38
428.736	79.38
428.958	64.38
429.181	92.38
429.403	77.38
429.625	72.38
429.847	87.38
430.069	73.38
430.292	84.38
430.514	82.38
430.736	70.38
430.958	87.38
431.18	86.38
431.402	68.38
431.624	67.38
431.846	67.38
432.068	83.38
432.29	72.38
432.512	100.38
432.734	97.38
432.956	80.38
433.178	93.38
433.4	79.38
433.622	84.38
433.844	92.38
434.066	83.38
434.287	73.38
434.509	62.38
434.731	82.38
434.953	64.38
435.175	81.38
435.397	88.38
435.618	88.38
435.84	74.38
436.062	78.38
436.284	80.38
436.505	70.38
436.727	72.38
436.949	72.38
437.17	87.38
437.392	75.38
437.614	85.38
437.835	80.38
438.057	84.38
438.278	72.38
438.5	79.38
438.721	70.38
438.943	79.38
439.165	83.38
439.386	73.38
439.608	77.38
439.829	88.38
440.05	83.38
440.272	81.38
440.493	83.38
440.715	79.38
440.936	77.38
441.158	87.38
441.379	98.38
441.6	88.38
441.822	82.38
442.043	77.38
442.264	84.38
442.486	80.38
442.707	78.38
442.928	83.38
443.149	77.38
443.371	88.38
443.592	88.38
443.813	78.38
444.034	82.38
444.255	76.38
444.476	85.38
444.698	90.38
444.919	75.38
445.14	170.38
445.361	130.38
445.582	91.38
445.803	75.38
446.024	72.38
446.245	85.38
446.466	102.38
446.687	92.38
446.908	75.38
447.129	75.38
447.35	71.38
447.571	76.38
447.792	84.38
448.013	82.38
448.234	74.38
448.455	73.38
448.675	72.38
448.896	82.38
449.117	73.38
449.338	68.38
449.559	103.38
449.779	82.38
450	84.38
450.221	83.38
450.442	90.38
450.662	89.38
450.883	71.38
451.104	84.38
451.324	91.38
451.545	76.38
451.766	71.38
451.986	79.38
452.207	91.38
452.428	102.38
452.648	78.38
452.869	81.38
453.089	96.38
453.31	78.38
453.53	72.38
453.751	81.38
453.971	78.38
454.192	81.38
454.412	89.38
454.633	88.38
454.853	80.38
455.073	71.38
455.294	82.38
455.514	90.38
455.734	75.38
455.955	90.38
456.175	80.38
456.395	78.38
456.616	88.38
456.836	74.38
457.056	75.38
457.276	80.38
457.497	94.38
457.717	79.38
457.937	80.38
458.157	83.38
458.377	72.38
458.598	84.38
458.818	71.38
459.038	70.38
459.258	86.38
459.478	59.38
459.698	70.38
459.918	83.38
460.138	88.38
460.358	80.38
460.578	76.38
460.798	73.38
461.018	73.38
461.238	79.38
461.458	78.38
461.678	83.38
461.898	98.38
462.118	70.38
462.338	84.38
462.558	83.38
462.777	87.38
462.997	84.38
463.217	83.38
463.437	90.38
463.657	72.38
463.876	76.38
464.096	79.38
464.316	98.38
464.536	94.38
464.755	79.38
464.975	83.38
465.195	98.38
465.414	83.38
465.634	78.38
465.854	71.38
466.073	98.38
466.293	88.38
466.512	87.38
466.732	84.38
466.951	81.38
467.171	84.38
467.391	91.38
467.61	73.38
467.829	67.38
468.049	84.38
468.268	83.38
468.488	78.38
468.707	92.38
468.927	77.38
469.146	72.38
469.365	83.38
469.585	80.38
469.804	83.38
470.023	74.38
470.243	74.38
470.462	79.38
470.681	82.38
470.901	80.38
471.12	89.38
471.339	80.38
471.558	78.38
471.777	92.38
471.997	81.38
472.216	79.38
472.435	79.38
472.654	86.38
472.873	77.38
473.092	75.38
473.311	87.38
473.53	84.38
473.749	67.38
473.968	88.38
474.187	85.38
474.406	76.38
474.625	88.38
474.844	88.38
475.063	77.38
475.282	94.38
475.501	93.38
475.72	84.38
475.939	90.38
476.158	76.38
476.377	95.38
476.596	88.38
476.814	79.38
477.033	86.38
477.252	78.38
477.471	85.38
477.69	87.38
477.908	84.38
478.127	71.38
478.346	96.38
478.564	87.38
478.783	77.38
479.002	95.38
479.22	96.38
479.439	81.38
479.658	72.38
479.876	74.38
480.095	79.38
480.313	75.38
480.532	74.38
480.751	78.38
480.969	63.38
481.188	85.38
481.406	77.38
481.624	84.38
481.843	91.38
482.061	76.38
482.28	70.38
482.498	69.38
482.717	79.38
482.935	74.38
483.153	79.38
483.372	75.38
483.59	84.38
483.808	78.38
484.027	75.38
484.245	78.38
484.463	76.38
484.681	96.38
484.9	87.38
485.118	86.38
485.336	89.38
485.554	78.38
485.772	86.38
485.99	85.38
486.209	79.38
486.427	77.38
486.645	71.38
486.863	84.38
487.081	84.38
487.299	75.38
487.517	80.38
487.735	86.38
487.953	84.38
488.171	78.38
488.389	97.38
488.607	80.38
488.825	80.38
489.043	82.38
489.261	80.38
489.479	85.38
489.696	87.38
489.914	78.38
490.132	80.38
490.35	86.38
490.568	69.38
490.786	85.38
491.003	99.38
491.221	86.38
491.439	91.38
491.657	82.38
491.874	86.38
492.092	89.38
492.31	102.38
492.527	84.38
492.745	104.38
492.963	85.38
493.18	74.38
493.398	85.38
493.615	81.38
493.833	81.38
494.05	77.38
494.268	88.38
494.485	82.38
494.703	78.38
494.92	86.38
495.138	88.38
495.355	76.38
495.573	92.38
495.79	90.38
496.008	83.38
496.225	88.38
496.442	76.38
496.66	82.38
496.877	76.38
497.094	95.38
497.312	71.38
497.529	84.38
497.746	90.38
497.963	71.38
498.181	82.38
498.398	83.38
498.615	83.38
498.832	84.38
499.049	79.38
499.267	84.38
499.484	86.38
499.701	87.38
499.918	88.38
500.135	83.38
500.352	84.38
500.569	83.38
500.786	88.38
501.003	71.38
501.22	70.38
501.437	88.38
501.654	80.38
501.871	78.38
502.088	85.38
502.305	80.38
502.522	83.38
502.739	68.38
502.956	80.38
503.172	61.38
503.389	82.38
503.606	71.38
503.823	82.38
504.04	82.38
504.256	106.38
504.473	60.38
504.69	81.38
504.907	93.38
505.123	81.38
505.34	86.38
505.557	100.38
505.773	80.38
505.99	76.38
506.207	87.38
506.423	86.38
506.64	75.38
506.856	77.38
507.073	72.38
507.289	88.38
507.506	82.38
507.722	71.38
507.939	81.38
508.155	94.38
508.372	86.38
508.588	88.38
508.805	77.38
509.021	87.38
509.238	96.38
509.454	101.38
509.67	68.38
509.887	98.38
510.103	88.38
510.319	74.38
510.536	75.38
510.752	75.38
510.968	95.38
511.184	95.38
511.401	87.38
511.617	91.38
511.833	98.38
512.049	96.38
512.265	82.38
512.481	81.38
512.698	78.38
512.914	79.38
513.13	75.38
513.346	79.38
513.562	67.38
513.778	85.38
513.994	78.38
514.21	88.38
514.426	89.38
514.642	80.38
514.858	74.38
515.074	83.38
515.29	84.38
515.506	81.38
515.721	85.38
515.937	84.38
516.153	82.38
516.369	75.38
516.585	79.38
516.801	79.38
517.016	84.38
517.232	69.38
517.448	80.38
517.664	79.38
517.879	82.38
518.095	76.38
518.311	85.38
518.527	96.38
518.742	81.38
518.958	80.38
519.173	80.38
