Data from Zn(NO3)2Standard.Agarose3%.GreenCap.LampEnergy5.5.E.O_HRD10591_15-00-59-767.txt Node
Date: Mon Jul 22 15:00:59 EDT 2019
User: cochatt
Spectrometer: HR+D1059
Trigger mode: 1
Integration Time (sec): 1.000000E-1
Scans to average: 1
Electric dark correction enabled: true
Nonlinearity correction enabled: false
Boxcar width: 0
XAxis mode: Wavelengths
Number of Pixels in Spectrum: 2048
>>>>>Begin Spectral Data<<<<<
223.165	-15.56
223.4	-15.56
223.635	-15.56
223.869	-12.56
224.104	-18.56
224.338	-14.56
224.573	-1.56
224.808	-28.56
225.042	2.44
225.277	-7.56
225.511	-10.56
225.746	11.44
225.98	17.44
226.215	4.44
226.449	8.44
226.683	10.44
226.918	22.44
227.152	32.44
227.387	28.44
227.621	32.44
227.856	48.44
228.09	57.44
228.324	45.44
228.559	47.44
228.793	58.44
229.027	55.44
229.262	77.44
229.496	54.44
229.73	71.44
229.964	75.44
230.199	68.44
230.433	73.44
230.667	66.44
230.901	77.44
231.136	84.44
231.37	89.44
231.604	84.44
231.838	63.44
232.072	72.44
232.306	79.44
232.541	70.44
232.775	82.44
233.009	81.44
233.243	89.44
233.477	79.44
233.711	74.44
233.945	81.44
234.179	84.44
234.413	65.44
234.647	86.44
234.881	82.44
235.115	90.44
235.349	72.44
235.583	78.44
235.817	80.44
236.051	73.44
236.285	74.44
236.519	86.44
236.753	81.44
236.987	76.44
237.221	77.44
237.455	72.44
237.689	76.44
237.922	82.44
238.156	70.44
238.39	61.44
238.624	70.44
238.858	74.44
239.091	73.44
239.325	77.44
239.559	82.44
239.793	88.44
240.027	80.44
240.26	64.44
240.494	71.44
240.728	81.44
240.961	72.44
241.195	80.44
241.429	89.44
241.662	78.44
241.896	72.44
242.13	73.44
242.363	71.44
242.597	82.44
242.83	86.44
243.064	64.44
243.298	70.44
243.531	80.44
243.765	84.44
243.998	69.44
244.232	76.44
244.465	67.44
244.699	74.44
244.932	80.44
245.166	88.44
245.399	76.44
245.633	86.44
245.866	77.44
246.099	78.44
246.333	81.44
246.566	86.44
246.8	86.44
247.033	72.44
247.266	75.44
247.5	89.44
247.733	80.44
247.966	82.44
248.2	72.44
248.433	72.44
248.666	89.44
248.899	76.44
249.133	78.44
249.366	86.44
249.599	71.44
249.832	75.44
250.066	70.44
250.299	80.44
250.532	76.44
250.765	75.44
250.998	82.44
251.231	80.44
251.465	89.44
251.698	67.44
251.931	77.44
252.164	80.44
252.397	88.44
252.63	69.44
252.863	89.44
253.096	68.44
253.329	69.44
253.562	66.44
253.795	85.44
254.028	90.44
254.261	65.44
254.494	75.44
254.727	86.44
254.96	81.44
255.193	71.44
255.426	76.44
255.659	66.44
255.892	66.44
256.124	77.44
256.357	89.44
256.59	75.44
256.823	81.44
257.056	70.44
257.289	73.44
257.521	86.44
257.754	65.44
257.987	81.44
258.22	81.44
258.452	64.44
258.685	87.44
258.918	79.44
259.151	77.44
259.383	97.44
259.616	76.44
259.849	91.44
260.081	80.44
260.314	67.44
260.547	82.44
260.779	74.44
261.012	86.44
261.244	88.44
261.477	83.44
261.71	84.44
261.942	70.44
262.175	78.44
262.407	83.44
262.64	76.44
262.872	93.44
263.105	87.44
263.337	90.44
263.57	78.44
263.802	88.44
264.035	74.44
264.267	74.44
264.499	74.44
264.732	86.44
264.964	68.44
265.197	80.44
265.429	87.44
265.661	83.44
265.894	81.44
266.126	91.44
266.358	83.44
266.591	76.44
266.823	89.44
267.055	77.44
267.287	90.44
267.52	74.44
267.752	93.44
267.984	93.44
268.216	83.44
268.448	75.44
268.681	94.44
268.913	85.44
269.145	91.44
269.377	90.44
269.609	60.44
269.841	64.44
270.073	73.44
270.306	82.44
270.538	81.44
270.77	81.44
271.002	68.44
271.234	76.44
271.466	70.44
271.698	72.44
271.93	95.44
272.162	75.44
272.394	86.44
272.626	74.44
272.858	87.44
273.09	78.44
273.322	82.44
273.553	85.44
273.785	98.44
274.017	85.44
274.249	77.44
274.481	79.44
274.713	70.44
274.945	80.44
275.176	88.44
275.408	78.44
275.64	71.44
275.872	77.44
276.104	82.44
276.335	81.44
276.567	81.44
276.799	90.44
277.031	81.44
277.262	94.44
277.494	82.44
277.726	84.44
277.957	93.44
278.189	72.44
278.421	94.44
278.652	86.44
278.884	78.44
279.115	74.44
279.347	79.44
279.579	76.44
279.81	86.44
280.042	94.44
280.273	99.44
280.505	81.44
280.736	94.44
280.968	88.44
281.199	77.44
281.431	84.44
281.662	80.44
281.894	92.44
282.125	87.44
282.356	73.44
282.588	77.44
282.819	82.44
283.051	92.44
283.282	79.44
283.513	83.44
283.745	93.44
283.976	86.44
284.207	87.44
284.439	92.44
284.67	90.44
284.901	87.44
285.132	79.44
285.364	84.44
285.595	97.44
285.826	85.44
286.057	90.44
286.288	84.44
286.52	80.44
286.751	70.44
286.982	82.44
287.213	92.44
287.444	95.44
287.675	78.44
287.906	89.44
288.138	82.44
288.369	86.44
288.6	80.44
288.831	91.44
289.062	87.44
289.293	88.44
289.524	100.44
289.755	82.44
289.986	89.44
290.217	84.44
290.448	80.44
290.679	77.44
290.91	77.44
291.141	98.44
291.371	79.44
291.602	87.44
291.833	86.44
292.064	78.44
292.295	80.44
292.526	75.44
292.757	85.44
292.987	97.44
293.218	79.44
293.449	80.44
293.68	77.44
293.91	96.44
294.141	72.44
294.372	95.44
294.603	74.44
294.833	81.44
295.064	64.44
295.295	72.44
295.525	83.44
295.756	82.44
295.987	83.44
296.217	73.44
296.448	91.44
296.679	89.44
296.909	85.44
297.14	89.44
297.37	91.44
297.601	85.44
297.831	96.44
298.062	78.44
298.292	91.44
298.523	84.44
298.753	86.44
298.984	82.44
299.214	71.44
299.445	101.44
299.675	73.44
299.905	71.44
300.136	85.44
300.366	92.44
300.597	77.44
300.827	85.44
301.057	87.44
301.288	81.44
301.518	84.44
301.748	85.44
301.979	81.44
302.209	76.44
302.439	83.44
302.669	80.44
302.9	96.44
303.13	85.44
303.36	69.44
303.59	92.44
303.82	82.44
304.051	84.44
304.281	89.44
304.511	88.44
304.741	73.44
304.971	73.44
305.201	89.44
305.431	100.44
305.661	98.44
305.891	80.44
306.121	81.44
306.352	78.44
306.582	85.44
306.812	84.44
307.042	79.44
307.272	77.44
307.502	85.44
307.731	90.44
307.961	84.44
308.191	100.44
308.421	83.44
308.651	95.44
308.881	91.44
309.111	78.44
309.341	89.44
309.571	66.44
309.8	84.44
310.03	79.44
310.26	89.44
310.49	78.44
310.72	73.44
310.949	57.44
311.179	79.44
311.409	88.44
311.639	101.44
311.868	85.44
312.098	82.44
312.328	84.44
312.557	85.44
312.787	91.44
313.017	81.44
313.246	90.44
313.476	86.44
313.706	89.44
313.935	90.44
314.165	84.44
314.394	93.44
314.624	78.44
314.853	86.44
315.083	92.44
315.312	78.44
315.542	79.44
315.771	88.44
316.001	84.44
316.23	92.44
316.46	84.44
316.689	98.44
316.919	84.44
317.148	91.44
317.377	67.44
317.607	81.44
317.836	94.44
318.065	86.44
318.295	92.44
318.524	71.44
318.753	67.44
318.983	85.44
319.212	80.44
319.441	82.44
319.67	87.44
319.9	96.44
320.129	81.44
320.358	68.44
320.587	68.44
320.816	75.44
321.046	103.44
321.275	87.44
321.504	89.44
321.733	97.44
321.962	82.44
322.191	84.44
322.42	86.44
322.649	69.44
322.878	74.44
323.108	88.44
323.337	91.44
323.566	82.44
323.795	73.44
324.024	93.44
324.253	78.44
324.482	76.44
324.71	88.44
324.939	90.44
325.168	83.44
325.397	81.44
325.626	80.44
325.855	76.44
326.084	92.44
326.313	68.44
326.542	81.44
326.77	82.44
326.999	78.44
327.228	91.44
327.457	82.44
327.686	86.44
327.914	88.44
328.143	85.44
328.372	89.44
328.6	86.44
328.829	71.44
329.058	82.44
329.287	94.44
329.515	90.44
329.744	84.44
329.972	84.44
330.201	82.44
330.43	92.44
330.658	88.44
330.887	82.44
331.115	88.44
331.344	93.44
331.572	83.44
331.801	77.44
332.03	84.44
332.258	87.44
332.486	74.44
332.715	99.44
332.943	92.44
333.172	78.44
333.4	91.44
333.629	83.44
333.857	67.44
334.085	78.44
334.314	88.44
334.542	89.44
334.771	70.44
334.999	93.44
335.227	77.44
335.455	72.44
335.684	79.44
335.912	78.44
336.14	92.44
336.369	75.44
336.597	83.44
336.825	90.44
337.053	88.44
337.281	75.44
337.51	89.44
337.738	91.44
337.966	80.44
338.194	80.44
338.422	97.44
338.65	90.44
338.878	101.44
339.106	86.44
339.334	91.44
339.562	84.44
339.79	80.44
340.018	100.44
340.246	98.44
340.474	91.44
340.702	99.44
340.93	81.44
341.158	91.44
341.386	78.44
341.614	87.44
341.842	99.44
342.07	89.44
342.298	80.44
342.526	77.44
342.754	90.44
342.981	105.44
343.209	82.44
343.437	83.44
343.665	87.44
343.893	95.44
344.12	76.44
344.348	68.44
344.576	87.44
344.804	88.44
345.031	79.44
345.259	85.44
345.487	88.44
345.714	86.44
345.942	75.44
346.17	80.44
346.397	92.44
346.625	83.44
346.853	81.44
347.08	87.44
347.308	86.44
347.535	85.44
347.763	76.44
347.99	99.44
348.218	82.44
348.445	91.44
348.673	82.44
348.9	89.44
349.128	80.44
349.355	83.44
349.583	90.44
349.81	98.44
350.037	89.44
350.265	91.44
350.492	86.44
350.72	82.44
350.947	89.44
351.174	89.44
351.402	82.44
351.629	93.44
351.856	74.44
352.083	70.44
352.311	92.44
352.538	86.44
352.765	88.44
352.992	88.44
353.22	84.44
353.447	88.44
353.674	92.44
353.901	79.44
354.128	93.44
354.355	94.44
354.583	85.44
354.81	86.44
355.037	76.44
355.264	76.44
355.491	86.44
355.718	76.44
355.945	85.44
356.172	83.44
356.399	90.44
356.626	94.44
356.853	82.44
357.08	81.44
357.307	87.44
357.534	77.44
357.761	82.44
357.988	84.44
358.215	81.44
358.441	86.44
358.668	88.44
358.895	83.44
359.122	69.44
359.349	83.44
359.576	88.44
359.802	79.44
360.029	78.44
360.256	84.44
360.483	85.44
360.709	87.44
360.936	87.44
361.163	100.44
361.39	80.44
361.616	76.44
361.843	85.44
362.07	83.44
362.296	86.44
362.523	62.44
362.749	93.44
362.976	83.44
363.203	86.44
363.429	78.44
363.656	89.44
363.882	82.44
364.109	91.44
364.335	78.44
364.562	84.44
364.788	106.44
365.015	93.44
365.241	75.44
365.468	92.44
365.694	92.44
365.92	91.44
366.147	76.44
366.373	82.44
366.599	84.44
366.826	86.44
367.052	100.44
367.278	92.44
367.505	89.44
367.731	85.44
367.957	92.44
368.184	65.44
368.41	88.44
368.636	72.44
368.862	93.44
369.089	69.44
369.315	97.44
369.541	78.44
369.767	101.44
369.993	85.44
370.219	73.44
370.445	82.44
370.672	84.44
370.898	84.44
371.124	83.44
371.35	92.44
371.576	93.44
371.802	76.44
372.028	84.44
372.254	82.44
372.48	81.44
372.706	82.44
372.932	76.44
373.158	85.44
373.384	88.44
373.61	87.44
373.835	77.44
374.061	92.44
374.287	78.44
374.513	80.44
374.739	66.44
374.965	86.44
375.191	85.44
375.416	80.44
375.642	82.44
375.868	76.44
376.094	80.44
376.319	78.44
376.545	80.44
376.771	86.44
376.997	94.44
377.222	79.44
377.448	82.44
377.674	72.44
377.899	85.44
378.125	90.44
378.35	85.44
378.576	72.44
378.802	92.44
379.027	73.44
379.253	83.44
379.478	79.44
379.704	104.44
379.929	76.44
380.155	86.44
380.38	90.44
380.606	90.44
380.831	91.44
381.057	85.44
381.282	90.44
381.507	81.44
381.733	78.44
381.958	82.44
382.184	90.44
382.409	78.44
382.634	91.44
382.86	88.44
383.085	86.44
383.31	77.44
383.535	92.44
383.761	81.44
383.986	86.44
384.211	75.44
384.436	76.44
384.662	80.44
384.887	83.44
385.112	68.44
385.337	89.44
385.562	85.44
385.787	76.44
386.013	100.44
386.238	85.44
386.463	77.44
386.688	76.44
386.913	86.44
387.138	76.44
387.363	79.44
387.588	82.44
387.813	89.44
388.038	86.44
388.263	77.44
388.488	78.44
388.713	71.44
388.938	84.44
389.163	83.44
389.387	91.44
389.612	93.44
389.837	90.44
390.062	85.44
390.287	84.44
390.512	75.44
390.736	67.44
390.961	86.44
391.186	73.44
391.411	89.44
391.636	76.44
391.86	84.44
392.085	82.44
392.31	96.44
392.534	93.44
392.759	81.44
392.984	70.44
393.208	81.44
393.433	86.44
393.658	84.44
393.882	76.44
394.107	83.44
394.331	84.44
394.556	91.44
394.78	94.44
395.005	75.44
395.229	94.44
395.454	76.44
395.678	88.44
395.903	85.44
396.127	86.44
396.352	84.44
396.576	76.44
396.801	77.44
397.025	102.44
397.249	83.44
397.474	92.44
397.698	83.44
397.922	84.44
398.147	84.44
398.371	94.44
398.595	78.44
398.82	85.44
399.044	82.44
399.268	79.44
399.492	84.44
399.717	76.44
399.941	100.44
400.165	80.44
400.389	94.44
400.613	91.44
400.837	81.44
401.062	82.44
401.286	78.44
401.51	83.44
401.734	72.44
401.958	82.44
402.182	81.44
402.406	98.44
402.63	78.44
402.854	75.44
403.078	82.44
403.302	81.44
403.526	85.44
403.75	86.44
403.974	84.44
404.198	87.44
404.422	82.44
404.645	81.44
404.869	78.44
405.093	92.44
405.317	83.44
405.541	94.44
405.765	90.44
405.988	96.44
406.212	94.44
406.436	93.44
406.66	74.44
406.883	85.44
407.107	87.44
407.331	73.44
407.555	87.44
407.778	92.44
408.002	94.44
408.226	84.44
408.449	86.44
408.673	99.44
408.896	92.44
409.12	96.44
409.344	92.44
409.567	96.44
409.791	91.44
410.014	91.44
410.238	79.44
410.461	82.44
410.685	85.44
410.908	95.44
411.132	103.44
411.355	85.44
411.578	72.44
411.802	82.44
412.025	80.44
412.249	87.44
412.472	87.44
412.695	73.44
412.919	86.44
413.142	90.44
413.365	105.44
413.589	98.44
413.812	93.44
414.035	84.44
414.258	85.44
414.482	79.44
414.705	74.44
414.928	77.44
415.151	101.44
415.374	84.44
415.597	92.44
415.821	90.44
416.044	85.44
416.267	71.44
416.49	100.44
416.713	95.44
416.936	76.44
417.159	76.44
417.382	90.44
417.605	85.44
417.828	91.44
418.051	76.44
418.274	80.44
418.497	96.44
418.72	91.44
418.943	95.44
419.166	96.44
419.389	92.44
419.611	77.44
419.834	79.44
420.057	77.44
420.28	89.44
420.503	95.44
420.726	95.44
420.948	82.44
421.171	78.44
421.394	90.44
421.617	84.44
421.839	92.44
422.062	80.44
422.285	78.44
422.507	71.44
422.73	96.44
422.953	85.44
423.175	93.44
423.398	100.44
423.621	98.44
423.843	100.44
424.066	90.44
424.288	89.44
424.511	72.44
424.733	96.44
424.956	81.44
425.178	88.44
425.401	89.44
425.623	97.44
425.846	86.44
426.068	93.44
426.291	82.44
426.513	80.44
426.735	88.44
426.958	88.44
427.18	87.44
427.402	83.44
427.625	79.44
427.847	91.44
428.069	76.44
428.292	83.44
428.514	81.44
428.736	87.44
428.958	94.44
429.181	91.44
429.403	85.44
429.625	85.44
429.847	84.44
430.069	74.44
430.292	85.44
430.514	89.44
430.736	88.44
430.958	89.44
431.18	93.44
431.402	104.44
431.624	93.44
431.846	73.44
432.068	86.44
432.29	88.44
432.512	86.44
432.734	88.44
432.956	80.44
433.178	93.44
433.4	88.44
433.622	73.44
433.844	82.44
434.066	94.44
434.287	74.44
434.509	94.44
434.731	82.44
434.953	85.44
435.175	90.44
435.397	87.44
435.618	88.44
435.84	77.44
436.062	86.44
436.284	83.44
436.505	88.44
436.727	92.44
436.949	85.44
437.17	91.44
437.392	77.44
437.614	78.44
437.835	87.44
438.057	78.44
438.278	80.44
438.5	82.44
438.721	91.44
438.943	109.44
439.165	78.44
439.386	85.44
439.608	94.44
439.829	98.44
440.05	102.44
440.272	81.44
440.493	92.44
440.715	105.44
440.936	91.44
441.158	82.44
441.379	94.44
441.6	99.44
441.822	90.44
442.043	103.44
442.264	92.44
442.486	82.44
442.707	98.44
442.928	99.44
443.149	96.44
443.371	97.44
443.592	83.44
443.813	75.44
444.034	80.44
444.255	85.44
444.476	97.44
444.698	101.44
444.919	88.44
445.14	184.44
445.361	133.44
445.582	88.44
445.803	84.44
446.024	89.44
446.245	90.44
446.466	85.44
446.687	97.44
446.908	99.44
447.129	101.44
447.35	88.44
447.571	90.44
447.792	84.44
448.013	99.44
448.234	85.44
448.455	104.44
448.675	90.44
448.896	88.44
449.117	83.44
449.338	99.44
449.559	107.44
449.779	78.44
450	105.44
450.221	83.44
450.442	88.44
450.662	80.44
450.883	94.44
451.104	92.44
451.324	80.44
451.545	92.44
451.766	80.44
451.986	79.44
452.207	83.44
452.428	82.44
452.648	87.44
452.869	94.44
453.089	89.44
453.31	90.44
453.53	88.44
453.751	91.44
453.971	87.44
454.192	74.44
454.412	81.44
454.633	76.44
454.853	78.44
455.073	74.44
455.294	81.44
455.514	93.44
455.734	96.44
455.955	86.44
456.175	95.44
456.395	80.44
456.616	86.44
456.836	81.44
457.056	88.44
457.276	69.44
457.497	74.44
457.717	81.44
457.937	84.44
458.157	80.44
458.377	101.44
458.598	78.44
458.818	83.44
459.038	81.44
459.258	78.44
459.478	85.44
459.698	88.44
459.918	74.44
460.138	88.44
460.358	71.44
460.578	88.44
460.798	86.44
461.018	90.44
461.238	79.44
461.458	80.44
461.678	80.44
461.898	73.44
462.118	99.44
462.338	88.44
462.558	93.44
462.777	76.44
462.997	87.44
463.217	76.44
463.437	84.44
463.657	91.44
463.876	100.44
464.096	91.44
464.316	89.44
464.536	83.44
464.755	111.44
464.975	93.44
465.195	88.44
465.414	87.44
465.634	78.44
465.854	94.44
466.073	92.44
466.293	92.44
466.512	105.44
466.732	84.44
466.951	88.44
467.171	101.44
467.391	97.44
467.61	78.44
467.829	88.44
468.049	89.44
468.268	85.44
468.488	86.44
468.707	88.44
468.927	97.44
469.146	77.44
469.365	85.44
469.585	94.44
469.804	77.44
470.023	102.44
470.243	98.44
470.462	94.44
470.681	86.44
470.901	69.44
471.12	84.44
471.339	91.44
471.558	101.44
471.777	84.44
471.997	91.44
472.216	92.44
472.435	90.44
472.654	86.44
472.873	89.44
473.092	78.44
473.311	101.44
473.53	96.44
473.749	91.44
473.968	86.44
474.187	74.44
474.406	76.44
474.625	95.44
474.844	76.44
475.063	83.44
475.282	104.44
475.501	82.44
475.72	92.44
475.939	101.44
476.158	79.44
476.377	94.44
476.596	87.44
476.814	71.44
477.033	80.44
477.252	91.44
477.471	76.44
477.69	86.44
477.908	90.44
478.127	87.44
478.346	88.44
478.564	90.44
478.783	81.44
479.002	90.44
479.22	92.44
479.439	89.44
479.658	91.44
479.876	92.44
480.095	84.44
480.313	83.44
480.532	102.44
480.751	88.44
480.969	75.44
481.188	92.44
481.406	82.44
481.624	84.44
481.843	90.44
482.061	68.44
482.28	87.44
482.498	81.44
482.717	86.44
482.935	87.44
483.153	101.44
483.372	100.44
483.59	96.44
483.808	83.44
484.027	88.44
484.245	78.44
484.463	84.44
484.681	101.44
484.9	87.44
485.118	90.44
485.336	96.44
485.554	85.44
485.772	78.44
485.99	83.44
486.209	82.44
486.427	74.44
486.645	96.44
486.863	93.44
487.081	95.44
487.299	93.44
487.517	95.44
487.735	95.44
487.953	103.44
488.171	88.44
488.389	102.44
488.607	84.44
488.825	88.44
489.043	97.44
489.261	87.44
489.479	92.44
489.696	82.44
489.914	114.44
490.132	82.44
490.35	98.44
490.568	87.44
490.786	84.44
491.003	95.44
491.221	98.44
491.439	86.44
491.657	105.44
491.874	106.44
492.092	124.44
492.31	103.44
492.527	103.44
492.745	99.44
492.963	114.44
493.18	102.44
493.398	101.44
493.615	90.44
493.833	109.44
494.05	93.44
494.268	100.44
494.485	78.44
494.703	98.44
494.92	100.44
495.138	101.44
495.355	100.44
495.573	118.44
495.79	94.44
496.008	93.44
496.225	105.44
496.442	89.44
496.66	97.44
496.877	97.44
497.094	91.44
497.312	108.44
497.529	110.44
497.746	99.44
497.963	84.44
498.181	83.44
498.398	91.44
498.615	86.44
498.832	89.44
499.049	92.44
499.267	94.44
499.484	84.44
499.701	94.44
499.918	86.44
500.135	80.44
500.352	93.44
500.569	82.44
500.786	87.44
501.003	102.44
501.22	96.44
501.437	90.44
501.654	96.44
501.871	105.44
502.088	97.44
502.305	92.44
502.522	80.44
502.739	87.44
502.956	72.44
503.172	88.44
503.389	84.44
503.606	94.44
503.823	95.44
504.04	92.44
504.256	89.44
504.473	85.44
504.69	97.44
504.907	107.44
505.123	107.44
505.34	106.44
505.557	97.44
505.773	89.44
505.99	99.44
506.207	89.44
506.423	84.44
506.64	88.44
506.856	100.44
507.073	90.44
507.289	92.44
507.506	81.44
507.722	93.44
507.939	84.44
508.155	100.44
508.372	91.44
508.588	89.44
508.805	93.44
509.021	94.44
509.238	87.44
509.454	61.44
509.67	78.44
509.887	85.44
510.103	85.44
510.319	89.44
510.536	91.44
510.752	79.44
510.968	82.44
511.184	79.44
511.401	77.44
511.617	78.44
511.833	85.44
512.049	88.44
512.265	82.44
512.481	96.44
512.698	89.44
512.914	88.44
513.13	83.44
513.346	83.44
513.562	82.44
513.778	76.44
513.994	76.44
514.21	98.44
514.426	80.44
514.642	104.44
514.858	92.44
515.074	101.44
515.29	78.44
515.506	96.44
515.721	89.44
515.937	78.44
516.153	84.44
516.369	84.44
516.585	75.44
516.801	82.44
517.016	100.44
517.232	76.44
517.448	89.44
517.664	75.44
517.879	81.44
518.095	89.44
518.311	96.44
