Data from Zn(NO3)2Standard.Agarose3%.GreenCap.LampEnergy10E.O_HRD10591_15-06-59-943.txt Node
Date: Mon Jul 22 15:06:59 EDT 2019
User: cochatt
Spectrometer: HR+D1059
Trigger mode: 1
Integration Time (sec): 1.000000E-1
Scans to average: 1
Electric dark correction enabled: true
Nonlinearity correction enabled: false
Boxcar width: 0
XAxis mode: Wavelengths
Number of Pixels in Spectrum: 2048
>>>>>Begin Spectral Data<<<<<
223.165	-11
223.4	-11
223.635	-11
223.869	-21
224.104	-22
224.338	-15
224.573	-23
224.808	-13
225.042	-12
225.277	-6
225.511	5
225.746	11
225.98	6
226.215	5
226.449	17
226.683	18
226.918	30
227.152	31
227.387	32
227.621	25
227.856	45
228.09	41
228.324	43
228.559	61
228.793	70
229.027	55
229.262	60
229.496	73
229.73	68
229.964	80
230.199	77
230.433	75
230.667	75
230.901	71
231.136	69
231.37	79
231.604	80
231.838	77
232.072	57
232.306	77
232.541	76
232.775	83
233.009	79
233.243	77
233.477	89
233.711	89
233.945	85
234.179	93
234.413	71
234.647	80
234.881	74
235.115	70
235.349	82
235.583	69
235.817	84
236.051	77
236.285	89
236.519	68
236.753	68
236.987	85
237.221	70
237.455	69
237.689	99
237.922	80
238.156	84
238.39	79
238.624	75
238.858	82
239.091	76
239.325	74
239.559	88
239.793	88
240.027	77
240.26	75
240.494	83
240.728	67
240.961	73
241.195	71
241.429	62
241.662	72
241.896	79
242.13	69
242.363	78
242.597	68
242.83	79
243.064	67
243.298	62
243.531	85
243.765	75
243.998	84
244.232	71
244.465	76
244.699	80
244.932	79
245.166	84
245.399	94
245.633	86
245.866	71
246.099	70
246.333	73
246.566	85
246.8	75
247.033	76
247.266	88
247.5	61
247.733	78
247.966	74
248.2	88
248.433	76
248.666	88
248.899	84
249.133	79
249.366	74
249.599	66
249.832	81
250.066	87
250.299	92
250.532	84
250.765	68
250.998	71
251.231	93
251.465	89
251.698	92
251.931	85
252.164	90
252.397	80
252.63	72
252.863	60
253.096	68
253.329	79
253.562	88
253.795	82
254.028	84
254.261	73
254.494	89
254.727	72
254.96	83
255.193	76
255.426	70
255.659	83
255.892	97
256.124	82
256.357	71
256.59	80
256.823	92
257.056	84
257.289	74
257.521	75
257.754	76
257.987	91
258.22	86
258.452	81
258.685	69
258.918	101
259.151	83
259.383	79
259.616	77
259.849	90
260.081	80
260.314	81
260.547	79
260.779	80
261.012	76
261.244	78
261.477	94
261.71	86
261.942	76
262.175	93
262.407	69
262.64	77
262.872	88
263.105	86
263.337	80
263.57	67
263.802	77
264.035	82
264.267	83
264.499	87
264.732	87
264.964	88
265.197	92
265.429	73
265.661	65
265.894	88
266.126	83
266.358	88
266.591	83
266.823	90
267.055	73
267.287	74
267.52	86
267.752	78
267.984	92
268.216	85
268.448	73
268.681	83
268.913	76
269.145	83
269.377	80
269.609	77
269.841	77
270.073	76
270.306	82
270.538	73
270.77	76
271.002	82
271.234	77
271.466	80
271.698	84
271.93	71
272.162	68
272.394	85
272.626	77
272.858	84
273.09	86
273.322	96
273.553	80
273.785	81
274.017	84
274.249	84
274.481	78
274.713	71
274.945	75
275.176	85
275.408	85
275.64	89
275.872	71
276.104	72
276.335	81
276.567	77
276.799	70
277.031	81
277.262	77
277.494	77
277.726	71
277.957	92
278.189	59
278.421	88
278.652	82
278.884	87
279.115	87
279.347	79
279.579	59
279.81	85
280.042	83
280.273	93
280.505	80
280.736	82
280.968	86
281.199	81
281.431	78
281.662	88
281.894	76
282.125	85
282.356	72
282.588	84
282.819	81
283.051	100
283.282	89
283.513	81
283.745	86
283.976	75
284.207	99
284.439	77
284.67	81
284.901	91
285.132	83
285.364	83
285.595	75
285.826	78
286.057	83
286.288	88
286.52	81
286.751	74
286.982	84
287.213	75
287.444	73
287.675	78
287.906	77
288.138	92
288.369	77
288.6	75
288.831	82
289.062	90
289.293	83
289.524	85
289.755	83
289.986	72
290.217	76
290.448	84
290.679	88
290.91	92
291.141	72
291.371	78
291.602	96
291.833	91
292.064	82
292.295	74
292.526	91
292.757	86
292.987	62
293.218	81
293.449	90
293.68	70
293.91	89
294.141	76
294.372	72
294.603	91
294.833	75
295.064	87
295.295	79
295.525	90
295.756	83
295.987	98
296.217	92
296.448	99
296.679	81
296.909	87
297.14	90
297.37	82
297.601	84
297.831	65
298.062	92
298.292	80
298.523	72
298.753	91
298.984	79
299.214	87
299.445	95
299.675	83
299.905	76
300.136	75
300.366	85
300.597	82
300.827	91
301.057	97
301.288	84
301.518	74
301.748	80
301.979	84
302.209	90
302.439	61
302.669	72
302.9	86
303.13	70
303.36	75
303.59	73
303.82	85
304.051	85
304.281	81
304.511	77
304.741	97
304.971	78
305.201	90
305.431	84
305.661	92
305.891	91
306.121	93
306.352	69
306.582	77
306.812	86
307.042	80
307.272	81
307.502	88
307.731	82
307.961	82
308.191	87
308.421	79
308.651	81
308.881	76
309.111	75
309.341	82
309.571	83
309.8	85
310.03	87
310.26	79
310.49	88
310.72	81
310.949	92
311.179	89
311.409	81
311.639	79
311.868	80
312.098	69
312.328	87
312.557	90
312.787	88
313.017	84
313.246	88
313.476	75
313.706	83
313.935	71
314.165	96
314.394	86
314.624	81
314.853	103
315.083	90
315.312	89
315.542	86
315.771	90
316.001	94
316.23	90
316.46	80
316.689	84
316.919	89
317.148	70
317.377	71
317.607	82
317.836	89
318.065	76
318.295	92
318.524	92
318.753	80
318.983	97
319.212	88
319.441	63
319.67	82
319.9	68
320.129	85
320.358	97
320.587	74
320.816	75
321.046	82
321.275	77
321.504	76
321.733	70
321.962	88
322.191	84
322.42	90
322.649	99
322.878	84
323.108	78
323.337	77
323.566	85
323.795	86
324.024	79
324.253	86
324.482	74
324.71	86
324.939	83
325.168	72
325.397	83
325.626	87
325.855	67
326.084	63
326.313	83
326.542	87
326.77	81
326.999	79
327.228	82
327.457	82
327.686	85
327.914	90
328.143	77
328.372	92
328.6	89
328.829	88
329.058	91
329.287	84
329.515	76
329.744	83
329.972	87
330.201	81
330.43	89
330.658	81
330.887	88
331.115	92
331.344	75
331.572	101
331.801	83
332.03	88
332.258	84
332.486	81
332.715	81
332.943	83
333.172	93
333.4	88
333.629	75
333.857	81
334.085	85
334.314	84
334.542	89
334.771	78
334.999	88
335.227	83
335.455	79
335.684	81
335.912	86
336.14	87
336.369	101
336.597	91
336.825	75
337.053	88
337.281	93
337.51	79
337.738	75
337.966	83
338.194	72
338.422	75
338.65	79
338.878	79
339.106	81
339.334	84
339.562	93
339.79	80
340.018	69
340.246	71
340.474	73
340.702	85
340.93	99
341.158	97
341.386	85
341.614	79
341.842	86
342.07	80
342.298	75
342.526	69
342.754	85
342.981	72
343.209	75
343.437	80
343.665	76
343.893	86
344.12	83
344.348	95
344.576	89
344.804	72
345.031	93
345.259	83
345.487	88
345.714	81
345.942	88
346.17	78
346.397	90
346.625	83
346.853	83
347.08	64
347.308	69
347.535	84
347.763	87
347.99	76
348.218	77
348.445	88
348.673	83
348.9	89
349.128	84
349.355	77
349.583	80
349.81	75
350.037	68
350.265	77
350.492	87
350.72	78
350.947	82
351.174	86
351.402	72
351.629	75
351.856	78
352.083	73
352.311	87
352.538	88
352.765	83
352.992	67
353.22	81
353.447	82
353.674	86
353.901	106
354.128	82
354.355	91
354.583	73
354.81	86
355.037	77
355.264	83
355.491	77
355.718	78
355.945	82
356.172	86
356.399	86
356.626	77
356.853	84
357.08	75
357.307	76
357.534	72
357.761	90
357.988	86
358.215	89
358.441	85
358.668	89
358.895	73
359.122	72
359.349	94
359.576	81
359.802	76
360.029	83
360.256	87
360.483	83
360.709	85
360.936	88
361.163	84
361.39	70
361.616	82
361.843	81
362.07	90
362.296	87
362.523	74
362.749	90
362.976	100
363.203	96
363.429	88
363.656	81
363.882	79
364.109	88
364.335	75
364.562	83
364.788	89
365.015	81
365.241	91
365.468	77
365.694	91
365.92	84
366.147	73
366.373	74
366.599	94
366.826	81
367.052	92
367.278	74
367.505	88
367.731	85
367.957	89
368.184	93
368.41	92
368.636	95
368.862	77
369.089	87
369.315	73
369.541	84
369.767	88
369.993	89
370.219	89
370.445	90
370.672	90
370.898	88
371.124	77
371.35	77
371.576	81
371.802	95
372.028	88
372.254	93
372.48	85
372.706	77
372.932	79
373.158	91
373.384	91
373.61	73
373.835	89
374.061	68
374.287	83
374.513	82
374.739	83
374.965	76
375.191	85
375.416	94
375.642	87
375.868	103
376.094	82
376.319	86
376.545	85
376.771	98
376.997	93
377.222	78
377.448	90
377.674	84
377.899	96
378.125	88
378.35	91
378.576	85
378.802	81
379.027	79
379.253	73
379.478	85
379.704	77
379.929	83
380.155	88
380.38	85
380.606	89
380.831	96
381.057	95
381.282	88
381.507	97
381.733	85
381.958	99
382.184	89
382.409	82
382.634	72
382.86	80
383.085	86
383.31	80
383.535	90
383.761	88
383.986	95
384.211	92
384.436	88
384.662	91
384.887	77
385.112	75
385.337	95
385.562	91
385.787	74
386.013	101
386.238	89
386.463	87
386.688	88
386.913	79
387.138	76
387.363	84
387.588	92
387.813	89
388.038	83
388.263	96
388.488	81
388.713	80
388.938	76
389.163	100
389.387	83
389.612	79
389.837	80
390.062	91
390.287	83
390.512	97
390.736	88
390.961	77
391.186	83
391.411	89
391.636	98
391.86	84
392.085	84
392.31	94
392.534	92
392.759	89
392.984	83
393.208	90
393.433	91
393.658	94
393.882	81
394.107	82
394.331	103
394.556	92
394.78	82
395.005	99
395.229	82
395.454	87
395.678	94
395.903	87
396.127	100
396.352	97
396.576	99
396.801	95
397.025	89
397.249	83
397.474	99
397.698	99
397.922	101
398.147	89
398.371	97
398.595	91
398.82	77
399.044	100
399.268	89
399.492	87
399.717	82
399.941	90
400.165	89
400.389	90
400.613	95
400.837	88
401.062	93
401.286	104
401.51	93
401.734	81
401.958	88
402.182	76
402.406	77
402.63	100
402.854	85
403.078	105
403.302	85
403.526	98
403.75	85
403.974	87
404.198	83
404.422	95
404.645	83
404.869	89
405.093	84
405.317	93
405.541	85
405.765	94
405.988	91
406.212	80
406.436	100
406.66	106
406.883	111
407.107	95
407.331	88
407.555	90
407.778	84
408.002	104
408.226	97
408.449	81
408.673	91
408.896	90
409.12	88
409.344	93
409.567	87
409.791	94
410.014	81
410.238	92
410.461	100
410.685	95
410.908	113
411.132	85
411.355	98
411.578	101
411.802	102
412.025	95
412.249	114
412.472	102
412.695	102
412.919	102
413.142	101
413.365	89
413.589	102
413.812	101
414.035	104
414.258	85
414.482	93
414.705	114
414.928	98
415.151	113
415.374	80
415.597	89
415.821	93
416.044	95
416.267	83
416.49	101
416.713	98
416.936	94
417.159	90
417.382	105
417.605	111
417.828	122
418.051	95
418.274	105
418.497	97
418.72	107
418.943	90
419.166	106
419.389	99
419.611	101
419.834	93
420.057	96
420.28	105
420.503	93
420.726	107
420.948	99
421.171	112
421.394	108
421.617	115
421.839	105
422.062	111
422.285	122
422.507	117
422.73	98
422.953	114
423.175	98
423.398	98
423.621	106
423.843	110
424.066	101
424.288	81
424.511	112
424.733	107
424.956	104
425.178	108
425.401	101
425.623	104
425.846	104
426.068	98
426.291	101
426.513	99
426.735	108
426.958	101
427.18	109
427.402	91
427.625	100
427.847	99
428.069	96
428.292	100
428.514	90
428.736	113
428.958	103
429.181	106
429.403	91
429.625	103
429.847	99
430.069	95
430.292	108
430.514	86
430.736	111
430.958	110
431.18	88
431.402	104
431.624	83
431.846	105
432.068	80
432.29	85
432.512	105
432.734	93
432.956	96
433.178	85
433.4	103
433.622	104
433.844	94
434.066	112
434.287	101
434.509	93
434.731	85
434.953	101
435.175	112
435.397	107
435.618	85
435.84	87
436.062	82
436.284	100
436.505	102
436.727	114
436.949	117
437.17	109
437.392	102
437.614	96
437.835	98
438.057	90
438.278	91
438.5	93
438.721	103
438.943	109
439.165	109
439.386	104
439.608	117
439.829	111
440.05	95
440.272	104
440.493	113
440.715	117
440.936	108
441.158	108
441.379	102
441.6	96
441.822	108
442.043	94
442.264	93
442.486	99
442.707	113
442.928	103
443.149	101
443.371	110
443.592	100
443.813	103
444.034	115
444.255	106
444.476	107
444.698	102
444.919	88
445.14	232
445.361	170
445.582	109
445.803	110
446.024	119
446.245	113
446.466	110
446.687	106
446.908	125
447.129	127
447.35	117
447.571	105
447.792	116
448.013	95
448.234	105
448.455	107
448.675	109
448.896	90
449.117	111
449.338	115
449.559	107
449.779	88
450	96
450.221	102
450.442	99
450.662	101
450.883	97
451.104	114
451.324	105
451.545	102
451.766	102
451.986	96
452.207	96
452.428	98
452.648	99
452.869	116
453.089	97
453.31	101
453.53	89
453.751	83
453.971	96
454.192	90
454.412	74
454.633	95
454.853	96
455.073	89
455.294	106
455.514	100
455.734	93
455.955	106
456.175	97
456.395	88
456.616	102
456.836	94
457.056	92
457.276	93
457.497	88
457.717	102
457.937	89
458.157	92
458.377	99
458.598	103
458.818	74
459.038	82
459.258	84
459.478	90
459.698	94
459.918	92
460.138	97
460.358	97
460.578	92
460.798	100
461.018	96
461.238	103
461.458	101
461.678	97
461.898	98
462.118	103
462.338	97
462.558	101
462.777	91
462.997	87
463.217	90
463.437	99
463.657	90
463.876	105
464.096	84
464.316	90
464.536	93
464.755	98
464.975	98
465.195	103
465.414	105
465.634	106
465.854	104
466.073	87
466.293	94
466.512	108
466.732	108
466.951	109
467.171	90
467.391	97
467.61	97
467.829	102
468.049	106
468.268	103
468.488	90
468.707	81
468.927	99
469.146	105
469.365	124
469.585	106
469.804	92
470.023	95
470.243	103
470.462	108
470.681	111
470.901	102
471.12	97
471.339	108
471.558	104
471.777	115
471.997	115
472.216	110
472.435	94
472.654	92
472.873	103
473.092	93
473.311	74
473.53	99
473.749	112
473.968	93
474.187	97
474.406	86
474.625	104
474.844	111
475.063	111
475.282	99
475.501	95
475.72	95
475.939	95
476.158	123
476.377	93
476.596	99
476.814	107
477.033	105
477.252	107
477.471	117
477.69	97
477.908	97
478.127	107
478.346	120
478.564	122
478.783	107
479.002	103
479.22	103
479.439	114
479.658	100
479.876	100
480.095	105
480.313	101
480.532	79
480.751	93
480.969	86
481.188	97
481.406	82
481.624	89
481.843	91
482.061	98
482.28	101
482.498	101
482.717	99
482.935	102
483.153	102
483.372	105
483.59	110
483.808	121
484.027	94
484.245	111
484.463	103
484.681	123
484.9	112
485.118	129
485.336	111
485.554	97
485.772	103
485.99	100
486.209	92
486.427	101
486.645	108
486.863	107
487.081	120
487.299	115
487.517	99
487.735	107
487.953	141
488.171	114
488.389	122
488.607	117
488.825	119
489.043	98
489.261	95
489.479	112
489.696	111
489.914	111
490.132	107
490.35	111
490.568	123
490.786	120
491.003	127
491.221	131
491.439	131
491.657	117
491.874	125
492.092	137
492.31	146
492.527	137
492.745	137
492.963	146
493.18	141
493.398	124
493.615	138
493.833	137
494.05	120
494.268	106
494.485	113
494.703	125
494.92	119
495.138	124
495.355	121
495.573	131
495.79	116
496.008	121
496.225	117
496.442	134
496.66	135
496.877	124
497.094	129
497.312	129
497.529	121
497.746	105
497.963	102
498.181	116
498.398	108
498.615	95
498.832	89
499.049	103
499.267	111
499.484	94
499.701	116
499.918	101
500.135	108
500.352	108
500.569	107
500.786	118
501.003	115
501.22	103
501.437	113
501.654	105
501.871	113
502.088	101
502.305	93
502.522	105
502.739	91
502.956	106
503.172	112
503.389	101
503.606	101
503.823	86
504.04	97
504.256	92
504.473	103
504.69	99
504.907	117
505.123	108
505.34	98
505.557	99
505.773	92
505.99	104
506.207	90
506.423	105
506.64	85
506.856	102
507.073	91
507.289	95
507.506	104
507.722	95
507.939	85
508.155	95
508.372	103
508.588	105
508.805	90
509.021	90
509.238	88
509.454	92
509.67	91
509.887	92
510.103	93
510.319	86
510.536	87
510.752	91
510.968	77
511.184	91
511.401	82
511.617	80
511.833	82
512.049	82
512.265	93
512.481	94
512.698	90
512.914	89
513.13	80
513.346	81
513.562	75
513.778	95
513.994	85
514.21	75
514.426	103
514.642	98
514.858	84
515.074	93
515.29	83
515.506	95
515.721	77
515.937	90
516.153	99
516.369	95
516.585	90
516.801	96
517.016	91
517.232	90
517.448	100
517.664	92
517.879	80
518.095	92
518.311	91
518.527	67
518.742	95
518.958	85
519.173	90
519.389	81
519.605	87
519.82	78
520.036	95
520.251	87
520.467	104
520.682	93
520.898	74
521.113	94
521.329	82
521.544	78
521.76	99
521.975	82
522.19	102
522.406	75
522.621	96
522.836	82
523.052	91
523.267	89
523.482	95
523.698	96
523.913	89
524.128	97
524.343	108
524.559	98
524.774	92
524.989	104
525.204	107
525.419	99
525.634	83
525.849	84
526.064	97
526.28	92
526.495	78
526.71	58
526.925	92
527.14	72
527.355	79
527.57	78
527.785	89
527.999	86
528.214	95
528.429	101
528.644	108
528.859	113
529.074	107
529.289	119
529.503	112
529.718	89
529.933	101
530.148	92
530.363	94
530.577	81
530.792	74
531.007	74
531.221	86
531.436	88
531.651	78
531.865	78
532.08	99
532.295	100
532.509	90
532.724	85
532.938	82
533.153	86
533.367	99
533.582	94
533.796	104
534.011	102
534.225	91
534.44	82
534.654	91
534.868	95
535.083	100
535.297	92
535.511	99
535.726	96
535.94	96
536.154	83
536.369	78
536.583	83
536.797	86
537.011	80
537.225	88
537.44	85
537.654	93
537.868	77
538.082	83
538.296	76
538.51	88
538.724	87
538.938	114
539.153	100
539.367	103
539.581	87
539.795	98
540.009	76
540.222	95
540.436	91
540.65	95
540.864	102
541.078	105
541.292	101
541.506	109
541.72	129
541.934	123
542.147	135
542.361	125
542.575	119
542.789	108
543.002	99
543.216	105
543.43	105
543.644	118
543.857	118
544.071	117
544.285	131
544.498	128
544.712	122
544.925	132
545.139	117
545.352	129
545.566	116
545.779	124
545.993	102
546.206	133
546.42	129
546.633	114
546.847	120
547.06	121
547.274	137
547.487	125
547.7	122
547.914	114
548.127	118
548.34	124
548.554	120
548.767	124
548.98	124
549.193	118
549.407	116
549.62	114
549.833	113
550.046	118
550.259	126
550.473	117
550.686	120
550.899	107
551.112	105
551.325	99
551.538	98
551.751	106
551.964	102
552.177	111
552.39	111
552.603	114
552.816	112
553.029	115
553.242	111
553.455	119
553.667	130
553.88	112
554.093	115
554.306	106
554.519	100
554.732	124
554.944	121
555.157	98
555.37	103
555.583	113
555.795	111
556.008	96
556.221	117
556.433	103
556.646	107
556.859	114
557.071	108
557.284	119
557.496	108
557.709	116
557.921	118
558.134	94
558.346	117
558.559	121
558.771	111
558.984	91
559.196	113
559.409	93
559.621	100
559.833	119
560.046	100
560.258	105
560.47	122
560.683	117
560.895	107
561.107	107
561.32	114
561.532	93
561.744	120
561.956	107
562.168	107
562.381	113
562.593	90
562.805	119
563.017	119
563.229	82
563.441	105
563.653	101
563.865	111
564.077	96
564.289	100
564.501	80
564.713	104
564.925	111
565.137	103
565.349	96
565.561	92
565.773	91
565.985	96
566.197	104
566.408	115
566.62	102
566.832	104
567.044	113
567.255	99
567.467	87
567.679	101
567.891	90
568.102	112
568.314	99
568.526	91
568.737	78
568.949	91
569.161	77
569.372	77
569.584	82
569.795	86
570.007	89
570.218	93
570.43	75
570.641	84
570.853	89
571.064	83
571.276	91
571.487	95
571.698	91
571.91	102
572.121	93
572.333	99
572.544	93
572.755	100
572.966	73
573.178	80
573.389	80
573.6	86
573.811	78
574.023	92
574.234	83
574.445	90
574.656	76
574.867	85
575.078	82
575.289	85
575.501	80
575.712	89
575.923	76
576.134	75
576.345	82
576.556	87
576.767	99
576.978	96
577.188	90
577.399	87
577.61	85
577.821	92
578.032	91
578.243	88
578.454	85
578.665	81
578.875	91
579.086	73
579.297	72
579.508	86
579.718	92
579.929	85
580.14	87
580.35	80
580.561	84
580.772	80
580.982	92
581.193	88
581.403	78
581.614	93
581.825	72
582.035	84
582.246	77
582.456	74
582.667	75
