Data from Zn(NO3)2Standard.Agarose3%.GreenCap.LampEnergy10E.O_HRD10591_15-08-35-949.txt Node
Date: Mon Jul 22 15:08:35 EDT 2019
User: cochatt
Spectrometer: HR+D1059
Trigger mode: 1
Integration Time (sec): 1.000000E-1
Scans to average: 1
Electric dark correction enabled: true
Nonlinearity correction enabled: false
Boxcar width: 0
XAxis mode: Wavelengths
Number of Pixels in Spectrum: 2048
>>>>>Begin Spectral Data<<<<<
223.165	-29.44
223.4	-29.44
223.635	-29.44
223.869	-17.44
224.104	-9.44
224.338	-12.44
224.573	-1.44
224.808	-5.44
225.042	-11.44
225.277	-4.44
225.511	0.56
225.746	1.56
225.98	3.56
226.215	-3.44
226.449	19.56
226.683	15.56
226.918	35.56
227.152	18.56
227.387	37.56
227.621	40.56
227.856	43.56
228.09	36.56
228.324	37.56
228.559	54.56
228.793	66.56
229.027	72.56
229.262	58.56
229.496	55.56
229.73	72.56
229.964	78.56
230.199	63.56
230.433	72.56
230.667	73.56
230.901	92.56
231.136	90.56
231.37	80.56
231.604	86.56
231.838	76.56
232.072	84.56
232.306	79.56
232.541	87.56
232.775	81.56
233.009	89.56
233.243	79.56
233.477	90.56
233.711	77.56
233.945	88.56
234.179	76.56
234.413	96.56
234.647	85.56
234.881	76.56
235.115	82.56
235.349	64.56
235.583	103.56
235.817	93.56
236.051	78.56
236.285	75.56
236.519	88.56
236.753	85.56
236.987	92.56
237.221	98.56
237.455	86.56
237.689	72.56
237.922	76.56
238.156	63.56
238.39	86.56
238.624	72.56
238.858	77.56
239.091	81.56
239.325	82.56
239.559	93.56
239.793	95.56
240.027	74.56
240.26	88.56
240.494	79.56
240.728	78.56
240.961	81.56
241.195	86.56
241.429	80.56
241.662	74.56
241.896	83.56
242.13	78.56
242.363	71.56
242.597	77.56
242.83	63.56
243.064	71.56
243.298	61.56
243.531	77.56
243.765	88.56
243.998	77.56
244.232	66.56
244.465	82.56
244.699	79.56
244.932	80.56
245.166	61.56
245.399	78.56
245.633	82.56
245.866	74.56
246.099	71.56
246.333	82.56
246.566	85.56
246.8	79.56
247.033	77.56
247.266	83.56
247.5	80.56
247.733	83.56
247.966	74.56
248.2	65.56
248.433	84.56
248.666	78.56
248.899	86.56
249.133	94.56
249.366	86.56
249.599	76.56
249.832	82.56
250.066	91.56
250.299	86.56
250.532	74.56
250.765	75.56
250.998	73.56
251.231	93.56
251.465	80.56
251.698	74.56
251.931	85.56
252.164	102.56
252.397	74.56
252.63	86.56
252.863	92.56
253.096	87.56
253.329	72.56
253.562	78.56
253.795	83.56
254.028	86.56
254.261	97.56
254.494	75.56
254.727	73.56
254.96	77.56
255.193	68.56
255.426	84.56
255.659	83.56
255.892	67.56
256.124	86.56
256.357	80.56
256.59	72.56
256.823	84.56
257.056	76.56
257.289	67.56
257.521	74.56
257.754	72.56
257.987	70.56
258.22	88.56
258.452	91.56
258.685	81.56
258.918	72.56
259.151	84.56
259.383	77.56
259.616	83.56
259.849	82.56
260.081	92.56
260.314	78.56
260.547	84.56
260.779	74.56
261.012	81.56
261.244	79.56
261.477	75.56
261.71	81.56
261.942	75.56
262.175	94.56
262.407	88.56
262.64	83.56
262.872	85.56
263.105	74.56
263.337	91.56
263.57	87.56
263.802	83.56
264.035	84.56
264.267	75.56
264.499	76.56
264.732	93.56
264.964	68.56
265.197	84.56
265.429	95.56
265.661	80.56
265.894	82.56
266.126	101.56
266.358	87.56
266.591	95.56
266.823	98.56
267.055	80.56
267.287	85.56
267.52	81.56
267.752	81.56
267.984	99.56
268.216	88.56
268.448	86.56
268.681	78.56
268.913	76.56
269.145	101.56
269.377	85.56
269.609	92.56
269.841	93.56
270.073	88.56
270.306	79.56
270.538	85.56
270.77	85.56
271.002	82.56
271.234	96.56
271.466	80.56
271.698	70.56
271.93	80.56
272.162	90.56
272.394	82.56
272.626	87.56
272.858	82.56
273.09	88.56
273.322	92.56
273.553	88.56
273.785	78.56
274.017	78.56
274.249	82.56
274.481	84.56
274.713	90.56
274.945	89.56
275.176	81.56
275.408	103.56
275.64	78.56
275.872	93.56
276.104	87.56
276.335	76.56
276.567	85.56
276.799	76.56
277.031	71.56
277.262	99.56
277.494	80.56
277.726	80.56
277.957	95.56
278.189	84.56
278.421	86.56
278.652	84.56
278.884	85.56
279.115	81.56
279.347	81.56
279.579	79.56
279.81	73.56
280.042	88.56
280.273	87.56
280.505	83.56
280.736	88.56
280.968	85.56
281.199	90.56
281.431	80.56
281.662	91.56
281.894	79.56
282.125	83.56
282.356	87.56
282.588	79.56
282.819	76.56
283.051	87.56
283.282	101.56
283.513	93.56
283.745	91.56
283.976	86.56
284.207	90.56
284.439	92.56
284.67	77.56
284.901	71.56
285.132	80.56
285.364	79.56
285.595	76.56
285.826	78.56
286.057	92.56
286.288	76.56
286.52	92.56
286.751	79.56
286.982	86.56
287.213	78.56
287.444	86.56
287.675	85.56
287.906	76.56
288.138	78.56
288.369	77.56
288.6	68.56
288.831	74.56
289.062	91.56
289.293	92.56
289.524	82.56
289.755	83.56
289.986	87.56
290.217	79.56
290.448	92.56
290.679	83.56
290.91	83.56
291.141	88.56
291.371	80.56
291.602	82.56
291.833	86.56
292.064	81.56
292.295	81.56
292.526	94.56
292.757	85.56
292.987	74.56
293.218	74.56
293.449	80.56
293.68	98.56
293.91	86.56
294.141	80.56
294.372	90.56
294.603	101.56
294.833	96.56
295.064	89.56
295.295	91.56
295.525	91.56
295.756	90.56
295.987	82.56
296.217	95.56
296.448	88.56
296.679	83.56
296.909	93.56
297.14	80.56
297.37	99.56
297.601	83.56
297.831	83.56
298.062	80.56
298.292	103.56
298.523	98.56
298.753	102.56
298.984	89.56
299.214	86.56
299.445	109.56
299.675	95.56
299.905	83.56
300.136	90.56
300.366	90.56
300.597	88.56
300.827	90.56
301.057	91.56
301.288	92.56
301.518	102.56
301.748	93.56
301.979	90.56
302.209	93.56
302.439	82.56
302.669	95.56
302.9	102.56
303.13	105.56
303.36	78.56
303.59	73.56
303.82	89.56
304.051	84.56
304.281	86.56
304.511	98.56
304.741	104.56
304.971	98.56
305.201	80.56
305.431	93.56
305.661	82.56
305.891	76.56
306.121	91.56
306.352	91.56
306.582	93.56
306.812	76.56
307.042	81.56
307.272	79.56
307.502	86.56
307.731	80.56
307.961	84.56
308.191	81.56
308.421	87.56
308.651	78.56
308.881	88.56
309.111	74.56
309.341	93.56
309.571	87.56
309.8	84.56
310.03	87.56
310.26	78.56
310.49	82.56
310.72	84.56
310.949	76.56
311.179	87.56
311.409	98.56
311.639	88.56
311.868	86.56
312.098	87.56
312.328	78.56
312.557	86.56
312.787	100.56
313.017	86.56
313.246	85.56
313.476	98.56
313.706	92.56
313.935	89.56
314.165	90.56
314.394	92.56
314.624	75.56
314.853	81.56
315.083	74.56
315.312	87.56
315.542	79.56
315.771	87.56
316.001	73.56
316.23	88.56
316.46	95.56
316.689	89.56
316.919	90.56
317.148	81.56
317.377	95.56
317.607	91.56
317.836	91.56
318.065	91.56
318.295	89.56
318.524	90.56
318.753	70.56
318.983	87.56
319.212	82.56
319.441	92.56
319.67	98.56
319.9	78.56
320.129	71.56
320.358	81.56
320.587	83.56
320.816	99.56
321.046	82.56
321.275	87.56
321.504	74.56
321.733	82.56
321.962	85.56
322.191	106.56
322.42	85.56
322.649	94.56
322.878	85.56
323.108	94.56
323.337	78.56
323.566	95.56
323.795	104.56
324.024	79.56
324.253	84.56
324.482	80.56
324.71	93.56
324.939	87.56
325.168	76.56
325.397	81.56
325.626	90.56
325.855	87.56
326.084	80.56
326.313	86.56
326.542	88.56
326.77	97.56
326.999	87.56
327.228	87.56
327.457	71.56
327.686	99.56
327.914	96.56
328.143	96.56
328.372	93.56
328.6	99.56
328.829	93.56
329.058	80.56
329.287	91.56
329.515	91.56
329.744	92.56
329.972	64.56
330.201	83.56
330.43	99.56
330.658	80.56
330.887	74.56
331.115	86.56
331.344	85.56
331.572	80.56
331.801	79.56
332.03	80.56
332.258	85.56
332.486	76.56
332.715	82.56
332.943	72.56
333.172	98.56
333.4	84.56
333.629	81.56
333.857	91.56
334.085	99.56
334.314	91.56
334.542	91.56
334.771	96.56
334.999	95.56
335.227	94.56
335.455	81.56
335.684	96.56
335.912	78.56
336.14	79.56
336.369	106.56
336.597	92.56
336.825	85.56
337.053	90.56
337.281	73.56
337.51	96.56
337.738	78.56
337.966	93.56
338.194	80.56
338.422	80.56
338.65	76.56
338.878	101.56
339.106	99.56
339.334	80.56
339.562	87.56
339.79	86.56
340.018	89.56
340.246	91.56
340.474	75.56
340.702	93.56
340.93	73.56
341.158	93.56
341.386	89.56
341.614	81.56
341.842	90.56
342.07	79.56
342.298	87.56
342.526	97.56
342.754	76.56
342.981	95.56
343.209	95.56
343.437	103.56
343.665	87.56
343.893	91.56
344.12	82.56
344.348	91.56
344.576	83.56
344.804	91.56
345.031	91.56
345.259	75.56
345.487	75.56
345.714	84.56
345.942	92.56
346.17	85.56
346.397	91.56
346.625	79.56
346.853	81.56
347.08	79.56
347.308	87.56
347.535	96.56
347.763	91.56
347.99	90.56
348.218	95.56
348.445	82.56
348.673	82.56
348.9	82.56
349.128	85.56
349.355	89.56
349.583	79.56
349.81	100.56
350.037	88.56
350.265	88.56
350.492	88.56
350.72	86.56
350.947	87.56
351.174	93.56
351.402	83.56
351.629	84.56
351.856	85.56
352.083	84.56
352.311	80.56
352.538	96.56
352.765	87.56
352.992	87.56
353.22	72.56
353.447	86.56
353.674	83.56
353.901	87.56
354.128	101.56
354.355	95.56
354.583	83.56
354.81	83.56
355.037	84.56
355.264	90.56
355.491	76.56
355.718	82.56
355.945	83.56
356.172	89.56
356.399	87.56
356.626	85.56
356.853	78.56
357.08	92.56
357.307	87.56
357.534	87.56
357.761	87.56
357.988	100.56
358.215	75.56
358.441	85.56
358.668	78.56
358.895	86.56
359.122	70.56
359.349	79.56
359.576	91.56
359.802	89.56
360.029	79.56
360.256	85.56
360.483	64.56
360.709	76.56
360.936	92.56
361.163	94.56
361.39	69.56
361.616	96.56
361.843	76.56
362.07	90.56
362.296	78.56
362.523	94.56
362.749	70.56
362.976	93.56
363.203	92.56
363.429	107.56
363.656	89.56
363.882	78.56
364.109	87.56
364.335	83.56
364.562	92.56
364.788	84.56
365.015	88.56
365.241	95.56
365.468	75.56
365.694	80.56
365.92	86.56
366.147	86.56
366.373	95.56
366.599	86.56
366.826	83.56
367.052	92.56
367.278	83.56
367.505	91.56
367.731	98.56
367.957	79.56
368.184	83.56
368.41	93.56
368.636	90.56
368.862	90.56
369.089	91.56
369.315	91.56
369.541	85.56
369.767	88.56
369.993	84.56
370.219	79.56
370.445	85.56
370.672	94.56
370.898	73.56
371.124	97.56
371.35	87.56
371.576	87.56
371.802	82.56
372.028	97.56
372.254	93.56
372.48	78.56
372.706	92.56
372.932	91.56
373.158	77.56
373.384	90.56
373.61	83.56
373.835	83.56
374.061	99.56
374.287	72.56
374.513	98.56
374.739	90.56
374.965	85.56
375.191	79.56
375.416	70.56
375.642	87.56
375.868	81.56
376.094	87.56
376.319	92.56
376.545	94.56
376.771	99.56
376.997	74.56
377.222	85.56
377.448	92.56
377.674	79.56
377.899	80.56
378.125	92.56
378.35	94.56
378.576	90.56
378.802	84.56
379.027	84.56
379.253	91.56
379.478	81.56
379.704	81.56
379.929	99.56
380.155	84.56
380.38	87.56
380.606	80.56
380.831	93.56
381.057	97.56
381.282	91.56
381.507	90.56
381.733	94.56
381.958	92.56
382.184	90.56
382.409	90.56
382.634	103.56
382.86	95.56
383.085	98.56
383.31	91.56
383.535	88.56
383.761	77.56
383.986	99.56
384.211	99.56
384.436	106.56
384.662	89.56
384.887	95.56
385.112	83.56
385.337	96.56
385.562	87.56
385.787	85.56
386.013	94.56
386.238	96.56
386.463	98.56
386.688	101.56
386.913	92.56
387.138	80.56
387.363	93.56
387.588	85.56
387.813	91.56
388.038	82.56
388.263	107.56
388.488	93.56
388.713	87.56
388.938	92.56
389.163	81.56
389.387	89.56
389.612	89.56
389.837	105.56
390.062	105.56
390.287	95.56
390.512	103.56
390.736	100.56
390.961	93.56
391.186	94.56
391.411	87.56
391.636	90.56
391.86	86.56
392.085	99.56
392.31	91.56
392.534	91.56
392.759	97.56
392.984	101.56
393.208	89.56
393.433	89.56
393.658	90.56
393.882	80.56
394.107	98.56
394.331	109.56
394.556	88.56
394.78	96.56
395.005	93.56
395.229	93.56
395.454	96.56
395.678	92.56
395.903	93.56
396.127	90.56
396.352	100.56
396.576	98.56
396.801	95.56
397.025	95.56
397.249	99.56
397.474	90.56
397.698	104.56
397.922	103.56
398.147	103.56
398.371	106.56
398.595	81.56
398.82	93.56
399.044	85.56
399.268	112.56
399.492	74.56
399.717	91.56
399.941	87.56
400.165	87.56
400.389	88.56
400.613	89.56
400.837	100.56
401.062	105.56
401.286	93.56
401.51	102.56
401.734	96.56
401.958	96.56
402.182	109.56
402.406	94.56
402.63	105.56
402.854	108.56
403.078	85.56
403.302	91.56
403.526	107.56
403.75	91.56
403.974	107.56
404.198	99.56
404.422	108.56
404.645	103.56
404.869	94.56
405.093	92.56
405.317	109.56
405.541	102.56
405.765	102.56
405.988	107.56
406.212	109.56
406.436	91.56
406.66	98.56
406.883	100.56
407.107	88.56
407.331	108.56
407.555	95.56
407.778	98.56
408.002	95.56
408.226	90.56
408.449	102.56
408.673	113.56
408.896	97.56
409.12	87.56
409.344	118.56
409.567	92.56
409.791	97.56
410.014	98.56
410.238	109.56
410.461	92.56
410.685	104.56
410.908	107.56
411.132	107.56
411.355	106.56
411.578	109.56
411.802	92.56
412.025	114.56
412.249	108.56
412.472	97.56
412.695	112.56
412.919	96.56
413.142	104.56
413.365	116.56
413.589	96.56
413.812	106.56
414.035	102.56
414.258	111.56
414.482	95.56
414.705	116.56
414.928	114.56
415.151	100.56
415.374	89.56
415.597	105.56
415.821	96.56
416.044	100.56
416.267	100.56
416.49	110.56
416.713	103.56
416.936	99.56
417.159	95.56
417.382	104.56
417.605	111.56
417.828	108.56
418.051	99.56
418.274	114.56
418.497	83.56
418.72	102.56
418.943	109.56
419.166	102.56
419.389	106.56
419.611	110.56
419.834	106.56
420.057	99.56
420.28	99.56
420.503	116.56
420.726	95.56
420.948	106.56
421.171	90.56
421.394	100.56
421.617	94.56
421.839	110.56
422.062	111.56
422.285	103.56
422.507	92.56
422.73	100.56
422.953	113.56
423.175	111.56
423.398	90.56
423.621	104.56
423.843	105.56
424.066	107.56
424.288	118.56
424.511	105.56
424.733	111.56
424.956	103.56
425.178	95.56
425.401	105.56
425.623	108.56
425.846	102.56
426.068	104.56
426.291	103.56
426.513	101.56
426.735	92.56
426.958	94.56
427.18	106.56
427.402	116.56
427.625	111.56
427.847	102.56
428.069	127.56
428.292	108.56
428.514	92.56
428.736	99.56
428.958	94.56
429.181	107.56
429.403	106.56
429.625	94.56
429.847	104.56
430.069	100.56
430.292	113.56
430.514	89.56
430.736	103.56
430.958	123.56
431.18	95.56
431.402	91.56
431.624	103.56
431.846	83.56
432.068	83.56
432.29	98.56
432.512	103.56
432.734	107.56
432.956	110.56
433.178	93.56
433.4	100.56
433.622	107.56
433.844	115.56
434.066	107.56
434.287	98.56
434.509	91.56
434.731	90.56
434.953	91.56
435.175	107.56
435.397	96.56
435.618	94.56
435.84	89.56
436.062	105.56
436.284	106.56
436.505	110.56
436.727	101.56
436.949	110.56
437.17	107.56
437.392	99.56
437.614	107.56
437.835	103.56
438.057	97.56
438.278	116.56
438.5	94.56
438.721	90.56
438.943	108.56
439.165	108.56
439.386	115.56
439.608	114.56
439.829	117.56
440.05	116.56
440.272	115.56
440.493	109.56
440.715	109.56
440.936	99.56
441.158	120.56
441.379	115.56
441.6	108.56
441.822	110.56
442.043	107.56
442.264	116.56
442.486	120.56
442.707	106.56
442.928	110.56
443.149	103.56
443.371	116.56
443.592	104.56
443.813	106.56
444.034	121.56
444.255	110.56
444.476	90.56
444.698	101.56
444.919	119.56
445.14	243.56
445.361	175.56
445.582	106.56
445.803	97.56
446.024	123.56
446.245	130.56
446.466	116.56
446.687	112.56
446.908	126.56
447.129	106.56
447.35	111.56
447.571	130.56
447.792	118.56
448.013	113.56
448.234	110.56
448.455	116.56
448.675	114.56
448.896	120.56
449.117	122.56
449.338	116.56
449.559	118.56
449.779	108.56
450	118.56
450.221	99.56
450.442	101.56
450.662	107.56
450.883	102.56
451.104	111.56
451.324	104.56
451.545	108.56
451.766	127.56
451.986	93.56
452.207	111.56
452.428	111.56
452.648	107.56
452.869	106.56
453.089	84.56
453.31	92.56
453.53	99.56
453.751	92.56
453.971	96.56
454.192	101.56
454.412	104.56
454.633	95.56
454.853	104.56
455.073	110.56
455.294	98.56
455.514	101.56
455.734	97.56
455.955	91.56
456.175	96.56
456.395	94.56
456.616	101.56
456.836	85.56
457.056	93.56
457.276	93.56
457.497	102.56
457.717	95.56
457.937	94.56
458.157	105.56
458.377	85.56
458.598	83.56
458.818	108.56
459.038	74.56
459.258	82.56
459.478	84.56
459.698	88.56
459.918	94.56
460.138	102.56
460.358	85.56
460.578	96.56
460.798	96.56
461.018	106.56
461.238	96.56
461.458	110.56
461.678	102.56
461.898	106.56
462.118	97.56
462.338	103.56
462.558	103.56
462.777	100.56
462.997	95.56
463.217	87.56
463.437	90.56
463.657	89.56
463.876	108.56
464.096	111.56
464.316	92.56
464.536	92.56
464.755	103.56
464.975	92.56
465.195	103.56
465.414	115.56
465.634	103.56
465.854	103.56
466.073	100.56
466.293	107.56
466.512	96.56
466.732	116.56
466.951	100.56
467.171	108.56
467.391	108.56
467.61	117.56
467.829	117.56
468.049	117.56
468.268	114.56
468.488	124.56
468.707	104.56
468.927	108.56
469.146	109.56
469.365	111.56
469.585	124.56
469.804	105.56
470.023	114.56
470.243	118.56
470.462	98.56
470.681	120.56
470.901	111.56
471.12	107.56
471.339	107.56
471.558	104.56
471.777	121.56
471.997	101.56
472.216	113.56
472.435	106.56
472.654	109.56
472.873	101.56
473.092	95.56
473.311	107.56
473.53	102.56
473.749	108.56
473.968	96.56
474.187	106.56
474.406	93.56
474.625	105.56
474.844	95.56
475.063	109.56
475.282	109.56
475.501	114.56
475.72	111.56
475.939	109.56
476.158	105.56
476.377	93.56
476.596	109.56
476.814	103.56
477.033	106.56
477.252	96.56
477.471	98.56
477.69	111.56
477.908	110.56
478.127	127.56
478.346	104.56
478.564	113.56
478.783	108.56
479.002	106.56
479.22	110.56
479.439	101.56
479.658	90.56
479.876	93.56
480.095	90.56
480.313	98.56
480.532	114.56
480.751	91.56
480.969	88.56
481.188	94.56
481.406	88.56
481.624	87.56
481.843	85.56
482.061	98.56
482.28	98.56
482.498	88.56
482.717	98.56
482.935	123.56
483.153	109.56
483.372	111.56
483.59	114.56
483.808	98.56
484.027	101.56
484.245	106.56
484.463	115.56
484.681	126.56
484.9	126.56
485.118	107.56
485.336	95.56
485.554	110.56
485.772	99.56
485.99	100.56
486.209	94.56
486.427	95.56
486.645	90.56
486.863	96.56
487.081	106.56
487.299	105.56
487.517	118.56
487.735	118.56
487.953	122.56
488.171	137.56
488.389	110.56
488.607	130.56
488.825	126.56
489.043	117.56
489.261	112.56
489.479	107.56
489.696	107.56
489.914	120.56
490.132	109.56
490.35	124.56
490.568	134.56
490.786	118.56
491.003	140.56
491.221	130.56
491.439	136.56
491.657	135.56
491.874	138.56
492.092	138.56
492.31	164.56
492.527	155.56
492.745	143.56
492.963	136.56
493.18	134.56
493.398	114.56
493.615	126.56
493.833	127.56
494.05	131.56
494.268	130.56
494.485	125.56
494.703	128.56
494.92	131.56
495.138	140.56
495.355	123.56
495.573	138.56
495.79	115.56
496.008	125.56
496.225	130.56
496.442	123.56
496.66	140.56
496.877	129.56
497.094	132.56
497.312	118.56
497.529	138.56
497.746	126.56
497.963	115.56
498.181	94.56
498.398	114.56
498.615	109.56
498.832	95.56
499.049	92.56
499.267	116.56
499.484	98.56
499.701	108.56
499.918	121.56
500.135	116.56
500.352	118.56
500.569	123.56
500.786	118.56
501.003	122.56
501.22	115.56
501.437	106.56
501.654	114.56
501.871	118.56
502.088	99.56
502.305	122.56
502.522	110.56
502.739	106.56
502.956	108.56
503.172	126.56
503.389	102.56
503.606	96.56
503.823	103.56
504.04	100.56
504.256	105.56
504.473	112.56
504.69	103.56
504.907	95.56
505.123	101.56
505.34	104.56
505.557	109.56
505.773	119.56
505.99	99.56
506.207	111.56
506.423	93.56
506.64	102.56
506.856	99.56
507.073	88.56
507.289	100.56
507.506	96.56
507.722	111.56
507.939	99.56
508.155	108.56
508.372	103.56
508.588	98.56
508.805	110.56
509.021	105.56
509.238	103.56
509.454	103.56
509.67	98.56
509.887	94.56
510.103	82.56
510.319	92.56
510.536	91.56
510.752	91.56
510.968	92.56
511.184	94.56
511.401	84.56
511.617	96.56
511.833	97.56
512.049	89.56
512.265	83.56
512.481	94.56
512.698	94.56
512.914	96.56
513.13	96.56
513.346	88.56
513.562	86.56
513.778	92.56
513.994	95.56
