Data from Zn(NO3)2Standard.Agarose3%.GreenCap.LampEnergy5.5.E.O_HRD10591_15-02-10-767.txt Node
Date: Mon Jul 22 15:02:10 EDT 2019
User: cochatt
Spectrometer: HR+D1059
Trigger mode: 1
Integration Time (sec): 1.000000E-1
Scans to average: 1
Electric dark correction enabled: true
Nonlinearity correction enabled: false
Boxcar width: 0
XAxis mode: Wavelengths
Number of Pixels in Spectrum: 2048
>>>>>Begin Spectral Data<<<<<
223.165	-17.88
223.4	-17.88
223.635	-17.88
223.869	-27.88
224.104	-14.88
224.338	-2.88
224.573	-20.88
224.808	-11.88
225.042	-14.88
225.277	-5.88
225.511	10.12
225.746	4.12
225.98	7.12
226.215	11.12
226.449	3.12
226.683	27.12
226.918	20.12
227.152	34.12
227.387	22.12
227.621	37.12
227.856	42.12
228.09	46.12
228.324	59.12
228.559	54.12
228.793	66.12
229.027	56.12
229.262	59.12
229.496	61.12
229.73	71.12
229.964	60.12
230.199	66.12
230.433	80.12
230.667	82.12
230.901	79.12
231.136	77.12
231.37	87.12
231.604	76.12
231.838	67.12
232.072	71.12
232.306	88.12
232.541	86.12
232.775	92.12
233.009	95.12
233.243	79.12
233.477	74.12
233.711	78.12
233.945	72.12
234.179	81.12
234.413	77.12
234.647	82.12
234.881	87.12
235.115	80.12
235.349	78.12
235.583	77.12
235.817	85.12
236.051	67.12
236.285	73.12
236.519	67.12
236.753	68.12
236.987	72.12
237.221	82.12
237.455	76.12
237.689	92.12
237.922	93.12
238.156	72.12
238.39	83.12
238.624	81.12
238.858	90.12
239.091	81.12
239.325	87.12
239.559	67.12
239.793	68.12
240.027	68.12
240.26	84.12
240.494	63.12
240.728	73.12
240.961	75.12
241.195	87.12
241.429	76.12
241.662	88.12
241.896	75.12
242.13	68.12
242.363	66.12
242.597	73.12
242.83	77.12
243.064	79.12
243.298	74.12
243.531	69.12
243.765	79.12
243.998	72.12
244.232	73.12
244.465	76.12
244.699	73.12
244.932	80.12
245.166	86.12
245.399	76.12
245.633	86.12
245.866	81.12
246.099	73.12
246.333	78.12
246.566	78.12
246.8	89.12
247.033	76.12
247.266	96.12
247.5	64.12
247.733	84.12
247.966	67.12
248.2	83.12
248.433	74.12
248.666	87.12
248.899	78.12
249.133	70.12
249.366	93.12
249.599	75.12
249.832	66.12
250.066	90.12
250.299	77.12
250.532	81.12
250.765	85.12
250.998	85.12
251.231	77.12
251.465	76.12
251.698	66.12
251.931	71.12
252.164	72.12
252.397	81.12
252.63	87.12
252.863	84.12
253.096	74.12
253.329	79.12
253.562	90.12
253.795	84.12
254.028	80.12
254.261	98.12
254.494	95.12
254.727	88.12
254.96	88.12
255.193	80.12
255.426	75.12
255.659	82.12
255.892	81.12
256.124	75.12
256.357	65.12
256.59	73.12
256.823	97.12
257.056	84.12
257.289	84.12
257.521	70.12
257.754	74.12
257.987	73.12
258.22	84.12
258.452	75.12
258.685	79.12
258.918	77.12
259.151	91.12
259.383	82.12
259.616	70.12
259.849	69.12
260.081	71.12
260.314	88.12
260.547	76.12
260.779	59.12
261.012	76.12
261.244	83.12
261.477	92.12
261.71	80.12
261.942	73.12
262.175	89.12
262.407	86.12
262.64	76.12
262.872	75.12
263.105	76.12
263.337	73.12
263.57	84.12
263.802	83.12
264.035	77.12
264.267	87.12
264.499	90.12
264.732	88.12
264.964	79.12
265.197	86.12
265.429	86.12
265.661	88.12
265.894	74.12
266.126	74.12
266.358	90.12
266.591	83.12
266.823	93.12
267.055	81.12
267.287	74.12
267.52	81.12
267.752	100.12
267.984	79.12
268.216	71.12
268.448	81.12
268.681	89.12
268.913	77.12
269.145	78.12
269.377	95.12
269.609	72.12
269.841	81.12
270.073	70.12
270.306	70.12
270.538	82.12
270.77	69.12
271.002	88.12
271.234	90.12
271.466	76.12
271.698	87.12
271.93	78.12
272.162	74.12
272.394	96.12
272.626	74.12
272.858	84.12
273.09	94.12
273.322	87.12
273.553	83.12
273.785	84.12
274.017	82.12
274.249	76.12
274.481	79.12
274.713	83.12
274.945	75.12
275.176	81.12
275.408	75.12
275.64	82.12
275.872	74.12
276.104	71.12
276.335	89.12
276.567	92.12
276.799	79.12
277.031	94.12
277.262	76.12
277.494	79.12
277.726	89.12
277.957	94.12
278.189	81.12
278.421	82.12
278.652	74.12
278.884	83.12
279.115	92.12
279.347	83.12
279.579	89.12
279.81	81.12
280.042	76.12
280.273	86.12
280.505	67.12
280.736	71.12
280.968	68.12
281.199	89.12
281.431	79.12
281.662	88.12
281.894	86.12
282.125	73.12
282.356	80.12
282.588	85.12
282.819	79.12
283.051	97.12
283.282	70.12
283.513	80.12
283.745	76.12
283.976	82.12
284.207	87.12
284.439	80.12
284.67	66.12
284.901	89.12
285.132	90.12
285.364	67.12
285.595	84.12
285.826	89.12
286.057	93.12
286.288	74.12
286.52	84.12
286.751	66.12
286.982	70.12
287.213	92.12
287.444	87.12
287.675	91.12
287.906	84.12
288.138	73.12
288.369	78.12
288.6	88.12
288.831	75.12
289.062	72.12
289.293	82.12
289.524	80.12
289.755	91.12
289.986	98.12
290.217	73.12
290.448	80.12
290.679	84.12
290.91	84.12
291.141	76.12
291.371	72.12
291.602	92.12
291.833	96.12
292.064	75.12
292.295	79.12
292.526	76.12
292.757	72.12
292.987	75.12
293.218	70.12
293.449	83.12
293.68	97.12
293.91	82.12
294.141	90.12
294.372	84.12
294.603	84.12
294.833	87.12
295.064	77.12
295.295	80.12
295.525	86.12
295.756	94.12
295.987	91.12
296.217	88.12
296.448	89.12
296.679	91.12
296.909	76.12
297.14	84.12
297.37	87.12
297.601	82.12
297.831	77.12
298.062	88.12
298.292	81.12
298.523	71.12
298.753	82.12
298.984	83.12
299.214	83.12
299.445	81.12
299.675	85.12
299.905	81.12
300.136	71.12
300.366	86.12
300.597	90.12
300.827	70.12
301.057	75.12
301.288	78.12
301.518	83.12
301.748	80.12
301.979	85.12
302.209	67.12
302.439	82.12
302.669	84.12
302.9	96.12
303.13	88.12
303.36	82.12
303.59	83.12
303.82	78.12
304.051	80.12
304.281	83.12
304.511	101.12
304.741	89.12
304.971	79.12
305.201	91.12
305.431	89.12
305.661	76.12
305.891	92.12
306.121	83.12
306.352	76.12
306.582	84.12
306.812	87.12
307.042	91.12
307.272	84.12
307.502	80.12
307.731	82.12
307.961	83.12
308.191	84.12
308.421	82.12
308.651	91.12
308.881	80.12
309.111	66.12
309.341	68.12
309.571	71.12
309.8	91.12
310.03	84.12
310.26	88.12
310.49	85.12
310.72	77.12
310.949	94.12
311.179	76.12
311.409	85.12
311.639	84.12
311.868	82.12
312.098	83.12
312.328	88.12
312.557	77.12
312.787	75.12
313.017	87.12
313.246	83.12
313.476	79.12
313.706	65.12
313.935	77.12
314.165	78.12
314.394	92.12
314.624	99.12
314.853	82.12
315.083	85.12
315.312	96.12
315.542	97.12
315.771	82.12
316.001	90.12
316.23	89.12
316.46	85.12
316.689	87.12
316.919	79.12
317.148	79.12
317.377	89.12
317.607	89.12
317.836	89.12
318.065	94.12
318.295	73.12
318.524	81.12
318.753	89.12
318.983	85.12
319.212	83.12
319.441	80.12
319.67	92.12
319.9	81.12
320.129	90.12
320.358	77.12
320.587	88.12
320.816	77.12
321.046	72.12
321.275	85.12
321.504	81.12
321.733	90.12
321.962	83.12
322.191	83.12
322.42	83.12
322.649	91.12
322.878	89.12
323.108	81.12
323.337	76.12
323.566	94.12
323.795	90.12
324.024	87.12
324.253	85.12
324.482	90.12
324.71	91.12
324.939	90.12
325.168	82.12
325.397	80.12
325.626	83.12
325.855	63.12
326.084	79.12
326.313	87.12
326.542	89.12
326.77	83.12
326.999	81.12
327.228	85.12
327.457	103.12
327.686	85.12
327.914	72.12
328.143	92.12
328.372	68.12
328.6	76.12
328.829	79.12
329.058	82.12
329.287	76.12
329.515	71.12
329.744	86.12
329.972	94.12
330.201	69.12
330.43	70.12
330.658	76.12
330.887	76.12
331.115	83.12
331.344	83.12
331.572	83.12
331.801	69.12
332.03	86.12
332.258	87.12
332.486	82.12
332.715	79.12
332.943	85.12
333.172	93.12
333.4	88.12
333.629	77.12
333.857	65.12
334.085	76.12
334.314	76.12
334.542	75.12
334.771	86.12
334.999	86.12
335.227	82.12
335.455	72.12
335.684	91.12
335.912	96.12
336.14	79.12
336.369	75.12
336.597	92.12
336.825	83.12
337.053	85.12
337.281	78.12
337.51	80.12
337.738	79.12
337.966	83.12
338.194	88.12
338.422	92.12
338.65	73.12
338.878	94.12
339.106	85.12
339.334	89.12
339.562	80.12
339.79	78.12
340.018	83.12
340.246	72.12
340.474	71.12
340.702	87.12
340.93	79.12
341.158	86.12
341.386	76.12
341.614	83.12
341.842	74.12
342.07	67.12
342.298	79.12
342.526	72.12
342.754	80.12
342.981	88.12
343.209	86.12
343.437	89.12
343.665	90.12
343.893	74.12
344.12	99.12
344.348	80.12
344.576	75.12
344.804	88.12
345.031	88.12
345.259	74.12
345.487	74.12
345.714	89.12
345.942	82.12
346.17	79.12
346.397	75.12
346.625	77.12
346.853	70.12
347.08	73.12
347.308	81.12
347.535	84.12
347.763	81.12
347.99	80.12
348.218	84.12
348.445	79.12
348.673	76.12
348.9	86.12
349.128	81.12
349.355	74.12
349.583	69.12
349.81	82.12
350.037	80.12
350.265	76.12
350.492	89.12
350.72	74.12
350.947	75.12
351.174	81.12
351.402	73.12
351.629	80.12
351.856	83.12
352.083	68.12
352.311	80.12
352.538	79.12
352.765	82.12
352.992	85.12
353.22	75.12
353.447	74.12
353.674	84.12
353.901	73.12
354.128	83.12
354.355	73.12
354.583	83.12
354.81	80.12
355.037	84.12
355.264	92.12
355.491	83.12
355.718	89.12
355.945	90.12
356.172	60.12
356.399	79.12
356.626	72.12
356.853	85.12
357.08	79.12
357.307	74.12
357.534	81.12
357.761	78.12
357.988	88.12
358.215	83.12
358.441	71.12
358.668	75.12
358.895	73.12
359.122	94.12
359.349	76.12
359.576	80.12
359.802	77.12
360.029	67.12
360.256	75.12
360.483	83.12
360.709	80.12
360.936	87.12
361.163	77.12
361.39	89.12
361.616	77.12
361.843	84.12
362.07	89.12
362.296	70.12
362.523	78.12
362.749	79.12
362.976	92.12
363.203	86.12
363.429	77.12
363.656	76.12
363.882	70.12
364.109	91.12
364.335	91.12
364.562	73.12
364.788	80.12
365.015	75.12
365.241	90.12
365.468	74.12
365.694	78.12
365.92	80.12
366.147	85.12
366.373	83.12
366.599	78.12
366.826	87.12
367.052	76.12
367.278	81.12
367.505	91.12
367.731	74.12
367.957	82.12
368.184	78.12
368.41	89.12
368.636	86.12
368.862	84.12
369.089	66.12
369.315	73.12
369.541	93.12
369.767	87.12
369.993	76.12
370.219	72.12
370.445	76.12
370.672	71.12
370.898	72.12
371.124	84.12
371.35	85.12
371.576	93.12
371.802	83.12
372.028	81.12
372.254	73.12
372.48	79.12
372.706	71.12
372.932	67.12
373.158	86.12
373.384	72.12
373.61	87.12
373.835	68.12
374.061	82.12
374.287	73.12
374.513	68.12
374.739	65.12
374.965	80.12
375.191	68.12
375.416	81.12
375.642	92.12
375.868	82.12
376.094	87.12
376.319	66.12
376.545	62.12
376.771	85.12
376.997	82.12
377.222	80.12
377.448	83.12
377.674	89.12
377.899	81.12
378.125	92.12
378.35	78.12
378.576	55.12
378.802	74.12
379.027	94.12
379.253	78.12
379.478	69.12
379.704	85.12
379.929	80.12
380.155	93.12
380.38	98.12
380.606	73.12
380.831	84.12
381.057	81.12
381.282	83.12
381.507	71.12
381.733	68.12
381.958	65.12
382.184	75.12
382.409	79.12
382.634	85.12
382.86	76.12
383.085	83.12
383.31	88.12
383.535	88.12
383.761	77.12
383.986	89.12
384.211	76.12
384.436	78.12
384.662	80.12
384.887	67.12
385.112	74.12
385.337	86.12
385.562	87.12
385.787	95.12
386.013	80.12
386.238	73.12
386.463	93.12
386.688	77.12
386.913	82.12
387.138	81.12
387.363	67.12
387.588	75.12
387.813	73.12
388.038	86.12
388.263	74.12
388.488	74.12
388.713	71.12
388.938	91.12
389.163	89.12
389.387	84.12
389.612	87.12
389.837	88.12
390.062	74.12
390.287	62.12
390.512	81.12
390.736	74.12
390.961	78.12
391.186	76.12
391.411	75.12
391.636	76.12
391.86	73.12
392.085	81.12
392.31	95.12
392.534	86.12
392.759	89.12
392.984	97.12
393.208	76.12
393.433	84.12
393.658	84.12
393.882	79.12
394.107	85.12
394.331	74.12
394.556	81.12
394.78	80.12
395.005	79.12
395.229	88.12
395.454	92.12
395.678	72.12
395.903	94.12
396.127	77.12
396.352	77.12
396.576	81.12
396.801	90.12
397.025	86.12
397.249	81.12
397.474	80.12
397.698	76.12
397.922	70.12
398.147	83.12
398.371	81.12
398.595	80.12
398.82	82.12
399.044	81.12
399.268	87.12
399.492	81.12
399.717	91.12
399.941	83.12
400.165	78.12
400.389	77.12
400.613	91.12
400.837	73.12
401.062	76.12
401.286	83.12
401.51	68.12
401.734	72.12
401.958	91.12
402.182	76.12
402.406	76.12
402.63	73.12
402.854	96.12
403.078	80.12
403.302	77.12
403.526	76.12
403.75	84.12
403.974	80.12
404.198	74.12
404.422	81.12
404.645	88.12
404.869	74.12
405.093	73.12
405.317	74.12
405.541	96.12
405.765	78.12
405.988	77.12
406.212	88.12
406.436	84.12
406.66	84.12
406.883	79.12
407.107	89.12
407.331	82.12
407.555	83.12
407.778	81.12
408.002	73.12
408.226	83.12
408.449	92.12
408.673	66.12
408.896	88.12
409.12	72.12
409.344	74.12
409.567	85.12
409.791	88.12
410.014	91.12
410.238	89.12
410.461	83.12
410.685	88.12
410.908	95.12
411.132	80.12
411.355	84.12
411.578	79.12
411.802	76.12
412.025	77.12
412.249	87.12
412.472	77.12
412.695	80.12
412.919	79.12
413.142	91.12
413.365	79.12
413.589	95.12
413.812	80.12
414.035	87.12
414.258	83.12
414.482	88.12
414.705	82.12
414.928	94.12
415.151	83.12
415.374	88.12
415.597	88.12
415.821	81.12
416.044	54.12
416.267	84.12
416.49	84.12
416.713	81.12
416.936	83.12
417.159	78.12
417.382	79.12
417.605	76.12
417.828	72.12
418.051	94.12
418.274	96.12
418.497	75.12
418.72	84.12
418.943	87.12
419.166	88.12
419.389	104.12
419.611	95.12
419.834	84.12
420.057	89.12
420.28	86.12
420.503	87.12
420.726	87.12
420.948	87.12
421.171	76.12
421.394	73.12
421.617	78.12
421.839	90.12
422.062	81.12
422.285	86.12
422.507	85.12
422.73	66.12
422.953	98.12
423.175	85.12
423.398	90.12
423.621	102.12
423.843	78.12
424.066	76.12
424.288	93.12
424.511	88.12
424.733	88.12
424.956	85.12
425.178	82.12
425.401	83.12
425.623	88.12
425.846	77.12
426.068	78.12
426.291	93.12
426.513	74.12
426.735	80.12
426.958	76.12
427.18	83.12
427.402	91.12
427.625	72.12
427.847	85.12
428.069	86.12
428.292	75.12
428.514	81.12
428.736	79.12
428.958	88.12
429.181	87.12
429.403	88.12
429.625	84.12
429.847	90.12
430.069	92.12
430.292	83.12
430.514	92.12
430.736	79.12
430.958	82.12
431.18	82.12
431.402	79.12
431.624	104.12
431.846	84.12
432.068	80.12
432.29	75.12
432.512	76.12
432.734	95.12
432.956	90.12
433.178	108.12
433.4	97.12
433.622	96.12
433.844	96.12
434.066	90.12
434.287	77.12
434.509	82.12
434.731	75.12
434.953	77.12
435.175	90.12
435.397	90.12
435.618	78.12
435.84	81.12
436.062	88.12
436.284	86.12
436.505	76.12
436.727	89.12
436.949	89.12
437.17	87.12
437.392	86.12
437.614	83.12
437.835	108.12
438.057	81.12
438.278	82.12
438.5	90.12
438.721	90.12
438.943	95.12
439.165	104.12
439.386	90.12
439.608	80.12
439.829	93.12
440.05	89.12
440.272	88.12
440.493	92.12
440.715	84.12
440.936	91.12
441.158	89.12
441.379	76.12
441.6	88.12
441.822	95.12
442.043	76.12
442.264	99.12
442.486	90.12
442.707	82.12
442.928	83.12
443.149	85.12
443.371	84.12
443.592	94.12
443.813	96.12
444.034	94.12
444.255	77.12
444.476	78.12
444.698	91.12
444.919	82.12
445.14	217.12
445.361	150.12
445.582	94.12
445.803	85.12
446.024	94.12
446.245	85.12
446.466	83.12
446.687	75.12
446.908	103.12
447.129	94.12
447.35	91.12
447.571	103.12
447.792	90.12
448.013	89.12
448.234	83.12
448.455	91.12
448.675	83.12
448.896	96.12
449.117	85.12
449.338	83.12
449.559	82.12
449.779	95.12
450	88.12
450.221	98.12
450.442	103.12
450.662	97.12
450.883	95.12
451.104	86.12
451.324	76.12
451.545	91.12
451.766	100.12
451.986	97.12
452.207	90.12
452.428	94.12
452.648	110.12
452.869	88.12
453.089	99.12
453.31	85.12
453.53	78.12
453.751	75.12
453.971	83.12
454.192	95.12
454.412	85.12
454.633	82.12
454.853	83.12
455.073	100.12
455.294	88.12
455.514	84.12
455.734	79.12
455.955	75.12
456.175	76.12
456.395	79.12
456.616	82.12
456.836	85.12
457.056	73.12
457.276	77.12
457.497	72.12
457.717	71.12
457.937	88.12
458.157	90.12
458.377	74.12
458.598	83.12
458.818	82.12
459.038	71.12
459.258	69.12
459.478	80.12
459.698	83.12
459.918	79.12
460.138	98.12
460.358	74.12
460.578	83.12
460.798	88.12
461.018	95.12
461.238	86.12
461.458	72.12
461.678	84.12
461.898	88.12
462.118	75.12
462.338	86.12
462.558	94.12
462.777	79.12
462.997	93.12
463.217	72.12
463.437	82.12
463.657	57.12
463.876	85.12
464.096	82.12
464.316	84.12
464.536	87.12
464.755	95.12
464.975	89.12
465.195	88.12
465.414	81.12
465.634	89.12
465.854	98.12
466.073	109.12
466.293	96.12
466.512	89.12
466.732	90.12
466.951	94.12
467.171	81.12
467.391	78.12
467.61	93.12
467.829	93.12
468.049	69.12
468.268	79.12
468.488	91.12
468.707	83.12
468.927	78.12
469.146	82.12
469.365	80.12
469.585	80.12
469.804	91.12
470.023	96.12
470.243	95.12
470.462	90.12
470.681	89.12
470.901	87.12
471.12	89.12
471.339	97.12
471.558	95.12
471.777	103.12
471.997	71.12
472.216	91.12
472.435	72.12
472.654	84.12
472.873	71.12
473.092	84.12
473.311	80.12
473.53	89.12
473.749	97.12
473.968	103.12
474.187	96.12
474.406	90.12
474.625	94.12
474.844	88.12
475.063	87.12
475.282	90.12
475.501	97.12
475.72	87.12
475.939	86.12
476.158	80.12
476.377	84.12
476.596	87.12
476.814	79.12
477.033	90.12
477.252	81.12
477.471	80.12
477.69	86.12
477.908	96.12
478.127	93.12
478.346	95.12
478.564	92.12
478.783	91.12
479.002	76.12
479.22	88.12
479.439	74.12
479.658	100.12
479.876	91.12
480.095	82.12
480.313	78.12
480.532	108.12
480.751	93.12
480.969	91.12
481.188	89.12
481.406	84.12
481.624	91.12
481.843	73.12
482.061	80.12
482.28	80.12
482.498	75.12
482.717	69.12
482.935	85.12
483.153	80.12
483.372	92.12
483.59	85.12
483.808	74.12
484.027	86.12
484.245	91.12
484.463	89.12
484.681	103.12
484.9	89.12
485.118	82.12
485.336	96.12
485.554	67.12
485.772	84.12
485.99	89.12
486.209	95.12
486.427	89.12
486.645	83.12
486.863	71.12
487.081	87.12
487.299	88.12
487.517	91.12
487.735	102.12
487.953	85.12
488.171	91.12
488.389	108.12
488.607	103.12
488.825	82.12
489.043	87.12
489.261	80.12
489.479	91.12
489.696	99.12
489.914	95.12
490.132	77.12
490.35	89.12
490.568	88.12
490.786	106.12
491.003	90.12
491.221	94.12
491.439	108.12
491.657	108.12
491.874	101.12
492.092	108.12
492.31	106.12
492.527	100.12
492.745	100.12
492.963	88.12
493.18	103.12
493.398	110.12
493.615	104.12
493.833	104.12
494.05	86.12
494.268	100.12
494.485	98.12
494.703	99.12
494.92	85.12
495.138	92.12
495.355	107.12
495.573	106.12
495.79	88.12
496.008	94.12
496.225	101.12
496.442	101.12
496.66	92.12
496.877	101.12
497.094	105.12
497.312	94.12
497.529	95.12
497.746	101.12
497.963	101.12
498.181	99.12
498.398	70.12
498.615	79.12
498.832	74.12
499.049	83.12
499.267	97.12
499.484	91.12
499.701	84.12
499.918	86.12
500.135	83.12
500.352	94.12
500.569	91.12
500.786	98.12
501.003	103.12
501.22	86.12
501.437	81.12
501.654	104.12
501.871	88.12
502.088	92.12
502.305	71.12
502.522	85.12
502.739	83.12
502.956	81.12
503.172	98.12
503.389	97.12
503.606	79.12
503.823	85.12
504.04	83.12
504.256	86.12
504.473	99.12
504.69	90.12
504.907	93.12
505.123	90.12
505.34	87.12
505.557	89.12
505.773	96.12
505.99	96.12
506.207	79.12
506.423	82.12
506.64	89.12
506.856	89.12
507.073	78.12
507.289	89.12
507.506	74.12
507.722	88.12
507.939	100.12
508.155	84.12
508.372	75.12
508.588	92.12
508.805	93.12
509.021	72.12
509.238	81.12
509.454	71.12
509.67	83.12
509.887	80.12
510.103	79.12
510.319	87.12
510.536	78.12
510.752	84.12
510.968	76.12
511.184	89.12
511.401	75.12
511.617	68.12
511.833	79.12
512.049	78.12
512.265	83.12
512.481	95.12
512.698	87.12
512.914	88.12
513.13	88.12
513.346	91.12
513.562	84.12
513.778	93.12
513.994	77.12
514.21	86.12
514.426	80.12
514.642	81.12
514.858	83.12
515.074	76.12
515.29	84.12
515.506	90.12
515.721	83.12
515.937	82.12
516.153	81.12
516.369	71.12
516.585	77.12
516.801	94.12
517.016	83.12
517.232	76.12
517.448	78.12
517.664	66.12
517.879	69.12
518.095	78.12
518.311	85.12
518.527	80.12
518.742	100.12
