Data from Zn(NO3)2Standard.Agarose3%.GreenCap.LampEnergy10E.O_HRD10591_15-06-25-942.txt Node
Date: Mon Jul 22 15:06:25 EDT 2019
User: cochatt
Spectrometer: HR+D1059
Trigger mode: 1
Integration Time (sec): 1.000000E-1
Scans to average: 1
Electric dark correction enabled: true
Nonlinearity correction enabled: false
Boxcar width: 0
XAxis mode: Wavelengths
Number of Pixels in Spectrum: 2048
>>>>>Begin Spectral Data<<<<<
223.165	-15.56
223.4	-15.56
223.635	-15.56
223.869	-10.56
224.104	-10.56
224.338	7.44
224.573	-3.56
224.808	-20.56
225.042	-15.56
225.277	-6.56
225.511	-17.56
225.746	4.44
225.98	-1.56
226.215	-6.56
226.449	26.44
226.683	25.44
226.918	19.44
227.152	25.44
227.387	33.44
227.621	43.44
227.856	39.44
228.09	41.44
228.324	42.44
228.559	57.44
228.793	54.44
229.027	53.44
229.262	59.44
229.496	70.44
229.73	72.44
229.964	62.44
230.199	74.44
230.433	84.44
230.667	70.44
230.901	62.44
231.136	78.44
231.37	84.44
231.604	81.44
231.838	76.44
232.072	82.44
232.306	85.44
232.541	86.44
232.775	81.44
233.009	83.44
233.243	90.44
233.477	92.44
233.711	99.44
233.945	86.44
234.179	68.44
234.413	76.44
234.647	82.44
234.881	83.44
235.115	82.44
235.349	93.44
235.583	85.44
235.817	87.44
236.051	88.44
236.285	73.44
236.519	87.44
236.753	70.44
236.987	80.44
237.221	77.44
237.455	85.44
237.689	82.44
237.922	88.44
238.156	83.44
238.39	68.44
238.624	83.44
238.858	76.44
239.091	72.44
239.325	70.44
239.559	77.44
239.793	77.44
240.027	89.44
240.26	77.44
240.494	76.44
240.728	78.44
240.961	81.44
241.195	101.44
241.429	75.44
241.662	86.44
241.896	74.44
242.13	80.44
242.363	84.44
242.597	80.44
242.83	67.44
243.064	69.44
243.298	81.44
243.531	67.44
243.765	75.44
243.998	84.44
244.232	86.44
244.465	68.44
244.699	78.44
244.932	84.44
245.166	81.44
245.399	90.44
245.633	75.44
245.866	69.44
246.099	82.44
246.333	80.44
246.566	68.44
246.8	68.44
247.033	76.44
247.266	74.44
247.5	66.44
247.733	80.44
247.966	77.44
248.2	75.44
248.433	81.44
248.666	77.44
248.899	77.44
249.133	90.44
249.366	83.44
249.599	82.44
249.832	89.44
250.066	73.44
250.299	64.44
250.532	89.44
250.765	82.44
250.998	74.44
251.231	77.44
251.465	68.44
251.698	74.44
251.931	65.44
252.164	76.44
252.397	81.44
252.63	79.44
252.863	82.44
253.096	75.44
253.329	77.44
253.562	65.44
253.795	90.44
254.028	82.44
254.261	80.44
254.494	91.44
254.727	81.44
254.96	87.44
255.193	80.44
255.426	80.44
255.659	92.44
255.892	82.44
256.124	93.44
256.357	93.44
256.59	75.44
256.823	84.44
257.056	82.44
257.289	85.44
257.521	77.44
257.754	76.44
257.987	78.44
258.22	80.44
258.452	68.44
258.685	87.44
258.918	73.44
259.151	79.44
259.383	100.44
259.616	74.44
259.849	86.44
260.081	86.44
260.314	77.44
260.547	67.44
260.779	65.44
261.012	74.44
261.244	86.44
261.477	98.44
261.71	83.44
261.942	82.44
262.175	71.44
262.407	79.44
262.64	95.44
262.872	99.44
263.105	91.44
263.337	78.44
263.57	83.44
263.802	90.44
264.035	81.44
264.267	82.44
264.499	86.44
264.732	101.44
264.964	76.44
265.197	82.44
265.429	67.44
265.661	72.44
265.894	87.44
266.126	85.44
266.358	94.44
266.591	93.44
266.823	77.44
267.055	80.44
267.287	89.44
267.52	77.44
267.752	78.44
267.984	72.44
268.216	84.44
268.448	89.44
268.681	77.44
268.913	90.44
269.145	63.44
269.377	94.44
269.609	91.44
269.841	85.44
270.073	93.44
270.306	80.44
270.538	93.44
270.77	84.44
271.002	80.44
271.234	88.44
271.466	78.44
271.698	66.44
271.93	74.44
272.162	85.44
272.394	84.44
272.626	74.44
272.858	85.44
273.09	93.44
273.322	84.44
273.553	86.44
273.785	85.44
274.017	73.44
274.249	81.44
274.481	93.44
274.713	92.44
274.945	82.44
275.176	75.44
275.408	82.44
275.64	89.44
275.872	71.44
276.104	88.44
276.335	87.44
276.567	90.44
276.799	84.44
277.031	89.44
277.262	86.44
277.494	77.44
277.726	83.44
277.957	88.44
278.189	85.44
278.421	84.44
278.652	87.44
278.884	82.44
279.115	96.44
279.347	86.44
279.579	85.44
279.81	73.44
280.042	92.44
280.273	87.44
280.505	71.44
280.736	80.44
280.968	92.44
281.199	97.44
281.431	91.44
281.662	89.44
281.894	89.44
282.125	92.44
282.356	85.44
282.588	96.44
282.819	78.44
283.051	82.44
283.282	88.44
283.513	88.44
283.745	80.44
283.976	94.44
284.207	76.44
284.439	78.44
284.67	84.44
284.901	70.44
285.132	93.44
285.364	80.44
285.595	79.44
285.826	90.44
286.057	85.44
286.288	91.44
286.52	81.44
286.751	89.44
286.982	75.44
287.213	90.44
287.444	93.44
287.675	95.44
287.906	94.44
288.138	94.44
288.369	88.44
288.6	74.44
288.831	74.44
289.062	86.44
289.293	71.44
289.524	83.44
289.755	97.44
289.986	92.44
290.217	86.44
290.448	97.44
290.679	70.44
290.91	89.44
291.141	76.44
291.371	88.44
291.602	83.44
291.833	96.44
292.064	88.44
292.295	81.44
292.526	73.44
292.757	66.44
292.987	68.44
293.218	83.44
293.449	86.44
293.68	85.44
293.91	88.44
294.141	87.44
294.372	80.44
294.603	68.44
294.833	79.44
295.064	84.44
295.295	87.44
295.525	90.44
295.756	84.44
295.987	72.44
296.217	78.44
296.448	90.44
296.679	83.44
296.909	81.44
297.14	93.44
297.37	106.44
297.601	101.44
297.831	78.44
298.062	86.44
298.292	88.44
298.523	90.44
298.753	79.44
298.984	79.44
299.214	99.44
299.445	91.44
299.675	89.44
299.905	85.44
300.136	82.44
300.366	88.44
300.597	82.44
300.827	85.44
301.057	85.44
301.288	83.44
301.518	91.44
301.748	84.44
301.979	93.44
302.209	78.44
302.439	72.44
302.669	79.44
302.9	91.44
303.13	78.44
303.36	81.44
303.59	97.44
303.82	88.44
304.051	87.44
304.281	90.44
304.511	93.44
304.741	74.44
304.971	91.44
305.201	86.44
305.431	78.44
305.661	77.44
305.891	83.44
306.121	82.44
306.352	92.44
306.582	86.44
306.812	92.44
307.042	83.44
307.272	74.44
307.502	72.44
307.731	102.44
307.961	89.44
308.191	81.44
308.421	89.44
308.651	81.44
308.881	84.44
309.111	92.44
309.341	82.44
309.571	82.44
309.8	87.44
310.03	85.44
310.26	93.44
310.49	70.44
310.72	92.44
310.949	77.44
311.179	78.44
311.409	78.44
311.639	93.44
311.868	104.44
312.098	88.44
312.328	83.44
312.557	97.44
312.787	83.44
313.017	70.44
313.246	89.44
313.476	80.44
313.706	88.44
313.935	92.44
314.165	98.44
314.394	95.44
314.624	86.44
314.853	79.44
315.083	83.44
315.312	85.44
315.542	86.44
315.771	100.44
316.001	83.44
316.23	79.44
316.46	90.44
316.689	93.44
316.919	83.44
317.148	84.44
317.377	87.44
317.607	90.44
317.836	83.44
318.065	78.44
318.295	84.44
318.524	81.44
318.753	90.44
318.983	91.44
319.212	82.44
319.441	83.44
319.67	91.44
319.9	83.44
320.129	80.44
320.358	97.44
320.587	77.44
320.816	67.44
321.046	78.44
321.275	93.44
321.504	91.44
321.733	71.44
321.962	89.44
322.191	79.44
322.42	93.44
322.649	91.44
322.878	85.44
323.108	89.44
323.337	80.44
323.566	76.44
323.795	75.44
324.024	81.44
324.253	78.44
324.482	68.44
324.71	83.44
324.939	65.44
325.168	94.44
325.397	78.44
325.626	98.44
325.855	96.44
326.084	89.44
326.313	74.44
326.542	88.44
326.77	77.44
326.999	78.44
327.228	82.44
327.457	96.44
327.686	99.44
327.914	89.44
328.143	90.44
328.372	85.44
328.6	81.44
328.829	69.44
329.058	69.44
329.287	87.44
329.515	96.44
329.744	90.44
329.972	76.44
330.201	86.44
330.43	93.44
330.658	91.44
330.887	83.44
331.115	76.44
331.344	77.44
331.572	95.44
331.801	82.44
332.03	87.44
332.258	93.44
332.486	73.44
332.715	76.44
332.943	86.44
333.172	85.44
333.4	92.44
333.629	82.44
333.857	76.44
334.085	67.44
334.314	85.44
334.542	98.44
334.771	102.44
334.999	72.44
335.227	72.44
335.455	84.44
335.684	90.44
335.912	84.44
336.14	91.44
336.369	98.44
336.597	80.44
336.825	80.44
337.053	89.44
337.281	77.44
337.51	66.44
337.738	83.44
337.966	77.44
338.194	83.44
338.422	86.44
338.65	96.44
338.878	91.44
339.106	77.44
339.334	74.44
339.562	85.44
339.79	82.44
340.018	91.44
340.246	86.44
340.474	78.44
340.702	76.44
340.93	96.44
341.158	94.44
341.386	82.44
341.614	73.44
341.842	88.44
342.07	80.44
342.298	91.44
342.526	89.44
342.754	83.44
342.981	78.44
343.209	79.44
343.437	78.44
343.665	80.44
343.893	77.44
344.12	88.44
344.348	80.44
344.576	87.44
344.804	76.44
345.031	73.44
345.259	83.44
345.487	97.44
345.714	85.44
345.942	83.44
346.17	80.44
346.397	87.44
346.625	89.44
346.853	79.44
347.08	75.44
347.308	73.44
347.535	76.44
347.763	88.44
347.99	93.44
348.218	97.44
348.445	92.44
348.673	88.44
348.9	91.44
349.128	93.44
349.355	89.44
349.583	84.44
349.81	87.44
350.037	72.44
350.265	89.44
350.492	69.44
350.72	85.44
350.947	81.44
351.174	101.44
351.402	94.44
351.629	75.44
351.856	98.44
352.083	85.44
352.311	86.44
352.538	90.44
352.765	83.44
352.992	82.44
353.22	99.44
353.447	96.44
353.674	93.44
353.901	75.44
354.128	92.44
354.355	98.44
354.583	71.44
354.81	86.44
355.037	93.44
355.264	88.44
355.491	82.44
355.718	76.44
355.945	86.44
356.172	70.44
356.399	79.44
356.626	79.44
356.853	84.44
357.08	88.44
357.307	73.44
357.534	76.44
357.761	76.44
357.988	83.44
358.215	89.44
358.441	91.44
358.668	91.44
358.895	76.44
359.122	96.44
359.349	82.44
359.576	93.44
359.802	68.44
360.029	74.44
360.256	93.44
360.483	87.44
360.709	83.44
360.936	84.44
361.163	79.44
361.39	84.44
361.616	86.44
361.843	92.44
362.07	87.44
362.296	81.44
362.523	75.44
362.749	93.44
362.976	84.44
363.203	95.44
363.429	84.44
363.656	82.44
363.882	76.44
364.109	84.44
364.335	85.44
364.562	77.44
364.788	87.44
365.015	90.44
365.241	90.44
365.468	92.44
365.694	85.44
365.92	78.44
366.147	82.44
366.373	83.44
366.599	88.44
366.826	82.44
367.052	91.44
367.278	84.44
367.505	76.44
367.731	83.44
367.957	70.44
368.184	92.44
368.41	90.44
368.636	93.44
368.862	82.44
369.089	103.44
369.315	90.44
369.541	76.44
369.767	85.44
369.993	81.44
370.219	85.44
370.445	81.44
370.672	100.44
370.898	88.44
371.124	81.44
371.35	84.44
371.576	67.44
371.802	88.44
372.028	100.44
372.254	86.44
372.48	88.44
372.706	100.44
372.932	98.44
373.158	87.44
373.384	94.44
373.61	83.44
373.835	89.44
374.061	78.44
374.287	82.44
374.513	84.44
374.739	87.44
374.965	86.44
375.191	73.44
375.416	81.44
375.642	102.44
375.868	89.44
376.094	84.44
376.319	74.44
376.545	88.44
376.771	89.44
376.997	83.44
377.222	87.44
377.448	96.44
377.674	87.44
377.899	88.44
378.125	84.44
378.35	85.44
378.576	88.44
378.802	84.44
379.027	90.44
379.253	85.44
379.478	82.44
379.704	84.44
379.929	90.44
380.155	87.44
380.38	82.44
380.606	94.44
380.831	79.44
381.057	102.44
381.282	93.44
381.507	85.44
381.733	80.44
381.958	96.44
382.184	99.44
382.409	85.44
382.634	81.44
382.86	85.44
383.085	98.44
383.31	87.44
383.535	99.44
383.761	80.44
383.986	95.44
384.211	92.44
384.436	80.44
384.662	72.44
384.887	78.44
385.112	97.44
385.337	98.44
385.562	89.44
385.787	71.44
386.013	95.44
386.238	87.44
386.463	77.44
386.688	84.44
386.913	90.44
387.138	90.44
387.363	75.44
387.588	97.44
387.813	89.44
388.038	86.44
388.263	100.44
388.488	78.44
388.713	77.44
388.938	94.44
389.163	84.44
389.387	89.44
389.612	80.44
389.837	86.44
390.062	88.44
390.287	86.44
390.512	95.44
390.736	107.44
390.961	103.44
391.186	89.44
391.411	82.44
391.636	95.44
391.86	81.44
392.085	90.44
392.31	85.44
392.534	85.44
392.759	97.44
392.984	92.44
393.208	94.44
393.433	85.44
393.658	102.44
393.882	86.44
394.107	95.44
394.331	100.44
394.556	87.44
394.78	107.44
395.005	107.44
395.229	88.44
395.454	99.44
395.678	88.44
395.903	91.44
396.127	100.44
396.352	103.44
396.576	90.44
396.801	82.44
397.025	92.44
397.249	97.44
397.474	107.44
397.698	98.44
397.922	98.44
398.147	96.44
398.371	93.44
398.595	96.44
398.82	101.44
399.044	96.44
399.268	98.44
399.492	100.44
399.717	86.44
399.941	98.44
400.165	89.44
400.389	86.44
400.613	89.44
400.837	89.44
401.062	87.44
401.286	104.44
401.51	97.44
401.734	87.44
401.958	88.44
402.182	83.44
402.406	96.44
402.63	99.44
402.854	100.44
403.078	108.44
403.302	91.44
403.526	96.44
403.75	84.44
403.974	95.44
404.198	116.44
404.422	99.44
404.645	90.44
404.869	98.44
405.093	102.44
405.317	81.44
405.541	104.44
405.765	104.44
405.988	96.44
406.212	108.44
406.436	92.44
406.66	101.44
406.883	115.44
407.107	95.44
407.331	93.44
407.555	93.44
407.778	99.44
408.002	100.44
408.226	101.44
408.449	99.44
408.673	85.44
408.896	92.44
409.12	88.44
409.344	102.44
409.567	90.44
409.791	90.44
410.014	98.44
410.238	107.44
410.461	91.44
410.685	106.44
410.908	98.44
411.132	109.44
411.355	99.44
411.578	88.44
411.802	97.44
412.025	87.44
412.249	102.44
412.472	103.44
412.695	88.44
412.919	86.44
413.142	98.44
413.365	93.44
413.589	104.44
413.812	86.44
414.035	90.44
414.258	104.44
414.482	97.44
414.705	94.44
414.928	109.44
415.151	112.44
415.374	93.44
415.597	107.44
415.821	99.44
416.044	105.44
416.267	101.44
416.49	113.44
416.713	108.44
416.936	98.44
417.159	121.44
417.382	90.44
417.605	101.44
417.828	101.44
418.051	97.44
418.274	105.44
418.497	98.44
418.72	92.44
418.943	106.44
419.166	105.44
419.389	100.44
419.611	92.44
419.834	108.44
420.057	110.44
420.28	102.44
420.503	108.44
420.726	105.44
420.948	113.44
421.171	93.44
421.394	104.44
421.617	100.44
421.839	108.44
422.062	104.44
422.285	107.44
422.507	95.44
422.73	99.44
422.953	93.44
423.175	83.44
423.398	95.44
423.621	77.44
423.843	91.44
424.066	99.44
424.288	102.44
424.511	109.44
424.733	107.44
424.956	95.44
425.178	109.44
425.401	112.44
425.623	106.44
425.846	107.44
426.068	112.44
426.291	106.44
426.513	100.44
426.735	97.44
426.958	118.44
427.18	102.44
427.402	101.44
427.625	120.44
427.847	102.44
428.069	105.44
428.292	106.44
428.514	116.44
428.736	101.44
428.958	108.44
429.181	97.44
429.403	105.44
429.625	109.44
429.847	120.44
430.069	105.44
430.292	112.44
430.514	104.44
430.736	94.44
430.958	101.44
431.18	93.44
431.402	98.44
431.624	105.44
431.846	100.44
432.068	89.44
432.29	100.44
432.512	98.44
432.734	105.44
432.956	95.44
433.178	112.44
433.4	114.44
433.622	117.44
433.844	101.44
434.066	111.44
434.287	102.44
434.509	92.44
434.731	99.44
434.953	107.44
435.175	113.44
435.397	104.44
435.618	89.44
435.84	87.44
436.062	101.44
436.284	99.44
436.505	90.44
436.727	88.44
436.949	90.44
437.17	105.44
437.392	105.44
437.614	91.44
437.835	92.44
438.057	85.44
438.278	99.44
438.5	104.44
438.721	101.44
438.943	120.44
439.165	112.44
439.386	116.44
439.608	109.44
439.829	112.44
440.05	116.44
440.272	108.44
440.493	108.44
440.715	121.44
440.936	109.44
441.158	112.44
441.379	115.44
441.6	116.44
441.822	131.44
442.043	114.44
442.264	115.44
442.486	103.44
442.707	117.44
442.928	114.44
443.149	117.44
443.371	107.44
443.592	106.44
443.813	131.44
444.034	101.44
444.255	114.44
444.476	96.44
444.698	116.44
444.919	102.44
445.14	235.44
445.361	172.44
445.582	123.44
445.803	91.44
446.024	122.44
446.245	108.44
446.466	114.44
446.687	108.44
446.908	114.44
447.129	110.44
447.35	106.44
447.571	127.44
447.792	104.44
448.013	100.44
448.234	124.44
448.455	110.44
448.675	126.44
448.896	121.44
449.117	100.44
449.338	109.44
449.559	102.44
449.779	102.44
450	113.44
450.221	99.44
450.442	103.44
450.662	120.44
450.883	112.44
451.104	102.44
451.324	92.44
451.545	105.44
451.766	97.44
451.986	105.44
452.207	111.44
452.428	99.44
452.648	125.44
452.869	100.44
453.089	101.44
453.31	93.44
453.53	76.44
453.751	91.44
453.971	95.44
454.192	98.44
454.412	98.44
454.633	103.44
454.853	102.44
455.073	96.44
455.294	101.44
455.514	94.44
455.734	112.44
455.955	88.44
456.175	72.44
456.395	109.44
456.616	105.44
456.836	96.44
457.056	71.44
457.276	93.44
457.497	94.44
457.717	73.44
457.937	86.44
458.157	92.44
458.377	88.44
458.598	96.44
458.818	86.44
459.038	82.44
459.258	85.44
459.478	88.44
459.698	91.44
459.918	84.44
460.138	88.44
460.358	93.44
460.578	101.44
460.798	92.44
461.018	96.44
461.238	87.44
461.458	104.44
461.678	98.44
461.898	109.44
462.118	113.44
462.338	100.44
462.558	108.44
462.777	112.44
462.997	94.44
463.217	89.44
463.437	101.44
463.657	94.44
463.876	99.44
464.096	104.44
464.316	93.44
464.536	96.44
464.755	101.44
464.975	99.44
465.195	105.44
465.414	89.44
465.634	101.44
465.854	108.44
466.073	91.44
466.293	103.44
466.512	91.44
466.732	107.44
466.951	92.44
467.171	114.44
467.391	107.44
467.61	105.44
467.829	104.44
468.049	106.44
468.268	100.44
468.488	104.44
468.707	115.44
468.927	109.44
469.146	115.44
469.365	112.44
469.585	110.44
469.804	116.44
470.023	107.44
470.243	109.44
470.462	109.44
470.681	126.44
470.901	116.44
471.12	96.44
471.339	105.44
471.558	99.44
471.777	110.44
471.997	112.44
472.216	127.44
472.435	93.44
472.654	82.44
472.873	101.44
473.092	95.44
473.311	106.44
473.53	109.44
473.749	114.44
473.968	112.44
474.187	85.44
474.406	106.44
474.625	112.44
474.844	120.44
475.063	99.44
475.282	108.44
475.501	90.44
475.72	96.44
475.939	101.44
476.158	101.44
476.377	100.44
476.596	105.44
476.814	106.44
477.033	98.44
477.252	105.44
477.471	113.44
477.69	110.44
477.908	112.44
478.127	116.44
478.346	113.44
478.564	114.44
478.783	112.44
479.002	105.44
479.22	106.44
479.439	106.44
479.658	112.44
479.876	98.44
480.095	109.44
480.313	107.44
480.532	106.44
480.751	100.44
480.969	91.44
481.188	78.44
481.406	92.44
481.624	88.44
481.843	86.44
482.061	99.44
482.28	98.44
482.498	92.44
482.717	90.44
482.935	102.44
483.153	112.44
483.372	109.44
483.59	102.44
483.808	117.44
484.027	114.44
484.245	95.44
484.463	116.44
484.681	130.44
484.9	107.44
485.118	111.44
485.336	96.44
485.554	90.44
485.772	91.44
485.99	99.44
486.209	92.44
486.427	86.44
486.645	98.44
486.863	108.44
487.081	115.44
487.299	118.44
487.517	106.44
487.735	117.44
487.953	124.44
488.171	115.44
488.389	118.44
488.607	119.44
488.825	101.44
489.043	109.44
489.261	103.44
489.479	129.44
489.696	113.44
489.914	121.44
490.132	106.44
490.35	109.44
490.568	108.44
490.786	124.44
491.003	122.44
491.221	128.44
491.439	124.44
491.657	129.44
491.874	136.44
492.092	133.44
492.31	155.44
492.527	154.44
492.745	134.44
492.963	131.44
493.18	125.44
493.398	132.44
493.615	127.44
493.833	121.44
494.05	126.44
494.268	133.44
494.485	131.44
494.703	116.44
494.92	118.44
495.138	133.44
495.355	128.44
495.573	131.44
495.79	126.44
496.008	128.44
496.225	144.44
496.442	134.44
496.66	127.44
496.877	101.44
497.094	117.44
497.312	110.44
497.529	118.44
497.746	114.44
497.963	107.44
498.181	109.44
498.398	114.44
498.615	112.44
498.832	97.44
499.049	105.44
499.267	108.44
499.484	114.44
499.701	112.44
499.918	99.44
500.135	113.44
500.352	114.44
500.569	121.44
500.786	122.44
501.003	116.44
501.22	124.44
501.437	117.44
501.654	94.44
501.871	118.44
502.088	91.44
502.305	103.44
502.522	101.44
502.739	102.44
502.956	118.44
503.172	89.44
503.389	100.44
503.606	106.44
503.823	106.44
504.04	93.44
504.256	88.44
504.473	105.44
504.69	86.44
504.907	105.44
505.123	108.44
505.34	100.44
505.557	99.44
505.773	108.44
505.99	106.44
506.207	104.44
506.423	89.44
506.64	106.44
506.856	108.44
507.073	93.44
507.289	114.44
507.506	101.44
507.722	93.44
507.939	87.44
508.155	105.44
508.372	94.44
508.588	92.44
508.805	106.44
509.021	92.44
509.238	88.44
509.454	103.44
509.67	109.44
509.887	92.44
510.103	93.44
510.319	78.44
510.536	93.44
510.752	88.44
510.968	86.44
511.184	80.44
511.401	80.44
511.617	85.44
511.833	88.44
512.049	90.44
512.265	90.44
512.481	102.44
512.698	83.44
512.914	96.44
513.13	90.44
513.346	80.44
513.562	92.44
513.778	84.44
513.994	99.44
514.21	106.44
514.426	78.44
