Data from Zn(NO3)2Standard.Agarose3%.GreenCap.LampEnergy5.5.E.O_HRD10591_15-03-16-768.txt Node
Date: Mon Jul 22 15:03:16 EDT 2019
User: cochatt
Spectrometer: HR+D1059
Trigger mode: 1
Integration Time (sec): 1.000000E-1
Scans to average: 1
Electric dark correction enabled: true
Nonlinearity correction enabled: false
Boxcar width: 0
XAxis mode: Wavelengths
Number of Pixels in Spectrum: 2048
>>>>>Begin Spectral Data<<<<<
223.165	-13.12
223.4	-13.12
223.635	-13.12
223.869	-16.12
224.104	-16.12
224.338	-25.12
224.573	-28.12
224.808	-1.12
225.042	1.88
225.277	0.88
225.511	-4.12
225.746	2.88
225.98	-1.12
226.215	12.88
226.449	9.88
226.683	31.88
226.918	18.88
227.152	25.88
227.387	35.88
227.621	40.88
227.856	38.88
228.09	51.88
228.324	59.88
228.559	52.88
228.793	59.88
229.027	49.88
229.262	56.88
229.496	78.88
229.73	69.88
229.964	77.88
230.199	76.88
230.433	77.88
230.667	84.88
230.901	77.88
231.136	82.88
231.37	85.88
231.604	89.88
231.838	80.88
232.072	85.88
232.306	83.88
232.541	92.88
232.775	90.88
233.009	88.88
233.243	74.88
233.477	85.88
233.711	89.88
233.945	74.88
234.179	87.88
234.413	87.88
234.647	84.88
234.881	84.88
235.115	85.88
235.349	87.88
235.583	72.88
235.817	93.88
236.051	88.88
236.285	77.88
236.519	63.88
236.753	71.88
236.987	61.88
237.221	82.88
237.455	87.88
237.689	71.88
237.922	81.88
238.156	81.88
238.39	66.88
238.624	73.88
238.858	78.88
239.091	89.88
239.325	69.88
239.559	74.88
239.793	66.88
240.027	76.88
240.26	71.88
240.494	82.88
240.728	69.88
240.961	62.88
241.195	72.88
241.429	65.88
241.662	77.88
241.896	70.88
242.13	85.88
242.363	61.88
242.597	72.88
242.83	78.88
243.064	82.88
243.298	85.88
243.531	75.88
243.765	76.88
243.998	99.88
244.232	70.88
244.465	81.88
244.699	74.88
244.932	66.88
245.166	93.88
245.399	76.88
245.633	76.88
245.866	72.88
246.099	86.88
246.333	75.88
246.566	79.88
246.8	78.88
247.033	87.88
247.266	77.88
247.5	80.88
247.733	68.88
247.966	86.88
248.2	86.88
248.433	72.88
248.666	82.88
248.899	79.88
249.133	89.88
249.366	77.88
249.599	82.88
249.832	77.88
250.066	67.88
250.299	72.88
250.532	82.88
250.765	94.88
250.998	69.88
251.231	76.88
251.465	91.88
251.698	77.88
251.931	83.88
252.164	86.88
252.397	66.88
252.63	93.88
252.863	81.88
253.096	90.88
253.329	74.88
253.562	85.88
253.795	79.88
254.028	66.88
254.261	73.88
254.494	71.88
254.727	77.88
254.96	76.88
255.193	85.88
255.426	71.88
255.659	89.88
255.892	82.88
256.124	85.88
256.357	85.88
256.59	79.88
256.823	83.88
257.056	80.88
257.289	94.88
257.521	91.88
257.754	85.88
257.987	70.88
258.22	97.88
258.452	82.88
258.685	72.88
258.918	71.88
259.151	87.88
259.383	89.88
259.616	80.88
259.849	81.88
260.081	79.88
260.314	85.88
260.547	89.88
260.779	86.88
261.012	77.88
261.244	90.88
261.477	90.88
261.71	84.88
261.942	77.88
262.175	86.88
262.407	80.88
262.64	75.88
262.872	90.88
263.105	84.88
263.337	84.88
263.57	82.88
263.802	75.88
264.035	74.88
264.267	72.88
264.499	90.88
264.732	89.88
264.964	84.88
265.197	85.88
265.429	86.88
265.661	89.88
265.894	85.88
266.126	85.88
266.358	89.88
266.591	80.88
266.823	90.88
267.055	79.88
267.287	71.88
267.52	77.88
267.752	82.88
267.984	95.88
268.216	87.88
268.448	75.88
268.681	81.88
268.913	101.88
269.145	84.88
269.377	78.88
269.609	81.88
269.841	89.88
270.073	89.88
270.306	82.88
270.538	97.88
270.77	80.88
271.002	85.88
271.234	73.88
271.466	91.88
271.698	95.88
271.93	101.88
272.162	103.88
272.394	86.88
272.626	77.88
272.858	86.88
273.09	91.88
273.322	94.88
273.553	85.88
273.785	85.88
274.017	92.88
274.249	89.88
274.481	75.88
274.713	100.88
274.945	71.88
275.176	90.88
275.408	76.88
275.64	78.88
275.872	82.88
276.104	95.88
276.335	81.88
276.567	85.88
276.799	83.88
277.031	84.88
277.262	86.88
277.494	77.88
277.726	81.88
277.957	92.88
278.189	76.88
278.421	90.88
278.652	79.88
278.884	85.88
279.115	81.88
279.347	94.88
279.579	75.88
279.81	103.88
280.042	86.88
280.273	85.88
280.505	81.88
280.736	73.88
280.968	89.88
281.199	89.88
281.431	94.88
281.662	85.88
281.894	95.88
282.125	86.88
282.356	92.88
282.588	87.88
282.819	100.88
283.051	93.88
283.282	71.88
283.513	83.88
283.745	88.88
283.976	95.88
284.207	90.88
284.439	95.88
284.67	82.88
284.901	89.88
285.132	87.88
285.364	79.88
285.595	69.88
285.826	82.88
286.057	85.88
286.288	83.88
286.52	81.88
286.751	88.88
286.982	78.88
287.213	77.88
287.444	86.88
287.675	89.88
287.906	88.88
288.138	103.88
288.369	91.88
288.6	89.88
288.831	94.88
289.062	79.88
289.293	87.88
289.524	79.88
289.755	88.88
289.986	88.88
290.217	83.88
290.448	82.88
290.679	85.88
290.91	90.88
291.141	91.88
291.371	83.88
291.602	86.88
291.833	88.88
292.064	84.88
292.295	75.88
292.526	96.88
292.757	94.88
292.987	89.88
293.218	99.88
293.449	89.88
293.68	87.88
293.91	91.88
294.141	91.88
294.372	83.88
294.603	89.88
294.833	90.88
295.064	79.88
295.295	77.88
295.525	92.88
295.756	77.88
295.987	93.88
296.217	84.88
296.448	84.88
296.679	79.88
296.909	100.88
297.14	75.88
297.37	83.88
297.601	77.88
297.831	77.88
298.062	87.88
298.292	85.88
298.523	93.88
298.753	90.88
298.984	87.88
299.214	78.88
299.445	76.88
299.675	88.88
299.905	92.88
300.136	88.88
300.366	94.88
300.597	94.88
300.827	77.88
301.057	86.88
301.288	83.88
301.518	77.88
301.748	84.88
301.979	76.88
302.209	88.88
302.439	83.88
302.669	79.88
302.9	92.88
303.13	94.88
303.36	90.88
303.59	95.88
303.82	97.88
304.051	79.88
304.281	81.88
304.511	83.88
304.741	75.88
304.971	94.88
305.201	90.88
305.431	77.88
305.661	87.88
305.891	92.88
306.121	89.88
306.352	85.88
306.582	86.88
306.812	89.88
307.042	91.88
307.272	96.88
307.502	73.88
307.731	86.88
307.961	99.88
308.191	76.88
308.421	94.88
308.651	97.88
308.881	73.88
309.111	89.88
309.341	83.88
309.571	90.88
309.8	82.88
310.03	86.88
310.26	84.88
310.49	80.88
310.72	97.88
310.949	97.88
311.179	75.88
311.409	98.88
311.639	89.88
311.868	84.88
312.098	78.88
312.328	79.88
312.557	89.88
312.787	84.88
313.017	100.88
313.246	94.88
313.476	93.88
313.706	89.88
313.935	82.88
314.165	79.88
314.394	85.88
314.624	82.88
314.853	87.88
315.083	94.88
315.312	105.88
315.542	95.88
315.771	90.88
316.001	78.88
316.23	85.88
316.46	89.88
316.689	81.88
316.919	81.88
317.148	81.88
317.377	73.88
317.607	83.88
317.836	86.88
318.065	93.88
318.295	91.88
318.524	93.88
318.753	85.88
318.983	85.88
319.212	88.88
319.441	91.88
319.67	71.88
319.9	98.88
320.129	87.88
320.358	88.88
320.587	76.88
320.816	94.88
321.046	101.88
321.275	91.88
321.504	88.88
321.733	86.88
321.962	91.88
322.191	75.88
322.42	92.88
322.649	73.88
322.878	95.88
323.108	92.88
323.337	78.88
323.566	79.88
323.795	72.88
324.024	88.88
324.253	79.88
324.482	96.88
324.71	80.88
324.939	94.88
325.168	81.88
325.397	86.88
325.626	93.88
325.855	82.88
326.084	86.88
326.313	97.88
326.542	78.88
326.77	102.88
326.999	84.88
327.228	75.88
327.457	88.88
327.686	85.88
327.914	100.88
328.143	84.88
328.372	90.88
328.6	84.88
328.829	76.88
329.058	83.88
329.287	78.88
329.515	85.88
329.744	80.88
329.972	94.88
330.201	87.88
330.43	81.88
330.658	93.88
330.887	90.88
331.115	91.88
331.344	85.88
331.572	91.88
331.801	86.88
332.03	69.88
332.258	87.88
332.486	91.88
332.715	90.88
332.943	85.88
333.172	95.88
333.4	86.88
333.629	90.88
333.857	78.88
334.085	76.88
334.314	84.88
334.542	87.88
334.771	83.88
334.999	89.88
335.227	101.88
335.455	91.88
335.684	98.88
335.912	98.88
336.14	82.88
336.369	98.88
336.597	80.88
336.825	85.88
337.053	78.88
337.281	89.88
337.51	79.88
337.738	86.88
337.966	86.88
338.194	76.88
338.422	91.88
338.65	91.88
338.878	80.88
339.106	95.88
339.334	87.88
339.562	85.88
339.79	77.88
340.018	97.88
340.246	89.88
340.474	71.88
340.702	85.88
340.93	88.88
341.158	86.88
341.386	93.88
341.614	83.88
341.842	82.88
342.07	79.88
342.298	96.88
342.526	91.88
342.754	81.88
342.981	69.88
343.209	90.88
343.437	95.88
343.665	90.88
343.893	93.88
344.12	83.88
344.348	98.88
344.576	92.88
344.804	88.88
345.031	70.88
345.259	87.88
345.487	86.88
345.714	86.88
345.942	79.88
346.17	83.88
346.397	84.88
346.625	74.88
346.853	83.88
347.08	92.88
347.308	88.88
347.535	83.88
347.763	89.88
347.99	85.88
348.218	92.88
348.445	73.88
348.673	81.88
348.9	88.88
349.128	87.88
349.355	96.88
349.583	107.88
349.81	78.88
350.037	89.88
350.265	87.88
350.492	93.88
350.72	90.88
350.947	80.88
351.174	91.88
351.402	93.88
351.629	88.88
351.856	77.88
352.083	80.88
352.311	79.88
352.538	79.88
352.765	74.88
352.992	80.88
353.22	92.88
353.447	92.88
353.674	94.88
353.901	103.88
354.128	85.88
354.355	82.88
354.583	79.88
354.81	79.88
355.037	93.88
355.264	87.88
355.491	92.88
355.718	81.88
355.945	90.88
356.172	81.88
356.399	83.88
356.626	79.88
356.853	91.88
357.08	104.88
357.307	79.88
357.534	78.88
357.761	95.88
357.988	83.88
358.215	76.88
358.441	87.88
358.668	70.88
358.895	96.88
359.122	80.88
359.349	90.88
359.576	88.88
359.802	88.88
360.029	69.88
360.256	83.88
360.483	83.88
360.709	84.88
360.936	102.88
361.163	101.88
361.39	97.88
361.616	89.88
361.843	105.88
362.07	85.88
362.296	73.88
362.523	95.88
362.749	75.88
362.976	83.88
363.203	84.88
363.429	99.88
363.656	85.88
363.882	76.88
364.109	86.88
364.335	83.88
364.562	74.88
364.788	75.88
365.015	80.88
365.241	90.88
365.468	98.88
365.694	81.88
365.92	86.88
366.147	88.88
366.373	83.88
366.599	80.88
366.826	78.88
367.052	98.88
367.278	85.88
367.505	82.88
367.731	86.88
367.957	83.88
368.184	61.88
368.41	84.88
368.636	84.88
368.862	83.88
369.089	79.88
369.315	80.88
369.541	85.88
369.767	75.88
369.993	88.88
370.219	88.88
370.445	78.88
370.672	89.88
370.898	84.88
371.124	98.88
371.35	90.88
371.576	86.88
371.802	80.88
372.028	82.88
372.254	74.88
372.48	94.88
372.706	87.88
372.932	89.88
373.158	82.88
373.384	86.88
373.61	74.88
373.835	84.88
374.061	80.88
374.287	90.88
374.513	81.88
374.739	86.88
374.965	79.88
375.191	73.88
375.416	86.88
375.642	88.88
375.868	83.88
376.094	82.88
376.319	74.88
376.545	93.88
376.771	88.88
376.997	82.88
377.222	88.88
377.448	93.88
377.674	101.88
377.899	86.88
378.125	90.88
378.35	83.88
378.576	81.88
378.802	82.88
379.027	80.88
379.253	79.88
379.478	103.88
379.704	80.88
379.929	83.88
380.155	77.88
380.38	87.88
380.606	86.88
380.831	89.88
381.057	98.88
381.282	89.88
381.507	80.88
381.733	99.88
381.958	90.88
382.184	88.88
382.409	80.88
382.634	98.88
382.86	67.88
383.085	74.88
383.31	86.88
383.535	83.88
383.761	77.88
383.986	86.88
384.211	73.88
384.436	90.88
384.662	84.88
384.887	77.88
385.112	86.88
385.337	87.88
385.562	106.88
385.787	74.88
386.013	77.88
386.238	90.88
386.463	94.88
386.688	82.88
386.913	83.88
387.138	101.88
387.363	94.88
387.588	90.88
387.813	109.88
388.038	85.88
388.263	87.88
388.488	89.88
388.713	68.88
388.938	89.88
389.163	72.88
389.387	80.88
389.612	75.88
389.837	94.88
390.062	86.88
390.287	64.88
390.512	90.88
390.736	65.88
390.961	75.88
391.186	84.88
391.411	83.88
391.636	86.88
391.86	87.88
392.085	82.88
392.31	86.88
392.534	84.88
392.759	70.88
392.984	86.88
393.208	95.88
393.433	81.88
393.658	100.88
393.882	96.88
394.107	92.88
394.331	81.88
394.556	85.88
394.78	92.88
395.005	102.88
395.229	89.88
395.454	78.88
395.678	87.88
395.903	91.88
396.127	84.88
396.352	85.88
396.576	79.88
396.801	85.88
397.025	79.88
397.249	84.88
397.474	87.88
397.698	91.88
397.922	80.88
398.147	88.88
398.371	83.88
398.595	87.88
398.82	81.88
399.044	95.88
399.268	83.88
399.492	100.88
399.717	83.88
399.941	91.88
400.165	83.88
400.389	91.88
400.613	92.88
400.837	81.88
401.062	85.88
401.286	82.88
401.51	82.88
401.734	75.88
401.958	89.88
402.182	86.88
402.406	80.88
402.63	81.88
402.854	74.88
403.078	69.88
403.302	86.88
403.526	86.88
403.75	88.88
403.974	85.88
404.198	87.88
404.422	94.88
404.645	78.88
404.869	75.88
405.093	89.88
405.317	81.88
405.541	86.88
405.765	78.88
405.988	92.88
406.212	82.88
406.436	87.88
406.66	80.88
406.883	91.88
407.107	76.88
407.331	89.88
407.555	83.88
407.778	77.88
408.002	78.88
408.226	77.88
408.449	89.88
408.673	83.88
408.896	86.88
409.12	85.88
409.344	92.88
409.567	85.88
409.791	71.88
410.014	88.88
410.238	101.88
410.461	86.88
410.685	79.88
410.908	77.88
411.132	82.88
411.355	91.88
411.578	100.88
411.802	85.88
412.025	91.88
412.249	81.88
412.472	68.88
412.695	86.88
412.919	81.88
413.142	99.88
413.365	92.88
413.589	91.88
413.812	87.88
414.035	83.88
414.258	74.88
414.482	88.88
414.705	94.88
414.928	72.88
415.151	74.88
415.374	81.88
415.597	72.88
415.821	78.88
416.044	90.88
416.267	101.88
416.49	75.88
416.713	93.88
416.936	82.88
417.159	89.88
417.382	94.88
417.605	86.88
417.828	105.88
418.051	95.88
418.274	75.88
418.497	84.88
418.72	81.88
418.943	110.88
419.166	78.88
419.389	110.88
419.611	80.88
419.834	101.88
420.057	93.88
420.28	76.88
420.503	86.88
420.726	86.88
420.948	92.88
421.171	91.88
421.394	80.88
421.617	92.88
421.839	84.88
422.062	88.88
422.285	101.88
422.507	82.88
422.73	101.88
422.953	83.88
423.175	93.88
423.398	77.88
423.621	85.88
423.843	76.88
424.066	90.88
424.288	109.88
424.511	94.88
424.733	94.88
424.956	90.88
425.178	81.88
425.401	73.88
425.623	103.88
425.846	85.88
426.068	85.88
426.291	93.88
426.513	94.88
426.735	83.88
426.958	98.88
427.18	103.88
427.402	100.88
427.625	79.88
427.847	85.88
428.069	89.88
428.292	90.88
428.514	78.88
428.736	82.88
428.958	92.88
429.181	98.88
429.403	79.88
429.625	93.88
429.847	92.88
430.069	92.88
430.292	90.88
430.514	95.88
430.736	76.88
430.958	98.88
431.18	85.88
431.402	82.88
431.624	85.88
431.846	84.88
432.068	87.88
432.29	91.88
432.512	81.88
432.734	86.88
432.956	98.88
433.178	110.88
433.4	87.88
433.622	98.88
433.844	97.88
434.066	77.88
434.287	80.88
434.509	77.88
434.731	100.88
434.953	95.88
435.175	85.88
435.397	96.88
435.618	83.88
435.84	91.88
436.062	87.88
436.284	76.88
436.505	90.88
436.727	99.88
436.949	87.88
437.17	98.88
437.392	90.88
437.614	79.88
437.835	75.88
438.057	82.88
438.278	87.88
438.5	86.88
438.721	75.88
438.943	99.88
439.165	95.88
439.386	94.88
439.608	105.88
439.829	95.88
440.05	91.88
440.272	90.88
440.493	91.88
440.715	100.88
440.936	107.88
441.158	110.88
441.379	98.88
441.6	91.88
441.822	90.88
442.043	69.88
442.264	91.88
442.486	97.88
442.707	93.88
442.928	101.88
443.149	78.88
443.371	93.88
443.592	96.88
443.813	76.88
444.034	75.88
444.255	88.88
444.476	89.88
444.698	102.88
444.919	102.88
445.14	224.88
445.361	168.88
445.582	87.88
445.803	83.88
446.024	82.88
446.245	95.88
446.466	95.88
446.687	90.88
446.908	94.88
447.129	74.88
447.35	87.88
447.571	83.88
447.792	98.88
448.013	90.88
448.234	94.88
448.455	92.88
448.675	82.88
448.896	86.88
449.117	94.88
449.338	93.88
449.559	93.88
449.779	77.88
450	85.88
450.221	88.88
450.442	86.88
450.662	88.88
450.883	89.88
451.104	83.88
451.324	97.88
451.545	89.88
451.766	104.88
451.986	100.88
452.207	91.88
452.428	94.88
452.648	80.88
452.869	78.88
453.089	82.88
453.31	79.88
453.53	82.88
453.751	86.88
453.971	94.88
454.192	85.88
454.412	93.88
454.633	82.88
454.853	86.88
455.073	83.88
455.294	84.88
455.514	87.88
455.734	101.88
455.955	99.88
456.175	85.88
456.395	87.88
456.616	93.88
456.836	84.88
457.056	81.88
457.276	82.88
457.497	87.88
457.717	85.88
457.937	77.88
458.157	100.88
458.377	86.88
458.598	94.88
458.818	87.88
459.038	86.88
459.258	74.88
459.478	69.88
459.698	78.88
459.918	80.88
460.138	75.88
460.358	101.88
460.578	105.88
460.798	88.88
461.018	90.88
461.238	86.88
461.458	82.88
461.678	93.88
461.898	79.88
462.118	83.88
462.338	93.88
462.558	92.88
462.777	90.88
462.997	85.88
463.217	98.88
463.437	96.88
463.657	86.88
463.876	79.88
464.096	95.88
464.316	86.88
464.536	88.88
464.755	96.88
464.975	76.88
465.195	85.88
465.414	99.88
465.634	86.88
465.854	77.88
466.073	78.88
466.293	84.88
466.512	94.88
466.732	97.88
466.951	83.88
467.171	78.88
467.391	89.88
467.61	77.88
467.829	90.88
468.049	80.88
468.268	89.88
468.488	87.88
468.707	93.88
468.927	87.88
469.146	84.88
469.365	85.88
469.585	97.88
469.804	94.88
470.023	95.88
470.243	101.88
470.462	95.88
470.681	76.88
470.901	96.88
471.12	101.88
471.339	85.88
471.558	84.88
471.777	85.88
471.997	100.88
472.216	81.88
472.435	102.88
472.654	85.88
472.873	97.88
473.092	96.88
473.311	86.88
473.53	89.88
473.749	91.88
473.968	100.88
474.187	88.88
474.406	72.88
474.625	91.88
474.844	91.88
475.063	91.88
475.282	89.88
475.501	89.88
475.72	80.88
475.939	79.88
476.158	91.88
476.377	99.88
476.596	80.88
476.814	83.88
477.033	88.88
477.252	92.88
477.471	85.88
477.69	77.88
477.908	101.88
478.127	99.88
478.346	94.88
478.564	88.88
478.783	100.88
479.002	88.88
479.22	75.88
479.439	99.88
479.658	97.88
479.876	83.88
480.095	83.88
480.313	78.88
480.532	87.88
480.751	83.88
480.969	87.88
481.188	94.88
481.406	73.88
481.624	78.88
481.843	79.88
482.061	106.88
482.28	85.88
482.498	75.88
482.717	83.88
482.935	87.88
483.153	80.88
483.372	95.88
483.59	97.88
483.808	86.88
484.027	88.88
484.245	93.88
484.463	79.88
484.681	99.88
484.9	85.88
485.118	84.88
485.336	99.88
485.554	78.88
485.772	87.88
485.99	87.88
486.209	82.88
486.427	89.88
486.645	76.88
486.863	87.88
487.081	68.88
487.299	97.88
487.517	77.88
487.735	87.88
487.953	92.88
488.171	97.88
488.389	105.88
488.607	95.88
488.825	77.88
489.043	93.88
489.261	89.88
489.479	77.88
489.696	101.88
489.914	85.88
490.132	90.88
490.35	90.88
490.568	87.88
490.786	108.88
491.003	92.88
491.221	94.88
491.439	91.88
491.657	109.88
491.874	105.88
492.092	115.88
492.31	101.88
492.527	100.88
492.745	106.88
492.963	109.88
493.18	108.88
493.398	103.88
493.615	107.88
493.833	95.88
494.05	102.88
494.268	104.88
494.485	100.88
494.703	97.88
494.92	106.88
495.138	85.88
495.355	92.88
495.573	97.88
495.79	78.88
496.008	124.88
496.225	90.88
496.442	90.88
496.66	102.88
496.877	91.88
497.094	87.88
497.312	98.88
497.529	88.88
497.746	87.88
497.963	89.88
498.181	92.88
498.398	97.88
498.615	74.88
498.832	98.88
499.049	99.88
499.267	90.88
499.484	91.88
499.701	93.88
499.918	90.88
500.135	88.88
500.352	86.88
500.569	88.88
500.786	87.88
501.003	94.88
501.22	92.88
501.437	97.88
501.654	94.88
501.871	98.88
502.088	101.88
502.305	78.88
502.522	82.88
502.739	87.88
502.956	92.88
503.172	91.88
503.389	77.88
503.606	88.88
503.823	98.88
504.04	99.88
504.256	72.88
504.473	81.88
504.69	77.88
504.907	85.88
505.123	95.88
505.34	95.88
505.557	97.88
505.773	103.88
505.99	87.88
506.207	86.88
506.423	91.88
506.64	81.88
506.856	89.88
507.073	83.88
507.289	88.88
507.506	94.88
507.722	102.88
507.939	91.88
508.155	92.88
508.372	90.88
508.588	91.88
508.805	92.88
509.021	92.88
509.238	75.88
509.454	89.88
509.67	83.88
509.887	83.88
510.103	77.88
510.319	76.88
510.536	96.88
510.752	74.88
510.968	89.88
511.184	85.88
511.401	80.88
511.617	91.88
511.833	82.88
512.049	76.88
512.265	82.88
512.481	80.88
512.698	77.88
512.914	84.88
513.13	90.88
513.346	82.88
513.562	82.88
513.778	91.88
513.994	91.88
514.21	84.88
514.426	83.88
514.642	91.88
514.858	88.88
515.074	86.88
515.29	95.88
515.506	82.88
515.721	99.88
515.937	82.88
516.153	87.88
516.369	88.88
516.585	102.88
516.801	85.88
517.016	89.88
517.232	97.88
517.448	89.88
517.664	90.88
517.879	74.88
518.095	91.88
518.311	91.88
