Data from Zn(NO3)2Standard.Agarose3%.GreenCap.LampEnergy10E.O_HRD10591_15-08-39-949.txt Node
Date: Mon Jul 22 15:08:39 EDT 2019
User: cochatt
Spectrometer: HR+D1059
Trigger mode: 1
Integration Time (sec): 1.000000E-1
Scans to average: 1
Electric dark correction enabled: true
Nonlinearity correction enabled: false
Boxcar width: 0
XAxis mode: Wavelengths
Number of Pixels in Spectrum: 2048
>>>>>Begin Spectral Data<<<<<
223.165	-10.56
223.4	-10.56
223.635	-10.56
223.869	-20.56
224.104	-19.56
224.338	-2.56
224.573	-17.56
224.808	-20.56
225.042	-10.56
225.277	-5.56
225.511	11.44
225.746	-1.56
225.98	1.44
226.215	12.44
226.449	21.44
226.683	18.44
226.918	18.44
227.152	25.44
227.387	25.44
227.621	38.44
227.856	54.44
228.09	45.44
228.324	45.44
228.559	54.44
228.793	45.44
229.027	56.44
229.262	66.44
229.496	73.44
229.73	65.44
229.964	69.44
230.199	66.44
230.433	75.44
230.667	76.44
230.901	81.44
231.136	78.44
231.37	73.44
231.604	89.44
231.838	85.44
232.072	77.44
232.306	70.44
232.541	86.44
232.775	82.44
233.009	83.44
233.243	65.44
233.477	68.44
233.711	100.44
233.945	89.44
234.179	88.44
234.413	84.44
234.647	100.44
234.881	79.44
235.115	73.44
235.349	82.44
235.583	86.44
235.817	63.44
236.051	77.44
236.285	89.44
236.519	63.44
236.753	68.44
236.987	75.44
237.221	96.44
237.455	87.44
237.689	79.44
237.922	75.44
238.156	94.44
238.39	78.44
238.624	74.44
238.858	69.44
239.091	68.44
239.325	74.44
239.559	80.44
239.793	66.44
240.027	73.44
240.26	74.44
240.494	63.44
240.728	78.44
240.961	90.44
241.195	85.44
241.429	71.44
241.662	75.44
241.896	73.44
242.13	61.44
242.363	63.44
242.597	70.44
242.83	75.44
243.064	82.44
243.298	84.44
243.531	78.44
243.765	84.44
243.998	91.44
244.232	75.44
244.465	83.44
244.699	78.44
244.932	71.44
245.166	84.44
245.399	87.44
245.633	78.44
245.866	87.44
246.099	87.44
246.333	85.44
246.566	79.44
246.8	81.44
247.033	80.44
247.266	87.44
247.5	87.44
247.733	77.44
247.966	73.44
248.2	77.44
248.433	87.44
248.666	82.44
248.899	88.44
249.133	68.44
249.366	71.44
249.599	78.44
249.832	79.44
250.066	81.44
250.299	82.44
250.532	85.44
250.765	74.44
250.998	75.44
251.231	78.44
251.465	84.44
251.698	56.44
251.931	69.44
252.164	75.44
252.397	99.44
252.63	75.44
252.863	61.44
253.096	70.44
253.329	76.44
253.562	76.44
253.795	86.44
254.028	80.44
254.261	74.44
254.494	73.44
254.727	79.44
254.96	79.44
255.193	71.44
255.426	81.44
255.659	81.44
255.892	94.44
256.124	84.44
256.357	79.44
256.59	79.44
256.823	70.44
257.056	77.44
257.289	87.44
257.521	79.44
257.754	79.44
257.987	82.44
258.22	75.44
258.452	81.44
258.685	83.44
258.918	86.44
259.151	87.44
259.383	98.44
259.616	82.44
259.849	74.44
260.081	67.44
260.314	87.44
260.547	96.44
260.779	68.44
261.012	83.44
261.244	77.44
261.477	83.44
261.71	89.44
261.942	82.44
262.175	75.44
262.407	92.44
262.64	66.44
262.872	79.44
263.105	102.44
263.337	83.44
263.57	64.44
263.802	79.44
264.035	82.44
264.267	79.44
264.499	81.44
264.732	81.44
264.964	88.44
265.197	78.44
265.429	81.44
265.661	81.44
265.894	87.44
266.126	89.44
266.358	87.44
266.591	81.44
266.823	75.44
267.055	61.44
267.287	82.44
267.52	75.44
267.752	85.44
267.984	82.44
268.216	78.44
268.448	85.44
268.681	88.44
268.913	78.44
269.145	91.44
269.377	93.44
269.609	82.44
269.841	75.44
270.073	67.44
270.306	77.44
270.538	80.44
270.77	83.44
271.002	64.44
271.234	93.44
271.466	86.44
271.698	87.44
271.93	93.44
272.162	78.44
272.394	87.44
272.626	82.44
272.858	78.44
273.09	87.44
273.322	70.44
273.553	81.44
273.785	85.44
274.017	70.44
274.249	75.44
274.481	78.44
274.713	80.44
274.945	76.44
275.176	79.44
275.408	76.44
275.64	75.44
275.872	83.44
276.104	80.44
276.335	93.44
276.567	84.44
276.799	93.44
277.031	90.44
277.262	69.44
277.494	83.44
277.726	85.44
277.957	93.44
278.189	83.44
278.421	79.44
278.652	75.44
278.884	70.44
279.115	79.44
279.347	83.44
279.579	76.44
279.81	86.44
280.042	68.44
280.273	81.44
280.505	87.44
280.736	89.44
280.968	90.44
281.199	73.44
281.431	68.44
281.662	85.44
281.894	96.44
282.125	92.44
282.356	94.44
282.588	94.44
282.819	85.44
283.051	80.44
283.282	98.44
283.513	89.44
283.745	80.44
283.976	97.44
284.207	68.44
284.439	75.44
284.67	88.44
284.901	85.44
285.132	67.44
285.364	69.44
285.595	68.44
285.826	87.44
286.057	90.44
286.288	79.44
286.52	85.44
286.751	94.44
286.982	68.44
287.213	72.44
287.444	96.44
287.675	75.44
287.906	80.44
288.138	87.44
288.369	82.44
288.6	80.44
288.831	100.44
289.062	90.44
289.293	94.44
289.524	82.44
289.755	79.44
289.986	89.44
290.217	88.44
290.448	89.44
290.679	99.44
290.91	92.44
291.141	78.44
291.371	78.44
291.602	81.44
291.833	74.44
292.064	79.44
292.295	77.44
292.526	90.44
292.757	87.44
292.987	87.44
293.218	84.44
293.449	93.44
293.68	87.44
293.91	93.44
294.141	83.44
294.372	103.44
294.603	86.44
294.833	78.44
295.064	83.44
295.295	81.44
295.525	97.44
295.756	84.44
295.987	81.44
296.217	76.44
296.448	84.44
296.679	72.44
296.909	93.44
297.14	96.44
297.37	94.44
297.601	90.44
297.831	93.44
298.062	85.44
298.292	80.44
298.523	80.44
298.753	81.44
298.984	99.44
299.214	91.44
299.445	88.44
299.675	85.44
299.905	83.44
300.136	72.44
300.366	77.44
300.597	90.44
300.827	98.44
301.057	80.44
301.288	87.44
301.518	89.44
301.748	73.44
301.979	80.44
302.209	89.44
302.439	75.44
302.669	73.44
302.9	87.44
303.13	91.44
303.36	80.44
303.59	85.44
303.82	88.44
304.051	78.44
304.281	96.44
304.511	91.44
304.741	79.44
304.971	97.44
305.201	92.44
305.431	94.44
305.661	97.44
305.891	85.44
306.121	90.44
306.352	89.44
306.582	84.44
306.812	86.44
307.042	86.44
307.272	77.44
307.502	80.44
307.731	92.44
307.961	85.44
308.191	81.44
308.421	87.44
308.651	80.44
308.881	89.44
309.111	86.44
309.341	76.44
309.571	92.44
309.8	79.44
310.03	87.44
310.26	92.44
310.49	98.44
310.72	95.44
310.949	99.44
311.179	86.44
311.409	90.44
311.639	86.44
311.868	91.44
312.098	83.44
312.328	81.44
312.557	85.44
312.787	92.44
313.017	84.44
313.246	93.44
313.476	79.44
313.706	86.44
313.935	79.44
314.165	88.44
314.394	73.44
314.624	92.44
314.853	78.44
315.083	101.44
315.312	77.44
315.542	90.44
315.771	79.44
316.001	88.44
316.23	85.44
316.46	83.44
316.689	91.44
316.919	95.44
317.148	92.44
317.377	95.44
317.607	84.44
317.836	100.44
318.065	68.44
318.295	97.44
318.524	86.44
318.753	99.44
318.983	91.44
319.212	89.44
319.441	79.44
319.67	92.44
319.9	72.44
320.129	85.44
320.358	84.44
320.587	89.44
320.816	88.44
321.046	88.44
321.275	92.44
321.504	89.44
321.733	90.44
321.962	90.44
322.191	88.44
322.42	95.44
322.649	104.44
322.878	100.44
323.108	90.44
323.337	80.44
323.566	90.44
323.795	88.44
324.024	86.44
324.253	87.44
324.482	88.44
324.71	86.44
324.939	83.44
325.168	86.44
325.397	81.44
325.626	90.44
325.855	99.44
326.084	76.44
326.313	83.44
326.542	71.44
326.77	79.44
326.999	81.44
327.228	79.44
327.457	79.44
327.686	103.44
327.914	83.44
328.143	92.44
328.372	77.44
328.6	74.44
328.829	94.44
329.058	93.44
329.287	91.44
329.515	89.44
329.744	83.44
329.972	86.44
330.201	86.44
330.43	92.44
330.658	88.44
330.887	78.44
331.115	78.44
331.344	87.44
331.572	80.44
331.801	86.44
332.03	89.44
332.258	76.44
332.486	91.44
332.715	88.44
332.943	67.44
333.172	79.44
333.4	82.44
333.629	79.44
333.857	78.44
334.085	77.44
334.314	87.44
334.542	89.44
334.771	74.44
334.999	89.44
335.227	87.44
335.455	84.44
335.684	108.44
335.912	97.44
336.14	97.44
336.369	80.44
336.597	87.44
336.825	79.44
337.053	78.44
337.281	86.44
337.51	86.44
337.738	95.44
337.966	83.44
338.194	86.44
338.422	80.44
338.65	75.44
338.878	77.44
339.106	79.44
339.334	99.44
339.562	90.44
339.79	100.44
340.018	100.44
340.246	74.44
340.474	74.44
340.702	86.44
340.93	81.44
341.158	79.44
341.386	91.44
341.614	79.44
341.842	91.44
342.07	87.44
342.298	91.44
342.526	81.44
342.754	88.44
342.981	80.44
343.209	92.44
343.437	92.44
343.665	80.44
343.893	98.44
344.12	87.44
344.348	87.44
344.576	81.44
344.804	77.44
345.031	87.44
345.259	73.44
345.487	89.44
345.714	82.44
345.942	89.44
346.17	93.44
346.397	86.44
346.625	97.44
346.853	82.44
347.08	74.44
347.308	91.44
347.535	90.44
347.763	81.44
347.99	87.44
348.218	93.44
348.445	98.44
348.673	96.44
348.9	92.44
349.128	82.44
349.355	84.44
349.583	78.44
349.81	87.44
350.037	79.44
350.265	94.44
350.492	94.44
350.72	94.44
350.947	87.44
351.174	82.44
351.402	74.44
351.629	94.44
351.856	91.44
352.083	84.44
352.311	88.44
352.538	84.44
352.765	82.44
352.992	87.44
353.22	84.44
353.447	94.44
353.674	91.44
353.901	98.44
354.128	86.44
354.355	92.44
354.583	92.44
354.81	77.44
355.037	78.44
355.264	86.44
355.491	91.44
355.718	92.44
355.945	88.44
356.172	97.44
356.399	85.44
356.626	78.44
356.853	85.44
357.08	80.44
357.307	89.44
357.534	78.44
357.761	86.44
357.988	96.44
358.215	91.44
358.441	91.44
358.668	89.44
358.895	84.44
359.122	74.44
359.349	93.44
359.576	93.44
359.802	92.44
360.029	85.44
360.256	89.44
360.483	81.44
360.709	73.44
360.936	97.44
361.163	76.44
361.39	84.44
361.616	87.44
361.843	79.44
362.07	91.44
362.296	89.44
362.523	85.44
362.749	89.44
362.976	85.44
363.203	92.44
363.429	79.44
363.656	77.44
363.882	90.44
364.109	90.44
364.335	84.44
364.562	76.44
364.788	101.44
365.015	87.44
365.241	87.44
365.468	98.44
365.694	63.44
365.92	81.44
366.147	91.44
366.373	96.44
366.599	86.44
366.826	99.44
367.052	85.44
367.278	74.44
367.505	83.44
367.731	90.44
367.957	78.44
368.184	79.44
368.41	87.44
368.636	85.44
368.862	95.44
369.089	96.44
369.315	87.44
369.541	92.44
369.767	93.44
369.993	88.44
370.219	74.44
370.445	75.44
370.672	89.44
370.898	92.44
371.124	94.44
371.35	78.44
371.576	76.44
371.802	83.44
372.028	88.44
372.254	88.44
372.48	77.44
372.706	84.44
372.932	93.44
373.158	87.44
373.384	93.44
373.61	85.44
373.835	96.44
374.061	90.44
374.287	78.44
374.513	87.44
374.739	89.44
374.965	109.44
375.191	87.44
375.416	104.44
375.642	84.44
375.868	96.44
376.094	97.44
376.319	88.44
376.545	90.44
376.771	84.44
376.997	84.44
377.222	97.44
377.448	94.44
377.674	102.44
377.899	82.44
378.125	80.44
378.35	89.44
378.576	91.44
378.802	95.44
379.027	78.44
379.253	95.44
379.478	87.44
379.704	83.44
379.929	97.44
380.155	75.44
380.38	95.44
380.606	90.44
380.831	75.44
381.057	94.44
381.282	77.44
381.507	89.44
381.733	88.44
381.958	76.44
382.184	85.44
382.409	95.44
382.634	98.44
382.86	93.44
383.085	90.44
383.31	90.44
383.535	94.44
383.761	82.44
383.986	76.44
384.211	91.44
384.436	99.44
384.662	91.44
384.887	83.44
385.112	100.44
385.337	86.44
385.562	100.44
385.787	103.44
386.013	99.44
386.238	94.44
386.463	97.44
386.688	85.44
386.913	82.44
387.138	89.44
387.363	92.44
387.588	107.44
387.813	98.44
388.038	102.44
388.263	85.44
388.488	69.44
388.713	89.44
388.938	88.44
389.163	89.44
389.387	80.44
389.612	90.44
389.837	91.44
390.062	94.44
390.287	82.44
390.512	87.44
390.736	83.44
390.961	92.44
391.186	72.44
391.411	93.44
391.636	90.44
391.86	92.44
392.085	79.44
392.31	93.44
392.534	83.44
392.759	103.44
392.984	83.44
393.208	95.44
393.433	87.44
393.658	94.44
393.882	94.44
394.107	100.44
394.331	96.44
394.556	97.44
394.78	82.44
395.005	84.44
395.229	86.44
395.454	97.44
395.678	101.44
395.903	89.44
396.127	88.44
396.352	84.44
396.576	96.44
396.801	97.44
397.025	87.44
397.249	100.44
397.474	94.44
397.698	100.44
397.922	106.44
398.147	99.44
398.371	91.44
398.595	86.44
398.82	83.44
399.044	86.44
399.268	95.44
399.492	108.44
399.717	111.44
399.941	104.44
400.165	103.44
400.389	92.44
400.613	86.44
400.837	107.44
401.062	99.44
401.286	98.44
401.51	85.44
401.734	97.44
401.958	96.44
402.182	102.44
402.406	97.44
402.63	95.44
402.854	94.44
403.078	106.44
403.302	97.44
403.526	98.44
403.75	104.44
403.974	99.44
404.198	99.44
404.422	98.44
404.645	101.44
404.869	102.44
405.093	90.44
405.317	91.44
405.541	104.44
405.765	102.44
405.988	95.44
406.212	95.44
406.436	101.44
406.66	109.44
406.883	97.44
407.107	99.44
407.331	108.44
407.555	102.44
407.778	94.44
408.002	86.44
408.226	105.44
408.449	103.44
408.673	102.44
408.896	111.44
409.12	109.44
409.344	98.44
409.567	101.44
409.791	103.44
410.014	92.44
410.238	93.44
410.461	93.44
410.685	85.44
410.908	99.44
411.132	87.44
411.355	107.44
411.578	100.44
411.802	94.44
412.025	96.44
412.249	109.44
412.472	113.44
412.695	109.44
412.919	89.44
413.142	108.44
413.365	109.44
413.589	113.44
413.812	103.44
414.035	97.44
414.258	103.44
414.482	105.44
414.705	103.44
414.928	93.44
415.151	106.44
415.374	93.44
415.597	99.44
415.821	98.44
416.044	92.44
416.267	102.44
416.49	99.44
416.713	98.44
416.936	110.44
417.159	99.44
417.382	93.44
417.605	110.44
417.828	113.44
418.051	109.44
418.274	116.44
418.497	103.44
418.72	103.44
418.943	119.44
419.166	118.44
419.389	109.44
419.611	115.44
419.834	104.44
420.057	113.44
420.28	110.44
420.503	106.44
420.726	113.44
420.948	118.44
421.171	101.44
421.394	99.44
421.617	113.44
421.839	117.44
422.062	106.44
422.285	99.44
422.507	109.44
422.73	106.44
422.953	93.44
423.175	123.44
423.398	113.44
423.621	104.44
423.843	115.44
424.066	106.44
424.288	119.44
424.511	115.44
424.733	124.44
424.956	111.44
425.178	106.44
425.401	103.44
425.623	108.44
425.846	108.44
426.068	109.44
426.291	103.44
426.513	114.44
426.735	101.44
426.958	112.44
427.18	97.44
427.402	115.44
427.625	109.44
427.847	106.44
428.069	91.44
428.292	98.44
428.514	105.44
428.736	106.44
428.958	107.44
429.181	109.44
429.403	108.44
429.625	104.44
429.847	119.44
430.069	105.44
430.292	113.44
430.514	106.44
430.736	107.44
430.958	108.44
431.18	108.44
431.402	100.44
431.624	109.44
431.846	96.44
432.068	105.44
432.29	97.44
432.512	120.44
432.734	103.44
432.956	100.44
433.178	106.44
433.4	109.44
433.622	103.44
433.844	107.44
434.066	97.44
434.287	89.44
434.509	94.44
434.731	93.44
434.953	87.44
435.175	109.44
435.397	111.44
435.618	91.44
435.84	108.44
436.062	94.44
436.284	105.44
436.505	107.44
436.727	95.44
436.949	109.44
437.17	113.44
437.392	97.44
437.614	106.44
437.835	114.44
438.057	111.44
438.278	110.44
438.5	100.44
438.721	121.44
438.943	117.44
439.165	109.44
439.386	115.44
439.608	114.44
439.829	126.44
440.05	105.44
440.272	100.44
440.493	113.44
440.715	122.44
440.936	118.44
441.158	115.44
441.379	97.44
441.6	109.44
441.822	117.44
442.043	118.44
442.264	113.44
442.486	117.44
442.707	117.44
442.928	117.44
443.149	100.44
443.371	98.44
443.592	105.44
443.813	108.44
444.034	100.44
444.255	103.44
444.476	113.44
444.698	110.44
444.919	114.44
445.14	218.44
445.361	154.44
445.582	114.44
445.803	111.44
446.024	118.44
446.245	121.44
446.466	106.44
446.687	116.44
446.908	102.44
447.129	121.44
447.35	119.44
447.571	114.44
447.792	125.44
448.013	127.44
448.234	119.44
448.455	119.44
448.675	106.44
448.896	121.44
449.117	124.44
449.338	103.44
449.559	115.44
449.779	104.44
450	109.44
450.221	114.44
450.442	118.44
450.662	105.44
450.883	113.44
451.104	108.44
451.324	116.44
451.545	109.44
451.766	100.44
451.986	91.44
452.207	91.44
452.428	101.44
452.648	108.44
452.869	120.44
453.089	111.44
453.31	102.44
453.53	91.44
453.751	107.44
453.971	113.44
454.192	96.44
454.412	91.44
454.633	100.44
454.853	94.44
455.073	118.44
455.294	108.44
455.514	97.44
455.734	103.44
455.955	107.44
456.175	76.44
456.395	114.44
456.616	105.44
456.836	97.44
457.056	103.44
457.276	103.44
457.497	96.44
457.717	108.44
457.937	91.44
458.157	80.44
458.377	95.44
458.598	98.44
458.818	94.44
459.038	82.44
459.258	93.44
459.478	84.44
459.698	86.44
459.918	78.44
460.138	88.44
460.358	94.44
460.578	114.44
460.798	86.44
461.018	94.44
461.238	111.44
461.458	103.44
461.678	95.44
461.898	106.44
462.118	106.44
462.338	89.44
462.558	94.44
462.777	107.44
462.997	100.44
463.217	99.44
463.437	102.44
463.657	106.44
463.876	98.44
464.096	89.44
464.316	100.44
464.536	84.44
464.755	87.44
464.975	104.44
465.195	105.44
465.414	104.44
465.634	107.44
465.854	100.44
466.073	99.44
466.293	106.44
466.512	101.44
466.732	97.44
466.951	109.44
467.171	105.44
467.391	100.44
467.61	101.44
467.829	100.44
468.049	120.44
468.268	111.44
468.488	113.44
468.707	105.44
468.927	119.44
469.146	109.44
469.365	100.44
469.585	108.44
469.804	114.44
470.023	106.44
470.243	119.44
470.462	132.44
470.681	103.44
470.901	119.44
471.12	117.44
471.339	122.44
471.558	124.44
471.777	106.44
471.997	102.44
472.216	114.44
472.435	94.44
472.654	109.44
472.873	106.44
473.092	115.44
473.311	89.44
473.53	86.44
473.749	102.44
473.968	120.44
474.187	121.44
474.406	101.44
474.625	100.44
474.844	109.44
475.063	123.44
475.282	95.44
475.501	100.44
475.72	110.44
475.939	96.44
476.158	104.44
476.377	105.44
476.596	96.44
476.814	100.44
477.033	105.44
477.252	97.44
477.471	105.44
477.69	98.44
477.908	119.44
478.127	123.44
478.346	118.44
478.564	126.44
478.783	98.44
479.002	96.44
479.22	117.44
479.439	100.44
479.658	114.44
479.876	89.44
480.095	102.44
480.313	118.44
480.532	114.44
480.751	106.44
480.969	88.44
481.188	90.44
481.406	89.44
481.624	79.44
481.843	84.44
482.061	87.44
482.28	97.44
482.498	100.44
482.717	91.44
482.935	121.44
483.153	105.44
483.372	120.44
483.59	117.44
483.808	112.44
484.027	107.44
484.245	118.44
484.463	101.44
484.681	113.44
484.9	113.44
485.118	107.44
485.336	99.44
485.554	100.44
485.772	84.44
485.99	87.44
486.209	96.44
486.427	107.44
486.645	89.44
486.863	110.44
487.081	100.44
487.299	105.44
487.517	113.44
487.735	132.44
487.953	135.44
488.171	139.44
488.389	129.44
488.607	115.44
488.825	113.44
489.043	113.44
489.261	119.44
489.479	120.44
489.696	108.44
489.914	95.44
490.132	124.44
490.35	125.44
490.568	111.44
490.786	128.44
491.003	110.44
491.221	136.44
491.439	124.44
491.657	149.44
491.874	132.44
492.092	156.44
492.31	166.44
492.527	169.44
492.745	145.44
492.963	133.44
493.18	116.44
493.398	123.44
493.615	134.44
493.833	125.44
494.05	131.44
494.268	139.44
494.485	130.44
494.703	132.44
494.92	117.44
495.138	137.44
495.355	143.44
495.573	141.44
495.79	127.44
496.008	136.44
496.225	110.44
496.442	130.44
496.66	129.44
496.877	133.44
497.094	129.44
497.312	132.44
497.529	130.44
497.746	119.44
497.963	117.44
498.181	110.44
498.398	103.44
498.615	103.44
498.832	97.44
499.049	93.44
499.267	110.44
499.484	107.44
499.701	108.44
499.918	114.44
500.135	99.44
500.352	98.44
500.569	122.44
500.786	106.44
501.003	126.44
501.22	121.44
501.437	101.44
501.654	107.44
501.871	123.44
502.088	119.44
502.305	106.44
502.522	102.44
502.739	115.44
502.956	109.44
503.172	84.44
503.389	117.44
503.606	119.44
503.823	118.44
504.04	111.44
504.256	106.44
504.473	104.44
504.69	94.44
504.907	111.44
505.123	105.44
505.34	120.44
505.557	103.44
505.773	113.44
505.99	96.44
506.207	99.44
506.423	96.44
506.64	109.44
506.856	112.44
507.073	95.44
507.289	103.44
507.506	98.44
507.722	100.44
507.939	89.44
508.155	92.44
508.372	98.44
508.588	105.44
508.805	100.44
509.021	92.44
509.238	108.44
509.454	90.44
509.67	79.44
509.887	79.44
510.103	90.44
510.319	104.44
510.536	92.44
510.752	73.44
510.968	84.44
511.184	88.44
511.401	91.44
511.617	90.44
511.833	94.44
512.049	98.44
512.265	90.44
512.481	97.44
512.698	105.44
512.914	87.44
513.13	86.44
513.346	92.44
513.562	82.44
513.778	77.44
