Data from Zn(NO3)2Standard.Agarose3%.GreenCap.LampEnergy10E.O_HRD10591_15-07-43-945.txt Node
Date: Mon Jul 22 15:07:43 EDT 2019
User: cochatt
Spectrometer: HR+D1059
Trigger mode: 1
Integration Time (sec): 1.000000E-1
Scans to average: 1
Electric dark correction enabled: true
Nonlinearity correction enabled: false
Boxcar width: 0
XAxis mode: Wavelengths
Number of Pixels in Spectrum: 2048
>>>>>Begin Spectral Data<<<<<
223.165	-24.12
223.4	-24.12
223.635	-24.12
223.869	-9.12
224.104	-17.12
224.338	-14.12
224.573	-8.12
224.808	-18.12
225.042	-13.12
225.277	5.88
225.511	8.88
225.746	3.88
225.98	5.88
226.215	3.88
226.449	16.88
226.683	26.88
226.918	9.88
227.152	21.88
227.387	46.88
227.621	34.88
227.856	43.88
228.09	44.88
228.324	44.88
228.559	44.88
228.793	62.88
229.027	71.88
229.262	65.88
229.496	61.88
229.73	74.88
229.964	77.88
230.199	82.88
230.433	77.88
230.667	81.88
230.901	83.88
231.136	82.88
231.37	80.88
231.604	86.88
231.838	70.88
232.072	81.88
232.306	89.88
232.541	78.88
232.775	92.88
233.009	91.88
233.243	86.88
233.477	84.88
233.711	83.88
233.945	79.88
234.179	80.88
234.413	80.88
234.647	84.88
234.881	76.88
235.115	86.88
235.349	87.88
235.583	76.88
235.817	71.88
236.051	89.88
236.285	69.88
236.519	85.88
236.753	71.88
236.987	74.88
237.221	83.88
237.455	87.88
237.689	81.88
237.922	73.88
238.156	70.88
238.39	69.88
238.624	88.88
238.858	72.88
239.091	60.88
239.325	87.88
239.559	70.88
239.793	77.88
240.027	69.88
240.26	79.88
240.494	78.88
240.728	76.88
240.961	87.88
241.195	69.88
241.429	80.88
241.662	89.88
241.896	72.88
242.13	85.88
242.363	77.88
242.597	73.88
242.83	76.88
243.064	86.88
243.298	77.88
243.531	78.88
243.765	79.88
243.998	77.88
244.232	74.88
244.465	77.88
244.699	73.88
244.932	91.88
245.166	74.88
245.399	82.88
245.633	80.88
245.866	79.88
246.099	81.88
246.333	74.88
246.566	81.88
246.8	75.88
247.033	81.88
247.266	79.88
247.5	73.88
247.733	77.88
247.966	85.88
248.2	79.88
248.433	86.88
248.666	73.88
248.899	89.88
249.133	73.88
249.366	70.88
249.599	78.88
249.832	74.88
250.066	83.88
250.299	72.88
250.532	80.88
250.765	82.88
250.998	81.88
251.231	78.88
251.465	78.88
251.698	96.88
251.931	76.88
252.164	75.88
252.397	84.88
252.63	74.88
252.863	85.88
253.096	84.88
253.329	83.88
253.562	92.88
253.795	75.88
254.028	84.88
254.261	93.88
254.494	78.88
254.727	81.88
254.96	92.88
255.193	83.88
255.426	83.88
255.659	89.88
255.892	75.88
256.124	87.88
256.357	69.88
256.59	81.88
256.823	57.88
257.056	74.88
257.289	76.88
257.521	81.88
257.754	88.88
257.987	71.88
258.22	85.88
258.452	64.88
258.685	77.88
258.918	77.88
259.151	95.88
259.383	77.88
259.616	87.88
259.849	83.88
260.081	70.88
260.314	77.88
260.547	87.88
260.779	80.88
261.012	73.88
261.244	76.88
261.477	88.88
261.71	95.88
261.942	85.88
262.175	87.88
262.407	75.88
262.64	73.88
262.872	75.88
263.105	84.88
263.337	94.88
263.57	83.88
263.802	78.88
264.035	85.88
264.267	76.88
264.499	90.88
264.732	78.88
264.964	93.88
265.197	77.88
265.429	79.88
265.661	80.88
265.894	85.88
266.126	82.88
266.358	76.88
266.591	89.88
266.823	74.88
267.055	82.88
267.287	83.88
267.52	93.88
267.752	94.88
267.984	78.88
268.216	80.88
268.448	75.88
268.681	81.88
268.913	82.88
269.145	77.88
269.377	77.88
269.609	88.88
269.841	85.88
270.073	83.88
270.306	79.88
270.538	86.88
270.77	84.88
271.002	71.88
271.234	90.88
271.466	88.88
271.698	83.88
271.93	97.88
272.162	70.88
272.394	73.88
272.626	71.88
272.858	77.88
273.09	78.88
273.322	91.88
273.553	75.88
273.785	88.88
274.017	80.88
274.249	89.88
274.481	86.88
274.713	91.88
274.945	73.88
275.176	82.88
275.408	79.88
275.64	92.88
275.872	85.88
276.104	70.88
276.335	76.88
276.567	77.88
276.799	79.88
277.031	86.88
277.262	83.88
277.494	68.88
277.726	85.88
277.957	97.88
278.189	85.88
278.421	68.88
278.652	90.88
278.884	93.88
279.115	80.88
279.347	86.88
279.579	72.88
279.81	74.88
280.042	79.88
280.273	92.88
280.505	78.88
280.736	76.88
280.968	79.88
281.199	76.88
281.431	92.88
281.662	79.88
281.894	98.88
282.125	86.88
282.356	93.88
282.588	91.88
282.819	84.88
283.051	85.88
283.282	74.88
283.513	89.88
283.745	82.88
283.976	87.88
284.207	89.88
284.439	93.88
284.67	86.88
284.901	77.88
285.132	80.88
285.364	77.88
285.595	86.88
285.826	91.88
286.057	84.88
286.288	74.88
286.52	79.88
286.751	90.88
286.982	88.88
287.213	90.88
287.444	81.88
287.675	94.88
287.906	79.88
288.138	89.88
288.369	82.88
288.6	81.88
288.831	97.88
289.062	78.88
289.293	72.88
289.524	88.88
289.755	92.88
289.986	79.88
290.217	77.88
290.448	89.88
290.679	102.88
290.91	99.88
291.141	86.88
291.371	89.88
291.602	66.88
291.833	74.88
292.064	88.88
292.295	83.88
292.526	81.88
292.757	101.88
292.987	82.88
293.218	86.88
293.449	76.88
293.68	79.88
293.91	94.88
294.141	84.88
294.372	86.88
294.603	85.88
294.833	84.88
295.064	79.88
295.295	88.88
295.525	90.88
295.756	93.88
295.987	72.88
296.217	87.88
296.448	88.88
296.679	87.88
296.909	101.88
297.14	82.88
297.37	76.88
297.601	92.88
297.831	101.88
298.062	90.88
298.292	103.88
298.523	87.88
298.753	81.88
298.984	82.88
299.214	94.88
299.445	86.88
299.675	82.88
299.905	81.88
300.136	83.88
300.366	88.88
300.597	86.88
300.827	92.88
301.057	77.88
301.288	83.88
301.518	80.88
301.748	88.88
301.979	100.88
302.209	90.88
302.439	80.88
302.669	76.88
302.9	87.88
303.13	75.88
303.36	95.88
303.59	80.88
303.82	70.88
304.051	86.88
304.281	87.88
304.511	87.88
304.741	78.88
304.971	92.88
305.201	97.88
305.431	78.88
305.661	65.88
305.891	87.88
306.121	78.88
306.352	74.88
306.582	75.88
306.812	83.88
307.042	89.88
307.272	88.88
307.502	74.88
307.731	68.88
307.961	84.88
308.191	78.88
308.421	80.88
308.651	95.88
308.881	80.88
309.111	85.88
309.341	87.88
309.571	83.88
309.8	70.88
310.03	78.88
310.26	102.88
310.49	91.88
310.72	79.88
310.949	89.88
311.179	82.88
311.409	71.88
311.639	87.88
311.868	83.88
312.098	97.88
312.328	91.88
312.557	87.88
312.787	98.88
313.017	97.88
313.246	91.88
313.476	72.88
313.706	92.88
313.935	67.88
314.165	78.88
314.394	82.88
314.624	86.88
314.853	67.88
315.083	85.88
315.312	87.88
315.542	88.88
315.771	92.88
316.001	88.88
316.23	92.88
316.46	85.88
316.689	84.88
316.919	93.88
317.148	91.88
317.377	85.88
317.607	83.88
317.836	79.88
318.065	83.88
318.295	89.88
318.524	79.88
318.753	87.88
318.983	79.88
319.212	79.88
319.441	86.88
319.67	84.88
319.9	82.88
320.129	87.88
320.358	83.88
320.587	79.88
320.816	86.88
321.046	97.88
321.275	89.88
321.504	93.88
321.733	78.88
321.962	87.88
322.191	86.88
322.42	96.88
322.649	84.88
322.878	83.88
323.108	86.88
323.337	84.88
323.566	88.88
323.795	80.88
324.024	76.88
324.253	76.88
324.482	79.88
324.71	82.88
324.939	93.88
325.168	79.88
325.397	81.88
325.626	79.88
325.855	80.88
326.084	83.88
326.313	82.88
326.542	88.88
326.77	85.88
326.999	82.88
327.228	86.88
327.457	80.88
327.686	77.88
327.914	76.88
328.143	101.88
328.372	90.88
328.6	85.88
328.829	81.88
329.058	96.88
329.287	92.88
329.515	82.88
329.744	92.88
329.972	73.88
330.201	78.88
330.43	83.88
330.658	91.88
330.887	88.88
331.115	90.88
331.344	91.88
331.572	91.88
331.801	85.88
332.03	97.88
332.258	81.88
332.486	66.88
332.715	75.88
332.943	99.88
333.172	77.88
333.4	83.88
333.629	82.88
333.857	84.88
334.085	73.88
334.314	86.88
334.542	78.88
334.771	85.88
334.999	85.88
335.227	78.88
335.455	99.88
335.684	88.88
335.912	88.88
336.14	74.88
336.369	84.88
336.597	84.88
336.825	86.88
337.053	83.88
337.281	78.88
337.51	79.88
337.738	87.88
337.966	89.88
338.194	73.88
338.422	83.88
338.65	85.88
338.878	73.88
339.106	95.88
339.334	85.88
339.562	77.88
339.79	90.88
340.018	93.88
340.246	74.88
340.474	84.88
340.702	82.88
340.93	90.88
341.158	88.88
341.386	86.88
341.614	82.88
341.842	77.88
342.07	72.88
342.298	80.88
342.526	85.88
342.754	93.88
342.981	78.88
343.209	86.88
343.437	85.88
343.665	72.88
343.893	68.88
344.12	80.88
344.348	78.88
344.576	90.88
344.804	89.88
345.031	86.88
345.259	85.88
345.487	77.88
345.714	84.88
345.942	86.88
346.17	72.88
346.397	86.88
346.625	88.88
346.853	96.88
347.08	79.88
347.308	89.88
347.535	89.88
347.763	87.88
347.99	91.88
348.218	94.88
348.445	84.88
348.673	75.88
348.9	82.88
349.128	89.88
349.355	79.88
349.583	85.88
349.81	76.88
350.037	92.88
350.265	75.88
350.492	86.88
350.72	98.88
350.947	90.88
351.174	87.88
351.402	88.88
351.629	73.88
351.856	76.88
352.083	95.88
352.311	94.88
352.538	82.88
352.765	85.88
352.992	89.88
353.22	94.88
353.447	81.88
353.674	91.88
353.901	97.88
354.128	87.88
354.355	76.88
354.583	72.88
354.81	97.88
355.037	92.88
355.264	86.88
355.491	93.88
355.718	80.88
355.945	82.88
356.172	75.88
356.399	87.88
356.626	78.88
356.853	100.88
357.08	92.88
357.307	77.88
357.534	83.88
357.761	89.88
357.988	78.88
358.215	69.88
358.441	86.88
358.668	81.88
358.895	87.88
359.122	98.88
359.349	89.88
359.576	76.88
359.802	78.88
360.029	92.88
360.256	79.88
360.483	91.88
360.709	88.88
360.936	90.88
361.163	72.88
361.39	80.88
361.616	94.88
361.843	87.88
362.07	86.88
362.296	81.88
362.523	94.88
362.749	81.88
362.976	91.88
363.203	79.88
363.429	78.88
363.656	82.88
363.882	86.88
364.109	93.88
364.335	90.88
364.562	85.88
364.788	86.88
365.015	92.88
365.241	84.88
365.468	97.88
365.694	87.88
365.92	82.88
366.147	90.88
366.373	79.88
366.599	78.88
366.826	84.88
367.052	88.88
367.278	99.88
367.505	89.88
367.731	90.88
367.957	86.88
368.184	85.88
368.41	89.88
368.636	97.88
368.862	80.88
369.089	88.88
369.315	76.88
369.541	80.88
369.767	86.88
369.993	88.88
370.219	70.88
370.445	82.88
370.672	100.88
370.898	79.88
371.124	93.88
371.35	85.88
371.576	79.88
371.802	96.88
372.028	81.88
372.254	74.88
372.48	97.88
372.706	87.88
372.932	84.88
373.158	92.88
373.384	93.88
373.61	99.88
373.835	91.88
374.061	67.88
374.287	65.88
374.513	90.88
374.739	82.88
374.965	84.88
375.191	87.88
375.416	86.88
375.642	85.88
375.868	83.88
376.094	79.88
376.319	85.88
376.545	97.88
376.771	89.88
376.997	85.88
377.222	95.88
377.448	76.88
377.674	88.88
377.899	87.88
378.125	82.88
378.35	86.88
378.576	104.88
378.802	81.88
379.027	104.88
379.253	91.88
379.478	85.88
379.704	83.88
379.929	86.88
380.155	88.88
380.38	76.88
380.606	78.88
380.831	97.88
381.057	82.88
381.282	87.88
381.507	74.88
381.733	87.88
381.958	78.88
382.184	77.88
382.409	97.88
382.634	95.88
382.86	85.88
383.085	89.88
383.31	94.88
383.535	85.88
383.761	78.88
383.986	79.88
384.211	87.88
384.436	77.88
384.662	91.88
384.887	82.88
385.112	82.88
385.337	87.88
385.562	89.88
385.787	84.88
386.013	105.88
386.238	93.88
386.463	82.88
386.688	88.88
386.913	93.88
387.138	87.88
387.363	85.88
387.588	87.88
387.813	83.88
388.038	92.88
388.263	93.88
388.488	86.88
388.713	101.88
388.938	87.88
389.163	86.88
389.387	75.88
389.612	99.88
389.837	90.88
390.062	95.88
390.287	93.88
390.512	100.88
390.736	74.88
390.961	95.88
391.186	78.88
391.411	105.88
391.636	115.88
391.86	86.88
392.085	79.88
392.31	96.88
392.534	91.88
392.759	96.88
392.984	92.88
393.208	89.88
393.433	82.88
393.658	99.88
393.882	84.88
394.107	89.88
394.331	86.88
394.556	102.88
394.78	86.88
395.005	97.88
395.229	101.88
395.454	95.88
395.678	107.88
395.903	91.88
396.127	85.88
396.352	101.88
396.576	96.88
396.801	82.88
397.025	100.88
397.249	92.88
397.474	96.88
397.698	93.88
397.922	82.88
398.147	102.88
398.371	98.88
398.595	101.88
398.82	78.88
399.044	89.88
399.268	83.88
399.492	88.88
399.717	102.88
399.941	105.88
400.165	94.88
400.389	84.88
400.613	115.88
400.837	99.88
401.062	103.88
401.286	87.88
401.51	84.88
401.734	99.88
401.958	91.88
402.182	91.88
402.406	85.88
402.63	95.88
402.854	85.88
403.078	101.88
403.302	93.88
403.526	105.88
403.75	97.88
403.974	100.88
404.198	102.88
404.422	104.88
404.645	91.88
404.869	81.88
405.093	101.88
405.317	91.88
405.541	106.88
405.765	109.88
405.988	93.88
406.212	84.88
406.436	87.88
406.66	99.88
406.883	101.88
407.107	100.88
407.331	91.88
407.555	113.88
407.778	102.88
408.002	98.88
408.226	95.88
408.449	106.88
408.673	105.88
408.896	94.88
409.12	107.88
409.344	106.88
409.567	91.88
409.791	90.88
410.014	109.88
410.238	102.88
410.461	95.88
410.685	101.88
410.908	94.88
411.132	90.88
411.355	94.88
411.578	92.88
411.802	94.88
412.025	92.88
412.249	98.88
412.472	94.88
412.695	100.88
412.919	87.88
413.142	112.88
413.365	110.88
413.589	109.88
413.812	105.88
414.035	96.88
414.258	96.88
414.482	91.88
414.705	86.88
414.928	89.88
415.151	97.88
415.374	107.88
415.597	107.88
415.821	114.88
416.044	99.88
416.267	91.88
416.49	92.88
416.713	97.88
416.936	97.88
417.159	103.88
417.382	87.88
417.605	107.88
417.828	108.88
418.051	94.88
418.274	112.88
418.497	104.88
418.72	96.88
418.943	115.88
419.166	104.88
419.389	109.88
419.611	113.88
419.834	88.88
420.057	119.88
420.28	101.88
420.503	114.88
420.726	118.88
420.948	93.88
421.171	107.88
421.394	101.88
421.617	107.88
421.839	103.88
422.062	110.88
422.285	101.88
422.507	90.88
422.73	91.88
422.953	106.88
423.175	92.88
423.398	88.88
423.621	118.88
423.843	108.88
424.066	90.88
424.288	110.88
424.511	108.88
424.733	116.88
424.956	109.88
425.178	117.88
425.401	121.88
425.623	99.88
425.846	110.88
426.068	108.88
426.291	110.88
426.513	106.88
426.735	124.88
426.958	108.88
427.18	102.88
427.402	99.88
427.625	92.88
427.847	100.88
428.069	106.88
428.292	105.88
428.514	102.88
428.736	91.88
428.958	85.88
429.181	107.88
429.403	100.88
429.625	113.88
429.847	107.88
430.069	108.88
430.292	97.88
430.514	106.88
430.736	92.88
430.958	113.88
431.18	115.88
431.402	101.88
431.624	98.88
431.846	95.88
432.068	91.88
432.29	78.88
432.512	93.88
432.734	85.88
432.956	111.88
433.178	111.88
433.4	114.88
433.622	113.88
433.844	98.88
434.066	112.88
434.287	93.88
434.509	91.88
434.731	118.88
434.953	101.88
435.175	98.88
435.397	111.88
435.618	99.88
435.84	116.88
436.062	92.88
436.284	102.88
436.505	104.88
436.727	106.88
436.949	95.88
437.17	112.88
437.392	109.88
437.614	103.88
437.835	97.88
438.057	85.88
438.278	86.88
438.5	98.88
438.721	106.88
438.943	109.88
439.165	110.88
439.386	114.88
439.608	117.88
439.829	116.88
440.05	125.88
440.272	103.88
440.493	103.88
440.715	98.88
440.936	109.88
441.158	123.88
441.379	120.88
441.6	116.88
441.822	106.88
442.043	125.88
442.264	121.88
442.486	107.88
442.707	111.88
442.928	109.88
443.149	119.88
443.371	117.88
443.592	118.88
443.813	115.88
444.034	118.88
444.255	123.88
444.476	103.88
444.698	101.88
444.919	120.88
445.14	239.88
445.361	165.88
445.582	130.88
445.803	111.88
446.024	102.88
446.245	113.88
446.466	115.88
446.687	109.88
446.908	113.88
447.129	121.88
447.35	118.88
447.571	109.88
447.792	117.88
448.013	100.88
448.234	129.88
448.455	109.88
448.675	107.88
448.896	107.88
449.117	109.88
449.338	86.88
449.559	116.88
449.779	107.88
450	117.88
450.221	127.88
450.442	111.88
450.662	110.88
450.883	109.88
451.104	106.88
451.324	102.88
451.545	104.88
451.766	104.88
451.986	112.88
452.207	96.88
452.428	109.88
452.648	109.88
452.869	98.88
453.089	106.88
453.31	95.88
453.53	97.88
453.751	99.88
453.971	94.88
454.192	91.88
454.412	95.88
454.633	107.88
454.853	106.88
455.073	102.88
455.294	95.88
455.514	97.88
455.734	98.88
455.955	105.88
456.175	82.88
456.395	84.88
456.616	94.88
456.836	79.88
457.056	88.88
457.276	90.88
457.497	112.88
457.717	93.88
457.937	107.88
458.157	90.88
458.377	96.88
458.598	95.88
458.818	76.88
459.038	89.88
459.258	89.88
459.478	79.88
459.698	87.88
459.918	94.88
460.138	97.88
460.358	105.88
460.578	97.88
460.798	98.88
461.018	111.88
461.238	108.88
461.458	98.88
461.678	103.88
461.898	88.88
462.118	101.88
462.338	94.88
462.558	104.88
462.777	92.88
462.997	117.88
463.217	93.88
463.437	93.88
463.657	105.88
463.876	98.88
464.096	99.88
464.316	93.88
464.536	91.88
464.755	111.88
464.975	94.88
465.195	107.88
465.414	103.88
465.634	104.88
465.854	94.88
466.073	92.88
466.293	117.88
466.512	109.88
466.732	106.88
466.951	119.88
467.171	101.88
467.391	108.88
467.61	99.88
467.829	104.88
468.049	106.88
468.268	118.88
468.488	112.88
468.707	126.88
468.927	109.88
469.146	117.88
469.365	117.88
469.585	114.88
469.804	103.88
470.023	107.88
470.243	98.88
470.462	126.88
470.681	114.88
470.901	115.88
471.12	113.88
471.339	119.88
471.558	113.88
471.777	119.88
471.997	117.88
472.216	109.88
472.435	102.88
472.654	85.88
472.873	90.88
473.092	108.88
473.311	95.88
473.53	104.88
473.749	106.88
473.968	104.88
474.187	105.88
474.406	103.88
474.625	103.88
474.844	124.88
475.063	92.88
475.282	109.88
475.501	98.88
475.72	111.88
475.939	94.88
476.158	114.88
476.377	101.88
476.596	105.88
476.814	101.88
477.033	112.88
477.252	109.88
477.471	112.88
477.69	95.88
477.908	125.88
478.127	121.88
478.346	107.88
478.564	125.88
478.783	114.88
479.002	112.88
479.22	122.88
479.439	114.88
479.658	102.88
479.876	103.88
480.095	99.88
480.313	105.88
480.532	94.88
480.751	94.88
480.969	88.88
481.188	87.88
481.406	95.88
481.624	85.88
481.843	96.88
482.061	90.88
482.28	80.88
482.498	100.88
482.717	96.88
482.935	104.88
483.153	117.88
483.372	117.88
483.59	120.88
483.808	115.88
484.027	107.88
484.245	109.88
484.463	106.88
484.681	119.88
484.9	117.88
485.118	123.88
485.336	106.88
485.554	84.88
485.772	102.88
485.99	90.88
486.209	96.88
486.427	98.88
486.645	110.88
486.863	117.88
487.081	103.88
487.299	113.88
487.517	100.88
487.735	120.88
487.953	132.88
488.171	133.88
488.389	131.88
488.607	121.88
488.825	121.88
489.043	107.88
489.261	103.88
489.479	104.88
489.696	120.88
489.914	108.88
490.132	127.88
490.35	124.88
490.568	127.88
490.786	130.88
491.003	121.88
491.221	119.88
491.439	129.88
491.657	118.88
491.874	135.88
492.092	146.88
492.31	157.88
492.527	153.88
492.745	134.88
492.963	139.88
493.18	151.88
493.398	148.88
493.615	137.88
493.833	129.88
494.05	128.88
494.268	133.88
494.485	127.88
494.703	125.88
494.92	128.88
495.138	129.88
495.355	117.88
495.573	131.88
495.79	146.88
496.008	131.88
496.225	140.88
496.442	114.88
496.66	125.88
496.877	119.88
497.094	123.88
497.312	128.88
497.529	120.88
497.746	117.88
497.963	118.88
498.181	125.88
498.398	116.88
498.615	92.88
498.832	95.88
499.049	104.88
499.267	101.88
499.484	111.88
499.701	105.88
499.918	108.88
500.135	101.88
500.352	114.88
500.569	101.88
500.786	121.88
501.003	95.88
501.22	110.88
501.437	120.88
501.654	118.88
501.871	108.88
502.088	115.88
502.305	99.88
502.522	100.88
502.739	87.88
502.956	103.88
503.172	107.88
503.389	101.88
503.606	92.88
503.823	105.88
504.04	94.88
504.256	108.88
504.473	103.88
504.69	102.88
504.907	102.88
505.123	108.88
505.34	108.88
505.557	100.88
505.773	101.88
505.99	106.88
506.207	95.88
506.423	96.88
506.64	94.88
506.856	88.88
507.073	100.88
507.289	93.88
507.506	104.88
507.722	94.88
507.939	104.88
508.155	101.88
508.372	107.88
508.588	86.88
508.805	101.88
509.021	98.88
509.238	94.88
509.454	92.88
509.67	97.88
509.887	83.88
510.103	96.88
510.319	84.88
510.536	71.88
510.752	78.88
510.968	95.88
511.184	79.88
511.401	93.88
511.617	87.88
511.833	95.88
512.049	97.88
512.265	86.88
512.481	96.88
512.698	83.88
512.914	91.88
513.13	90.88
513.346	88.88
513.562	93.88
513.778	93.88
513.994	83.88
514.21	81.88
514.426	81.88
