Data from Zn(NO3)2Standard.Agarose3%.GreenCap.LampEnergy10E.O_HRD10591_15-08-55-951.txt Node
Date: Mon Jul 22 15:08:55 EDT 2019
User: cochatt
Spectrometer: HR+D1059
Trigger mode: 1
Integration Time (sec): 1.000000E-1
Scans to average: 1
Electric dark correction enabled: true
Nonlinearity correction enabled: false
Boxcar width: 0
XAxis mode: Wavelengths
Number of Pixels in Spectrum: 2048
>>>>>Begin Spectral Data<<<<<
223.165	-10.81
223.4	-10.81
223.635	-10.81
223.869	-12.81
224.104	-4.81
224.338	-8.81
224.573	-11.81
224.808	-26.81
225.042	-6.81
225.277	-12.81
225.511	-15.81
225.746	0.19
225.98	4.19
226.215	19.19
226.449	11.19
226.683	23.19
226.918	26.19
227.152	27.19
227.387	22.19
227.621	33.19
227.856	57.19
228.09	52.19
228.324	54.19
228.559	44.19
228.793	61.19
229.027	59.19
229.262	65.19
229.496	52.19
229.73	81.19
229.964	73.19
230.199	86.19
230.433	79.19
230.667	85.19
230.901	76.19
231.136	74.19
231.37	73.19
231.604	76.19
231.838	76.19
232.072	98.19
232.306	79.19
232.541	76.19
232.775	75.19
233.009	84.19
233.243	82.19
233.477	94.19
233.711	84.19
233.945	87.19
234.179	73.19
234.413	79.19
234.647	77.19
234.881	79.19
235.115	86.19
235.349	73.19
235.583	82.19
235.817	81.19
236.051	89.19
236.285	81.19
236.519	80.19
236.753	83.19
236.987	71.19
237.221	61.19
237.455	67.19
237.689	73.19
237.922	75.19
238.156	86.19
238.39	94.19
238.624	59.19
238.858	75.19
239.091	85.19
239.325	72.19
239.559	68.19
239.793	80.19
240.027	74.19
240.26	76.19
240.494	90.19
240.728	78.19
240.961	74.19
241.195	74.19
241.429	67.19
241.662	67.19
241.896	71.19
242.13	86.19
242.363	71.19
242.597	81.19
242.83	78.19
243.064	82.19
243.298	65.19
243.531	83.19
243.765	79.19
243.998	68.19
244.232	72.19
244.465	73.19
244.699	82.19
244.932	79.19
245.166	69.19
245.399	65.19
245.633	78.19
245.866	64.19
246.099	79.19
246.333	78.19
246.566	87.19
246.8	87.19
247.033	70.19
247.266	83.19
247.5	67.19
247.733	82.19
247.966	74.19
248.2	77.19
248.433	84.19
248.666	83.19
248.899	77.19
249.133	71.19
249.366	75.19
249.599	81.19
249.832	87.19
250.066	91.19
250.299	82.19
250.532	85.19
250.765	67.19
250.998	99.19
251.231	84.19
251.465	83.19
251.698	80.19
251.931	85.19
252.164	73.19
252.397	68.19
252.63	84.19
252.863	81.19
253.096	83.19
253.329	72.19
253.562	79.19
253.795	84.19
254.028	75.19
254.261	85.19
254.494	82.19
254.727	85.19
254.96	78.19
255.193	94.19
255.426	69.19
255.659	71.19
255.892	85.19
256.124	92.19
256.357	69.19
256.59	86.19
256.823	87.19
257.056	77.19
257.289	74.19
257.521	91.19
257.754	78.19
257.987	87.19
258.22	87.19
258.452	79.19
258.685	80.19
258.918	85.19
259.151	87.19
259.383	93.19
259.616	72.19
259.849	73.19
260.081	64.19
260.314	83.19
260.547	81.19
260.779	81.19
261.012	81.19
261.244	73.19
261.477	96.19
261.71	77.19
261.942	80.19
262.175	83.19
262.407	94.19
262.64	75.19
262.872	94.19
263.105	74.19
263.337	87.19
263.57	68.19
263.802	84.19
264.035	84.19
264.267	81.19
264.499	71.19
264.732	79.19
264.964	77.19
265.197	67.19
265.429	76.19
265.661	87.19
265.894	94.19
266.126	80.19
266.358	74.19
266.591	85.19
266.823	82.19
267.055	72.19
267.287	78.19
267.52	78.19
267.752	88.19
267.984	82.19
268.216	88.19
268.448	82.19
268.681	78.19
268.913	95.19
269.145	86.19
269.377	92.19
269.609	79.19
269.841	83.19
270.073	90.19
270.306	87.19
270.538	91.19
270.77	88.19
271.002	93.19
271.234	89.19
271.466	85.19
271.698	80.19
271.93	78.19
272.162	91.19
272.394	94.19
272.626	101.19
272.858	87.19
273.09	91.19
273.322	85.19
273.553	89.19
273.785	93.19
274.017	73.19
274.249	77.19
274.481	89.19
274.713	91.19
274.945	94.19
275.176	74.19
275.408	84.19
275.64	86.19
275.872	90.19
276.104	73.19
276.335	81.19
276.567	76.19
276.799	83.19
277.031	72.19
277.262	93.19
277.494	85.19
277.726	88.19
277.957	78.19
278.189	74.19
278.421	93.19
278.652	83.19
278.884	79.19
279.115	87.19
279.347	91.19
279.579	87.19
279.81	78.19
280.042	83.19
280.273	68.19
280.505	75.19
280.736	89.19
280.968	72.19
281.199	83.19
281.431	78.19
281.662	85.19
281.894	86.19
282.125	77.19
282.356	87.19
282.588	85.19
282.819	72.19
283.051	81.19
283.282	77.19
283.513	70.19
283.745	88.19
283.976	83.19
284.207	98.19
284.439	88.19
284.67	94.19
284.901	81.19
285.132	86.19
285.364	81.19
285.595	91.19
285.826	92.19
286.057	103.19
286.288	75.19
286.52	84.19
286.751	74.19
286.982	84.19
287.213	85.19
287.444	106.19
287.675	80.19
287.906	91.19
288.138	79.19
288.369	82.19
288.6	77.19
288.831	91.19
289.062	80.19
289.293	87.19
289.524	85.19
289.755	83.19
289.986	97.19
290.217	89.19
290.448	71.19
290.679	93.19
290.91	91.19
291.141	80.19
291.371	60.19
291.602	75.19
291.833	67.19
292.064	86.19
292.295	97.19
292.526	89.19
292.757	85.19
292.987	88.19
293.218	84.19
293.449	90.19
293.68	90.19
293.91	90.19
294.141	85.19
294.372	66.19
294.603	81.19
294.833	87.19
295.064	89.19
295.295	79.19
295.525	70.19
295.756	80.19
295.987	86.19
296.217	74.19
296.448	88.19
296.679	93.19
296.909	101.19
297.14	94.19
297.37	84.19
297.601	90.19
297.831	82.19
298.062	98.19
298.292	96.19
298.523	84.19
298.753	78.19
298.984	86.19
299.214	98.19
299.445	100.19
299.675	91.19
299.905	85.19
300.136	74.19
300.366	87.19
300.597	102.19
300.827	94.19
301.057	92.19
301.288	96.19
301.518	84.19
301.748	78.19
301.979	81.19
302.209	87.19
302.439	93.19
302.669	86.19
302.9	97.19
303.13	87.19
303.36	89.19
303.59	76.19
303.82	78.19
304.051	85.19
304.281	81.19
304.511	97.19
304.741	82.19
304.971	94.19
305.201	80.19
305.431	82.19
305.661	82.19
305.891	81.19
306.121	80.19
306.352	73.19
306.582	82.19
306.812	65.19
307.042	90.19
307.272	77.19
307.502	66.19
307.731	76.19
307.961	101.19
308.191	97.19
308.421	97.19
308.651	83.19
308.881	99.19
309.111	83.19
309.341	75.19
309.571	88.19
309.8	79.19
310.03	89.19
310.26	87.19
310.49	80.19
310.72	90.19
310.949	85.19
311.179	82.19
311.409	81.19
311.639	80.19
311.868	90.19
312.098	91.19
312.328	87.19
312.557	91.19
312.787	91.19
313.017	86.19
313.246	95.19
313.476	78.19
313.706	75.19
313.935	80.19
314.165	90.19
314.394	82.19
314.624	83.19
314.853	89.19
315.083	84.19
315.312	88.19
315.542	86.19
315.771	92.19
316.001	71.19
316.23	80.19
316.46	93.19
316.689	81.19
316.919	93.19
317.148	86.19
317.377	91.19
317.607	73.19
317.836	76.19
318.065	75.19
318.295	77.19
318.524	105.19
318.753	86.19
318.983	97.19
319.212	76.19
319.441	89.19
319.67	87.19
319.9	88.19
320.129	82.19
320.358	85.19
320.587	90.19
320.816	84.19
321.046	93.19
321.275	87.19
321.504	82.19
321.733	86.19
321.962	92.19
322.191	75.19
322.42	75.19
322.649	79.19
322.878	91.19
323.108	93.19
323.337	89.19
323.566	79.19
323.795	87.19
324.024	90.19
324.253	94.19
324.482	92.19
324.71	90.19
324.939	85.19
325.168	83.19
325.397	89.19
325.626	88.19
325.855	85.19
326.084	80.19
326.313	78.19
326.542	83.19
326.77	83.19
326.999	72.19
327.228	84.19
327.457	81.19
327.686	86.19
327.914	83.19
328.143	101.19
328.372	80.19
328.6	89.19
328.829	84.19
329.058	90.19
329.287	84.19
329.515	90.19
329.744	92.19
329.972	107.19
330.201	82.19
330.43	79.19
330.658	85.19
330.887	84.19
331.115	86.19
331.344	84.19
331.572	91.19
331.801	70.19
332.03	87.19
332.258	75.19
332.486	85.19
332.715	95.19
332.943	91.19
333.172	104.19
333.4	72.19
333.629	94.19
333.857	98.19
334.085	96.19
334.314	62.19
334.542	90.19
334.771	79.19
334.999	73.19
335.227	88.19
335.455	81.19
335.684	70.19
335.912	87.19
336.14	91.19
336.369	87.19
336.597	91.19
336.825	92.19
337.053	89.19
337.281	87.19
337.51	89.19
337.738	98.19
337.966	82.19
338.194	86.19
338.422	81.19
338.65	86.19
338.878	78.19
339.106	82.19
339.334	99.19
339.562	102.19
339.79	71.19
340.018	78.19
340.246	82.19
340.474	77.19
340.702	87.19
340.93	92.19
341.158	74.19
341.386	81.19
341.614	94.19
341.842	82.19
342.07	82.19
342.298	72.19
342.526	78.19
342.754	90.19
342.981	91.19
343.209	86.19
343.437	104.19
343.665	97.19
343.893	90.19
344.12	79.19
344.348	73.19
344.576	93.19
344.804	91.19
345.031	82.19
345.259	74.19
345.487	88.19
345.714	82.19
345.942	84.19
346.17	85.19
346.397	78.19
346.625	76.19
346.853	85.19
347.08	83.19
347.308	83.19
347.535	90.19
347.763	89.19
347.99	90.19
348.218	78.19
348.445	78.19
348.673	90.19
348.9	78.19
349.128	85.19
349.355	95.19
349.583	76.19
349.81	71.19
350.037	82.19
350.265	73.19
350.492	94.19
350.72	86.19
350.947	92.19
351.174	99.19
351.402	93.19
351.629	91.19
351.856	99.19
352.083	78.19
352.311	76.19
352.538	78.19
352.765	69.19
352.992	79.19
353.22	83.19
353.447	93.19
353.674	78.19
353.901	82.19
354.128	78.19
354.355	81.19
354.583	76.19
354.81	78.19
355.037	86.19
355.264	95.19
355.491	94.19
355.718	80.19
355.945	85.19
356.172	89.19
356.399	79.19
356.626	97.19
356.853	82.19
357.08	88.19
357.307	79.19
357.534	88.19
357.761	77.19
357.988	91.19
358.215	86.19
358.441	77.19
358.668	89.19
358.895	78.19
359.122	91.19
359.349	88.19
359.576	88.19
359.802	92.19
360.029	90.19
360.256	91.19
360.483	101.19
360.709	91.19
360.936	87.19
361.163	77.19
361.39	93.19
361.616	106.19
361.843	87.19
362.07	88.19
362.296	83.19
362.523	86.19
362.749	93.19
362.976	89.19
363.203	79.19
363.429	74.19
363.656	82.19
363.882	87.19
364.109	90.19
364.335	85.19
364.562	88.19
364.788	86.19
365.015	87.19
365.241	86.19
365.468	85.19
365.694	82.19
365.92	84.19
366.147	87.19
366.373	84.19
366.599	80.19
366.826	95.19
367.052	92.19
367.278	89.19
367.505	86.19
367.731	85.19
367.957	99.19
368.184	101.19
368.41	85.19
368.636	94.19
368.862	91.19
369.089	78.19
369.315	86.19
369.541	89.19
369.767	80.19
369.993	94.19
370.219	81.19
370.445	82.19
370.672	78.19
370.898	76.19
371.124	74.19
371.35	80.19
371.576	75.19
371.802	87.19
372.028	85.19
372.254	87.19
372.48	110.19
372.706	87.19
372.932	89.19
373.158	89.19
373.384	85.19
373.61	82.19
373.835	92.19
374.061	78.19
374.287	88.19
374.513	74.19
374.739	93.19
374.965	94.19
375.191	79.19
375.416	85.19
375.642	81.19
375.868	91.19
376.094	98.19
376.319	84.19
376.545	92.19
376.771	89.19
376.997	89.19
377.222	75.19
377.448	89.19
377.674	96.19
377.899	80.19
378.125	88.19
378.35	77.19
378.576	74.19
378.802	75.19
379.027	84.19
379.253	92.19
379.478	98.19
379.704	88.19
379.929	91.19
380.155	92.19
380.38	79.19
380.606	75.19
380.831	85.19
381.057	91.19
381.282	85.19
381.507	79.19
381.733	89.19
381.958	92.19
382.184	87.19
382.409	88.19
382.634	92.19
382.86	84.19
383.085	98.19
383.31	99.19
383.535	84.19
383.761	83.19
383.986	80.19
384.211	89.19
384.436	105.19
384.662	100.19
384.887	83.19
385.112	76.19
385.337	80.19
385.562	94.19
385.787	84.19
386.013	86.19
386.238	90.19
386.463	86.19
386.688	98.19
386.913	100.19
387.138	94.19
387.363	93.19
387.588	95.19
387.813	87.19
388.038	97.19
388.263	82.19
388.488	102.19
388.713	93.19
388.938	85.19
389.163	88.19
389.387	80.19
389.612	93.19
389.837	102.19
390.062	95.19
390.287	84.19
390.512	86.19
390.736	103.19
390.961	96.19
391.186	99.19
391.411	97.19
391.636	95.19
391.86	93.19
392.085	87.19
392.31	105.19
392.534	86.19
392.759	97.19
392.984	94.19
393.208	102.19
393.433	84.19
393.658	82.19
393.882	94.19
394.107	93.19
394.331	85.19
394.556	86.19
394.78	99.19
395.005	90.19
395.229	90.19
395.454	93.19
395.678	105.19
395.903	100.19
396.127	92.19
396.352	89.19
396.576	89.19
396.801	94.19
397.025	96.19
397.249	94.19
397.474	102.19
397.698	90.19
397.922	98.19
398.147	104.19
398.371	99.19
398.595	86.19
398.82	104.19
399.044	93.19
399.268	99.19
399.492	101.19
399.717	91.19
399.941	97.19
400.165	95.19
400.389	102.19
400.613	91.19
400.837	112.19
401.062	99.19
401.286	89.19
401.51	101.19
401.734	100.19
401.958	90.19
402.182	96.19
402.406	91.19
402.63	101.19
402.854	105.19
403.078	96.19
403.302	97.19
403.526	99.19
403.75	92.19
403.974	101.19
404.198	101.19
404.422	107.19
404.645	96.19
404.869	100.19
405.093	97.19
405.317	91.19
405.541	104.19
405.765	108.19
405.988	90.19
406.212	90.19
406.436	98.19
406.66	108.19
406.883	96.19
407.107	78.19
407.331	105.19
407.555	114.19
407.778	110.19
408.002	105.19
408.226	97.19
408.449	103.19
408.673	100.19
408.896	102.19
409.12	92.19
409.344	106.19
409.567	102.19
409.791	105.19
410.014	94.19
410.238	115.19
410.461	96.19
410.685	100.19
410.908	82.19
411.132	101.19
411.355	105.19
411.578	113.19
411.802	119.19
412.025	92.19
412.249	99.19
412.472	87.19
412.695	99.19
412.919	104.19
413.142	109.19
413.365	99.19
413.589	98.19
413.812	121.19
414.035	116.19
414.258	95.19
414.482	101.19
414.705	115.19
414.928	106.19
415.151	106.19
415.374	102.19
415.597	106.19
415.821	101.19
416.044	103.19
416.267	93.19
416.49	99.19
416.713	106.19
416.936	92.19
417.159	114.19
417.382	111.19
417.605	110.19
417.828	110.19
418.051	101.19
418.274	111.19
418.497	110.19
418.72	102.19
418.943	120.19
419.166	107.19
419.389	120.19
419.611	112.19
419.834	95.19
420.057	117.19
420.28	111.19
420.503	112.19
420.726	103.19
420.948	108.19
421.171	102.19
421.394	121.19
421.617	97.19
421.839	113.19
422.062	108.19
422.285	116.19
422.507	108.19
422.73	104.19
422.953	101.19
423.175	89.19
423.398	97.19
423.621	107.19
423.843	116.19
424.066	105.19
424.288	99.19
424.511	120.19
424.733	122.19
424.956	113.19
425.178	121.19
425.401	116.19
425.623	102.19
425.846	93.19
426.068	103.19
426.291	91.19
426.513	108.19
426.735	100.19
426.958	109.19
427.18	100.19
427.402	117.19
427.625	106.19
427.847	98.19
428.069	109.19
428.292	106.19
428.514	102.19
428.736	97.19
428.958	99.19
429.181	108.19
429.403	102.19
429.625	98.19
429.847	116.19
430.069	116.19
430.292	102.19
430.514	104.19
430.736	96.19
430.958	95.19
431.18	110.19
431.402	105.19
431.624	98.19
431.846	78.19
432.068	84.19
432.29	84.19
432.512	101.19
432.734	105.19
432.956	107.19
433.178	100.19
433.4	121.19
433.622	104.19
433.844	121.19
434.066	87.19
434.287	93.19
434.509	105.19
434.731	82.19
434.953	91.19
435.175	108.19
435.397	94.19
435.618	108.19
435.84	96.19
436.062	94.19
436.284	94.19
436.505	111.19
436.727	89.19
436.949	94.19
437.17	114.19
437.392	103.19
437.614	107.19
437.835	84.19
438.057	90.19
438.278	92.19
438.5	98.19
438.721	99.19
438.943	92.19
439.165	101.19
439.386	107.19
439.608	117.19
439.829	108.19
440.05	101.19
440.272	115.19
440.493	119.19
440.715	123.19
440.936	117.19
441.158	102.19
441.379	107.19
441.6	106.19
441.822	105.19
442.043	113.19
442.264	101.19
442.486	96.19
442.707	105.19
442.928	104.19
443.149	111.19
443.371	119.19
443.592	105.19
443.813	106.19
444.034	107.19
444.255	100.19
444.476	117.19
444.698	109.19
444.919	97.19
445.14	240.19
445.361	180.19
445.582	121.19
445.803	106.19
446.024	115.19
446.245	119.19
446.466	107.19
446.687	122.19
446.908	118.19
447.129	121.19
447.35	129.19
447.571	118.19
447.792	90.19
448.013	113.19
448.234	108.19
448.455	105.19
448.675	101.19
448.896	119.19
449.117	103.19
449.338	104.19
449.559	104.19
449.779	97.19
450	104.19
450.221	115.19
450.442	99.19
450.662	107.19
450.883	110.19
451.104	109.19
451.324	99.19
451.545	113.19
451.766	122.19
451.986	114.19
452.207	119.19
452.428	116.19
452.648	102.19
452.869	105.19
453.089	106.19
453.31	102.19
453.53	97.19
453.751	88.19
453.971	101.19
454.192	103.19
454.412	89.19
454.633	99.19
454.853	94.19
455.073	90.19
455.294	100.19
455.514	98.19
455.734	99.19
455.955	90.19
456.175	106.19
456.395	90.19
456.616	100.19
456.836	108.19
457.056	113.19
457.276	98.19
457.497	95.19
457.717	87.19
457.937	103.19
458.157	90.19
458.377	107.19
458.598	85.19
458.818	87.19
459.038	91.19
459.258	94.19
459.478	87.19
459.698	91.19
459.918	98.19
460.138	87.19
460.358	83.19
460.578	103.19
460.798	114.19
461.018	106.19
461.238	96.19
461.458	100.19
461.678	100.19
461.898	98.19
462.118	92.19
462.338	98.19
462.558	102.19
462.777	99.19
462.997	94.19
463.217	105.19
463.437	94.19
463.657	77.19
463.876	92.19
464.096	109.19
464.316	88.19
464.536	106.19
464.755	105.19
464.975	99.19
465.195	112.19
465.414	102.19
465.634	92.19
465.854	98.19
466.073	113.19
466.293	105.19
466.512	88.19
466.732	98.19
466.951	107.19
467.171	112.19
467.391	99.19
467.61	104.19
467.829	117.19
468.049	116.19
468.268	125.19
468.488	104.19
468.707	113.19
468.927	105.19
469.146	93.19
469.365	93.19
469.585	112.19
469.804	119.19
470.023	106.19
470.243	119.19
470.462	110.19
470.681	118.19
470.901	119.19
471.12	111.19
471.339	107.19
471.558	117.19
471.777	103.19
471.997	104.19
472.216	102.19
472.435	108.19
472.654	103.19
472.873	101.19
473.092	101.19
473.311	106.19
473.53	107.19
473.749	114.19
473.968	104.19
474.187	104.19
474.406	108.19
474.625	110.19
474.844	122.19
475.063	100.19
475.282	103.19
475.501	106.19
475.72	99.19
475.939	123.19
476.158	99.19
476.377	104.19
476.596	109.19
476.814	98.19
477.033	97.19
477.252	106.19
477.471	85.19
477.69	100.19
477.908	102.19
478.127	110.19
478.346	107.19
478.564	111.19
478.783	102.19
479.002	103.19
479.22	106.19
479.439	101.19
479.658	106.19
479.876	102.19
480.095	92.19
480.313	102.19
480.532	110.19
480.751	106.19
480.969	87.19
481.188	91.19
481.406	86.19
481.624	89.19
481.843	68.19
482.061	94.19
482.28	94.19
482.498	114.19
482.717	104.19
482.935	93.19
483.153	115.19
483.372	121.19
483.59	116.19
483.808	125.19
484.027	118.19
484.245	111.19
484.463	123.19
484.681	125.19
484.9	106.19
485.118	110.19
485.336	108.19
485.554	94.19
485.772	98.19
485.99	95.19
486.209	91.19
486.427	104.19
486.645	99.19
486.863	100.19
487.081	99.19
487.299	107.19
487.517	95.19
487.735	115.19
487.953	130.19
488.171	115.19
488.389	126.19
488.607	136.19
488.825	114.19
489.043	113.19
489.261	113.19
489.479	89.19
489.696	106.19
489.914	117.19
490.132	130.19
490.35	117.19
490.568	143.19
490.786	116.19
491.003	112.19
491.221	116.19
491.439	133.19
491.657	118.19
491.874	143.19
492.092	159.19
492.31	155.19
492.527	138.19
492.745	145.19
492.963	138.19
493.18	118.19
493.398	136.19
493.615	133.19
493.833	137.19
494.05	143.19
494.268	126.19
494.485	109.19
494.703	115.19
494.92	133.19
495.138	135.19
495.355	123.19
495.573	117.19
495.79	134.19
496.008	119.19
496.225	140.19
496.442	139.19
496.66	104.19
496.877	131.19
497.094	111.19
497.312	134.19
497.529	129.19
497.746	101.19
497.963	118.19
498.181	102.19
498.398	91.19
498.615	90.19
498.832	108.19
499.049	108.19
499.267	104.19
499.484	106.19
499.701	129.19
499.918	121.19
500.135	115.19
500.352	123.19
500.569	109.19
500.786	131.19
501.003	115.19
501.22	129.19
501.437	122.19
501.654	107.19
501.871	114.19
502.088	100.19
502.305	120.19
502.522	90.19
502.739	101.19
502.956	110.19
503.172	102.19
503.389	94.19
503.606	103.19
503.823	79.19
504.04	105.19
504.256	89.19
504.473	102.19
504.69	93.19
504.907	102.19
505.123	108.19
505.34	104.19
505.557	112.19
505.773	102.19
505.99	107.19
506.207	92.19
506.423	103.19
506.64	115.19
506.856	114.19
507.073	107.19
507.289	99.19
507.506	107.19
507.722	104.19
507.939	110.19
508.155	106.19
508.372	104.19
508.588	98.19
508.805	101.19
509.021	99.19
509.238	100.19
509.454	98.19
509.67	93.19
509.887	92.19
510.103	87.19
510.319	92.19
510.536	106.19
510.752	94.19
510.968	84.19
511.184	82.19
511.401	84.19
511.617	97.19
511.833	98.19
512.049	92.19
512.265	85.19
512.481	101.19
512.698	94.19
512.914	91.19
513.13	93.19
513.346	98.19
513.562	91.19
513.778	108.19
513.994	110.19
