Data from Zn(NO3)2Standard.Agarose3%.GreenCap.LampEnergy5.5.E.O_HRD10591_15-01-38-767.txt Node
Date: Mon Jul 22 15:01:38 EDT 2019
User: cochatt
Spectrometer: HR+D1059
Trigger mode: 1
Integration Time (sec): 1.000000E-1
Scans to average: 1
Electric dark correction enabled: true
Nonlinearity correction enabled: false
Boxcar width: 0
XAxis mode: Wavelengths
Number of Pixels in Spectrum: 2048
>>>>>Begin Spectral Data<<<<<
223.165	-10.88
223.4	-10.88
223.635	-10.88
223.869	-19.88
224.104	-15.88
224.338	-5.88
224.573	-13.88
224.808	-18.88
225.042	-0.88
225.277	-20.88
225.511	-10.88
225.746	5.12
225.98	4.12
226.215	11.12
226.449	11.12
226.683	28.12
226.918	23.12
227.152	35.12
227.387	19.12
227.621	34.12
227.856	32.12
228.09	41.12
228.324	51.12
228.559	50.12
228.793	53.12
229.027	60.12
229.262	64.12
229.496	65.12
229.73	71.12
229.964	68.12
230.199	74.12
230.433	82.12
230.667	81.12
230.901	83.12
231.136	79.12
231.37	82.12
231.604	74.12
231.838	89.12
232.072	71.12
232.306	70.12
232.541	96.12
232.775	75.12
233.009	75.12
233.243	66.12
233.477	88.12
233.711	72.12
233.945	85.12
234.179	83.12
234.413	90.12
234.647	72.12
234.881	77.12
235.115	66.12
235.349	89.12
235.583	74.12
235.817	71.12
236.051	85.12
236.285	83.12
236.519	81.12
236.753	77.12
236.987	76.12
237.221	75.12
237.455	86.12
237.689	88.12
237.922	73.12
238.156	77.12
238.39	92.12
238.624	61.12
238.858	89.12
239.091	86.12
239.325	81.12
239.559	76.12
239.793	55.12
240.027	66.12
240.26	64.12
240.494	83.12
240.728	67.12
240.961	82.12
241.195	83.12
241.429	72.12
241.662	75.12
241.896	65.12
242.13	74.12
242.363	73.12
242.597	73.12
242.83	75.12
243.064	72.12
243.298	86.12
243.531	74.12
243.765	76.12
243.998	77.12
244.232	61.12
244.465	87.12
244.699	75.12
244.932	83.12
245.166	77.12
245.399	75.12
245.633	85.12
245.866	90.12
246.099	80.12
246.333	69.12
246.566	76.12
246.8	88.12
247.033	83.12
247.266	89.12
247.5	80.12
247.733	76.12
247.966	83.12
248.2	70.12
248.433	81.12
248.666	75.12
248.899	83.12
249.133	75.12
249.366	65.12
249.599	76.12
249.832	81.12
250.066	77.12
250.299	83.12
250.532	82.12
250.765	89.12
250.998	80.12
251.231	71.12
251.465	88.12
251.698	90.12
251.931	82.12
252.164	68.12
252.397	86.12
252.63	75.12
252.863	78.12
253.096	74.12
253.329	77.12
253.562	88.12
253.795	66.12
254.028	77.12
254.261	79.12
254.494	77.12
254.727	64.12
254.96	77.12
255.193	85.12
255.426	77.12
255.659	74.12
255.892	85.12
256.124	77.12
256.357	72.12
256.59	87.12
256.823	70.12
257.056	74.12
257.289	86.12
257.521	67.12
257.754	71.12
257.987	89.12
258.22	71.12
258.452	75.12
258.685	67.12
258.918	74.12
259.151	75.12
259.383	81.12
259.616	87.12
259.849	85.12
260.081	90.12
260.314	97.12
260.547	84.12
260.779	73.12
261.012	91.12
261.244	78.12
261.477	91.12
261.71	80.12
261.942	81.12
262.175	83.12
262.407	71.12
262.64	84.12
262.872	86.12
263.105	71.12
263.337	83.12
263.57	82.12
263.802	86.12
264.035	86.12
264.267	76.12
264.499	87.12
264.732	93.12
264.964	85.12
265.197	83.12
265.429	93.12
265.661	81.12
265.894	71.12
266.126	90.12
266.358	78.12
266.591	88.12
266.823	76.12
267.055	81.12
267.287	78.12
267.52	81.12
267.752	78.12
267.984	85.12
268.216	85.12
268.448	88.12
268.681	96.12
268.913	76.12
269.145	85.12
269.377	76.12
269.609	60.12
269.841	90.12
270.073	88.12
270.306	80.12
270.538	80.12
270.77	84.12
271.002	88.12
271.234	83.12
271.466	74.12
271.698	79.12
271.93	89.12
272.162	81.12
272.394	83.12
272.626	88.12
272.858	96.12
273.09	80.12
273.322	81.12
273.553	77.12
273.785	84.12
274.017	84.12
274.249	73.12
274.481	88.12
274.713	81.12
274.945	72.12
275.176	79.12
275.408	88.12
275.64	88.12
275.872	77.12
276.104	86.12
276.335	79.12
276.567	88.12
276.799	80.12
277.031	80.12
277.262	83.12
277.494	77.12
277.726	75.12
277.957	99.12
278.189	89.12
278.421	86.12
278.652	91.12
278.884	87.12
279.115	88.12
279.347	64.12
279.579	88.12
279.81	91.12
280.042	76.12
280.273	83.12
280.505	86.12
280.736	95.12
280.968	94.12
281.199	83.12
281.431	84.12
281.662	83.12
281.894	89.12
282.125	72.12
282.356	86.12
282.588	76.12
282.819	82.12
283.051	92.12
283.282	91.12
283.513	81.12
283.745	83.12
283.976	88.12
284.207	73.12
284.439	92.12
284.67	83.12
284.901	69.12
285.132	74.12
285.364	74.12
285.595	86.12
285.826	78.12
286.057	82.12
286.288	91.12
286.52	79.12
286.751	96.12
286.982	85.12
287.213	106.12
287.444	89.12
287.675	73.12
287.906	96.12
288.138	83.12
288.369	90.12
288.6	90.12
288.831	84.12
289.062	86.12
289.293	72.12
289.524	84.12
289.755	100.12
289.986	88.12
290.217	85.12
290.448	80.12
290.679	95.12
290.91	95.12
291.141	88.12
291.371	75.12
291.602	95.12
291.833	65.12
292.064	70.12
292.295	84.12
292.526	81.12
292.757	94.12
292.987	68.12
293.218	75.12
293.449	73.12
293.68	90.12
293.91	82.12
294.141	84.12
294.372	100.12
294.603	85.12
294.833	74.12
295.064	82.12
295.295	90.12
295.525	82.12
295.756	65.12
295.987	81.12
296.217	78.12
296.448	83.12
296.679	87.12
296.909	85.12
297.14	90.12
297.37	98.12
297.601	78.12
297.831	81.12
298.062	74.12
298.292	79.12
298.523	85.12
298.753	84.12
298.984	77.12
299.214	73.12
299.445	88.12
299.675	94.12
299.905	84.12
300.136	84.12
300.366	78.12
300.597	87.12
300.827	83.12
301.057	83.12
301.288	90.12
301.518	76.12
301.748	79.12
301.979	93.12
302.209	79.12
302.439	73.12
302.669	90.12
302.9	89.12
303.13	73.12
303.36	86.12
303.59	79.12
303.82	85.12
304.051	83.12
304.281	80.12
304.511	80.12
304.741	87.12
304.971	80.12
305.201	77.12
305.431	79.12
305.661	78.12
305.891	85.12
306.121	92.12
306.352	77.12
306.582	88.12
306.812	86.12
307.042	76.12
307.272	83.12
307.502	94.12
307.731	76.12
307.961	81.12
308.191	87.12
308.421	83.12
308.651	71.12
308.881	91.12
309.111	85.12
309.341	88.12
309.571	91.12
309.8	65.12
310.03	79.12
310.26	83.12
310.49	95.12
310.72	76.12
310.949	77.12
311.179	79.12
311.409	76.12
311.639	85.12
311.868	95.12
312.098	76.12
312.328	87.12
312.557	80.12
312.787	85.12
313.017	91.12
313.246	87.12
313.476	77.12
313.706	86.12
313.935	88.12
314.165	84.12
314.394	88.12
314.624	89.12
314.853	81.12
315.083	73.12
315.312	97.12
315.542	82.12
315.771	84.12
316.001	72.12
316.23	90.12
316.46	92.12
316.689	93.12
316.919	94.12
317.148	87.12
317.377	77.12
317.607	80.12
317.836	77.12
318.065	79.12
318.295	77.12
318.524	88.12
318.753	78.12
318.983	76.12
319.212	79.12
319.441	93.12
319.67	102.12
319.9	76.12
320.129	85.12
320.358	83.12
320.587	92.12
320.816	89.12
321.046	74.12
321.275	97.12
321.504	88.12
321.733	88.12
321.962	90.12
322.191	92.12
322.42	69.12
322.649	84.12
322.878	92.12
323.108	90.12
323.337	83.12
323.566	72.12
323.795	75.12
324.024	69.12
324.253	75.12
324.482	83.12
324.71	83.12
324.939	98.12
325.168	76.12
325.397	74.12
325.626	73.12
325.855	91.12
326.084	76.12
326.313	80.12
326.542	84.12
326.77	90.12
326.999	80.12
327.228	78.12
327.457	74.12
327.686	77.12
327.914	83.12
328.143	76.12
328.372	79.12
328.6	79.12
328.829	79.12
329.058	85.12
329.287	80.12
329.515	76.12
329.744	85.12
329.972	82.12
330.201	85.12
330.43	82.12
330.658	77.12
330.887	86.12
331.115	88.12
331.344	89.12
331.572	93.12
331.801	83.12
332.03	76.12
332.258	91.12
332.486	87.12
332.715	83.12
332.943	83.12
333.172	84.12
333.4	94.12
333.629	83.12
333.857	90.12
334.085	76.12
334.314	87.12
334.542	77.12
334.771	76.12
334.999	90.12
335.227	79.12
335.455	80.12
335.684	98.12
335.912	87.12
336.14	93.12
336.369	78.12
336.597	90.12
336.825	76.12
337.053	73.12
337.281	61.12
337.51	64.12
337.738	76.12
337.966	85.12
338.194	76.12
338.422	80.12
338.65	86.12
338.878	91.12
339.106	93.12
339.334	77.12
339.562	87.12
339.79	81.12
340.018	83.12
340.246	75.12
340.474	91.12
340.702	90.12
340.93	74.12
341.158	77.12
341.386	75.12
341.614	88.12
341.842	78.12
342.07	77.12
342.298	82.12
342.526	67.12
342.754	71.12
342.981	79.12
343.209	79.12
343.437	108.12
343.665	86.12
343.893	90.12
344.12	84.12
344.348	89.12
344.576	72.12
344.804	69.12
345.031	82.12
345.259	97.12
345.487	82.12
345.714	83.12
345.942	87.12
346.17	85.12
346.397	81.12
346.625	82.12
346.853	79.12
347.08	75.12
347.308	64.12
347.535	92.12
347.763	82.12
347.99	82.12
348.218	86.12
348.445	80.12
348.673	82.12
348.9	84.12
349.128	92.12
349.355	80.12
349.583	83.12
349.81	95.12
350.037	85.12
350.265	81.12
350.492	69.12
350.72	85.12
350.947	101.12
351.174	81.12
351.402	88.12
351.629	80.12
351.856	96.12
352.083	90.12
352.311	74.12
352.538	80.12
352.765	73.12
352.992	79.12
353.22	84.12
353.447	86.12
353.674	86.12
353.901	93.12
354.128	88.12
354.355	72.12
354.583	86.12
354.81	79.12
355.037	76.12
355.264	87.12
355.491	79.12
355.718	97.12
355.945	90.12
356.172	76.12
356.399	80.12
356.626	86.12
356.853	74.12
357.08	82.12
357.307	83.12
357.534	84.12
357.761	91.12
357.988	91.12
358.215	80.12
358.441	75.12
358.668	77.12
358.895	77.12
359.122	77.12
359.349	87.12
359.576	87.12
359.802	77.12
360.029	88.12
360.256	97.12
360.483	77.12
360.709	79.12
360.936	79.12
361.163	79.12
361.39	85.12
361.616	75.12
361.843	80.12
362.07	106.12
362.296	82.12
362.523	82.12
362.749	77.12
362.976	70.12
363.203	85.12
363.429	90.12
363.656	75.12
363.882	84.12
364.109	80.12
364.335	88.12
364.562	84.12
364.788	81.12
365.015	83.12
365.241	94.12
365.468	92.12
365.694	75.12
365.92	85.12
366.147	79.12
366.373	91.12
366.599	74.12
366.826	85.12
367.052	69.12
367.278	85.12
367.505	88.12
367.731	67.12
367.957	73.12
368.184	85.12
368.41	95.12
368.636	82.12
368.862	93.12
369.089	76.12
369.315	73.12
369.541	85.12
369.767	87.12
369.993	83.12
370.219	91.12
370.445	70.12
370.672	82.12
370.898	78.12
371.124	85.12
371.35	88.12
371.576	87.12
371.802	87.12
372.028	82.12
372.254	88.12
372.48	83.12
372.706	72.12
372.932	76.12
373.158	80.12
373.384	81.12
373.61	95.12
373.835	101.12
374.061	86.12
374.287	81.12
374.513	94.12
374.739	75.12
374.965	90.12
375.191	79.12
375.416	90.12
375.642	101.12
375.868	95.12
376.094	79.12
376.319	87.12
376.545	80.12
376.771	80.12
376.997	92.12
377.222	75.12
377.448	89.12
377.674	82.12
377.899	83.12
378.125	80.12
378.35	89.12
378.576	76.12
378.802	95.12
379.027	83.12
379.253	75.12
379.478	77.12
379.704	82.12
379.929	83.12
380.155	87.12
380.38	87.12
380.606	80.12
380.831	73.12
381.057	84.12
381.282	77.12
381.507	82.12
381.733	98.12
381.958	83.12
382.184	77.12
382.409	68.12
382.634	76.12
382.86	63.12
383.085	77.12
383.31	86.12
383.535	93.12
383.761	83.12
383.986	97.12
384.211	72.12
384.436	87.12
384.662	82.12
384.887	76.12
385.112	78.12
385.337	98.12
385.562	79.12
385.787	77.12
386.013	86.12
386.238	80.12
386.463	73.12
386.688	81.12
386.913	81.12
387.138	82.12
387.363	80.12
387.588	81.12
387.813	90.12
388.038	90.12
388.263	90.12
388.488	72.12
388.713	82.12
388.938	75.12
389.163	71.12
389.387	91.12
389.612	77.12
389.837	99.12
390.062	84.12
390.287	77.12
390.512	82.12
390.736	67.12
390.961	81.12
391.186	82.12
391.411	92.12
391.636	78.12
391.86	84.12
392.085	80.12
392.31	80.12
392.534	67.12
392.759	87.12
392.984	81.12
393.208	94.12
393.433	88.12
393.658	88.12
393.882	72.12
394.107	95.12
394.331	76.12
394.556	89.12
394.78	82.12
395.005	77.12
395.229	70.12
395.454	87.12
395.678	85.12
395.903	93.12
396.127	89.12
396.352	71.12
396.576	80.12
396.801	86.12
397.025	99.12
397.249	71.12
397.474	81.12
397.698	83.12
397.922	91.12
398.147	89.12
398.371	80.12
398.595	84.12
398.82	92.12
399.044	81.12
399.268	84.12
399.492	86.12
399.717	84.12
399.941	95.12
400.165	84.12
400.389	78.12
400.613	90.12
400.837	77.12
401.062	84.12
401.286	92.12
401.51	87.12
401.734	82.12
401.958	82.12
402.182	83.12
402.406	91.12
402.63	88.12
402.854	95.12
403.078	83.12
403.302	81.12
403.526	85.12
403.75	85.12
403.974	75.12
404.198	82.12
404.422	72.12
404.645	93.12
404.869	81.12
405.093	79.12
405.317	85.12
405.541	89.12
405.765	77.12
405.988	84.12
406.212	96.12
406.436	80.12
406.66	87.12
406.883	101.12
407.107	102.12
407.331	73.12
407.555	79.12
407.778	88.12
408.002	98.12
408.226	82.12
408.449	86.12
408.673	85.12
408.896	79.12
409.12	89.12
409.344	77.12
409.567	93.12
409.791	85.12
410.014	84.12
410.238	81.12
410.461	99.12
410.685	97.12
410.908	84.12
411.132	90.12
411.355	82.12
411.578	98.12
411.802	84.12
412.025	94.12
412.249	84.12
412.472	81.12
412.695	66.12
412.919	90.12
413.142	79.12
413.365	81.12
413.589	84.12
413.812	83.12
414.035	88.12
414.258	72.12
414.482	95.12
414.705	87.12
414.928	85.12
415.151	84.12
415.374	82.12
415.597	88.12
415.821	83.12
416.044	95.12
416.267	80.12
416.49	92.12
416.713	82.12
416.936	89.12
417.159	82.12
417.382	76.12
417.605	83.12
417.828	81.12
418.051	77.12
418.274	80.12
418.497	70.12
418.72	86.12
418.943	106.12
419.166	92.12
419.389	87.12
419.611	80.12
419.834	92.12
420.057	90.12
420.28	84.12
420.503	96.12
420.726	97.12
420.948	93.12
421.171	95.12
421.394	98.12
421.617	92.12
421.839	90.12
422.062	93.12
422.285	88.12
422.507	87.12
422.73	87.12
422.953	81.12
423.175	87.12
423.398	91.12
423.621	97.12
423.843	75.12
424.066	92.12
424.288	95.12
424.511	96.12
424.733	96.12
424.956	87.12
425.178	97.12
425.401	95.12
425.623	80.12
425.846	99.12
426.068	99.12
426.291	91.12
426.513	77.12
426.735	86.12
426.958	99.12
427.18	71.12
427.402	88.12
427.625	96.12
427.847	85.12
428.069	76.12
428.292	85.12
428.514	92.12
428.736	98.12
428.958	81.12
429.181	85.12
429.403	78.12
429.625	78.12
429.847	90.12
430.069	107.12
430.292	87.12
430.514	83.12
430.736	106.12
430.958	91.12
431.18	85.12
431.402	103.12
431.624	88.12
431.846	80.12
432.068	80.12
432.29	78.12
432.512	97.12
432.734	95.12
432.956	95.12
433.178	94.12
433.4	106.12
433.622	83.12
433.844	94.12
434.066	87.12
434.287	85.12
434.509	89.12
434.731	84.12
434.953	81.12
435.175	85.12
435.397	91.12
435.618	85.12
435.84	82.12
436.062	80.12
436.284	101.12
436.505	92.12
436.727	81.12
436.949	103.12
437.17	87.12
437.392	80.12
437.614	91.12
437.835	83.12
438.057	82.12
438.278	82.12
438.5	90.12
438.721	78.12
438.943	95.12
439.165	90.12
439.386	89.12
439.608	88.12
439.829	92.12
440.05	95.12
440.272	87.12
440.493	81.12
440.715	94.12
440.936	83.12
441.158	94.12
441.379	91.12
441.6	85.12
441.822	95.12
442.043	92.12
442.264	90.12
442.486	81.12
442.707	83.12
442.928	94.12
443.149	100.12
443.371	90.12
443.592	66.12
443.813	85.12
444.034	97.12
444.255	96.12
444.476	95.12
444.698	105.12
444.919	85.12
445.14	187.12
445.361	142.12
445.582	99.12
445.803	81.12
446.024	95.12
446.245	94.12
446.466	93.12
446.687	91.12
446.908	100.12
447.129	88.12
447.35	87.12
447.571	87.12
447.792	92.12
448.013	95.12
448.234	97.12
448.455	101.12
448.675	95.12
448.896	77.12
449.117	95.12
449.338	89.12
449.559	83.12
449.779	84.12
450	82.12
450.221	85.12
450.442	93.12
450.662	90.12
450.883	92.12
451.104	108.12
451.324	91.12
451.545	76.12
451.766	79.12
451.986	90.12
452.207	84.12
452.428	94.12
452.648	92.12
452.869	82.12
453.089	88.12
453.31	83.12
453.53	85.12
453.751	84.12
453.971	84.12
454.192	83.12
454.412	75.12
454.633	89.12
454.853	80.12
455.073	91.12
455.294	89.12
455.514	105.12
455.734	90.12
455.955	84.12
456.175	80.12
456.395	86.12
456.616	86.12
456.836	79.12
457.056	94.12
457.276	87.12
457.497	75.12
457.717	86.12
457.937	86.12
458.157	80.12
458.377	85.12
458.598	84.12
458.818	89.12
459.038	81.12
459.258	96.12
459.478	76.12
459.698	73.12
459.918	101.12
460.138	95.12
460.358	83.12
460.578	87.12
460.798	79.12
461.018	78.12
461.238	83.12
461.458	78.12
461.678	82.12
461.898	84.12
462.118	89.12
462.338	89.12
462.558	96.12
462.777	109.12
462.997	105.12
463.217	99.12
463.437	87.12
463.657	92.12
463.876	78.12
464.096	87.12
464.316	83.12
464.536	96.12
464.755	73.12
464.975	91.12
465.195	77.12
465.414	83.12
465.634	75.12
465.854	98.12
466.073	86.12
466.293	88.12
466.512	83.12
466.732	92.12
466.951	102.12
467.171	87.12
467.391	97.12
467.61	78.12
467.829	103.12
468.049	92.12
468.268	88.12
468.488	86.12
468.707	81.12
468.927	85.12
469.146	100.12
469.365	98.12
469.585	92.12
469.804	96.12
470.023	96.12
470.243	88.12
470.462	96.12
470.681	87.12
470.901	84.12
471.12	83.12
471.339	88.12
471.558	87.12
471.777	80.12
471.997	92.12
472.216	92.12
472.435	79.12
472.654	83.12
472.873	85.12
473.092	82.12
473.311	92.12
473.53	68.12
473.749	88.12
473.968	97.12
474.187	95.12
474.406	83.12
474.625	84.12
474.844	84.12
475.063	77.12
475.282	83.12
475.501	73.12
475.72	99.12
475.939	73.12
476.158	88.12
476.377	97.12
476.596	89.12
476.814	87.12
477.033	88.12
477.252	88.12
477.471	83.12
477.69	97.12
477.908	76.12
478.127	82.12
478.346	80.12
478.564	96.12
478.783	88.12
479.002	90.12
479.22	109.12
479.439	95.12
479.658	84.12
479.876	92.12
480.095	83.12
480.313	99.12
480.532	85.12
480.751	78.12
480.969	88.12
481.188	86.12
481.406	94.12
481.624	94.12
481.843	78.12
482.061	87.12
482.28	96.12
482.498	102.12
482.717	100.12
482.935	84.12
483.153	89.12
483.372	93.12
483.59	88.12
483.808	90.12
484.027	84.12
484.245	77.12
484.463	83.12
484.681	85.12
484.9	84.12
485.118	84.12
485.336	84.12
485.554	84.12
485.772	97.12
485.99	93.12
486.209	79.12
486.427	92.12
486.645	83.12
486.863	96.12
487.081	88.12
487.299	92.12
487.517	98.12
487.735	95.12
487.953	99.12
488.171	97.12
488.389	95.12
488.607	87.12
488.825	93.12
489.043	97.12
489.261	96.12
489.479	99.12
489.696	99.12
489.914	84.12
490.132	85.12
490.35	92.12
490.568	80.12
490.786	94.12
491.003	112.12
491.221	111.12
491.439	92.12
491.657	93.12
491.874	98.12
492.092	106.12
492.31	99.12
492.527	104.12
492.745	101.12
492.963	117.12
493.18	106.12
493.398	98.12
493.615	105.12
493.833	105.12
494.05	93.12
494.268	108.12
494.485	95.12
494.703	104.12
494.92	98.12
495.138	100.12
495.355	100.12
495.573	96.12
495.79	83.12
496.008	103.12
496.225	90.12
496.442	104.12
496.66	104.12
496.877	92.12
497.094	90.12
497.312	98.12
497.529	97.12
497.746	102.12
497.963	80.12
498.181	95.12
498.398	82.12
498.615	74.12
498.832	93.12
499.049	90.12
499.267	91.12
499.484	89.12
499.701	86.12
499.918	89.12
500.135	97.12
500.352	100.12
500.569	78.12
500.786	85.12
501.003	95.12
501.22	87.12
501.437	98.12
501.654	89.12
501.871	84.12
502.088	91.12
502.305	87.12
502.522	90.12
502.739	89.12
502.956	82.12
503.172	90.12
503.389	105.12
503.606	88.12
503.823	76.12
504.04	89.12
504.256	83.12
504.473	78.12
504.69	74.12
504.907	91.12
505.123	92.12
505.34	80.12
505.557	87.12
505.773	101.12
505.99	83.12
506.207	79.12
506.423	86.12
506.64	93.12
506.856	75.12
507.073	102.12
507.289	97.12
507.506	97.12
507.722	81.12
507.939	87.12
508.155	99.12
508.372	66.12
508.588	77.12
508.805	98.12
509.021	88.12
509.238	95.12
509.454	77.12
509.67	78.12
509.887	74.12
510.103	82.12
510.319	77.12
510.536	84.12
510.752	80.12
510.968	76.12
511.184	73.12
511.401	76.12
511.617	84.12
511.833	87.12
512.049	97.12
512.265	65.12
512.481	90.12
512.698	87.12
512.914	66.12
513.13	91.12
513.346	84.12
513.562	81.12
513.778	84.12
513.994	94.12
514.21	79.12
514.426	89.12
514.642	95.12
514.858	91.12
515.074	95.12
515.29	85.12
515.506	74.12
515.721	74.12
515.937	83.12
516.153	72.12
516.369	82.12
516.585	82.12
516.801	84.12
517.016	92.12
517.232	84.12
517.448	78.12
517.664	82.12
517.879	66.12
518.095	76.12
518.311	80.12
518.527	74.12
518.742	77.12
