Data from Zn(NO3)2Standard.Agarose3%.GreenCap.LampEnergy5.5.E.O_HRD10591_15-01-36-768.txt Node
Date: Mon Jul 22 15:01:36 EDT 2019
User: cochatt
Spectrometer: HR+D1059
Trigger mode: 1
Integration Time (sec): 1.000000E-1
Scans to average: 1
Electric dark correction enabled: true
Nonlinearity correction enabled: false
Boxcar width: 0
XAxis mode: Wavelengths
Number of Pixels in Spectrum: 2048
>>>>>Begin Spectral Data<<<<<
223.165	-5.06
223.4	-5.06
223.635	-5.06
223.869	-10.06
224.104	-8.06
224.338	-21.06
224.573	-26.06
224.808	-11.06
225.042	-23.06
225.277	4.94
225.511	-28.06
225.746	4.94
225.98	7.94
226.215	17.94
226.449	22.94
226.683	23.94
226.918	20.94
227.152	28.94
227.387	32.94
227.621	40.94
227.856	31.94
228.09	59.94
228.324	44.94
228.559	58.94
228.793	64.94
229.027	73.94
229.262	56.94
229.496	68.94
229.73	88.94
229.964	64.94
230.199	60.94
230.433	69.94
230.667	77.94
230.901	85.94
231.136	73.94
231.37	87.94
231.604	79.94
231.838	75.94
232.072	82.94
232.306	92.94
232.541	85.94
232.775	81.94
233.009	83.94
233.243	78.94
233.477	80.94
233.711	82.94
233.945	87.94
234.179	77.94
234.413	78.94
234.647	82.94
234.881	84.94
235.115	94.94
235.349	86.94
235.583	79.94
235.817	77.94
236.051	86.94
236.285	79.94
236.519	87.94
236.753	84.94
236.987	73.94
237.221	88.94
237.455	89.94
237.689	76.94
237.922	73.94
238.156	54.94
238.39	82.94
238.624	76.94
238.858	84.94
239.091	89.94
239.325	72.94
239.559	87.94
239.793	68.94
240.027	86.94
240.26	69.94
240.494	76.94
240.728	91.94
240.961	82.94
241.195	83.94
241.429	73.94
241.662	64.94
241.896	77.94
242.13	86.94
242.363	73.94
242.597	66.94
242.83	75.94
243.064	91.94
243.298	91.94
243.531	77.94
243.765	65.94
243.998	65.94
244.232	71.94
244.465	89.94
244.699	79.94
244.932	70.94
245.166	82.94
245.399	81.94
245.633	83.94
245.866	77.94
246.099	80.94
246.333	81.94
246.566	68.94
246.8	73.94
247.033	77.94
247.266	79.94
247.5	85.94
247.733	80.94
247.966	72.94
248.2	81.94
248.433	80.94
248.666	84.94
248.899	81.94
249.133	78.94
249.366	81.94
249.599	76.94
249.832	91.94
250.066	72.94
250.299	89.94
250.532	87.94
250.765	68.94
250.998	80.94
251.231	64.94
251.465	80.94
251.698	86.94
251.931	80.94
252.164	81.94
252.397	75.94
252.63	87.94
252.863	92.94
253.096	78.94
253.329	92.94
253.562	71.94
253.795	79.94
254.028	86.94
254.261	81.94
254.494	97.94
254.727	74.94
254.96	70.94
255.193	69.94
255.426	95.94
255.659	78.94
255.892	77.94
256.124	89.94
256.357	86.94
256.59	77.94
256.823	75.94
257.056	73.94
257.289	73.94
257.521	76.94
257.754	80.94
257.987	70.94
258.22	77.94
258.452	82.94
258.685	78.94
258.918	72.94
259.151	67.94
259.383	79.94
259.616	79.94
259.849	72.94
260.081	83.94
260.314	93.94
260.547	87.94
260.779	76.94
261.012	79.94
261.244	83.94
261.477	83.94
261.71	80.94
261.942	81.94
262.175	72.94
262.407	82.94
262.64	88.94
262.872	76.94
263.105	80.94
263.337	99.94
263.57	83.94
263.802	75.94
264.035	92.94
264.267	82.94
264.499	83.94
264.732	82.94
264.964	76.94
265.197	90.94
265.429	95.94
265.661	84.94
265.894	83.94
266.126	93.94
266.358	85.94
266.591	68.94
266.823	86.94
267.055	91.94
267.287	81.94
267.52	96.94
267.752	69.94
267.984	89.94
268.216	95.94
268.448	87.94
268.681	76.94
268.913	88.94
269.145	81.94
269.377	72.94
269.609	84.94
269.841	74.94
270.073	88.94
270.306	82.94
270.538	77.94
270.77	85.94
271.002	85.94
271.234	103.94
271.466	87.94
271.698	85.94
271.93	86.94
272.162	65.94
272.394	82.94
272.626	83.94
272.858	94.94
273.09	84.94
273.322	88.94
273.553	80.94
273.785	80.94
274.017	89.94
274.249	86.94
274.481	77.94
274.713	89.94
274.945	76.94
275.176	76.94
275.408	77.94
275.64	90.94
275.872	75.94
276.104	85.94
276.335	92.94
276.567	72.94
276.799	85.94
277.031	84.94
277.262	84.94
277.494	85.94
277.726	89.94
277.957	77.94
278.189	76.94
278.421	96.94
278.652	93.94
278.884	95.94
279.115	86.94
279.347	68.94
279.579	72.94
279.81	91.94
280.042	81.94
280.273	79.94
280.505	84.94
280.736	85.94
280.968	82.94
281.199	82.94
281.431	84.94
281.662	89.94
281.894	92.94
282.125	81.94
282.356	94.94
282.588	84.94
282.819	91.94
283.051	85.94
283.282	81.94
283.513	74.94
283.745	80.94
283.976	94.94
284.207	86.94
284.439	83.94
284.67	73.94
284.901	96.94
285.132	71.94
285.364	73.94
285.595	98.94
285.826	93.94
286.057	71.94
286.288	94.94
286.52	98.94
286.751	89.94
286.982	93.94
287.213	78.94
287.444	80.94
287.675	81.94
287.906	94.94
288.138	84.94
288.369	90.94
288.6	88.94
288.831	87.94
289.062	94.94
289.293	81.94
289.524	77.94
289.755	87.94
289.986	95.94
290.217	71.94
290.448	95.94
290.679	87.94
290.91	87.94
291.141	87.94
291.371	78.94
291.602	68.94
291.833	100.94
292.064	78.94
292.295	93.94
292.526	76.94
292.757	84.94
292.987	84.94
293.218	85.94
293.449	86.94
293.68	83.94
293.91	90.94
294.141	77.94
294.372	78.94
294.603	88.94
294.833	83.94
295.064	74.94
295.295	82.94
295.525	88.94
295.756	64.94
295.987	68.94
296.217	84.94
296.448	106.94
296.679	77.94
296.909	91.94
297.14	77.94
297.37	93.94
297.601	90.94
297.831	85.94
298.062	86.94
298.292	85.94
298.523	96.94
298.753	81.94
298.984	92.94
299.214	78.94
299.445	81.94
299.675	98.94
299.905	84.94
300.136	83.94
300.366	84.94
300.597	95.94
300.827	91.94
301.057	87.94
301.288	81.94
301.518	91.94
301.748	90.94
301.979	86.94
302.209	86.94
302.439	104.94
302.669	94.94
302.9	76.94
303.13	89.94
303.36	87.94
303.59	85.94
303.82	90.94
304.051	93.94
304.281	69.94
304.511	94.94
304.741	69.94
304.971	90.94
305.201	87.94
305.431	91.94
305.661	80.94
305.891	80.94
306.121	73.94
306.352	90.94
306.582	95.94
306.812	95.94
307.042	106.94
307.272	91.94
307.502	97.94
307.731	77.94
307.961	90.94
308.191	94.94
308.421	83.94
308.651	89.94
308.881	90.94
309.111	89.94
309.341	90.94
309.571	71.94
309.8	75.94
310.03	85.94
310.26	89.94
310.49	80.94
310.72	84.94
310.949	93.94
311.179	76.94
311.409	80.94
311.639	83.94
311.868	81.94
312.098	92.94
312.328	85.94
312.557	74.94
312.787	67.94
313.017	85.94
313.246	79.94
313.476	91.94
313.706	84.94
313.935	85.94
314.165	84.94
314.394	91.94
314.624	84.94
314.853	98.94
315.083	77.94
315.312	82.94
315.542	87.94
315.771	86.94
316.001	84.94
316.23	97.94
316.46	82.94
316.689	92.94
316.919	92.94
317.148	89.94
317.377	81.94
317.607	79.94
317.836	93.94
318.065	85.94
318.295	82.94
318.524	76.94
318.753	86.94
318.983	76.94
319.212	101.94
319.441	82.94
319.67	84.94
319.9	100.94
320.129	83.94
320.358	90.94
320.587	90.94
320.816	82.94
321.046	105.94
321.275	101.94
321.504	97.94
321.733	91.94
321.962	78.94
322.191	73.94
322.42	82.94
322.649	81.94
322.878	78.94
323.108	77.94
323.337	79.94
323.566	90.94
323.795	85.94
324.024	96.94
324.253	74.94
324.482	104.94
324.71	98.94
324.939	77.94
325.168	85.94
325.397	78.94
325.626	80.94
325.855	89.94
326.084	81.94
326.313	76.94
326.542	76.94
326.77	65.94
326.999	86.94
327.228	79.94
327.457	88.94
327.686	85.94
327.914	69.94
328.143	85.94
328.372	85.94
328.6	98.94
328.829	90.94
329.058	77.94
329.287	81.94
329.515	82.94
329.744	77.94
329.972	71.94
330.201	87.94
330.43	92.94
330.658	95.94
330.887	79.94
331.115	88.94
331.344	72.94
331.572	77.94
331.801	93.94
332.03	93.94
332.258	82.94
332.486	88.94
332.715	74.94
332.943	89.94
333.172	89.94
333.4	88.94
333.629	95.94
333.857	102.94
334.085	78.94
334.314	78.94
334.542	86.94
334.771	92.94
334.999	85.94
335.227	82.94
335.455	84.94
335.684	94.94
335.912	89.94
336.14	89.94
336.369	82.94
336.597	77.94
336.825	73.94
337.053	82.94
337.281	92.94
337.51	84.94
337.738	82.94
337.966	90.94
338.194	92.94
338.422	94.94
338.65	93.94
338.878	85.94
339.106	90.94
339.334	81.94
339.562	93.94
339.79	85.94
340.018	85.94
340.246	76.94
340.474	81.94
340.702	85.94
340.93	89.94
341.158	84.94
341.386	86.94
341.614	96.94
341.842	101.94
342.07	78.94
342.298	88.94
342.526	92.94
342.754	77.94
342.981	90.94
343.209	90.94
343.437	100.94
343.665	81.94
343.893	88.94
344.12	87.94
344.348	78.94
344.576	86.94
344.804	80.94
345.031	81.94
345.259	84.94
345.487	76.94
345.714	76.94
345.942	93.94
346.17	75.94
346.397	89.94
346.625	87.94
346.853	77.94
347.08	84.94
347.308	81.94
347.535	86.94
347.763	94.94
347.99	73.94
348.218	87.94
348.445	86.94
348.673	81.94
348.9	89.94
349.128	89.94
349.355	85.94
349.583	72.94
349.81	80.94
350.037	98.94
350.265	89.94
350.492	91.94
350.72	86.94
350.947	75.94
351.174	85.94
351.402	84.94
351.629	93.94
351.856	92.94
352.083	84.94
352.311	83.94
352.538	70.94
352.765	89.94
352.992	74.94
353.22	92.94
353.447	91.94
353.674	73.94
353.901	89.94
354.128	82.94
354.355	88.94
354.583	74.94
354.81	87.94
355.037	78.94
355.264	74.94
355.491	80.94
355.718	78.94
355.945	76.94
356.172	84.94
356.399	78.94
356.626	70.94
356.853	83.94
357.08	75.94
357.307	75.94
357.534	74.94
357.761	85.94
357.988	82.94
358.215	78.94
358.441	86.94
358.668	79.94
358.895	88.94
359.122	87.94
359.349	93.94
359.576	89.94
359.802	83.94
360.029	75.94
360.256	71.94
360.483	83.94
360.709	69.94
360.936	89.94
361.163	80.94
361.39	88.94
361.616	87.94
361.843	75.94
362.07	92.94
362.296	85.94
362.523	85.94
362.749	94.94
362.976	73.94
363.203	82.94
363.429	85.94
363.656	88.94
363.882	74.94
364.109	96.94
364.335	91.94
364.562	110.94
364.788	78.94
365.015	75.94
365.241	91.94
365.468	78.94
365.694	90.94
365.92	76.94
366.147	81.94
366.373	89.94
366.599	68.94
366.826	78.94
367.052	98.94
367.278	76.94
367.505	88.94
367.731	83.94
367.957	101.94
368.184	93.94
368.41	92.94
368.636	85.94
368.862	81.94
369.089	84.94
369.315	95.94
369.541	82.94
369.767	92.94
369.993	82.94
370.219	86.94
370.445	101.94
370.672	88.94
370.898	76.94
371.124	93.94
371.35	84.94
371.576	99.94
371.802	86.94
372.028	89.94
372.254	84.94
372.48	80.94
372.706	77.94
372.932	80.94
373.158	83.94
373.384	78.94
373.61	96.94
373.835	89.94
374.061	79.94
374.287	84.94
374.513	75.94
374.739	89.94
374.965	80.94
375.191	81.94
375.416	72.94
375.642	85.94
375.868	92.94
376.094	75.94
376.319	80.94
376.545	86.94
376.771	93.94
376.997	84.94
377.222	82.94
377.448	75.94
377.674	89.94
377.899	87.94
378.125	84.94
378.35	78.94
378.576	90.94
378.802	76.94
379.027	92.94
379.253	86.94
379.478	77.94
379.704	86.94
379.929	82.94
380.155	86.94
380.38	82.94
380.606	86.94
380.831	86.94
381.057	95.94
381.282	97.94
381.507	74.94
381.733	99.94
381.958	84.94
382.184	96.94
382.409	79.94
382.634	87.94
382.86	78.94
383.085	72.94
383.31	81.94
383.535	88.94
383.761	79.94
383.986	77.94
384.211	77.94
384.436	90.94
384.662	79.94
384.887	73.94
385.112	72.94
385.337	79.94
385.562	82.94
385.787	86.94
386.013	85.94
386.238	83.94
386.463	95.94
386.688	79.94
386.913	85.94
387.138	85.94
387.363	85.94
387.588	74.94
387.813	92.94
388.038	89.94
388.263	81.94
388.488	100.94
388.713	83.94
388.938	82.94
389.163	82.94
389.387	87.94
389.612	109.94
389.837	68.94
390.062	96.94
390.287	88.94
390.512	91.94
390.736	92.94
390.961	90.94
391.186	64.94
391.411	79.94
391.636	83.94
391.86	87.94
392.085	89.94
392.31	83.94
392.534	94.94
392.759	74.94
392.984	96.94
393.208	86.94
393.433	68.94
393.658	88.94
393.882	100.94
394.107	93.94
394.331	92.94
394.556	78.94
394.78	85.94
395.005	83.94
395.229	94.94
395.454	85.94
395.678	88.94
395.903	84.94
396.127	82.94
396.352	97.94
396.576	79.94
396.801	97.94
397.025	86.94
397.249	85.94
397.474	77.94
397.698	88.94
397.922	84.94
398.147	85.94
398.371	107.94
398.595	80.94
398.82	75.94
399.044	81.94
399.268	86.94
399.492	77.94
399.717	88.94
399.941	92.94
400.165	88.94
400.389	78.94
400.613	77.94
400.837	84.94
401.062	94.94
401.286	81.94
401.51	97.94
401.734	82.94
401.958	65.94
402.182	93.94
402.406	98.94
402.63	78.94
402.854	89.94
403.078	90.94
403.302	75.94
403.526	86.94
403.75	83.94
403.974	87.94
404.198	82.94
404.422	82.94
404.645	74.94
404.869	74.94
405.093	100.94
405.317	92.94
405.541	83.94
405.765	78.94
405.988	91.94
406.212	87.94
406.436	78.94
406.66	83.94
406.883	97.94
407.107	88.94
407.331	77.94
407.555	93.94
407.778	92.94
408.002	91.94
408.226	85.94
408.449	73.94
408.673	86.94
408.896	88.94
409.12	70.94
409.344	83.94
409.567	85.94
409.791	82.94
410.014	82.94
410.238	83.94
410.461	73.94
410.685	87.94
410.908	91.94
411.132	86.94
411.355	89.94
411.578	83.94
411.802	84.94
412.025	92.94
412.249	80.94
412.472	85.94
412.695	70.94
412.919	78.94
413.142	93.94
413.365	87.94
413.589	101.94
413.812	80.94
414.035	89.94
414.258	90.94
414.482	87.94
414.705	87.94
414.928	85.94
415.151	91.94
415.374	80.94
415.597	88.94
415.821	89.94
416.044	85.94
416.267	92.94
416.49	73.94
416.713	89.94
416.936	86.94
417.159	99.94
417.382	90.94
417.605	89.94
417.828	92.94
418.051	98.94
418.274	91.94
418.497	90.94
418.72	77.94
418.943	80.94
419.166	86.94
419.389	89.94
419.611	92.94
419.834	89.94
420.057	89.94
420.28	94.94
420.503	101.94
420.726	87.94
420.948	74.94
421.171	98.94
421.394	98.94
421.617	94.94
421.839	88.94
422.062	80.94
422.285	89.94
422.507	89.94
422.73	92.94
422.953	82.94
423.175	85.94
423.398	78.94
423.621	95.94
423.843	78.94
424.066	85.94
424.288	92.94
424.511	69.94
424.733	83.94
424.956	85.94
425.178	96.94
425.401	88.94
425.623	91.94
425.846	96.94
426.068	90.94
426.291	90.94
426.513	78.94
426.735	97.94
426.958	69.94
427.18	92.94
427.402	100.94
427.625	82.94
427.847	84.94
428.069	98.94
428.292	83.94
428.514	75.94
428.736	101.94
428.958	75.94
429.181	93.94
429.403	112.94
429.625	96.94
429.847	98.94
430.069	91.94
430.292	92.94
430.514	69.94
430.736	98.94
430.958	89.94
431.18	82.94
431.402	96.94
431.624	94.94
431.846	92.94
432.068	77.94
432.29	83.94
432.512	82.94
432.734	91.94
432.956	86.94
433.178	83.94
433.4	84.94
433.622	98.94
433.844	86.94
434.066	98.94
434.287	96.94
434.509	71.94
434.731	86.94
434.953	86.94
435.175	78.94
435.397	92.94
435.618	82.94
435.84	90.94
436.062	81.94
436.284	81.94
436.505	72.94
436.727	87.94
436.949	81.94
437.17	84.94
437.392	88.94
437.614	90.94
437.835	74.94
438.057	81.94
438.278	79.94
438.5	97.94
438.721	92.94
438.943	76.94
439.165	100.94
439.386	90.94
439.608	76.94
439.829	82.94
440.05	90.94
440.272	95.94
440.493	78.94
440.715	89.94
440.936	97.94
441.158	89.94
441.379	93.94
441.6	97.94
441.822	95.94
442.043	87.94
442.264	85.94
442.486	93.94
442.707	95.94
442.928	91.94
443.149	79.94
443.371	89.94
443.592	85.94
443.813	95.94
444.034	97.94
444.255	76.94
444.476	87.94
444.698	94.94
444.919	97.94
445.14	190.94
445.361	130.94
445.582	85.94
445.803	84.94
446.024	97.94
446.245	92.94
446.466	86.94
446.687	95.94
446.908	93.94
447.129	99.94
447.35	97.94
447.571	97.94
447.792	103.94
448.013	95.94
448.234	89.94
448.455	91.94
448.675	105.94
448.896	96.94
449.117	81.94
449.338	91.94
449.559	91.94
449.779	81.94
450	82.94
450.221	91.94
450.442	84.94
450.662	85.94
450.883	98.94
451.104	88.94
451.324	82.94
451.545	89.94
451.766	90.94
451.986	97.94
452.207	91.94
452.428	71.94
452.648	92.94
452.869	87.94
453.089	82.94
453.31	74.94
453.53	83.94
453.751	91.94
453.971	85.94
454.192	82.94
454.412	83.94
454.633	83.94
454.853	90.94
455.073	85.94
455.294	91.94
455.514	98.94
455.734	93.94
455.955	92.94
456.175	80.94
456.395	82.94
456.616	99.94
456.836	99.94
457.056	101.94
457.276	72.94
457.497	90.94
457.717	83.94
457.937	76.94
458.157	78.94
458.377	90.94
458.598	80.94
458.818	77.94
459.038	76.94
459.258	70.94
459.478	90.94
459.698	87.94
459.918	78.94
460.138	93.94
460.358	100.94
460.578	71.94
460.798	93.94
461.018	93.94
461.238	96.94
461.458	85.94
461.678	90.94
461.898	76.94
462.118	79.94
462.338	88.94
462.558	91.94
462.777	79.94
462.997	89.94
463.217	88.94
463.437	88.94
463.657	88.94
463.876	82.94
464.096	73.94
464.316	76.94
464.536	88.94
464.755	99.94
464.975	102.94
465.195	73.94
465.414	96.94
465.634	81.94
465.854	78.94
466.073	77.94
466.293	77.94
466.512	73.94
466.732	86.94
466.951	95.94
467.171	72.94
467.391	100.94
467.61	79.94
467.829	89.94
468.049	84.94
468.268	96.94
468.488	86.94
468.707	95.94
468.927	92.94
469.146	89.94
469.365	98.94
469.585	88.94
469.804	87.94
470.023	75.94
470.243	86.94
470.462	85.94
470.681	83.94
470.901	103.94
471.12	87.94
471.339	98.94
471.558	96.94
471.777	91.94
471.997	88.94
472.216	103.94
472.435	96.94
472.654	65.94
472.873	77.94
473.092	87.94
473.311	97.94
473.53	91.94
473.749	83.94
473.968	93.94
474.187	105.94
474.406	96.94
474.625	91.94
474.844	96.94
475.063	82.94
475.282	83.94
475.501	89.94
475.72	81.94
475.939	93.94
476.158	96.94
476.377	101.94
476.596	81.94
476.814	76.94
477.033	74.94
477.252	83.94
477.471	85.94
477.69	87.94
477.908	79.94
478.127	100.94
478.346	86.94
478.564	92.94
478.783	88.94
479.002	92.94
479.22	98.94
479.439	93.94
479.658	85.94
479.876	92.94
480.095	81.94
480.313	93.94
480.532	86.94
480.751	78.94
480.969	81.94
481.188	70.94
481.406	83.94
481.624	92.94
481.843	76.94
482.061	88.94
482.28	101.94
482.498	99.94
482.717	104.94
482.935	100.94
483.153	94.94
483.372	82.94
483.59	85.94
483.808	89.94
484.027	90.94
484.245	78.94
484.463	101.94
484.681	112.94
484.9	88.94
485.118	99.94
485.336	78.94
485.554	78.94
485.772	88.94
485.99	90.94
486.209	82.94
486.427	85.94
486.645	91.94
486.863	84.94
487.081	90.94
487.299	79.94
487.517	105.94
487.735	85.94
487.953	94.94
488.171	101.94
488.389	93.94
488.607	93.94
488.825	88.94
489.043	82.94
489.261	100.94
489.479	85.94
489.696	86.94
489.914	82.94
490.132	84.94
490.35	94.94
490.568	89.94
490.786	102.94
491.003	103.94
491.221	100.94
491.439	105.94
491.657	109.94
491.874	106.94
492.092	99.94
492.31	121.94
492.527	105.94
492.745	98.94
492.963	96.94
493.18	100.94
493.398	90.94
493.615	89.94
493.833	115.94
494.05	106.94
494.268	111.94
494.485	114.94
494.703	106.94
494.92	87.94
495.138	90.94
495.355	102.94
495.573	92.94
495.79	105.94
496.008	105.94
496.225	98.94
496.442	83.94
496.66	107.94
496.877	100.94
497.094	105.94
497.312	93.94
497.529	67.94
497.746	104.94
497.963	91.94
498.181	88.94
498.398	89.94
498.615	83.94
498.832	92.94
499.049	85.94
499.267	89.94
499.484	97.94
499.701	101.94
499.918	72.94
500.135	88.94
500.352	94.94
500.569	83.94
500.786	92.94
501.003	87.94
501.22	95.94
501.437	85.94
501.654	87.94
501.871	84.94
502.088	91.94
502.305	102.94
502.522	87.94
502.739	74.94
502.956	86.94
503.172	100.94
503.389	99.94
503.606	79.94
503.823	87.94
504.04	82.94
504.256	87.94
504.473	85.94
504.69	84.94
504.907	87.94
505.123	89.94
505.34	82.94
505.557	88.94
505.773	85.94
505.99	100.94
506.207	92.94
506.423	90.94
506.64	82.94
506.856	100.94
507.073	84.94
507.289	86.94
507.506	96.94
507.722	76.94
507.939	78.94
508.155	89.94
508.372	79.94
508.588	76.94
508.805	88.94
509.021	97.94
509.238	90.94
509.454	86.94
509.67	95.94
509.887	81.94
510.103	86.94
510.319	93.94
510.536	80.94
510.752	76.94
510.968	84.94
511.184	76.94
511.401	84.94
511.617	92.94
511.833	77.94
512.049	86.94
512.265	90.94
512.481	81.94
512.698	83.94
512.914	91.94
513.13	77.94
513.346	73.94
513.562	82.94
513.778	84.94
513.994	78.94
514.21	78.94
514.426	80.94
514.642	77.94
514.858	78.94
515.074	93.94
515.29	81.94
515.506	72.94
515.721	82.94
515.937	78.94
516.153	100.94
516.369	78.94
516.585	85.94
516.801	93.94
517.016	78.94
517.232	77.94
517.448	88.94
517.664	94.94
517.879	86.94
518.095	77.94
518.311	81.94
518.527	77.94
