Data from Zn(NO3)2Standard.Agarose3%.GreenCap.LampEnergy10E.O_HRD10591_15-06-38-942.txt Node
Date: Mon Jul 22 15:06:38 EDT 2019
User: cochatt
Spectrometer: HR+D1059
Trigger mode: 1
Integration Time (sec): 1.000000E-1
Scans to average: 1
Electric dark correction enabled: true
Nonlinearity correction enabled: false
Boxcar width: 0
XAxis mode: Wavelengths
Number of Pixels in Spectrum: 2048
>>>>>Begin Spectral Data<<<<<
223.165	-12.5
223.4	-12.5
223.635	-12.5
223.869	-21.5
224.104	-11.5
224.338	-16.5
224.573	-16.5
224.808	-5.5
225.042	-7.5
225.277	2.5
225.511	4.5
225.746	-3.5
225.98	8.5
226.215	25.5
226.449	-1.5
226.683	20.5
226.918	12.5
227.152	22.5
227.387	43.5
227.621	26.5
227.856	36.5
228.09	55.5
228.324	36.5
228.559	49.5
228.793	44.5
229.027	57.5
229.262	63.5
229.496	56.5
229.73	65.5
229.964	65.5
230.199	65.5
230.433	82.5
230.667	74.5
230.901	80.5
231.136	65.5
231.37	88.5
231.604	83.5
231.838	75.5
232.072	80.5
232.306	97.5
232.541	75.5
232.775	79.5
233.009	85.5
233.243	72.5
233.477	76.5
233.711	64.5
233.945	84.5
234.179	94.5
234.413	65.5
234.647	82.5
234.881	86.5
235.115	68.5
235.349	79.5
235.583	91.5
235.817	85.5
236.051	77.5
236.285	71.5
236.519	73.5
236.753	72.5
236.987	79.5
237.221	57.5
237.455	62.5
237.689	74.5
237.922	69.5
238.156	65.5
238.39	84.5
238.624	74.5
238.858	72.5
239.091	69.5
239.325	79.5
239.559	65.5
239.793	75.5
240.027	89.5
240.26	74.5
240.494	63.5
240.728	77.5
240.961	81.5
241.195	81.5
241.429	82.5
241.662	75.5
241.896	72.5
242.13	73.5
242.363	69.5
242.597	80.5
242.83	77.5
243.064	71.5
243.298	74.5
243.531	75.5
243.765	83.5
243.998	77.5
244.232	87.5
244.465	88.5
244.699	76.5
244.932	80.5
245.166	75.5
245.399	86.5
245.633	82.5
245.866	67.5
246.099	90.5
246.333	79.5
246.566	82.5
246.8	74.5
247.033	75.5
247.266	63.5
247.5	70.5
247.733	79.5
247.966	89.5
248.2	81.5
248.433	75.5
248.666	78.5
248.899	92.5
249.133	68.5
249.366	72.5
249.599	63.5
249.832	68.5
250.066	76.5
250.299	76.5
250.532	80.5
250.765	81.5
250.998	75.5
251.231	71.5
251.465	78.5
251.698	89.5
251.931	93.5
252.164	74.5
252.397	82.5
252.63	84.5
252.863	67.5
253.096	76.5
253.329	72.5
253.562	76.5
253.795	82.5
254.028	74.5
254.261	85.5
254.494	87.5
254.727	88.5
254.96	85.5
255.193	77.5
255.426	88.5
255.659	80.5
255.892	74.5
256.124	74.5
256.357	72.5
256.59	79.5
256.823	73.5
257.056	65.5
257.289	64.5
257.521	63.5
257.754	72.5
257.987	84.5
258.22	85.5
258.452	81.5
258.685	82.5
258.918	72.5
259.151	81.5
259.383	82.5
259.616	81.5
259.849	78.5
260.081	69.5
260.314	74.5
260.547	74.5
260.779	89.5
261.012	68.5
261.244	79.5
261.477	91.5
261.71	81.5
261.942	89.5
262.175	88.5
262.407	87.5
262.64	84.5
262.872	83.5
263.105	66.5
263.337	82.5
263.57	76.5
263.802	94.5
264.035	81.5
264.267	90.5
264.499	88.5
264.732	83.5
264.964	96.5
265.197	94.5
265.429	71.5
265.661	74.5
265.894	94.5
266.126	71.5
266.358	81.5
266.591	85.5
266.823	90.5
267.055	90.5
267.287	87.5
267.52	91.5
267.752	86.5
267.984	80.5
268.216	77.5
268.448	81.5
268.681	94.5
268.913	75.5
269.145	86.5
269.377	75.5
269.609	75.5
269.841	73.5
270.073	81.5
270.306	82.5
270.538	90.5
270.77	80.5
271.002	75.5
271.234	89.5
271.466	74.5
271.698	94.5
271.93	76.5
272.162	67.5
272.394	85.5
272.626	83.5
272.858	93.5
273.09	88.5
273.322	74.5
273.553	90.5
273.785	85.5
274.017	80.5
274.249	77.5
274.481	87.5
274.713	82.5
274.945	86.5
275.176	79.5
275.408	76.5
275.64	87.5
275.872	81.5
276.104	88.5
276.335	83.5
276.567	78.5
276.799	76.5
277.031	85.5
277.262	81.5
277.494	83.5
277.726	85.5
277.957	88.5
278.189	80.5
278.421	84.5
278.652	90.5
278.884	97.5
279.115	93.5
279.347	76.5
279.579	92.5
279.81	86.5
280.042	84.5
280.273	83.5
280.505	90.5
280.736	72.5
280.968	87.5
281.199	77.5
281.431	74.5
281.662	76.5
281.894	104.5
282.125	90.5
282.356	87.5
282.588	96.5
282.819	68.5
283.051	87.5
283.282	78.5
283.513	81.5
283.745	103.5
283.976	80.5
284.207	85.5
284.439	95.5
284.67	83.5
284.901	95.5
285.132	70.5
285.364	59.5
285.595	90.5
285.826	67.5
286.057	82.5
286.288	73.5
286.52	84.5
286.751	71.5
286.982	73.5
287.213	96.5
287.444	92.5
287.675	93.5
287.906	80.5
288.138	75.5
288.369	83.5
288.6	77.5
288.831	80.5
289.062	99.5
289.293	92.5
289.524	79.5
289.755	88.5
289.986	84.5
290.217	106.5
290.448	92.5
290.679	77.5
290.91	71.5
291.141	79.5
291.371	79.5
291.602	98.5
291.833	84.5
292.064	83.5
292.295	81.5
292.526	89.5
292.757	84.5
292.987	89.5
293.218	78.5
293.449	91.5
293.68	85.5
293.91	83.5
294.141	83.5
294.372	90.5
294.603	83.5
294.833	80.5
295.064	86.5
295.295	94.5
295.525	90.5
295.756	76.5
295.987	92.5
296.217	88.5
296.448	86.5
296.679	84.5
296.909	80.5
297.14	78.5
297.37	85.5
297.601	77.5
297.831	81.5
298.062	81.5
298.292	72.5
298.523	82.5
298.753	97.5
298.984	77.5
299.214	83.5
299.445	98.5
299.675	83.5
299.905	92.5
300.136	99.5
300.366	89.5
300.597	68.5
300.827	80.5
301.057	81.5
301.288	82.5
301.518	95.5
301.748	78.5
301.979	85.5
302.209	94.5
302.439	82.5
302.669	89.5
302.9	86.5
303.13	78.5
303.36	84.5
303.59	76.5
303.82	86.5
304.051	86.5
304.281	85.5
304.511	84.5
304.741	82.5
304.971	83.5
305.201	80.5
305.431	90.5
305.661	93.5
305.891	73.5
306.121	79.5
306.352	101.5
306.582	75.5
306.812	91.5
307.042	79.5
307.272	86.5
307.502	86.5
307.731	83.5
307.961	102.5
308.191	83.5
308.421	87.5
308.651	87.5
308.881	77.5
309.111	97.5
309.341	78.5
309.571	89.5
309.8	98.5
310.03	96.5
310.26	69.5
310.49	89.5
310.72	89.5
310.949	88.5
311.179	90.5
311.409	76.5
311.639	84.5
311.868	82.5
312.098	90.5
312.328	94.5
312.557	73.5
312.787	84.5
313.017	68.5
313.246	73.5
313.476	86.5
313.706	91.5
313.935	78.5
314.165	74.5
314.394	90.5
314.624	81.5
314.853	82.5
315.083	74.5
315.312	90.5
315.542	88.5
315.771	81.5
316.001	84.5
316.23	86.5
316.46	93.5
316.689	86.5
316.919	95.5
317.148	91.5
317.377	78.5
317.607	77.5
317.836	75.5
318.065	79.5
318.295	78.5
318.524	83.5
318.753	67.5
318.983	82.5
319.212	87.5
319.441	87.5
319.67	68.5
319.9	81.5
320.129	81.5
320.358	95.5
320.587	82.5
320.816	72.5
321.046	84.5
321.275	91.5
321.504	80.5
321.733	98.5
321.962	85.5
322.191	87.5
322.42	87.5
322.649	78.5
322.878	74.5
323.108	96.5
323.337	84.5
323.566	79.5
323.795	83.5
324.024	77.5
324.253	75.5
324.482	79.5
324.71	83.5
324.939	89.5
325.168	79.5
325.397	83.5
325.626	82.5
325.855	84.5
326.084	85.5
326.313	97.5
326.542	77.5
326.77	76.5
326.999	72.5
327.228	83.5
327.457	84.5
327.686	76.5
327.914	86.5
328.143	99.5
328.372	79.5
328.6	74.5
328.829	81.5
329.058	82.5
329.287	92.5
329.515	72.5
329.744	83.5
329.972	73.5
330.201	96.5
330.43	91.5
330.658	81.5
330.887	88.5
331.115	83.5
331.344	82.5
331.572	85.5
331.801	76.5
332.03	86.5
332.258	98.5
332.486	74.5
332.715	87.5
332.943	92.5
333.172	83.5
333.4	84.5
333.629	78.5
333.857	75.5
334.085	82.5
334.314	80.5
334.542	75.5
334.771	82.5
334.999	78.5
335.227	86.5
335.455	83.5
335.684	78.5
335.912	81.5
336.14	72.5
336.369	78.5
336.597	86.5
336.825	84.5
337.053	81.5
337.281	97.5
337.51	85.5
337.738	77.5
337.966	81.5
338.194	86.5
338.422	78.5
338.65	99.5
338.878	74.5
339.106	84.5
339.334	89.5
339.562	69.5
339.79	75.5
340.018	68.5
340.246	90.5
340.474	80.5
340.702	92.5
340.93	89.5
341.158	81.5
341.386	83.5
341.614	84.5
341.842	68.5
342.07	84.5
342.298	76.5
342.526	95.5
342.754	89.5
342.981	75.5
343.209	81.5
343.437	83.5
343.665	84.5
343.893	81.5
344.12	98.5
344.348	72.5
344.576	74.5
344.804	87.5
345.031	69.5
345.259	74.5
345.487	80.5
345.714	86.5
345.942	75.5
346.17	70.5
346.397	81.5
346.625	79.5
346.853	93.5
347.08	79.5
347.308	88.5
347.535	70.5
347.763	77.5
347.99	89.5
348.218	72.5
348.445	84.5
348.673	70.5
348.9	87.5
349.128	76.5
349.355	74.5
349.583	83.5
349.81	73.5
350.037	70.5
350.265	73.5
350.492	83.5
350.72	79.5
350.947	90.5
351.174	77.5
351.402	85.5
351.629	74.5
351.856	74.5
352.083	79.5
352.311	87.5
352.538	83.5
352.765	90.5
352.992	84.5
353.22	82.5
353.447	91.5
353.674	77.5
353.901	74.5
354.128	92.5
354.355	84.5
354.583	93.5
354.81	84.5
355.037	81.5
355.264	99.5
355.491	80.5
355.718	87.5
355.945	85.5
356.172	76.5
356.399	81.5
356.626	77.5
356.853	88.5
357.08	77.5
357.307	94.5
357.534	91.5
357.761	92.5
357.988	97.5
358.215	88.5
358.441	75.5
358.668	76.5
358.895	77.5
359.122	78.5
359.349	75.5
359.576	83.5
359.802	82.5
360.029	86.5
360.256	81.5
360.483	80.5
360.709	82.5
360.936	95.5
361.163	81.5
361.39	89.5
361.616	84.5
361.843	96.5
362.07	71.5
362.296	76.5
362.523	85.5
362.749	73.5
362.976	80.5
363.203	73.5
363.429	86.5
363.656	85.5
363.882	82.5
364.109	75.5
364.335	79.5
364.562	84.5
364.788	84.5
365.015	74.5
365.241	80.5
365.468	87.5
365.694	80.5
365.92	88.5
366.147	81.5
366.373	76.5
366.599	80.5
366.826	75.5
367.052	85.5
367.278	75.5
367.505	72.5
367.731	81.5
367.957	78.5
368.184	93.5
368.41	69.5
368.636	82.5
368.862	74.5
369.089	84.5
369.315	86.5
369.541	89.5
369.767	85.5
369.993	96.5
370.219	75.5
370.445	87.5
370.672	75.5
370.898	80.5
371.124	91.5
371.35	78.5
371.576	85.5
371.802	87.5
372.028	85.5
372.254	87.5
372.48	84.5
372.706	78.5
372.932	99.5
373.158	96.5
373.384	86.5
373.61	80.5
373.835	67.5
374.061	83.5
374.287	88.5
374.513	89.5
374.739	84.5
374.965	79.5
375.191	89.5
375.416	87.5
375.642	75.5
375.868	93.5
376.094	85.5
376.319	92.5
376.545	68.5
376.771	93.5
376.997	90.5
377.222	94.5
377.448	92.5
377.674	87.5
377.899	89.5
378.125	82.5
378.35	80.5
378.576	75.5
378.802	100.5
379.027	91.5
379.253	92.5
379.478	87.5
379.704	70.5
379.929	84.5
380.155	88.5
380.38	83.5
380.606	91.5
380.831	85.5
381.057	78.5
381.282	75.5
381.507	92.5
381.733	73.5
381.958	88.5
382.184	82.5
382.409	88.5
382.634	88.5
382.86	90.5
383.085	90.5
383.31	81.5
383.535	82.5
383.761	74.5
383.986	85.5
384.211	85.5
384.436	81.5
384.662	101.5
384.887	96.5
385.112	79.5
385.337	89.5
385.562	90.5
385.787	89.5
386.013	93.5
386.238	85.5
386.463	86.5
386.688	91.5
386.913	84.5
387.138	94.5
387.363	83.5
387.588	80.5
387.813	77.5
388.038	93.5
388.263	89.5
388.488	78.5
388.713	90.5
388.938	96.5
389.163	92.5
389.387	86.5
389.612	79.5
389.837	78.5
390.062	91.5
390.287	101.5
390.512	92.5
390.736	98.5
390.961	104.5
391.186	81.5
391.411	102.5
391.636	91.5
391.86	89.5
392.085	99.5
392.31	85.5
392.534	91.5
392.759	105.5
392.984	89.5
393.208	102.5
393.433	95.5
393.658	93.5
393.882	94.5
394.107	98.5
394.331	95.5
394.556	83.5
394.78	82.5
395.005	99.5
395.229	88.5
395.454	87.5
395.678	89.5
395.903	89.5
396.127	86.5
396.352	84.5
396.576	85.5
396.801	97.5
397.025	96.5
397.249	106.5
397.474	95.5
397.698	103.5
397.922	97.5
398.147	88.5
398.371	91.5
398.595	88.5
398.82	95.5
399.044	97.5
399.268	100.5
399.492	104.5
399.717	85.5
399.941	107.5
400.165	95.5
400.389	96.5
400.613	94.5
400.837	81.5
401.062	86.5
401.286	91.5
401.51	77.5
401.734	93.5
401.958	89.5
402.182	91.5
402.406	98.5
402.63	89.5
402.854	89.5
403.078	88.5
403.302	91.5
403.526	83.5
403.75	113.5
403.974	97.5
404.198	98.5
404.422	90.5
404.645	103.5
404.869	81.5
405.093	97.5
405.317	94.5
405.541	98.5
405.765	83.5
405.988	88.5
406.212	96.5
406.436	98.5
406.66	87.5
406.883	106.5
407.107	90.5
407.331	94.5
407.555	90.5
407.778	105.5
408.002	104.5
408.226	93.5
408.449	97.5
408.673	90.5
408.896	95.5
409.12	98.5
409.344	104.5
409.567	97.5
409.791	86.5
410.014	105.5
410.238	112.5
410.461	88.5
410.685	100.5
410.908	83.5
411.132	99.5
411.355	84.5
411.578	100.5
411.802	88.5
412.025	88.5
412.249	98.5
412.472	99.5
412.695	92.5
412.919	86.5
413.142	108.5
413.365	105.5
413.589	100.5
413.812	84.5
414.035	93.5
414.258	105.5
414.482	116.5
414.705	104.5
414.928	109.5
415.151	89.5
415.374	104.5
415.597	102.5
415.821	92.5
416.044	83.5
416.267	101.5
416.49	111.5
416.713	104.5
416.936	90.5
417.159	112.5
417.382	104.5
417.605	111.5
417.828	99.5
418.051	95.5
418.274	105.5
418.497	104.5
418.72	103.5
418.943	104.5
419.166	98.5
419.389	118.5
419.611	107.5
419.834	107.5
420.057	89.5
420.28	108.5
420.503	106.5
420.726	112.5
420.948	98.5
421.171	95.5
421.394	111.5
421.617	106.5
421.839	104.5
422.062	96.5
422.285	99.5
422.507	104.5
422.73	107.5
422.953	93.5
423.175	98.5
423.398	121.5
423.621	87.5
423.843	94.5
424.066	101.5
424.288	118.5
424.511	115.5
424.733	102.5
424.956	101.5
425.178	116.5
425.401	98.5
425.623	116.5
425.846	111.5
426.068	109.5
426.291	111.5
426.513	119.5
426.735	116.5
426.958	97.5
427.18	106.5
427.402	98.5
427.625	101.5
427.847	102.5
428.069	105.5
428.292	89.5
428.514	102.5
428.736	110.5
428.958	104.5
429.181	107.5
429.403	111.5
429.625	90.5
429.847	103.5
430.069	102.5
430.292	103.5
430.514	95.5
430.736	95.5
430.958	105.5
431.18	100.5
431.402	113.5
431.624	84.5
431.846	107.5
432.068	79.5
432.29	80.5
432.512	90.5
432.734	114.5
432.956	113.5
433.178	98.5
433.4	120.5
433.622	112.5
433.844	106.5
434.066	99.5
434.287	87.5
434.509	103.5
434.731	96.5
434.953	96.5
435.175	87.5
435.397	105.5
435.618	95.5
435.84	96.5
436.062	104.5
436.284	117.5
436.505	102.5
436.727	115.5
436.949	111.5
437.17	105.5
437.392	116.5
437.614	101.5
437.835	98.5
438.057	85.5
438.278	95.5
438.5	103.5
438.721	100.5
438.943	101.5
439.165	114.5
439.386	111.5
439.608	117.5
439.829	101.5
440.05	100.5
440.272	104.5
440.493	100.5
440.715	113.5
440.936	111.5
441.158	105.5
441.379	114.5
441.6	102.5
441.822	105.5
442.043	117.5
442.264	106.5
442.486	117.5
442.707	102.5
442.928	101.5
443.149	124.5
443.371	97.5
443.592	114.5
443.813	103.5
444.034	103.5
444.255	103.5
444.476	108.5
444.698	99.5
444.919	111.5
445.14	260.5
445.361	175.5
445.582	111.5
445.803	93.5
446.024	115.5
446.245	109.5
446.466	100.5
446.687	108.5
446.908	116.5
447.129	119.5
447.35	120.5
447.571	119.5
447.792	112.5
448.013	119.5
448.234	116.5
448.455	106.5
448.675	117.5
448.896	112.5
449.117	106.5
449.338	106.5
449.559	97.5
449.779	107.5
450	99.5
450.221	104.5
450.442	91.5
450.662	100.5
450.883	103.5
451.104	115.5
451.324	102.5
451.545	102.5
451.766	98.5
451.986	115.5
452.207	108.5
452.428	104.5
452.648	101.5
452.869	116.5
453.089	100.5
453.31	100.5
453.53	84.5
453.751	96.5
453.971	101.5
454.192	94.5
454.412	87.5
454.633	90.5
454.853	88.5
455.073	101.5
455.294	97.5
455.514	104.5
455.734	101.5
455.955	113.5
456.175	99.5
456.395	98.5
456.616	94.5
456.836	101.5
457.056	98.5
457.276	86.5
457.497	85.5
457.717	95.5
457.937	105.5
458.157	101.5
458.377	92.5
458.598	91.5
458.818	93.5
459.038	90.5
459.258	90.5
459.478	82.5
459.698	88.5
459.918	81.5
460.138	89.5
460.358	101.5
460.578	104.5
460.798	98.5
461.018	77.5
461.238	94.5
461.458	103.5
461.678	105.5
461.898	98.5
462.118	99.5
462.338	87.5
462.558	91.5
462.777	75.5
462.997	96.5
463.217	98.5
463.437	92.5
463.657	99.5
463.876	93.5
464.096	101.5
464.316	81.5
464.536	101.5
464.755	88.5
464.975	80.5
465.195	99.5
465.414	105.5
465.634	102.5
465.854	116.5
466.073	106.5
466.293	110.5
466.512	104.5
466.732	88.5
466.951	95.5
467.171	100.5
467.391	100.5
467.61	100.5
467.829	96.5
468.049	111.5
468.268	106.5
468.488	99.5
468.707	106.5
468.927	96.5
469.146	113.5
469.365	103.5
469.585	113.5
469.804	121.5
470.023	114.5
470.243	104.5
470.462	107.5
470.681	103.5
470.901	100.5
471.12	90.5
471.339	110.5
471.558	94.5
471.777	97.5
471.997	104.5
472.216	89.5
472.435	97.5
472.654	82.5
472.873	94.5
473.092	104.5
473.311	95.5
473.53	84.5
473.749	104.5
473.968	111.5
474.187	90.5
474.406	87.5
474.625	97.5
474.844	107.5
475.063	93.5
475.282	99.5
475.501	100.5
475.72	105.5
475.939	109.5
476.158	105.5
476.377	89.5
476.596	103.5
476.814	106.5
477.033	88.5
477.252	85.5
477.471	90.5
477.69	102.5
477.908	112.5
478.127	119.5
478.346	103.5
478.564	108.5
478.783	93.5
479.002	129.5
479.22	103.5
479.439	101.5
479.658	91.5
479.876	104.5
480.095	99.5
480.313	99.5
480.532	97.5
480.751	95.5
480.969	86.5
481.188	95.5
481.406	89.5
481.624	93.5
481.843	76.5
482.061	79.5
482.28	83.5
482.498	103.5
482.717	88.5
482.935	103.5
483.153	112.5
483.372	117.5
483.59	101.5
483.808	102.5
484.027	93.5
484.245	94.5
484.463	115.5
484.681	123.5
484.9	112.5
485.118	117.5
485.336	113.5
485.554	91.5
485.772	98.5
485.99	87.5
486.209	82.5
486.427	80.5
486.645	89.5
486.863	103.5
487.081	95.5
487.299	94.5
487.517	109.5
487.735	117.5
487.953	130.5
488.171	136.5
488.389	117.5
488.607	125.5
488.825	94.5
489.043	106.5
489.261	119.5
489.479	97.5
489.696	114.5
489.914	105.5
490.132	93.5
490.35	123.5
490.568	111.5
490.786	127.5
491.003	137.5
491.221	141.5
491.439	124.5
491.657	135.5
491.874	137.5
492.092	141.5
492.31	152.5
492.527	136.5
492.745	146.5
492.963	151.5
493.18	164.5
493.398	137.5
493.615	129.5
493.833	140.5
494.05	118.5
494.268	118.5
494.485	121.5
494.703	121.5
494.92	117.5
495.138	125.5
495.355	121.5
495.573	130.5
495.79	125.5
496.008	112.5
496.225	100.5
496.442	117.5
496.66	133.5
496.877	126.5
497.094	136.5
497.312	122.5
497.529	123.5
497.746	123.5
497.963	103.5
498.181	117.5
498.398	93.5
498.615	105.5
498.832	107.5
499.049	107.5
499.267	117.5
499.484	108.5
499.701	116.5
499.918	114.5
500.135	101.5
500.352	121.5
500.569	123.5
500.786	116.5
501.003	123.5
501.22	112.5
501.437	116.5
501.654	114.5
501.871	116.5
502.088	108.5
502.305	108.5
502.522	112.5
502.739	111.5
502.956	112.5
503.172	97.5
503.389	100.5
503.606	95.5
503.823	94.5
504.04	105.5
504.256	91.5
504.473	101.5
504.69	100.5
504.907	105.5
505.123	97.5
505.34	101.5
505.557	103.5
505.773	101.5
505.99	96.5
506.207	101.5
506.423	95.5
506.64	103.5
506.856	117.5
507.073	103.5
507.289	100.5
507.506	101.5
507.722	93.5
507.939	117.5
508.155	102.5
508.372	97.5
508.588	86.5
508.805	105.5
509.021	106.5
509.238	82.5
509.454	91.5
509.67	92.5
509.887	89.5
510.103	97.5
510.319	97.5
510.536	76.5
510.752	79.5
510.968	81.5
511.184	77.5
511.401	82.5
511.617	74.5
511.833	86.5
512.049	97.5
512.265	96.5
512.481	83.5
512.698	77.5
512.914	87.5
513.13	81.5
513.346	95.5
513.562	82.5
513.778	81.5
513.994	69.5
514.21	81.5
514.426	88.5
514.642	85.5
514.858	92.5
515.074	77.5
515.29	89.5
515.506	78.5
515.721	83.5
515.937	93.5
516.153	80.5
516.369	77.5
516.585	89.5
516.801	83.5
517.016	87.5
517.232	84.5
517.448	86.5
517.664	90.5
517.879	87.5
518.095	92.5
518.311	79.5
518.527	89.5
518.742	91.5
518.958	88.5
519.173	89.5
519.389	98.5
519.605	87.5
519.82	86.5
520.036	98.5
520.251	88.5
520.467	79.5
520.682	81.5
520.898	85.5
521.113	77.5
521.329	83.5
521.544	92.5
521.76	95.5
521.975	88.5
522.19	88.5
522.406	109.5
522.621	93.5
522.836	88.5
523.052	107.5
523.267	92.5
523.482	105.5
523.698	90.5
523.913	95.5
524.128	82.5
524.343	91.5
524.559	106.5
524.774	102.5
524.989	106.5
525.204	91.5
525.419	84.5
525.634	99.5
525.849	85.5
526.064	98.5
526.28	91.5
526.495	84.5
526.71	89.5
526.925	85.5
527.14	81.5
527.355	92.5
527.57	119.5
527.785	81.5
527.999	85.5
528.214	88.5
528.429	90.5
528.644	92.5
528.859	100.5
529.074	113.5
529.289	123.5
529.503	111.5
529.718	109.5
529.933	96.5
530.148	96.5
530.363	92.5
530.577	69.5
530.792	75.5
531.007	71.5
531.221	75.5
531.436	90.5
531.651	103.5
531.865	90.5
532.08	85.5
532.295	74.5
532.509	80.5
532.724	88.5
532.938	91.5
533.153	94.5
533.367	96.5
533.582	98.5
533.796	89.5
534.011	94.5
534.225	86.5
534.44	84.5
534.654	105.5
534.868	76.5
