Data from Zn(NO3)2Standard.Agarose3%.GreenCap.LampEnergy10E.O_HRD10591_15-05-59-942.txt Node
Date: Mon Jul 22 15:05:59 EDT 2019
User: cochatt
Spectrometer: HR+D1059
Trigger mode: 1
Integration Time (sec): 1.000000E-1
Scans to average: 1
Electric dark correction enabled: true
Nonlinearity correction enabled: false
Boxcar width: 0
XAxis mode: Wavelengths
Number of Pixels in Spectrum: 2048
>>>>>Begin Spectral Data<<<<<
223.165	-13.56
223.4	-13.56
223.635	-13.56
223.869	-14.56
224.104	-22.56
224.338	-21.56
224.573	-20.56
224.808	-8.56
225.042	-17.56
225.277	-2.56
225.511	-3.56
225.746	12.44
225.98	-2.56
226.215	8.44
226.449	9.44
226.683	24.44
226.918	30.44
227.152	42.44
227.387	24.44
227.621	27.44
227.856	46.44
228.09	43.44
228.324	44.44
228.559	54.44
228.793	47.44
229.027	67.44
229.262	59.44
229.496	64.44
229.73	71.44
229.964	73.44
230.199	73.44
230.433	70.44
230.667	86.44
230.901	75.44
231.136	83.44
231.37	90.44
231.604	90.44
231.838	85.44
232.072	81.44
232.306	74.44
232.541	84.44
232.775	73.44
233.009	79.44
233.243	83.44
233.477	87.44
233.711	97.44
233.945	83.44
234.179	81.44
234.413	78.44
234.647	84.44
234.881	97.44
235.115	94.44
235.349	71.44
235.583	83.44
235.817	84.44
236.051	78.44
236.285	86.44
236.519	61.44
236.753	78.44
236.987	72.44
237.221	68.44
237.455	82.44
237.689	79.44
237.922	79.44
238.156	94.44
238.39	69.44
238.624	74.44
238.858	85.44
239.091	76.44
239.325	86.44
239.559	83.44
239.793	81.44
240.027	75.44
240.26	73.44
240.494	81.44
240.728	71.44
240.961	77.44
241.195	82.44
241.429	80.44
241.662	78.44
241.896	79.44
242.13	83.44
242.363	87.44
242.597	75.44
242.83	90.44
243.064	81.44
243.298	74.44
243.531	91.44
243.765	73.44
243.998	89.44
244.232	85.44
244.465	71.44
244.699	75.44
244.932	73.44
245.166	82.44
245.399	89.44
245.633	87.44
245.866	93.44
246.099	78.44
246.333	71.44
246.566	73.44
246.8	79.44
247.033	72.44
247.266	76.44
247.5	74.44
247.733	87.44
247.966	75.44
248.2	63.44
248.433	76.44
248.666	78.44
248.899	82.44
249.133	75.44
249.366	75.44
249.599	86.44
249.832	78.44
250.066	88.44
250.299	82.44
250.532	77.44
250.765	64.44
250.998	68.44
251.231	93.44
251.465	79.44
251.698	78.44
251.931	92.44
252.164	84.44
252.397	79.44
252.63	86.44
252.863	85.44
253.096	69.44
253.329	80.44
253.562	72.44
253.795	83.44
254.028	98.44
254.261	71.44
254.494	82.44
254.727	73.44
254.96	65.44
255.193	88.44
255.426	59.44
255.659	74.44
255.892	80.44
256.124	84.44
256.357	83.44
256.59	90.44
256.823	74.44
257.056	88.44
257.289	82.44
257.521	78.44
257.754	74.44
257.987	78.44
258.22	103.44
258.452	83.44
258.685	83.44
258.918	73.44
259.151	69.44
259.383	78.44
259.616	65.44
259.849	87.44
260.081	82.44
260.314	94.44
260.547	77.44
260.779	80.44
261.012	93.44
261.244	86.44
261.477	92.44
261.71	83.44
261.942	74.44
262.175	75.44
262.407	85.44
262.64	69.44
262.872	83.44
263.105	79.44
263.337	76.44
263.57	87.44
263.802	79.44
264.035	83.44
264.267	82.44
264.499	100.44
264.732	77.44
264.964	73.44
265.197	86.44
265.429	85.44
265.661	76.44
265.894	93.44
266.126	81.44
266.358	83.44
266.591	97.44
266.823	87.44
267.055	87.44
267.287	88.44
267.52	89.44
267.752	91.44
267.984	94.44
268.216	87.44
268.448	89.44
268.681	95.44
268.913	87.44
269.145	82.44
269.377	92.44
269.609	85.44
269.841	76.44
270.073	71.44
270.306	86.44
270.538	85.44
270.77	84.44
271.002	79.44
271.234	83.44
271.466	85.44
271.698	73.44
271.93	78.44
272.162	84.44
272.394	85.44
272.626	72.44
272.858	95.44
273.09	83.44
273.322	79.44
273.553	78.44
273.785	97.44
274.017	87.44
274.249	92.44
274.481	87.44
274.713	88.44
274.945	97.44
275.176	95.44
275.408	87.44
275.64	93.44
275.872	83.44
276.104	92.44
276.335	79.44
276.567	95.44
276.799	86.44
277.031	87.44
277.262	89.44
277.494	78.44
277.726	93.44
277.957	87.44
278.189	90.44
278.421	84.44
278.652	90.44
278.884	88.44
279.115	86.44
279.347	75.44
279.579	79.44
279.81	93.44
280.042	84.44
280.273	78.44
280.505	92.44
280.736	85.44
280.968	73.44
281.199	82.44
281.431	87.44
281.662	85.44
281.894	75.44
282.125	85.44
282.356	89.44
282.588	83.44
282.819	84.44
283.051	76.44
283.282	88.44
283.513	75.44
283.745	87.44
283.976	85.44
284.207	90.44
284.439	89.44
284.67	87.44
284.901	84.44
285.132	77.44
285.364	82.44
285.595	90.44
285.826	85.44
286.057	84.44
286.288	92.44
286.52	88.44
286.751	86.44
286.982	83.44
287.213	79.44
287.444	82.44
287.675	87.44
287.906	82.44
288.138	79.44
288.369	94.44
288.6	86.44
288.831	96.44
289.062	83.44
289.293	92.44
289.524	82.44
289.755	92.44
289.986	70.44
290.217	89.44
290.448	77.44
290.679	86.44
290.91	86.44
291.141	78.44
291.371	87.44
291.602	78.44
291.833	85.44
292.064	87.44
292.295	86.44
292.526	99.44
292.757	93.44
292.987	90.44
293.218	85.44
293.449	84.44
293.68	92.44
293.91	81.44
294.141	83.44
294.372	75.44
294.603	94.44
294.833	83.44
295.064	74.44
295.295	76.44
295.525	83.44
295.756	86.44
295.987	105.44
296.217	80.44
296.448	84.44
296.679	86.44
296.909	72.44
297.14	91.44
297.37	87.44
297.601	83.44
297.831	84.44
298.062	72.44
298.292	97.44
298.523	90.44
298.753	86.44
298.984	88.44
299.214	82.44
299.445	87.44
299.675	85.44
299.905	76.44
300.136	87.44
300.366	85.44
300.597	90.44
300.827	91.44
301.057	94.44
301.288	90.44
301.518	92.44
301.748	96.44
301.979	78.44
302.209	99.44
302.439	74.44
302.669	87.44
302.9	78.44
303.13	93.44
303.36	88.44
303.59	103.44
303.82	77.44
304.051	92.44
304.281	89.44
304.511	79.44
304.741	103.44
304.971	90.44
305.201	74.44
305.431	93.44
305.661	82.44
305.891	93.44
306.121	93.44
306.352	96.44
306.582	81.44
306.812	73.44
307.042	97.44
307.272	78.44
307.502	87.44
307.731	94.44
307.961	85.44
308.191	87.44
308.421	94.44
308.651	85.44
308.881	89.44
309.111	82.44
309.341	92.44
309.571	82.44
309.8	82.44
310.03	77.44
310.26	88.44
310.49	85.44
310.72	82.44
310.949	83.44
311.179	80.44
311.409	87.44
311.639	85.44
311.868	90.44
312.098	84.44
312.328	77.44
312.557	92.44
312.787	71.44
313.017	78.44
313.246	72.44
313.476	98.44
313.706	81.44
313.935	78.44
314.165	86.44
314.394	97.44
314.624	73.44
314.853	93.44
315.083	79.44
315.312	96.44
315.542	95.44
315.771	94.44
316.001	86.44
316.23	86.44
316.46	74.44
316.689	85.44
316.919	99.44
317.148	85.44
317.377	82.44
317.607	93.44
317.836	88.44
318.065	80.44
318.295	84.44
318.524	81.44
318.753	80.44
318.983	91.44
319.212	82.44
319.441	99.44
319.67	96.44
319.9	94.44
320.129	99.44
320.358	77.44
320.587	79.44
320.816	95.44
321.046	86.44
321.275	85.44
321.504	79.44
321.733	94.44
321.962	80.44
322.191	93.44
322.42	73.44
322.649	85.44
322.878	80.44
323.108	70.44
323.337	91.44
323.566	94.44
323.795	102.44
324.024	88.44
324.253	87.44
324.482	90.44
324.71	73.44
324.939	94.44
325.168	92.44
325.397	95.44
325.626	91.44
325.855	82.44
326.084	92.44
326.313	89.44
326.542	93.44
326.77	66.44
326.999	94.44
327.228	89.44
327.457	85.44
327.686	74.44
327.914	84.44
328.143	83.44
328.372	80.44
328.6	77.44
328.829	85.44
329.058	82.44
329.287	82.44
329.515	86.44
329.744	89.44
329.972	81.44
330.201	75.44
330.43	90.44
330.658	86.44
330.887	89.44
331.115	84.44
331.344	93.44
331.572	106.44
331.801	87.44
332.03	85.44
332.258	78.44
332.486	79.44
332.715	92.44
332.943	81.44
333.172	74.44
333.4	77.44
333.629	92.44
333.857	87.44
334.085	81.44
334.314	86.44
334.542	86.44
334.771	78.44
334.999	85.44
335.227	85.44
335.455	83.44
335.684	82.44
335.912	85.44
336.14	70.44
336.369	90.44
336.597	99.44
336.825	79.44
337.053	89.44
337.281	78.44
337.51	93.44
337.738	81.44
337.966	81.44
338.194	87.44
338.422	87.44
338.65	91.44
338.878	89.44
339.106	85.44
339.334	83.44
339.562	86.44
339.79	85.44
340.018	80.44
340.246	73.44
340.474	80.44
340.702	73.44
340.93	94.44
341.158	69.44
341.386	77.44
341.614	85.44
341.842	76.44
342.07	87.44
342.298	83.44
342.526	94.44
342.754	76.44
342.981	77.44
343.209	76.44
343.437	90.44
343.665	73.44
343.893	97.44
344.12	87.44
344.348	76.44
344.576	77.44
344.804	81.44
345.031	81.44
345.259	91.44
345.487	94.44
345.714	90.44
345.942	90.44
346.17	86.44
346.397	78.44
346.625	76.44
346.853	80.44
347.08	76.44
347.308	86.44
347.535	94.44
347.763	89.44
347.99	83.44
348.218	73.44
348.445	82.44
348.673	84.44
348.9	76.44
349.128	71.44
349.355	88.44
349.583	81.44
349.81	92.44
350.037	89.44
350.265	98.44
350.492	92.44
350.72	87.44
350.947	74.44
351.174	95.44
351.402	91.44
351.629	84.44
351.856	85.44
352.083	85.44
352.311	85.44
352.538	83.44
352.765	83.44
352.992	75.44
353.22	82.44
353.447	87.44
353.674	88.44
353.901	99.44
354.128	96.44
354.355	81.44
354.583	98.44
354.81	83.44
355.037	82.44
355.264	81.44
355.491	94.44
355.718	87.44
355.945	86.44
356.172	90.44
356.399	83.44
356.626	69.44
356.853	88.44
357.08	85.44
357.307	81.44
357.534	85.44
357.761	79.44
357.988	85.44
358.215	94.44
358.441	76.44
358.668	65.44
358.895	73.44
359.122	61.44
359.349	76.44
359.576	76.44
359.802	90.44
360.029	93.44
360.256	85.44
360.483	79.44
360.709	99.44
360.936	95.44
361.163	64.44
361.39	92.44
361.616	89.44
361.843	103.44
362.07	90.44
362.296	86.44
362.523	86.44
362.749	78.44
362.976	89.44
363.203	90.44
363.429	86.44
363.656	77.44
363.882	81.44
364.109	93.44
364.335	100.44
364.562	91.44
364.788	73.44
365.015	98.44
365.241	78.44
365.468	85.44
365.694	89.44
365.92	97.44
366.147	80.44
366.373	89.44
366.599	81.44
366.826	90.44
367.052	97.44
367.278	83.44
367.505	77.44
367.731	97.44
367.957	83.44
368.184	76.44
368.41	85.44
368.636	91.44
368.862	79.44
369.089	78.44
369.315	85.44
369.541	87.44
369.767	83.44
369.993	84.44
370.219	89.44
370.445	81.44
370.672	76.44
370.898	104.44
371.124	79.44
371.35	83.44
371.576	84.44
371.802	77.44
372.028	97.44
372.254	94.44
372.48	79.44
372.706	84.44
372.932	78.44
373.158	92.44
373.384	91.44
373.61	89.44
373.835	84.44
374.061	85.44
374.287	84.44
374.513	82.44
374.739	99.44
374.965	85.44
375.191	103.44
375.416	92.44
375.642	87.44
375.868	79.44
376.094	74.44
376.319	90.44
376.545	92.44
376.771	88.44
376.997	79.44
377.222	78.44
377.448	79.44
377.674	74.44
377.899	92.44
378.125	88.44
378.35	101.44
378.576	92.44
378.802	85.44
379.027	79.44
379.253	72.44
379.478	80.44
379.704	89.44
379.929	80.44
380.155	90.44
380.38	89.44
380.606	92.44
380.831	94.44
381.057	82.44
381.282	95.44
381.507	89.44
381.733	101.44
381.958	98.44
382.184	80.44
382.409	96.44
382.634	97.44
382.86	92.44
383.085	85.44
383.31	85.44
383.535	90.44
383.761	90.44
383.986	101.44
384.211	79.44
384.436	73.44
384.662	80.44
384.887	99.44
385.112	88.44
385.337	99.44
385.562	97.44
385.787	92.44
386.013	90.44
386.238	100.44
386.463	86.44
386.688	89.44
386.913	92.44
387.138	88.44
387.363	80.44
387.588	91.44
387.813	84.44
388.038	87.44
388.263	85.44
388.488	94.44
388.713	98.44
388.938	85.44
389.163	86.44
389.387	93.44
389.612	94.44
389.837	92.44
390.062	89.44
390.287	88.44
390.512	88.44
390.736	88.44
390.961	94.44
391.186	80.44
391.411	90.44
391.636	90.44
391.86	91.44
392.085	89.44
392.31	94.44
392.534	97.44
392.759	87.44
392.984	92.44
393.208	85.44
393.433	108.44
393.658	91.44
393.882	97.44
394.107	96.44
394.331	115.44
394.556	89.44
394.78	91.44
395.005	111.44
395.229	82.44
395.454	89.44
395.678	93.44
395.903	81.44
396.127	83.44
396.352	81.44
396.576	84.44
396.801	83.44
397.025	94.44
397.249	82.44
397.474	84.44
397.698	90.44
397.922	89.44
398.147	91.44
398.371	89.44
398.595	88.44
398.82	97.44
399.044	90.44
399.268	96.44
399.492	91.44
399.717	86.44
399.941	92.44
400.165	106.44
400.389	102.44
400.613	107.44
400.837	86.44
401.062	80.44
401.286	85.44
401.51	88.44
401.734	114.44
401.958	78.44
402.182	89.44
402.406	110.44
402.63	85.44
402.854	111.44
403.078	92.44
403.302	98.44
403.526	106.44
403.75	98.44
403.974	107.44
404.198	97.44
404.422	110.44
404.645	99.44
404.869	87.44
405.093	100.44
405.317	85.44
405.541	107.44
405.765	91.44
405.988	97.44
406.212	97.44
406.436	102.44
406.66	105.44
406.883	95.44
407.107	102.44
407.331	91.44
407.555	109.44
407.778	90.44
408.002	96.44
408.226	95.44
408.449	102.44
408.673	86.44
408.896	95.44
409.12	95.44
409.344	112.44
409.567	98.44
409.791	94.44
410.014	113.44
410.238	101.44
410.461	114.44
410.685	102.44
410.908	99.44
411.132	114.44
411.355	103.44
411.578	103.44
411.802	114.44
412.025	102.44
412.249	106.44
412.472	94.44
412.695	87.44
412.919	99.44
413.142	117.44
413.365	75.44
413.589	109.44
413.812	92.44
414.035	104.44
414.258	115.44
414.482	109.44
414.705	99.44
414.928	85.44
415.151	100.44
415.374	114.44
415.597	87.44
415.821	85.44
416.044	101.44
416.267	105.44
416.49	100.44
416.713	96.44
416.936	93.44
417.159	105.44
417.382	101.44
417.605	105.44
417.828	98.44
418.051	117.44
418.274	102.44
418.497	108.44
418.72	98.44
418.943	99.44
419.166	108.44
419.389	105.44
419.611	115.44
419.834	122.44
420.057	110.44
420.28	98.44
420.503	90.44
420.726	101.44
420.948	96.44
421.171	110.44
421.394	107.44
421.617	113.44
421.839	117.44
422.062	93.44
422.285	94.44
422.507	110.44
422.73	99.44
422.953	80.44
423.175	107.44
423.398	114.44
423.621	108.44
423.843	101.44
424.066	97.44
424.288	106.44
424.511	99.44
424.733	103.44
424.956	99.44
425.178	106.44
425.401	105.44
425.623	96.44
425.846	117.44
426.068	98.44
426.291	87.44
426.513	99.44
426.735	99.44
426.958	107.44
427.18	107.44
427.402	101.44
427.625	106.44
427.847	110.44
428.069	85.44
428.292	92.44
428.514	116.44
428.736	90.44
428.958	101.44
429.181	110.44
429.403	95.44
429.625	94.44
429.847	113.44
430.069	107.44
430.292	115.44
430.514	116.44
430.736	111.44
430.958	102.44
431.18	97.44
431.402	97.44
431.624	109.44
431.846	92.44
432.068	85.44
432.29	103.44
432.512	95.44
432.734	115.44
432.956	107.44
433.178	109.44
433.4	99.44
433.622	127.44
433.844	94.44
434.066	99.44
434.287	98.44
434.509	89.44
434.731	106.44
434.953	96.44
435.175	93.44
435.397	100.44
435.618	93.44
435.84	92.44
436.062	85.44
436.284	92.44
436.505	102.44
436.727	120.44
436.949	108.44
437.17	104.44
437.392	107.44
437.614	105.44
437.835	103.44
438.057	91.44
438.278	94.44
438.5	101.44
438.721	94.44
438.943	107.44
439.165	116.44
439.386	110.44
439.608	113.44
439.829	103.44
440.05	115.44
440.272	121.44
440.493	114.44
440.715	121.44
440.936	113.44
441.158	115.44
441.379	118.44
441.6	117.44
441.822	117.44
442.043	114.44
442.264	111.44
442.486	115.44
442.707	110.44
442.928	104.44
443.149	105.44
443.371	107.44
443.592	108.44
443.813	122.44
444.034	122.44
444.255	116.44
444.476	103.44
444.698	113.44
444.919	103.44
445.14	251.44
445.361	179.44
445.582	122.44
445.803	112.44
446.024	113.44
446.245	125.44
446.466	113.44
446.687	114.44
446.908	109.44
447.129	123.44
447.35	113.44
447.571	111.44
447.792	102.44
448.013	98.44
448.234	118.44
448.455	122.44
448.675	126.44
448.896	102.44
449.117	109.44
449.338	117.44
449.559	107.44
449.779	108.44
450	110.44
450.221	108.44
450.442	117.44
450.662	115.44
450.883	115.44
451.104	104.44
451.324	111.44
451.545	107.44
451.766	112.44
451.986	112.44
452.207	101.44
452.428	113.44
452.648	105.44
452.869	97.44
453.089	100.44
453.31	107.44
453.53	93.44
453.751	93.44
453.971	79.44
454.192	105.44
454.412	94.44
454.633	109.44
454.853	119.44
455.073	89.44
455.294	116.44
455.514	111.44
455.734	102.44
455.955	97.44
456.175	94.44
456.395	97.44
456.616	108.44
456.836	82.44
457.056	92.44
457.276	112.44
457.497	101.44
457.717	97.44
457.937	86.44
458.157	115.44
458.377	96.44
458.598	103.44
458.818	89.44
459.038	93.44
459.258	99.44
459.478	93.44
459.698	96.44
459.918	87.44
460.138	86.44
460.358	93.44
460.578	100.44
460.798	96.44
461.018	107.44
461.238	119.44
461.458	107.44
461.678	104.44
461.898	97.44
462.118	97.44
462.338	86.44
462.558	118.44
462.777	101.44
462.997	102.44
463.217	87.44
463.437	101.44
463.657	99.44
463.876	90.44
464.096	110.44
464.316	93.44
464.536	92.44
464.755	101.44
464.975	100.44
465.195	105.44
465.414	95.44
465.634	91.44
465.854	90.44
466.073	95.44
466.293	98.44
466.512	103.44
466.732	113.44
466.951	88.44
467.171	114.44
467.391	101.44
467.61	106.44
467.829	114.44
468.049	111.44
468.268	110.44
468.488	107.44
468.707	122.44
468.927	114.44
469.146	118.44
469.365	121.44
469.585	112.44
469.804	103.44
470.023	111.44
470.243	105.44
470.462	103.44
470.681	117.44
470.901	105.44
471.12	116.44
471.339	115.44
471.558	118.44
471.777	108.44
471.997	117.44
472.216	93.44
472.435	103.44
472.654	106.44
472.873	89.44
473.092	91.44
473.311	98.44
473.53	118.44
473.749	103.44
473.968	113.44
474.187	108.44
474.406	105.44
474.625	98.44
474.844	111.44
475.063	113.44
475.282	103.44
475.501	97.44
475.72	104.44
475.939	99.44
476.158	107.44
476.377	118.44
476.596	101.44
476.814	100.44
477.033	95.44
477.252	98.44
477.471	106.44
477.69	101.44
477.908	119.44
478.127	127.44
478.346	94.44
478.564	106.44
478.783	104.44
479.002	109.44
479.22	119.44
479.439	105.44
479.658	109.44
479.876	100.44
480.095	112.44
480.313	109.44
480.532	110.44
480.751	93.44
480.969	80.44
481.188	94.44
481.406	103.44
481.624	83.44
481.843	87.44
482.061	101.44
482.28	99.44
482.498	96.44
482.717	86.44
482.935	104.44
483.153	109.44
483.372	114.44
483.59	104.44
483.808	125.44
484.027	124.44
484.245	98.44
484.463	123.44
484.681	119.44
484.9	119.44
485.118	117.44
485.336	118.44
485.554	102.44
485.772	121.44
485.99	81.44
486.209	95.44
486.427	108.44
486.645	92.44
486.863	125.44
487.081	113.44
487.299	107.44
487.517	121.44
487.735	131.44
487.953	131.44
488.171	146.44
488.389	123.44
488.607	120.44
488.825	113.44
489.043	115.44
489.261	114.44
489.479	95.44
489.696	117.44
489.914	120.44
490.132	123.44
490.35	126.44
490.568	123.44
490.786	122.44
491.003	116.44
491.221	129.44
491.439	125.44
491.657	133.44
491.874	159.44
492.092	166.44
492.31	171.44
492.527	159.44
492.745	140.44
492.963	130.44
493.18	130.44
493.398	127.44
493.615	119.44
493.833	135.44
494.05	135.44
494.268	124.44
494.485	122.44
494.703	128.44
494.92	136.44
495.138	133.44
495.355	122.44
495.573	122.44
495.79	121.44
496.008	126.44
496.225	108.44
496.442	117.44
496.66	128.44
496.877	127.44
497.094	130.44
497.312	109.44
497.529	112.44
497.746	123.44
497.963	109.44
498.181	97.44
498.398	110.44
498.615	93.44
498.832	108.44
499.049	104.44
499.267	92.44
499.484	114.44
499.701	119.44
499.918	104.44
500.135	117.44
500.352	107.44
500.569	121.44
500.786	116.44
501.003	113.44
501.22	105.44
501.437	105.44
501.654	113.44
501.871	111.44
502.088	113.44
502.305	101.44
502.522	114.44
502.739	106.44
502.956	107.44
503.172	95.44
503.389	123.44
503.606	100.44
503.823	97.44
504.04	106.44
504.256	106.44
504.473	99.44
504.69	96.44
504.907	102.44
505.123	114.44
505.34	106.44
505.557	104.44
505.773	104.44
505.99	114.44
506.207	113.44
506.423	109.44
506.64	104.44
506.856	100.44
507.073	105.44
507.289	105.44
507.506	103.44
507.722	109.44
507.939	109.44
508.155	101.44
508.372	109.44
508.588	98.44
508.805	108.44
509.021	86.44
509.238	92.44
509.454	91.44
509.67	88.44
509.887	85.44
510.103	93.44
510.319	102.44
510.536	79.44
510.752	87.44
510.968	79.44
511.184	93.44
511.401	79.44
511.617	82.44
511.833	90.44
512.049	94.44
512.265	100.44
512.481	94.44
512.698	90.44
512.914	96.44
513.13	91.44
513.346	91.44
513.562	94.44
513.778	82.44
513.994	86.44
514.21	88.44
