Data from Zn(NO3)2Standard.Agarose3%.GreenCap.LampEnergy10E.O_HRD10591_15-08-05-947.txt Node
Date: Mon Jul 22 15:08:05 EDT 2019
User: cochatt
Spectrometer: HR+D1059
Trigger mode: 1
Integration Time (sec): 1.000000E-1
Scans to average: 1
Electric dark correction enabled: true
Nonlinearity correction enabled: false
Boxcar width: 0
XAxis mode: Wavelengths
Number of Pixels in Spectrum: 2048
>>>>>Begin Spectral Data<<<<<
223.165	-20.88
223.4	-20.88
223.635	-20.88
223.869	-13.88
224.104	-8.88
224.338	-13.88
224.573	-3.88
224.808	-8.88
225.042	-9.88
225.277	-1.88
225.511	-13.88
225.746	9.12
225.98	6.12
226.215	21.12
226.449	3.12
226.683	9.12
226.918	17.12
227.152	30.12
227.387	35.12
227.621	37.12
227.856	43.12
228.09	50.12
228.324	55.12
228.559	70.12
228.793	63.12
229.027	69.12
229.262	58.12
229.496	59.12
229.73	60.12
229.964	80.12
230.199	66.12
230.433	67.12
230.667	74.12
230.901	68.12
231.136	83.12
231.37	91.12
231.604	84.12
231.838	80.12
232.072	78.12
232.306	66.12
232.541	75.12
232.775	89.12
233.009	81.12
233.243	75.12
233.477	78.12
233.711	72.12
233.945	70.12
234.179	74.12
234.413	79.12
234.647	75.12
234.881	81.12
235.115	69.12
235.349	91.12
235.583	77.12
235.817	80.12
236.051	93.12
236.285	70.12
236.519	70.12
236.753	72.12
236.987	87.12
237.221	61.12
237.455	83.12
237.689	58.12
237.922	74.12
238.156	83.12
238.39	75.12
238.624	71.12
238.858	82.12
239.091	78.12
239.325	72.12
239.559	85.12
239.793	79.12
240.027	80.12
240.26	74.12
240.494	82.12
240.728	73.12
240.961	68.12
241.195	74.12
241.429	69.12
241.662	78.12
241.896	63.12
242.13	67.12
242.363	70.12
242.597	77.12
242.83	64.12
243.064	79.12
243.298	97.12
243.531	77.12
243.765	75.12
243.998	60.12
244.232	68.12
244.465	68.12
244.699	73.12
244.932	60.12
245.166	65.12
245.399	92.12
245.633	83.12
245.866	85.12
246.099	73.12
246.333	82.12
246.566	76.12
246.8	85.12
247.033	73.12
247.266	81.12
247.5	75.12
247.733	82.12
247.966	78.12
248.2	79.12
248.433	76.12
248.666	69.12
248.899	71.12
249.133	81.12
249.366	82.12
249.599	89.12
249.832	81.12
250.066	82.12
250.299	73.12
250.532	75.12
250.765	81.12
250.998	94.12
251.231	76.12
251.465	76.12
251.698	79.12
251.931	82.12
252.164	75.12
252.397	80.12
252.63	71.12
252.863	84.12
253.096	86.12
253.329	79.12
253.562	93.12
253.795	74.12
254.028	71.12
254.261	91.12
254.494	75.12
254.727	79.12
254.96	80.12
255.193	68.12
255.426	72.12
255.659	76.12
255.892	91.12
256.124	79.12
256.357	63.12
256.59	78.12
256.823	85.12
257.056	85.12
257.289	86.12
257.521	77.12
257.754	81.12
257.987	90.12
258.22	68.12
258.452	85.12
258.685	86.12
258.918	79.12
259.151	74.12
259.383	85.12
259.616	81.12
259.849	78.12
260.081	91.12
260.314	87.12
260.547	82.12
260.779	72.12
261.012	75.12
261.244	72.12
261.477	85.12
261.71	85.12
261.942	76.12
262.175	82.12
262.407	78.12
262.64	73.12
262.872	90.12
263.105	82.12
263.337	94.12
263.57	75.12
263.802	69.12
264.035	80.12
264.267	81.12
264.499	82.12
264.732	78.12
264.964	83.12
265.197	82.12
265.429	77.12
265.661	83.12
265.894	84.12
266.126	73.12
266.358	83.12
266.591	87.12
266.823	100.12
267.055	95.12
267.287	76.12
267.52	72.12
267.752	77.12
267.984	87.12
268.216	58.12
268.448	85.12
268.681	92.12
268.913	73.12
269.145	77.12
269.377	90.12
269.609	88.12
269.841	85.12
270.073	70.12
270.306	84.12
270.538	93.12
270.77	71.12
271.002	75.12
271.234	84.12
271.466	76.12
271.698	90.12
271.93	75.12
272.162	79.12
272.394	64.12
272.626	88.12
272.858	96.12
273.09	87.12
273.322	89.12
273.553	76.12
273.785	76.12
274.017	86.12
274.249	93.12
274.481	92.12
274.713	78.12
274.945	81.12
275.176	83.12
275.408	80.12
275.64	92.12
275.872	77.12
276.104	99.12
276.335	76.12
276.567	82.12
276.799	81.12
277.031	75.12
277.262	71.12
277.494	86.12
277.726	82.12
277.957	93.12
278.189	88.12
278.421	82.12
278.652	92.12
278.884	102.12
279.115	96.12
279.347	78.12
279.579	93.12
279.81	80.12
280.042	81.12
280.273	87.12
280.505	88.12
280.736	83.12
280.968	81.12
281.199	87.12
281.431	86.12
281.662	91.12
281.894	97.12
282.125	77.12
282.356	92.12
282.588	77.12
282.819	83.12
283.051	77.12
283.282	77.12
283.513	97.12
283.745	84.12
283.976	76.12
284.207	71.12
284.439	78.12
284.67	89.12
284.901	81.12
285.132	88.12
285.364	84.12
285.595	89.12
285.826	88.12
286.057	82.12
286.288	72.12
286.52	109.12
286.751	88.12
286.982	79.12
287.213	83.12
287.444	85.12
287.675	77.12
287.906	97.12
288.138	75.12
288.369	74.12
288.6	80.12
288.831	84.12
289.062	84.12
289.293	84.12
289.524	92.12
289.755	75.12
289.986	78.12
290.217	109.12
290.448	85.12
290.679	91.12
290.91	87.12
291.141	78.12
291.371	82.12
291.602	91.12
291.833	79.12
292.064	89.12
292.295	84.12
292.526	81.12
292.757	72.12
292.987	81.12
293.218	77.12
293.449	75.12
293.68	85.12
293.91	83.12
294.141	92.12
294.372	88.12
294.603	81.12
294.833	101.12
295.064	72.12
295.295	81.12
295.525	81.12
295.756	82.12
295.987	86.12
296.217	96.12
296.448	87.12
296.679	92.12
296.909	85.12
297.14	92.12
297.37	91.12
297.601	89.12
297.831	91.12
298.062	77.12
298.292	89.12
298.523	93.12
298.753	84.12
298.984	89.12
299.214	86.12
299.445	82.12
299.675	97.12
299.905	77.12
300.136	79.12
300.366	81.12
300.597	77.12
300.827	81.12
301.057	73.12
301.288	97.12
301.518	91.12
301.748	86.12
301.979	85.12
302.209	90.12
302.439	85.12
302.669	87.12
302.9	81.12
303.13	74.12
303.36	72.12
303.59	92.12
303.82	93.12
304.051	77.12
304.281	84.12
304.511	89.12
304.741	66.12
304.971	98.12
305.201	78.12
305.431	86.12
305.661	82.12
305.891	85.12
306.121	95.12
306.352	86.12
306.582	91.12
306.812	87.12
307.042	80.12
307.272	78.12
307.502	81.12
307.731	81.12
307.961	84.12
308.191	95.12
308.421	79.12
308.651	77.12
308.881	87.12
309.111	73.12
309.341	85.12
309.571	96.12
309.8	93.12
310.03	78.12
310.26	86.12
310.49	92.12
310.72	84.12
310.949	75.12
311.179	91.12
311.409	76.12
311.639	81.12
311.868	82.12
312.098	103.12
312.328	84.12
312.557	78.12
312.787	85.12
313.017	72.12
313.246	96.12
313.476	78.12
313.706	79.12
313.935	98.12
314.165	90.12
314.394	86.12
314.624	87.12
314.853	96.12
315.083	79.12
315.312	80.12
315.542	67.12
315.771	86.12
316.001	84.12
316.23	84.12
316.46	70.12
316.689	75.12
316.919	72.12
317.148	95.12
317.377	95.12
317.607	77.12
317.836	77.12
318.065	91.12
318.295	75.12
318.524	72.12
318.753	92.12
318.983	75.12
319.212	91.12
319.441	72.12
319.67	96.12
319.9	93.12
320.129	84.12
320.358	92.12
320.587	83.12
320.816	80.12
321.046	91.12
321.275	92.12
321.504	85.12
321.733	95.12
321.962	86.12
322.191	97.12
322.42	81.12
322.649	75.12
322.878	82.12
323.108	87.12
323.337	90.12
323.566	80.12
323.795	97.12
324.024	93.12
324.253	80.12
324.482	97.12
324.71	92.12
324.939	96.12
325.168	81.12
325.397	75.12
325.626	98.12
325.855	81.12
326.084	81.12
326.313	70.12
326.542	81.12
326.77	97.12
326.999	87.12
327.228	87.12
327.457	92.12
327.686	102.12
327.914	90.12
328.143	88.12
328.372	99.12
328.6	77.12
328.829	96.12
329.058	91.12
329.287	81.12
329.515	89.12
329.744	87.12
329.972	80.12
330.201	90.12
330.43	93.12
330.658	92.12
330.887	86.12
331.115	96.12
331.344	92.12
331.572	87.12
331.801	73.12
332.03	83.12
332.258	82.12
332.486	83.12
332.715	85.12
332.943	85.12
333.172	83.12
333.4	91.12
333.629	80.12
333.857	95.12
334.085	85.12
334.314	92.12
334.542	101.12
334.771	81.12
334.999	91.12
335.227	87.12
335.455	78.12
335.684	88.12
335.912	83.12
336.14	73.12
336.369	89.12
336.597	95.12
336.825	84.12
337.053	88.12
337.281	95.12
337.51	88.12
337.738	88.12
337.966	85.12
338.194	74.12
338.422	85.12
338.65	87.12
338.878	86.12
339.106	92.12
339.334	97.12
339.562	87.12
339.79	88.12
340.018	80.12
340.246	83.12
340.474	88.12
340.702	69.12
340.93	85.12
341.158	92.12
341.386	84.12
341.614	84.12
341.842	77.12
342.07	84.12
342.298	83.12
342.526	77.12
342.754	93.12
342.981	82.12
343.209	78.12
343.437	90.12
343.665	84.12
343.893	77.12
344.12	91.12
344.348	85.12
344.576	78.12
344.804	88.12
345.031	92.12
345.259	96.12
345.487	89.12
345.714	80.12
345.942	90.12
346.17	81.12
346.397	80.12
346.625	86.12
346.853	85.12
347.08	96.12
347.308	92.12
347.535	71.12
347.763	93.12
347.99	96.12
348.218	98.12
348.445	84.12
348.673	82.12
348.9	92.12
349.128	82.12
349.355	79.12
349.583	74.12
349.81	85.12
350.037	93.12
350.265	88.12
350.492	94.12
350.72	96.12
350.947	83.12
351.174	85.12
351.402	78.12
351.629	89.12
351.856	86.12
352.083	72.12
352.311	77.12
352.538	95.12
352.765	96.12
352.992	93.12
353.22	89.12
353.447	73.12
353.674	94.12
353.901	88.12
354.128	69.12
354.355	74.12
354.583	65.12
354.81	86.12
355.037	95.12
355.264	95.12
355.491	80.12
355.718	84.12
355.945	73.12
356.172	76.12
356.399	80.12
356.626	82.12
356.853	83.12
357.08	86.12
357.307	90.12
357.534	89.12
357.761	79.12
357.988	84.12
358.215	69.12
358.441	76.12
358.668	83.12
358.895	77.12
359.122	79.12
359.349	92.12
359.576	99.12
359.802	78.12
360.029	80.12
360.256	86.12
360.483	105.12
360.709	84.12
360.936	96.12
361.163	80.12
361.39	81.12
361.616	77.12
361.843	89.12
362.07	84.12
362.296	81.12
362.523	74.12
362.749	79.12
362.976	81.12
363.203	77.12
363.429	79.12
363.656	85.12
363.882	77.12
364.109	82.12
364.335	79.12
364.562	89.12
364.788	85.12
365.015	84.12
365.241	94.12
365.468	96.12
365.694	89.12
365.92	78.12
366.147	84.12
366.373	87.12
366.599	81.12
366.826	85.12
367.052	91.12
367.278	101.12
367.505	97.12
367.731	74.12
367.957	74.12
368.184	96.12
368.41	82.12
368.636	92.12
368.862	79.12
369.089	91.12
369.315	85.12
369.541	82.12
369.767	88.12
369.993	88.12
370.219	92.12
370.445	81.12
370.672	84.12
370.898	91.12
371.124	70.12
371.35	84.12
371.576	94.12
371.802	75.12
372.028	88.12
372.254	88.12
372.48	85.12
372.706	83.12
372.932	85.12
373.158	97.12
373.384	104.12
373.61	93.12
373.835	98.12
374.061	84.12
374.287	86.12
374.513	91.12
374.739	91.12
374.965	92.12
375.191	94.12
375.416	93.12
375.642	93.12
375.868	74.12
376.094	76.12
376.319	72.12
376.545	68.12
376.771	89.12
376.997	83.12
377.222	85.12
377.448	93.12
377.674	97.12
377.899	90.12
378.125	77.12
378.35	91.12
378.576	92.12
378.802	75.12
379.027	77.12
379.253	86.12
379.478	80.12
379.704	99.12
379.929	86.12
380.155	98.12
380.38	74.12
380.606	93.12
380.831	87.12
381.057	86.12
381.282	99.12
381.507	96.12
381.733	100.12
381.958	85.12
382.184	80.12
382.409	91.12
382.634	86.12
382.86	91.12
383.085	82.12
383.31	104.12
383.535	85.12
383.761	86.12
383.986	84.12
384.211	85.12
384.436	106.12
384.662	92.12
384.887	88.12
385.112	100.12
385.337	89.12
385.562	83.12
385.787	81.12
386.013	91.12
386.238	86.12
386.463	100.12
386.688	101.12
386.913	89.12
387.138	103.12
387.363	95.12
387.588	98.12
387.813	97.12
388.038	93.12
388.263	80.12
388.488	89.12
388.713	91.12
388.938	73.12
389.163	87.12
389.387	95.12
389.612	92.12
389.837	97.12
390.062	95.12
390.287	96.12
390.512	89.12
390.736	92.12
390.961	101.12
391.186	91.12
391.411	86.12
391.636	96.12
391.86	103.12
392.085	90.12
392.31	81.12
392.534	97.12
392.759	101.12
392.984	93.12
393.208	103.12
393.433	66.12
393.658	68.12
393.882	82.12
394.107	85.12
394.331	91.12
394.556	107.12
394.78	87.12
395.005	96.12
395.229	91.12
395.454	88.12
395.678	96.12
395.903	88.12
396.127	88.12
396.352	98.12
396.576	92.12
396.801	100.12
397.025	100.12
397.249	108.12
397.474	97.12
397.698	99.12
397.922	85.12
398.147	94.12
398.371	92.12
398.595	91.12
398.82	109.12
399.044	111.12
399.268	91.12
399.492	108.12
399.717	92.12
399.941	82.12
400.165	107.12
400.389	90.12
400.613	96.12
400.837	97.12
401.062	90.12
401.286	97.12
401.51	95.12
401.734	85.12
401.958	96.12
402.182	103.12
402.406	113.12
402.63	94.12
402.854	96.12
403.078	98.12
403.302	104.12
403.526	102.12
403.75	93.12
403.974	84.12
404.198	89.12
404.422	87.12
404.645	91.12
404.869	91.12
405.093	94.12
405.317	93.12
405.541	83.12
405.765	113.12
405.988	91.12
406.212	86.12
406.436	95.12
406.66	109.12
406.883	92.12
407.107	96.12
407.331	90.12
407.555	98.12
407.778	96.12
408.002	97.12
408.226	105.12
408.449	96.12
408.673	77.12
408.896	109.12
409.12	92.12
409.344	95.12
409.567	121.12
409.791	111.12
410.014	104.12
410.238	95.12
410.461	85.12
410.685	93.12
410.908	95.12
411.132	111.12
411.355	92.12
411.578	115.12
411.802	100.12
412.025	89.12
412.249	96.12
412.472	90.12
412.695	101.12
412.919	107.12
413.142	99.12
413.365	101.12
413.589	90.12
413.812	96.12
414.035	111.12
414.258	97.12
414.482	95.12
414.705	103.12
414.928	104.12
415.151	89.12
415.374	96.12
415.597	113.12
415.821	98.12
416.044	104.12
416.267	96.12
416.49	104.12
416.713	104.12
416.936	108.12
417.159	98.12
417.382	111.12
417.605	107.12
417.828	100.12
418.051	97.12
418.274	101.12
418.497	119.12
418.72	103.12
418.943	105.12
419.166	107.12
419.389	113.12
419.611	109.12
419.834	108.12
420.057	106.12
420.28	109.12
420.503	104.12
420.726	93.12
420.948	102.12
421.171	108.12
421.394	99.12
421.617	104.12
421.839	93.12
422.062	98.12
422.285	95.12
422.507	92.12
422.73	97.12
422.953	97.12
423.175	101.12
423.398	98.12
423.621	109.12
423.843	109.12
424.066	100.12
424.288	103.12
424.511	109.12
424.733	112.12
424.956	99.12
425.178	104.12
425.401	113.12
425.623	112.12
425.846	95.12
426.068	107.12
426.291	115.12
426.513	101.12
426.735	108.12
426.958	96.12
427.18	114.12
427.402	103.12
427.625	91.12
427.847	95.12
428.069	90.12
428.292	104.12
428.514	108.12
428.736	105.12
428.958	106.12
429.181	105.12
429.403	114.12
429.625	107.12
429.847	98.12
430.069	97.12
430.292	114.12
430.514	113.12
430.736	98.12
430.958	99.12
431.18	114.12
431.402	109.12
431.624	105.12
431.846	95.12
432.068	90.12
432.29	86.12
432.512	96.12
432.734	100.12
432.956	96.12
433.178	98.12
433.4	114.12
433.622	116.12
433.844	98.12
434.066	99.12
434.287	91.12
434.509	101.12
434.731	80.12
434.953	96.12
435.175	107.12
435.397	97.12
435.618	91.12
435.84	94.12
436.062	86.12
436.284	91.12
436.505	95.12
436.727	99.12
436.949	106.12
437.17	104.12
437.392	98.12
437.614	91.12
437.835	92.12
438.057	86.12
438.278	101.12
438.5	91.12
438.721	102.12
438.943	112.12
439.165	105.12
439.386	111.12
439.608	106.12
439.829	117.12
440.05	114.12
440.272	110.12
440.493	100.12
440.715	91.12
440.936	117.12
441.158	120.12
441.379	102.12
441.6	116.12
441.822	118.12
442.043	123.12
442.264	102.12
442.486	105.12
442.707	122.12
442.928	102.12
443.149	105.12
443.371	111.12
443.592	95.12
443.813	119.12
444.034	100.12
444.255	108.12
444.476	114.12
444.698	102.12
444.919	118.12
445.14	206.12
445.361	160.12
445.582	109.12
445.803	114.12
446.024	117.12
446.245	101.12
446.466	109.12
446.687	121.12
446.908	101.12
447.129	119.12
447.35	115.12
447.571	114.12
447.792	120.12
448.013	100.12
448.234	99.12
448.455	107.12
448.675	114.12
448.896	106.12
449.117	105.12
449.338	107.12
449.559	89.12
449.779	95.12
450	116.12
450.221	116.12
450.442	107.12
450.662	102.12
450.883	113.12
451.104	115.12
451.324	101.12
451.545	90.12
451.766	119.12
451.986	104.12
452.207	93.12
452.428	95.12
452.648	103.12
452.869	99.12
453.089	102.12
453.31	93.12
453.53	106.12
453.751	80.12
453.971	71.12
454.192	84.12
454.412	90.12
454.633	108.12
454.853	88.12
455.073	108.12
455.294	120.12
455.514	97.12
455.734	102.12
455.955	97.12
456.175	90.12
456.395	97.12
456.616	84.12
456.836	102.12
457.056	93.12
457.276	79.12
457.497	100.12
457.717	82.12
457.937	105.12
458.157	99.12
458.377	94.12
458.598	95.12
458.818	87.12
459.038	97.12
459.258	88.12
459.478	72.12
459.698	86.12
459.918	98.12
460.138	97.12
460.358	97.12
460.578	106.12
460.798	110.12
461.018	93.12
461.238	101.12
461.458	97.12
461.678	104.12
461.898	94.12
462.118	105.12
462.338	75.12
462.558	110.12
462.777	95.12
462.997	107.12
463.217	100.12
463.437	98.12
463.657	82.12
463.876	100.12
464.096	102.12
464.316	105.12
464.536	93.12
464.755	92.12
464.975	99.12
465.195	101.12
465.414	99.12
465.634	113.12
465.854	98.12
466.073	100.12
466.293	107.12
466.512	96.12
466.732	117.12
466.951	108.12
467.171	123.12
467.391	105.12
467.61	115.12
467.829	102.12
468.049	105.12
468.268	94.12
468.488	114.12
468.707	93.12
468.927	118.12
469.146	109.12
469.365	108.12
469.585	115.12
469.804	103.12
470.023	107.12
470.243	101.12
470.462	107.12
470.681	105.12
470.901	107.12
471.12	108.12
471.339	107.12
471.558	115.12
471.777	104.12
471.997	109.12
472.216	116.12
472.435	114.12
472.654	88.12
472.873	99.12
473.092	105.12
473.311	97.12
473.53	101.12
473.749	104.12
473.968	89.12
474.187	93.12
474.406	102.12
474.625	104.12
474.844	113.12
475.063	120.12
475.282	95.12
475.501	106.12
475.72	101.12
475.939	97.12
476.158	91.12
476.377	95.12
476.596	87.12
476.814	112.12
477.033	87.12
477.252	90.12
477.471	107.12
477.69	100.12
477.908	119.12
478.127	108.12
478.346	106.12
478.564	114.12
478.783	111.12
479.002	101.12
479.22	99.12
479.439	111.12
479.658	102.12
479.876	100.12
480.095	90.12
480.313	98.12
480.532	111.12
480.751	109.12
480.969	96.12
481.188	81.12
481.406	81.12
481.624	82.12
481.843	90.12
482.061	72.12
482.28	105.12
482.498	99.12
482.717	96.12
482.935	82.12
483.153	92.12
483.372	120.12
483.59	107.12
483.808	105.12
484.027	111.12
484.245	129.12
484.463	120.12
484.681	114.12
484.9	119.12
485.118	113.12
485.336	110.12
485.554	118.12
485.772	99.12
485.99	92.12
486.209	101.12
486.427	100.12
486.645	104.12
486.863	108.12
487.081	122.12
487.299	108.12
487.517	117.12
487.735	121.12
487.953	126.12
488.171	143.12
488.389	133.12
488.607	115.12
488.825	118.12
489.043	124.12
489.261	117.12
489.479	111.12
489.696	111.12
489.914	99.12
490.132	108.12
490.35	109.12
490.568	116.12
490.786	127.12
491.003	124.12
491.221	121.12
491.439	123.12
491.657	137.12
491.874	148.12
492.092	154.12
492.31	146.12
492.527	136.12
492.745	141.12
492.963	127.12
493.18	124.12
493.398	146.12
493.615	133.12
493.833	136.12
494.05	124.12
494.268	117.12
494.485	113.12
494.703	126.12
494.92	127.12
495.138	111.12
495.355	125.12
495.573	140.12
495.79	127.12
496.008	117.12
496.225	123.12
496.442	113.12
496.66	141.12
496.877	111.12
497.094	121.12
497.312	130.12
497.529	136.12
497.746	122.12
497.963	121.12
498.181	104.12
498.398	99.12
498.615	99.12
498.832	106.12
499.049	106.12
499.267	99.12
499.484	105.12
499.701	111.12
499.918	111.12
500.135	112.12
500.352	100.12
500.569	104.12
500.786	114.12
501.003	107.12
501.22	122.12
501.437	121.12
501.654	93.12
501.871	108.12
502.088	107.12
502.305	114.12
502.522	115.12
502.739	101.12
502.956	99.12
503.172	99.12
503.389	91.12
503.606	105.12
503.823	98.12
504.04	95.12
504.256	101.12
504.473	107.12
504.69	98.12
504.907	111.12
505.123	95.12
505.34	112.12
505.557	111.12
505.773	112.12
505.99	105.12
506.207	96.12
506.423	102.12
506.64	104.12
506.856	99.12
507.073	100.12
507.289	107.12
507.506	84.12
507.722	104.12
507.939	99.12
508.155	112.12
508.372	87.12
508.588	94.12
508.805	89.12
509.021	102.12
509.238	97.12
509.454	92.12
509.67	93.12
509.887	98.12
510.103	84.12
510.319	76.12
510.536	87.12
510.752	93.12
510.968	87.12
511.184	80.12
511.401	94.12
511.617	85.12
511.833	85.12
512.049	104.12
512.265	96.12
512.481	103.12
512.698	96.12
512.914	81.12
513.13	95.12
513.346	83.12
513.562	99.12
513.778	80.12
513.994	91.12
514.21	89.12
514.426	95.12
514.642	106.12
