Data from Zn(NO3)2Standard.Agarose3%.GreenCap.LampEnergy5.5.E.O_HRD10591_15-02-16-767.txt Node
Date: Mon Jul 22 15:02:16 EDT 2019
User: cochatt
Spectrometer: HR+D1059
Trigger mode: 1
Integration Time (sec): 1.000000E-1
Scans to average: 1
Electric dark correction enabled: true
Nonlinearity correction enabled: false
Boxcar width: 0
XAxis mode: Wavelengths
Number of Pixels in Spectrum: 2048
>>>>>Begin Spectral Data<<<<<
223.165	-16.69
223.4	-16.69
223.635	-16.69
223.869	-14.69
224.104	-19.69
224.338	-11.69
224.573	-18.69
224.808	-16.69
225.042	4.31
225.277	-5.69
225.511	-6.69
225.746	-0.69
225.98	11.31
226.215	14.31
226.449	17.31
226.683	19.31
226.918	22.31
227.152	22.31
227.387	20.31
227.621	34.31
227.856	32.31
228.09	50.31
228.324	40.31
228.559	48.31
228.793	38.31
229.027	49.31
229.262	60.31
229.496	64.31
229.73	78.31
229.964	68.31
230.199	75.31
230.433	71.31
230.667	67.31
230.901	63.31
231.136	63.31
231.37	62.31
231.604	70.31
231.838	86.31
232.072	75.31
232.306	82.31
232.541	92.31
232.775	80.31
233.009	95.31
233.243	67.31
233.477	81.31
233.711	88.31
233.945	63.31
234.179	81.31
234.413	75.31
234.647	81.31
234.881	78.31
235.115	82.31
235.349	68.31
235.583	67.31
235.817	64.31
236.051	76.31
236.285	72.31
236.519	72.31
236.753	74.31
236.987	77.31
237.221	62.31
237.455	77.31
237.689	66.31
237.922	80.31
238.156	74.31
238.39	64.31
238.624	60.31
238.858	65.31
239.091	73.31
239.325	80.31
239.559	77.31
239.793	70.31
240.027	79.31
240.26	75.31
240.494	68.31
240.728	75.31
240.961	74.31
241.195	82.31
241.429	86.31
241.662	69.31
241.896	80.31
242.13	89.31
242.363	66.31
242.597	76.31
242.83	83.31
243.064	81.31
243.298	66.31
243.531	87.31
243.765	79.31
243.998	70.31
244.232	70.31
244.465	71.31
244.699	75.31
244.932	81.31
245.166	76.31
245.399	82.31
245.633	78.31
245.866	83.31
246.099	80.31
246.333	80.31
246.566	72.31
246.8	79.31
247.033	76.31
247.266	69.31
247.5	87.31
247.733	78.31
247.966	80.31
248.2	70.31
248.433	63.31
248.666	70.31
248.899	83.31
249.133	64.31
249.366	80.31
249.599	83.31
249.832	83.31
250.066	69.31
250.299	62.31
250.532	79.31
250.765	83.31
250.998	96.31
251.231	66.31
251.465	74.31
251.698	72.31
251.931	73.31
252.164	82.31
252.397	68.31
252.63	91.31
252.863	82.31
253.096	86.31
253.329	73.31
253.562	92.31
253.795	73.31
254.028	86.31
254.261	69.31
254.494	75.31
254.727	83.31
254.96	72.31
255.193	81.31
255.426	77.31
255.659	53.31
255.892	82.31
256.124	82.31
256.357	90.31
256.59	67.31
256.823	90.31
257.056	68.31
257.289	77.31
257.521	76.31
257.754	82.31
257.987	78.31
258.22	85.31
258.452	80.31
258.685	80.31
258.918	81.31
259.151	72.31
259.383	84.31
259.616	81.31
259.849	80.31
260.081	73.31
260.314	72.31
260.547	61.31
260.779	70.31
261.012	66.31
261.244	70.31
261.477	93.31
261.71	85.31
261.942	85.31
262.175	89.31
262.407	72.31
262.64	90.31
262.872	76.31
263.105	77.31
263.337	76.31
263.57	83.31
263.802	81.31
264.035	72.31
264.267	70.31
264.499	71.31
264.732	74.31
264.964	79.31
265.197	74.31
265.429	89.31
265.661	82.31
265.894	59.31
266.126	81.31
266.358	78.31
266.591	84.31
266.823	92.31
267.055	81.31
267.287	80.31
267.52	69.31
267.752	76.31
267.984	88.31
268.216	78.31
268.448	79.31
268.681	77.31
268.913	78.31
269.145	86.31
269.377	66.31
269.609	87.31
269.841	88.31
270.073	87.31
270.306	93.31
270.538	60.31
270.77	91.31
271.002	82.31
271.234	78.31
271.466	78.31
271.698	86.31
271.93	72.31
272.162	87.31
272.394	87.31
272.626	69.31
272.858	80.31
273.09	85.31
273.322	76.31
273.553	69.31
273.785	84.31
274.017	68.31
274.249	88.31
274.481	100.31
274.713	91.31
274.945	84.31
275.176	67.31
275.408	80.31
275.64	85.31
275.872	63.31
276.104	81.31
276.335	83.31
276.567	83.31
276.799	82.31
277.031	78.31
277.262	73.31
277.494	80.31
277.726	77.31
277.957	84.31
278.189	82.31
278.421	92.31
278.652	89.31
278.884	84.31
279.115	88.31
279.347	76.31
279.579	81.31
279.81	70.31
280.042	75.31
280.273	78.31
280.505	82.31
280.736	86.31
280.968	81.31
281.199	76.31
281.431	77.31
281.662	67.31
281.894	88.31
282.125	82.31
282.356	74.31
282.588	75.31
282.819	78.31
283.051	86.31
283.282	87.31
283.513	68.31
283.745	67.31
283.976	83.31
284.207	73.31
284.439	88.31
284.67	76.31
284.901	92.31
285.132	85.31
285.364	89.31
285.595	87.31
285.826	74.31
286.057	86.31
286.288	72.31
286.52	91.31
286.751	98.31
286.982	78.31
287.213	85.31
287.444	73.31
287.675	98.31
287.906	81.31
288.138	73.31
288.369	78.31
288.6	84.31
288.831	66.31
289.062	79.31
289.293	90.31
289.524	80.31
289.755	84.31
289.986	73.31
290.217	81.31
290.448	87.31
290.679	76.31
290.91	93.31
291.141	97.31
291.371	84.31
291.602	68.31
291.833	96.31
292.064	88.31
292.295	80.31
292.526	91.31
292.757	93.31
292.987	77.31
293.218	76.31
293.449	86.31
293.68	88.31
293.91	83.31
294.141	78.31
294.372	88.31
294.603	94.31
294.833	79.31
295.064	72.31
295.295	89.31
295.525	78.31
295.756	72.31
295.987	86.31
296.217	78.31
296.448	76.31
296.679	77.31
296.909	94.31
297.14	77.31
297.37	82.31
297.601	78.31
297.831	76.31
298.062	81.31
298.292	75.31
298.523	86.31
298.753	77.31
298.984	78.31
299.214	75.31
299.445	82.31
299.675	87.31
299.905	76.31
300.136	78.31
300.366	90.31
300.597	71.31
300.827	89.31
301.057	82.31
301.288	79.31
301.518	93.31
301.748	87.31
301.979	86.31
302.209	91.31
302.439	83.31
302.669	79.31
302.9	97.31
303.13	78.31
303.36	91.31
303.59	82.31
303.82	82.31
304.051	78.31
304.281	91.31
304.511	80.31
304.741	73.31
304.971	78.31
305.201	96.31
305.431	95.31
305.661	102.31
305.891	97.31
306.121	84.31
306.352	79.31
306.582	79.31
306.812	86.31
307.042	101.31
307.272	70.31
307.502	87.31
307.731	82.31
307.961	86.31
308.191	84.31
308.421	90.31
308.651	85.31
308.881	87.31
309.111	83.31
309.341	86.31
309.571	96.31
309.8	91.31
310.03	68.31
310.26	74.31
310.49	81.31
310.72	71.31
310.949	89.31
311.179	80.31
311.409	87.31
311.639	84.31
311.868	67.31
312.098	61.31
312.328	78.31
312.557	76.31
312.787	77.31
313.017	69.31
313.246	73.31
313.476	88.31
313.706	85.31
313.935	89.31
314.165	87.31
314.394	81.31
314.624	76.31
314.853	94.31
315.083	93.31
315.312	83.31
315.542	86.31
315.771	72.31
316.001	84.31
316.23	66.31
316.46	71.31
316.689	76.31
316.919	74.31
317.148	76.31
317.377	82.31
317.607	83.31
317.836	75.31
318.065	98.31
318.295	69.31
318.524	82.31
318.753	87.31
318.983	77.31
319.212	81.31
319.441	83.31
319.67	88.31
319.9	85.31
320.129	85.31
320.358	73.31
320.587	86.31
320.816	82.31
321.046	76.31
321.275	91.31
321.504	82.31
321.733	94.31
321.962	83.31
322.191	80.31
322.42	81.31
322.649	76.31
322.878	79.31
323.108	89.31
323.337	83.31
323.566	88.31
323.795	77.31
324.024	80.31
324.253	75.31
324.482	77.31
324.71	81.31
324.939	87.31
325.168	88.31
325.397	75.31
325.626	79.31
325.855	89.31
326.084	82.31
326.313	83.31
326.542	88.31
326.77	82.31
326.999	71.31
327.228	82.31
327.457	91.31
327.686	84.31
327.914	86.31
328.143	94.31
328.372	86.31
328.6	69.31
328.829	80.31
329.058	84.31
329.287	97.31
329.515	85.31
329.744	71.31
329.972	82.31
330.201	86.31
330.43	82.31
330.658	84.31
330.887	87.31
331.115	89.31
331.344	70.31
331.572	85.31
331.801	86.31
332.03	76.31
332.258	75.31
332.486	75.31
332.715	75.31
332.943	75.31
333.172	95.31
333.4	83.31
333.629	86.31
333.857	70.31
334.085	92.31
334.314	91.31
334.542	81.31
334.771	75.31
334.999	71.31
335.227	79.31
335.455	84.31
335.684	81.31
335.912	76.31
336.14	80.31
336.369	80.31
336.597	65.31
336.825	84.31
337.053	78.31
337.281	83.31
337.51	75.31
337.738	67.31
337.966	86.31
338.194	83.31
338.422	88.31
338.65	83.31
338.878	87.31
339.106	85.31
339.334	81.31
339.562	94.31
339.79	64.31
340.018	89.31
340.246	90.31
340.474	72.31
340.702	62.31
340.93	71.31
341.158	92.31
341.386	75.31
341.614	82.31
341.842	76.31
342.07	76.31
342.298	93.31
342.526	87.31
342.754	83.31
342.981	74.31
343.209	87.31
343.437	71.31
343.665	77.31
343.893	87.31
344.12	82.31
344.348	87.31
344.576	84.31
344.804	86.31
345.031	84.31
345.259	81.31
345.487	85.31
345.714	75.31
345.942	87.31
346.17	95.31
346.397	81.31
346.625	75.31
346.853	76.31
347.08	80.31
347.308	80.31
347.535	76.31
347.763	92.31
347.99	79.31
348.218	87.31
348.445	89.31
348.673	73.31
348.9	91.31
349.128	89.31
349.355	71.31
349.583	80.31
349.81	83.31
350.037	80.31
350.265	89.31
350.492	78.31
350.72	79.31
350.947	74.31
351.174	70.31
351.402	89.31
351.629	82.31
351.856	86.31
352.083	71.31
352.311	88.31
352.538	77.31
352.765	72.31
352.992	68.31
353.22	79.31
353.447	94.31
353.674	87.31
353.901	87.31
354.128	74.31
354.355	81.31
354.583	84.31
354.81	76.31
355.037	82.31
355.264	93.31
355.491	85.31
355.718	78.31
355.945	93.31
356.172	81.31
356.399	84.31
356.626	79.31
356.853	89.31
357.08	74.31
357.307	79.31
357.534	85.31
357.761	77.31
357.988	94.31
358.215	82.31
358.441	76.31
358.668	80.31
358.895	70.31
359.122	83.31
359.349	84.31
359.576	82.31
359.802	87.31
360.029	70.31
360.256	74.31
360.483	88.31
360.709	83.31
360.936	80.31
361.163	90.31
361.39	89.31
361.616	80.31
361.843	79.31
362.07	87.31
362.296	81.31
362.523	79.31
362.749	76.31
362.976	83.31
363.203	88.31
363.429	75.31
363.656	78.31
363.882	71.31
364.109	79.31
364.335	87.31
364.562	84.31
364.788	83.31
365.015	84.31
365.241	91.31
365.468	83.31
365.694	82.31
365.92	78.31
366.147	74.31
366.373	91.31
366.599	75.31
366.826	78.31
367.052	83.31
367.278	85.31
367.505	71.31
367.731	77.31
367.957	81.31
368.184	94.31
368.41	82.31
368.636	80.31
368.862	90.31
369.089	83.31
369.315	66.31
369.541	87.31
369.767	95.31
369.993	78.31
370.219	65.31
370.445	76.31
370.672	73.31
370.898	91.31
371.124	85.31
371.35	91.31
371.576	79.31
371.802	79.31
372.028	87.31
372.254	72.31
372.48	98.31
372.706	86.31
372.932	70.31
373.158	91.31
373.384	74.31
373.61	77.31
373.835	79.31
374.061	84.31
374.287	73.31
374.513	80.31
374.739	75.31
374.965	76.31
375.191	86.31
375.416	79.31
375.642	70.31
375.868	76.31
376.094	71.31
376.319	82.31
376.545	71.31
376.771	89.31
376.997	76.31
377.222	79.31
377.448	78.31
377.674	71.31
377.899	82.31
378.125	88.31
378.35	92.31
378.576	79.31
378.802	78.31
379.027	89.31
379.253	67.31
379.478	69.31
379.704	78.31
379.929	79.31
380.155	84.31
380.38	76.31
380.606	80.31
380.831	79.31
381.057	77.31
381.282	75.31
381.507	75.31
381.733	66.31
381.958	80.31
382.184	84.31
382.409	86.31
382.634	81.31
382.86	76.31
383.085	64.31
383.31	81.31
383.535	80.31
383.761	89.31
383.986	87.31
384.211	84.31
384.436	86.31
384.662	85.31
384.887	85.31
385.112	79.31
385.337	81.31
385.562	94.31
385.787	71.31
386.013	79.31
386.238	83.31
386.463	91.31
386.688	90.31
386.913	84.31
387.138	70.31
387.363	86.31
387.588	94.31
387.813	80.31
388.038	82.31
388.263	79.31
388.488	60.31
388.713	87.31
388.938	81.31
389.163	82.31
389.387	81.31
389.612	89.31
389.837	76.31
390.062	80.31
390.287	75.31
390.512	76.31
390.736	74.31
390.961	80.31
391.186	69.31
391.411	89.31
391.636	84.31
391.86	87.31
392.085	86.31
392.31	84.31
392.534	84.31
392.759	74.31
392.984	80.31
393.208	83.31
393.433	74.31
393.658	82.31
393.882	76.31
394.107	93.31
394.331	90.31
394.556	79.31
394.78	76.31
395.005	88.31
395.229	67.31
395.454	88.31
395.678	81.31
395.903	81.31
396.127	90.31
396.352	82.31
396.576	94.31
396.801	83.31
397.025	89.31
397.249	80.31
397.474	91.31
397.698	94.31
397.922	82.31
398.147	82.31
398.371	83.31
398.595	84.31
398.82	88.31
399.044	82.31
399.268	77.31
399.492	90.31
399.717	76.31
399.941	97.31
400.165	98.31
400.389	80.31
400.613	75.31
400.837	86.31
401.062	77.31
401.286	80.31
401.51	74.31
401.734	76.31
401.958	84.31
402.182	84.31
402.406	70.31
402.63	81.31
402.854	68.31
403.078	87.31
403.302	69.31
403.526	71.31
403.75	85.31
403.974	70.31
404.198	76.31
404.422	84.31
404.645	77.31
404.869	89.31
405.093	92.31
405.317	86.31
405.541	83.31
405.765	95.31
405.988	96.31
406.212	85.31
406.436	95.31
406.66	88.31
406.883	72.31
407.107	89.31
407.331	75.31
407.555	80.31
407.778	84.31
408.002	73.31
408.226	91.31
408.449	79.31
408.673	95.31
408.896	72.31
409.12	85.31
409.344	76.31
409.567	88.31
409.791	95.31
410.014	63.31
410.238	81.31
410.461	92.31
410.685	91.31
410.908	90.31
411.132	104.31
411.355	90.31
411.578	76.31
411.802	90.31
412.025	87.31
412.249	95.31
412.472	85.31
412.695	84.31
412.919	67.31
413.142	82.31
413.365	77.31
413.589	81.31
413.812	82.31
414.035	69.31
414.258	90.31
414.482	70.31
414.705	75.31
414.928	95.31
415.151	84.31
415.374	89.31
415.597	76.31
415.821	86.31
416.044	73.31
416.267	87.31
416.49	89.31
416.713	88.31
416.936	88.31
417.159	90.31
417.382	85.31
417.605	93.31
417.828	95.31
418.051	84.31
418.274	84.31
418.497	82.31
418.72	83.31
418.943	88.31
419.166	90.31
419.389	79.31
419.611	83.31
419.834	67.31
420.057	89.31
420.28	93.31
420.503	94.31
420.726	86.31
420.948	79.31
421.171	80.31
421.394	84.31
421.617	82.31
421.839	80.31
422.062	84.31
422.285	74.31
422.507	93.31
422.73	78.31
422.953	71.31
423.175	81.31
423.398	94.31
423.621	75.31
423.843	85.31
424.066	95.31
424.288	90.31
424.511	85.31
424.733	90.31
424.956	90.31
425.178	76.31
425.401	89.31
425.623	77.31
425.846	81.31
426.068	81.31
426.291	82.31
426.513	95.31
426.735	85.31
426.958	68.31
427.18	79.31
427.402	94.31
427.625	94.31
427.847	80.31
428.069	90.31
428.292	85.31
428.514	80.31
428.736	87.31
428.958	81.31
429.181	83.31
429.403	108.31
429.625	89.31
429.847	88.31
430.069	83.31
430.292	91.31
430.514	88.31
430.736	82.31
430.958	84.31
431.18	80.31
431.402	87.31
431.624	75.31
431.846	87.31
432.068	86.31
432.29	82.31
432.512	85.31
432.734	91.31
432.956	99.31
433.178	87.31
433.4	88.31
433.622	96.31
433.844	93.31
434.066	85.31
434.287	84.31
434.509	70.31
434.731	86.31
434.953	72.31
435.175	98.31
435.397	91.31
435.618	73.31
435.84	90.31
436.062	89.31
436.284	90.31
436.505	80.31
436.727	82.31
436.949	73.31
437.17	78.31
437.392	89.31
437.614	76.31
437.835	88.31
438.057	91.31
438.278	87.31
438.5	92.31
438.721	103.31
438.943	81.31
439.165	90.31
439.386	84.31
439.608	78.31
439.829	87.31
440.05	80.31
440.272	87.31
440.493	78.31
440.715	94.31
440.936	106.31
441.158	88.31
441.379	90.31
441.6	87.31
441.822	97.31
442.043	97.31
442.264	84.31
442.486	83.31
442.707	80.31
442.928	84.31
443.149	90.31
443.371	90.31
443.592	84.31
443.813	85.31
444.034	89.31
444.255	85.31
444.476	89.31
444.698	96.31
444.919	84.31
445.14	207.31
445.361	145.31
445.582	85.31
445.803	96.31
446.024	100.31
446.245	90.31
446.466	70.31
446.687	76.31
446.908	84.31
447.129	91.31
447.35	98.31
447.571	95.31
447.792	87.31
448.013	85.31
448.234	79.31
448.455	81.31
448.675	99.31
448.896	81.31
449.117	83.31
449.338	90.31
449.559	105.31
449.779	92.31
450	105.31
450.221	81.31
450.442	73.31
450.662	81.31
450.883	73.31
451.104	77.31
451.324	84.31
451.545	94.31
451.766	93.31
451.986	79.31
452.207	91.31
452.428	91.31
452.648	87.31
452.869	89.31
453.089	79.31
453.31	75.31
453.53	77.31
453.751	83.31
453.971	87.31
454.192	80.31
454.412	75.31
454.633	91.31
454.853	84.31
455.073	83.31
455.294	79.31
455.514	96.31
455.734	74.31
455.955	88.31
456.175	86.31
456.395	95.31
456.616	81.31
456.836	89.31
457.056	79.31
457.276	83.31
457.497	78.31
457.717	86.31
457.937	84.31
458.157	84.31
458.377	87.31
458.598	74.31
458.818	81.31
459.038	70.31
459.258	86.31
459.478	95.31
459.698	84.31
459.918	86.31
460.138	72.31
460.358	78.31
460.578	72.31
460.798	91.31
461.018	75.31
461.238	82.31
461.458	89.31
461.678	86.31
461.898	87.31
462.118	86.31
462.338	77.31
462.558	82.31
462.777	84.31
462.997	73.31
463.217	83.31
463.437	85.31
463.657	83.31
463.876	85.31
464.096	69.31
464.316	84.31
464.536	97.31
464.755	85.31
464.975	74.31
465.195	78.31
465.414	75.31
465.634	100.31
465.854	96.31
466.073	95.31
466.293	83.31
466.512	89.31
466.732	78.31
466.951	101.31
467.171	86.31
467.391	94.31
467.61	88.31
467.829	87.31
468.049	100.31
468.268	78.31
468.488	85.31
468.707	94.31
468.927	97.31
469.146	91.31
469.365	89.31
469.585	93.31
469.804	95.31
470.023	89.31
470.243	77.31
470.462	91.31
470.681	94.31
470.901	100.31
471.12	89.31
471.339	82.31
471.558	76.31
471.777	80.31
471.997	95.31
472.216	86.31
472.435	82.31
472.654	87.31
472.873	83.31
473.092	81.31
473.311	77.31
473.53	86.31
473.749	82.31
473.968	96.31
474.187	91.31
474.406	89.31
474.625	96.31
474.844	98.31
475.063	98.31
475.282	88.31
475.501	80.31
475.72	84.31
475.939	82.31
476.158	82.31
476.377	82.31
476.596	86.31
476.814	86.31
477.033	75.31
477.252	80.31
477.471	92.31
477.69	86.31
477.908	98.31
478.127	95.31
478.346	91.31
478.564	99.31
478.783	78.31
479.002	83.31
479.22	87.31
479.439	94.31
479.658	69.31
479.876	80.31
480.095	64.31
480.313	91.31
480.532	94.31
480.751	94.31
480.969	74.31
481.188	93.31
481.406	84.31
481.624	69.31
481.843	82.31
482.061	89.31
482.28	76.31
482.498	85.31
482.717	89.31
482.935	91.31
483.153	82.31
483.372	81.31
483.59	84.31
483.808	81.31
484.027	75.31
484.245	85.31
484.463	98.31
484.681	104.31
484.9	96.31
485.118	92.31
485.336	83.31
485.554	80.31
485.772	98.31
485.99	80.31
486.209	74.31
486.427	73.31
486.645	76.31
486.863	86.31
487.081	92.31
487.299	94.31
487.517	85.31
487.735	74.31
487.953	96.31
488.171	90.31
488.389	96.31
488.607	89.31
488.825	74.31
489.043	90.31
489.261	80.31
489.479	89.31
489.696	84.31
489.914	82.31
490.132	71.31
490.35	102.31
490.568	95.31
490.786	101.31
491.003	81.31
491.221	94.31
491.439	103.31
491.657	97.31
491.874	90.31
492.092	101.31
492.31	110.31
492.527	123.31
492.745	106.31
492.963	94.31
493.18	98.31
493.398	99.31
493.615	92.31
493.833	92.31
494.05	91.31
494.268	102.31
494.485	103.31
494.703	106.31
494.92	102.31
495.138	98.31
495.355	95.31
495.573	102.31
495.79	99.31
496.008	91.31
496.225	86.31
496.442	104.31
496.66	101.31
496.877	101.31
497.094	88.31
497.312	86.31
497.529	86.31
497.746	102.31
497.963	104.31
498.181	105.31
498.398	96.31
498.615	91.31
498.832	84.31
499.049	80.31
499.267	90.31
499.484	84.31
499.701	87.31
499.918	91.31
500.135	85.31
500.352	97.31
500.569	100.31
500.786	91.31
501.003	94.31
501.22	92.31
501.437	81.31
501.654	98.31
501.871	93.31
502.088	84.31
502.305	87.31
502.522	98.31
502.739	70.31
502.956	89.31
503.172	98.31
503.389	70.31
503.606	83.31
503.823	86.31
504.04	82.31
504.256	86.31
504.473	88.31
504.69	88.31
504.907	76.31
505.123	81.31
505.34	81.31
505.557	79.31
505.773	79.31
505.99	97.31
506.207	76.31
506.423	75.31
506.64	88.31
506.856	86.31
507.073	101.31
507.289	81.31
507.506	103.31
507.722	80.31
507.939	90.31
508.155	81.31
508.372	101.31
508.588	84.31
508.805	87.31
509.021	82.31
509.238	83.31
509.454	76.31
509.67	74.31
509.887	75.31
510.103	102.31
510.319	84.31
510.536	73.31
510.752	80.31
510.968	76.31
511.184	82.31
511.401	76.31
511.617	95.31
511.833	75.31
512.049	78.31
512.265	83.31
512.481	74.31
512.698	88.31
512.914	75.31
513.13	75.31
513.346	74.31
513.562	88.31
513.778	79.31
513.994	106.31
514.21	84.31
514.426	88.31
514.642	86.31
514.858	78.31
515.074	78.31
515.29	78.31
515.506	73.31
515.721	75.31
515.937	73.31
516.153	80.31
516.369	80.31
516.585	75.31
516.801	83.31
517.016	95.31
517.232	82.31
517.448	82.31
517.664	76.31
517.879	79.31
518.095	68.31
518.311	86.31
518.527	83.31
518.742	74.31
518.958	81.31
