Data from Zn(NO3)2Standard.Agarose3%.GreenCap.LampEnergy5.5.E.O_HRD10591_15-01-09-767.txt Node
Date: Mon Jul 22 15:01:09 EDT 2019
User: cochatt
Spectrometer: HR+D1059
Trigger mode: 1
Integration Time (sec): 1.000000E-1
Scans to average: 1
Electric dark correction enabled: true
Nonlinearity correction enabled: false
Boxcar width: 0
XAxis mode: Wavelengths
Number of Pixels in Spectrum: 2048
>>>>>Begin Spectral Data<<<<<
223.165	-23.06
223.4	-23.06
223.635	-23.06
223.869	-14.06
224.104	-28.06
224.338	-12.06
224.573	-10.06
224.808	-21.06
225.042	-8.06
225.277	-11.06
225.511	16.94
225.746	1.94
225.98	6.94
226.215	2.94
226.449	20.94
226.683	16.94
226.918	17.94
227.152	42.94
227.387	35.94
227.621	37.94
227.856	53.94
228.09	38.94
228.324	50.94
228.559	54.94
228.793	51.94
229.027	63.94
229.262	69.94
229.496	63.94
229.73	58.94
229.964	81.94
230.199	78.94
230.433	63.94
230.667	76.94
230.901	84.94
231.136	80.94
231.37	83.94
231.604	77.94
231.838	71.94
232.072	72.94
232.306	89.94
232.541	81.94
232.775	69.94
233.009	79.94
233.243	83.94
233.477	82.94
233.711	88.94
233.945	70.94
234.179	80.94
234.413	84.94
234.647	85.94
234.881	78.94
235.115	85.94
235.349	72.94
235.583	76.94
235.817	77.94
236.051	64.94
236.285	82.94
236.519	92.94
236.753	87.94
236.987	76.94
237.221	89.94
237.455	65.94
237.689	75.94
237.922	74.94
238.156	73.94
238.39	83.94
238.624	79.94
238.858	71.94
239.091	80.94
239.325	79.94
239.559	78.94
239.793	74.94
240.027	87.94
240.26	72.94
240.494	58.94
240.728	62.94
240.961	75.94
241.195	75.94
241.429	77.94
241.662	56.94
241.896	77.94
242.13	71.94
242.363	81.94
242.597	72.94
242.83	83.94
243.064	67.94
243.298	77.94
243.531	78.94
243.765	72.94
243.998	81.94
244.232	65.94
244.465	69.94
244.699	70.94
244.932	66.94
245.166	72.94
245.399	80.94
245.633	68.94
245.866	98.94
246.099	74.94
246.333	75.94
246.566	72.94
246.8	81.94
247.033	68.94
247.266	84.94
247.5	83.94
247.733	88.94
247.966	71.94
248.2	69.94
248.433	72.94
248.666	63.94
248.899	67.94
249.133	82.94
249.366	85.94
249.599	79.94
249.832	75.94
250.066	89.94
250.299	89.94
250.532	69.94
250.765	73.94
250.998	74.94
251.231	77.94
251.465	82.94
251.698	71.94
251.931	71.94
252.164	80.94
252.397	81.94
252.63	73.94
252.863	81.94
253.096	70.94
253.329	75.94
253.562	68.94
253.795	74.94
254.028	88.94
254.261	68.94
254.494	63.94
254.727	83.94
254.96	81.94
255.193	80.94
255.426	75.94
255.659	88.94
255.892	84.94
256.124	83.94
256.357	66.94
256.59	80.94
256.823	69.94
257.056	76.94
257.289	69.94
257.521	69.94
257.754	69.94
257.987	79.94
258.22	76.94
258.452	74.94
258.685	89.94
258.918	72.94
259.151	66.94
259.383	87.94
259.616	79.94
259.849	79.94
260.081	90.94
260.314	92.94
260.547	95.94
260.779	86.94
261.012	84.94
261.244	85.94
261.477	79.94
261.71	83.94
261.942	89.94
262.175	83.94
262.407	83.94
262.64	74.94
262.872	84.94
263.105	89.94
263.337	77.94
263.57	81.94
263.802	98.94
264.035	77.94
264.267	79.94
264.499	76.94
264.732	87.94
264.964	83.94
265.197	65.94
265.429	69.94
265.661	69.94
265.894	84.94
266.126	81.94
266.358	81.94
266.591	69.94
266.823	85.94
267.055	68.94
267.287	87.94
267.52	71.94
267.752	82.94
267.984	78.94
268.216	88.94
268.448	77.94
268.681	89.94
268.913	85.94
269.145	77.94
269.377	88.94
269.609	81.94
269.841	72.94
270.073	81.94
270.306	77.94
270.538	76.94
270.77	89.94
271.002	78.94
271.234	59.94
271.466	76.94
271.698	75.94
271.93	71.94
272.162	68.94
272.394	82.94
272.626	81.94
272.858	85.94
273.09	99.94
273.322	80.94
273.553	82.94
273.785	88.94
274.017	87.94
274.249	94.94
274.481	96.94
274.713	88.94
274.945	88.94
275.176	93.94
275.408	71.94
275.64	85.94
275.872	90.94
276.104	75.94
276.335	81.94
276.567	93.94
276.799	89.94
277.031	91.94
277.262	84.94
277.494	91.94
277.726	94.94
277.957	85.94
278.189	72.94
278.421	101.94
278.652	83.94
278.884	71.94
279.115	81.94
279.347	72.94
279.579	70.94
279.81	101.94
280.042	80.94
280.273	82.94
280.505	79.94
280.736	84.94
280.968	87.94
281.199	81.94
281.431	94.94
281.662	81.94
281.894	76.94
282.125	85.94
282.356	92.94
282.588	80.94
282.819	73.94
283.051	78.94
283.282	88.94
283.513	86.94
283.745	90.94
283.976	85.94
284.207	73.94
284.439	79.94
284.67	82.94
284.901	89.94
285.132	81.94
285.364	79.94
285.595	73.94
285.826	90.94
286.057	89.94
286.288	90.94
286.52	76.94
286.751	96.94
286.982	92.94
287.213	74.94
287.444	83.94
287.675	73.94
287.906	88.94
288.138	84.94
288.369	77.94
288.6	86.94
288.831	74.94
289.062	83.94
289.293	91.94
289.524	91.94
289.755	70.94
289.986	86.94
290.217	82.94
290.448	94.94
290.679	85.94
290.91	82.94
291.141	82.94
291.371	84.94
291.602	83.94
291.833	95.94
292.064	89.94
292.295	87.94
292.526	78.94
292.757	90.94
292.987	67.94
293.218	99.94
293.449	86.94
293.68	83.94
293.91	79.94
294.141	84.94
294.372	86.94
294.603	86.94
294.833	67.94
295.064	72.94
295.295	78.94
295.525	84.94
295.756	80.94
295.987	74.94
296.217	67.94
296.448	79.94
296.679	92.94
296.909	74.94
297.14	86.94
297.37	72.94
297.601	96.94
297.831	80.94
298.062	89.94
298.292	85.94
298.523	84.94
298.753	97.94
298.984	80.94
299.214	94.94
299.445	87.94
299.675	83.94
299.905	93.94
300.136	70.94
300.366	88.94
300.597	83.94
300.827	93.94
301.057	81.94
301.288	91.94
301.518	94.94
301.748	77.94
301.979	87.94
302.209	76.94
302.439	70.94
302.669	82.94
302.9	73.94
303.13	88.94
303.36	93.94
303.59	91.94
303.82	84.94
304.051	83.94
304.281	83.94
304.511	91.94
304.741	89.94
304.971	72.94
305.201	72.94
305.431	75.94
305.661	90.94
305.891	80.94
306.121	72.94
306.352	80.94
306.582	84.94
306.812	83.94
307.042	88.94
307.272	83.94
307.502	83.94
307.731	87.94
307.961	98.94
308.191	87.94
308.421	63.94
308.651	90.94
308.881	93.94
309.111	89.94
309.341	85.94
309.571	91.94
309.8	90.94
310.03	88.94
310.26	82.94
310.49	74.94
310.72	75.94
310.949	92.94
311.179	99.94
311.409	88.94
311.639	79.94
311.868	80.94
312.098	84.94
312.328	77.94
312.557	83.94
312.787	86.94
313.017	88.94
313.246	83.94
313.476	92.94
313.706	91.94
313.935	90.94
314.165	78.94
314.394	82.94
314.624	82.94
314.853	84.94
315.083	90.94
315.312	88.94
315.542	86.94
315.771	73.94
316.001	96.94
316.23	87.94
316.46	82.94
316.689	79.94
316.919	85.94
317.148	75.94
317.377	84.94
317.607	102.94
317.836	79.94
318.065	73.94
318.295	96.94
318.524	71.94
318.753	97.94
318.983	85.94
319.212	81.94
319.441	78.94
319.67	83.94
319.9	86.94
320.129	75.94
320.358	81.94
320.587	82.94
320.816	80.94
321.046	78.94
321.275	96.94
321.504	85.94
321.733	73.94
321.962	95.94
322.191	82.94
322.42	77.94
322.649	83.94
322.878	92.94
323.108	86.94
323.337	88.94
323.566	103.94
323.795	98.94
324.024	80.94
324.253	87.94
324.482	83.94
324.71	76.94
324.939	81.94
325.168	97.94
325.397	76.94
325.626	77.94
325.855	81.94
326.084	86.94
326.313	89.94
326.542	87.94
326.77	80.94
326.999	82.94
327.228	83.94
327.457	73.94
327.686	83.94
327.914	91.94
328.143	86.94
328.372	81.94
328.6	81.94
328.829	75.94
329.058	74.94
329.287	79.94
329.515	68.94
329.744	87.94
329.972	83.94
330.201	76.94
330.43	81.94
330.658	95.94
330.887	95.94
331.115	96.94
331.344	81.94
331.572	90.94
331.801	98.94
332.03	87.94
332.258	61.94
332.486	73.94
332.715	80.94
332.943	82.94
333.172	82.94
333.4	83.94
333.629	76.94
333.857	77.94
334.085	69.94
334.314	78.94
334.542	81.94
334.771	81.94
334.999	82.94
335.227	66.94
335.455	76.94
335.684	84.94
335.912	81.94
336.14	70.94
336.369	76.94
336.597	76.94
336.825	75.94
337.053	88.94
337.281	84.94
337.51	84.94
337.738	86.94
337.966	71.94
338.194	71.94
338.422	78.94
338.65	88.94
338.878	83.94
339.106	90.94
339.334	83.94
339.562	71.94
339.79	83.94
340.018	73.94
340.246	79.94
340.474	83.94
340.702	79.94
340.93	87.94
341.158	85.94
341.386	87.94
341.614	76.94
341.842	74.94
342.07	80.94
342.298	82.94
342.526	85.94
342.754	85.94
342.981	80.94
343.209	77.94
343.437	77.94
343.665	91.94
343.893	82.94
344.12	76.94
344.348	86.94
344.576	79.94
344.804	76.94
345.031	81.94
345.259	77.94
345.487	60.94
345.714	86.94
345.942	86.94
346.17	78.94
346.397	75.94
346.625	93.94
346.853	94.94
347.08	71.94
347.308	80.94
347.535	87.94
347.763	84.94
347.99	81.94
348.218	76.94
348.445	78.94
348.673	79.94
348.9	80.94
349.128	90.94
349.355	96.94
349.583	78.94
349.81	84.94
350.037	78.94
350.265	84.94
350.492	80.94
350.72	93.94
350.947	85.94
351.174	87.94
351.402	82.94
351.629	88.94
351.856	88.94
352.083	92.94
352.311	93.94
352.538	81.94
352.765	87.94
352.992	87.94
353.22	90.94
353.447	76.94
353.674	80.94
353.901	78.94
354.128	85.94
354.355	76.94
354.583	85.94
354.81	85.94
355.037	75.94
355.264	91.94
355.491	86.94
355.718	82.94
355.945	69.94
356.172	86.94
356.399	82.94
356.626	81.94
356.853	87.94
357.08	61.94
357.307	90.94
357.534	77.94
357.761	88.94
357.988	75.94
358.215	92.94
358.441	75.94
358.668	87.94
358.895	80.94
359.122	81.94
359.349	83.94
359.576	96.94
359.802	86.94
360.029	88.94
360.256	77.94
360.483	86.94
360.709	85.94
360.936	83.94
361.163	89.94
361.39	85.94
361.616	82.94
361.843	80.94
362.07	80.94
362.296	79.94
362.523	88.94
362.749	83.94
362.976	87.94
363.203	97.94
363.429	85.94
363.656	84.94
363.882	80.94
364.109	74.94
364.335	90.94
364.562	81.94
364.788	85.94
365.015	80.94
365.241	95.94
365.468	86.94
365.694	81.94
365.92	86.94
366.147	83.94
366.373	99.94
366.599	75.94
366.826	99.94
367.052	75.94
367.278	77.94
367.505	82.94
367.731	95.94
367.957	79.94
368.184	87.94
368.41	78.94
368.636	94.94
368.862	87.94
369.089	80.94
369.315	79.94
369.541	92.94
369.767	90.94
369.993	88.94
370.219	91.94
370.445	82.94
370.672	80.94
370.898	77.94
371.124	73.94
371.35	77.94
371.576	85.94
371.802	77.94
372.028	77.94
372.254	79.94
372.48	92.94
372.706	92.94
372.932	73.94
373.158	90.94
373.384	98.94
373.61	95.94
373.835	80.94
374.061	80.94
374.287	93.94
374.513	90.94
374.739	83.94
374.965	68.94
375.191	84.94
375.416	98.94
375.642	77.94
375.868	93.94
376.094	85.94
376.319	78.94
376.545	81.94
376.771	67.94
376.997	73.94
377.222	74.94
377.448	77.94
377.674	81.94
377.899	93.94
378.125	78.94
378.35	80.94
378.576	64.94
378.802	85.94
379.027	64.94
379.253	74.94
379.478	87.94
379.704	77.94
379.929	90.94
380.155	75.94
380.38	76.94
380.606	81.94
380.831	89.94
381.057	77.94
381.282	81.94
381.507	86.94
381.733	87.94
381.958	90.94
382.184	83.94
382.409	88.94
382.634	74.94
382.86	86.94
383.085	78.94
383.31	81.94
383.535	86.94
383.761	83.94
383.986	71.94
384.211	89.94
384.436	81.94
384.662	93.94
384.887	82.94
385.112	69.94
385.337	84.94
385.562	77.94
385.787	69.94
386.013	86.94
386.238	83.94
386.463	92.94
386.688	73.94
386.913	89.94
387.138	66.94
387.363	71.94
387.588	92.94
387.813	86.94
388.038	86.94
388.263	85.94
388.488	89.94
388.713	76.94
388.938	77.94
389.163	92.94
389.387	83.94
389.612	77.94
389.837	84.94
390.062	76.94
390.287	83.94
390.512	87.94
390.736	86.94
390.961	87.94
391.186	77.94
391.411	85.94
391.636	77.94
391.86	86.94
392.085	91.94
392.31	89.94
392.534	91.94
392.759	73.94
392.984	81.94
393.208	68.94
393.433	83.94
393.658	74.94
393.882	85.94
394.107	84.94
394.331	91.94
394.556	87.94
394.78	84.94
395.005	76.94
395.229	84.94
395.454	83.94
395.678	70.94
395.903	85.94
396.127	86.94
396.352	85.94
396.576	83.94
396.801	85.94
397.025	89.94
397.249	86.94
397.474	82.94
397.698	84.94
397.922	78.94
398.147	84.94
398.371	86.94
398.595	72.94
398.82	82.94
399.044	78.94
399.268	76.94
399.492	88.94
399.717	84.94
399.941	81.94
400.165	75.94
400.389	79.94
400.613	83.94
400.837	89.94
401.062	79.94
401.286	75.94
401.51	94.94
401.734	90.94
401.958	91.94
402.182	82.94
402.406	76.94
402.63	74.94
402.854	91.94
403.078	92.94
403.302	92.94
403.526	85.94
403.75	82.94
403.974	81.94
404.198	84.94
404.422	89.94
404.645	76.94
404.869	84.94
405.093	100.94
405.317	87.94
405.541	92.94
405.765	86.94
405.988	87.94
406.212	96.94
406.436	85.94
406.66	77.94
406.883	81.94
407.107	96.94
407.331	89.94
407.555	82.94
407.778	103.94
408.002	84.94
408.226	73.94
408.449	88.94
408.673	83.94
408.896	87.94
409.12	82.94
409.344	87.94
409.567	86.94
409.791	94.94
410.014	94.94
410.238	90.94
410.461	77.94
410.685	81.94
410.908	83.94
411.132	77.94
411.355	77.94
411.578	74.94
411.802	80.94
412.025	76.94
412.249	93.94
412.472	90.94
412.695	83.94
412.919	73.94
413.142	81.94
413.365	93.94
413.589	90.94
413.812	91.94
414.035	86.94
414.258	88.94
414.482	88.94
414.705	78.94
414.928	97.94
415.151	100.94
415.374	90.94
415.597	86.94
415.821	87.94
416.044	78.94
416.267	94.94
416.49	70.94
416.713	88.94
416.936	73.94
417.159	88.94
417.382	85.94
417.605	103.94
417.828	89.94
418.051	98.94
418.274	81.94
418.497	78.94
418.72	96.94
418.943	94.94
419.166	86.94
419.389	88.94
419.611	81.94
419.834	91.94
420.057	78.94
420.28	77.94
420.503	88.94
420.726	93.94
420.948	84.94
421.171	80.94
421.394	90.94
421.617	91.94
421.839	93.94
422.062	90.94
422.285	84.94
422.507	85.94
422.73	79.94
422.953	80.94
423.175	90.94
423.398	91.94
423.621	78.94
423.843	93.94
424.066	99.94
424.288	91.94
424.511	93.94
424.733	78.94
424.956	81.94
425.178	84.94
425.401	99.94
425.623	102.94
425.846	89.94
426.068	90.94
426.291	84.94
426.513	77.94
426.735	88.94
426.958	92.94
427.18	105.94
427.402	91.94
427.625	88.94
427.847	87.94
428.069	80.94
428.292	77.94
428.514	78.94
428.736	99.94
428.958	76.94
429.181	103.94
429.403	84.94
429.625	77.94
429.847	82.94
430.069	83.94
430.292	100.94
430.514	82.94
430.736	82.94
430.958	75.94
431.18	82.94
431.402	91.94
431.624	93.94
431.846	80.94
432.068	87.94
432.29	75.94
432.512	75.94
432.734	98.94
432.956	84.94
433.178	87.94
433.4	99.94
433.622	95.94
433.844	91.94
434.066	86.94
434.287	85.94
434.509	80.94
434.731	83.94
434.953	80.94
435.175	92.94
435.397	101.94
435.618	87.94
435.84	94.94
436.062	103.94
436.284	83.94
436.505	76.94
436.727	92.94
436.949	83.94
437.17	76.94
437.392	84.94
437.614	100.94
437.835	85.94
438.057	82.94
438.278	90.94
438.5	83.94
438.721	89.94
438.943	100.94
439.165	97.94
439.386	100.94
439.608	99.94
439.829	80.94
440.05	84.94
440.272	91.94
440.493	82.94
440.715	89.94
440.936	88.94
441.158	92.94
441.379	83.94
441.6	99.94
441.822	97.94
442.043	84.94
442.264	88.94
442.486	96.94
442.707	84.94
442.928	89.94
443.149	91.94
443.371	95.94
443.592	84.94
443.813	77.94
444.034	92.94
444.255	99.94
444.476	87.94
444.698	90.94
444.919	79.94
445.14	202.94
445.361	150.94
445.582	105.94
445.803	101.94
446.024	106.94
446.245	100.94
446.466	70.94
446.687	89.94
446.908	91.94
447.129	89.94
447.35	93.94
447.571	101.94
447.792	89.94
448.013	91.94
448.234	103.94
448.455	100.94
448.675	103.94
448.896	88.94
449.117	93.94
449.338	81.94
449.559	103.94
449.779	87.94
450	95.94
450.221	93.94
450.442	84.94
450.662	77.94
450.883	79.94
451.104	93.94
451.324	86.94
451.545	92.94
451.766	89.94
451.986	99.94
452.207	86.94
452.428	93.94
452.648	92.94
452.869	82.94
453.089	84.94
453.31	82.94
453.53	77.94
453.751	89.94
453.971	86.94
454.192	78.94
454.412	72.94
454.633	80.94
454.853	90.94
455.073	90.94
455.294	96.94
455.514	97.94
455.734	87.94
455.955	91.94
456.175	84.94
456.395	67.94
456.616	97.94
456.836	89.94
457.056	91.94
457.276	85.94
457.497	83.94
457.717	81.94
457.937	83.94
458.157	91.94
458.377	81.94
458.598	81.94
458.818	87.94
459.038	61.94
459.258	90.94
459.478	79.94
459.698	91.94
459.918	83.94
460.138	92.94
460.358	74.94
460.578	86.94
460.798	79.94
461.018	92.94
461.238	85.94
461.458	88.94
461.678	76.94
461.898	81.94
462.118	92.94
462.338	90.94
462.558	85.94
462.777	89.94
462.997	88.94
463.217	87.94
463.437	91.94
463.657	99.94
463.876	77.94
464.096	86.94
464.316	77.94
464.536	88.94
464.755	86.94
464.975	80.94
465.195	104.94
465.414	88.94
465.634	79.94
465.854	83.94
466.073	74.94
466.293	87.94
466.512	88.94
466.732	91.94
466.951	79.94
467.171	88.94
467.391	96.94
467.61	89.94
467.829	78.94
468.049	86.94
468.268	93.94
468.488	95.94
468.707	92.94
468.927	86.94
469.146	85.94
469.365	106.94
469.585	108.94
469.804	87.94
470.023	83.94
470.243	75.94
470.462	97.94
470.681	89.94
470.901	90.94
471.12	97.94
471.339	92.94
471.558	95.94
471.777	77.94
471.997	93.94
472.216	85.94
472.435	91.94
472.654	103.94
472.873	97.94
473.092	87.94
473.311	97.94
473.53	92.94
473.749	97.94
473.968	101.94
474.187	90.94
474.406	88.94
474.625	98.94
474.844	103.94
475.063	100.94
475.282	97.94
475.501	81.94
475.72	88.94
475.939	73.94
476.158	72.94
476.377	87.94
476.596	85.94
476.814	101.94
477.033	87.94
477.252	81.94
477.471	96.94
477.69	89.94
477.908	90.94
478.127	99.94
478.346	88.94
478.564	87.94
478.783	81.94
479.002	80.94
479.22	88.94
479.439	95.94
479.658	86.94
479.876	82.94
480.095	78.94
480.313	79.94
480.532	84.94
480.751	83.94
480.969	88.94
481.188	83.94
481.406	80.94
481.624	96.94
481.843	84.94
482.061	83.94
482.28	77.94
482.498	73.94
482.717	103.94
482.935	76.94
483.153	87.94
483.372	83.94
483.59	92.94
483.808	87.94
484.027	88.94
484.245	93.94
484.463	87.94
484.681	94.94
484.9	83.94
485.118	105.94
485.336	86.94
485.554	76.94
485.772	87.94
485.99	81.94
486.209	96.94
486.427	76.94
486.645	96.94
486.863	99.94
487.081	92.94
487.299	91.94
487.517	94.94
487.735	95.94
487.953	92.94
488.171	101.94
488.389	98.94
488.607	89.94
488.825	81.94
489.043	79.94
489.261	78.94
489.479	91.94
489.696	102.94
489.914	103.94
490.132	90.94
490.35	78.94
490.568	100.94
490.786	90.94
491.003	101.94
491.221	89.94
491.439	104.94
491.657	92.94
491.874	103.94
492.092	97.94
492.31	119.94
492.527	108.94
492.745	97.94
492.963	106.94
493.18	107.94
493.398	100.94
493.615	108.94
493.833	115.94
494.05	106.94
494.268	90.94
494.485	100.94
494.703	114.94
494.92	93.94
495.138	87.94
495.355	86.94
495.573	83.94
495.79	95.94
496.008	99.94
496.225	91.94
496.442	103.94
496.66	95.94
496.877	101.94
497.094	107.94
497.312	97.94
497.529	94.94
497.746	95.94
497.963	92.94
498.181	89.94
498.398	87.94
498.615	77.94
498.832	92.94
499.049	87.94
499.267	84.94
499.484	72.94
499.701	89.94
499.918	82.94
500.135	94.94
500.352	105.94
500.569	104.94
500.786	100.94
501.003	91.94
501.22	99.94
501.437	100.94
501.654	87.94
501.871	88.94
502.088	82.94
502.305	113.94
502.522	85.94
502.739	96.94
502.956	87.94
503.172	82.94
503.389	91.94
503.606	97.94
503.823	92.94
504.04	91.94
504.256	90.94
504.473	98.94
504.69	87.94
504.907	96.94
505.123	80.94
505.34	85.94
505.557	96.94
505.773	77.94
505.99	78.94
506.207	91.94
506.423	88.94
506.64	97.94
506.856	81.94
507.073	76.94
507.289	89.94
507.506	99.94
507.722	90.94
507.939	97.94
508.155	82.94
508.372	86.94
508.588	77.94
508.805	85.94
509.021	89.94
509.238	81.94
509.454	91.94
509.67	84.94
509.887	76.94
510.103	84.94
510.319	93.94
510.536	93.94
510.752	98.94
510.968	73.94
511.184	69.94
511.401	93.94
511.617	84.94
511.833	87.94
512.049	83.94
512.265	89.94
512.481	65.94
512.698	80.94
512.914	79.94
513.13	86.94
513.346	92.94
513.562	96.94
513.778	91.94
513.994	78.94
514.21	95.94
514.426	100.94
514.642	88.94
514.858	96.94
515.074	76.94
515.29	88.94
515.506	86.94
515.721	77.94
515.937	83.94
516.153	82.94
516.369	68.94
516.585	87.94
516.801	71.94
517.016	88.94
517.232	96.94
517.448	85.94
517.664	77.94
517.879	88.94
518.095	90.94
518.311	87.94
518.527	94.94
