Data from Zn(NO3)2Standard.Agarose3%.GreenCap.LampEnergy5.5.E.O_HRD10591_15-00-15-767.txt Node
Date: Mon Jul 22 15:00:15 EDT 2019
User: cochatt
Spectrometer: HR+D1059
Trigger mode: 1
Integration Time (sec): 1.000000E-1
Scans to average: 1
Electric dark correction enabled: true
Nonlinearity correction enabled: false
Boxcar width: 0
XAxis mode: Wavelengths
Number of Pixels in Spectrum: 2048
>>>>>Begin Spectral Data<<<<<
223.165	-19.44
223.4	-19.44
223.635	-19.44
223.869	-12.44
224.104	-14.44
224.338	-11.44
224.573	-17.44
224.808	-8.44
225.042	-5.44
225.277	-11.44
225.511	4.56
225.746	6.56
225.98	-2.44
226.215	12.56
226.449	5.56
226.683	16.56
226.918	18.56
227.152	38.56
227.387	27.56
227.621	25.56
227.856	44.56
228.09	50.56
228.324	57.56
228.559	42.56
228.793	50.56
229.027	63.56
229.262	59.56
229.496	46.56
229.73	71.56
229.964	62.56
230.199	75.56
230.433	79.56
230.667	74.56
230.901	68.56
231.136	76.56
231.37	86.56
231.604	74.56
231.838	68.56
232.072	73.56
232.306	83.56
232.541	90.56
232.775	87.56
233.009	87.56
233.243	72.56
233.477	75.56
233.711	87.56
233.945	76.56
234.179	88.56
234.413	68.56
234.647	79.56
234.881	84.56
235.115	62.56
235.349	82.56
235.583	77.56
235.817	66.56
236.051	78.56
236.285	73.56
236.519	75.56
236.753	68.56
236.987	72.56
237.221	56.56
237.455	65.56
237.689	84.56
237.922	67.56
238.156	72.56
238.39	66.56
238.624	78.56
238.858	79.56
239.091	60.56
239.325	67.56
239.559	70.56
239.793	84.56
240.027	91.56
240.26	76.56
240.494	76.56
240.728	70.56
240.961	85.56
241.195	78.56
241.429	59.56
241.662	66.56
241.896	76.56
242.13	73.56
242.363	60.56
242.597	81.56
242.83	77.56
243.064	70.56
243.298	68.56
243.531	67.56
243.765	85.56
243.998	74.56
244.232	76.56
244.465	75.56
244.699	72.56
244.932	72.56
245.166	65.56
245.399	76.56
245.633	67.56
245.866	84.56
246.099	65.56
246.333	88.56
246.566	60.56
246.8	74.56
247.033	88.56
247.266	85.56
247.5	88.56
247.733	88.56
247.966	69.56
248.2	84.56
248.433	69.56
248.666	71.56
248.899	96.56
249.133	93.56
249.366	72.56
249.599	83.56
249.832	70.56
250.066	76.56
250.299	81.56
250.532	88.56
250.765	86.56
250.998	84.56
251.231	89.56
251.465	69.56
251.698	78.56
251.931	81.56
252.164	80.56
252.397	76.56
252.63	84.56
252.863	71.56
253.096	77.56
253.329	78.56
253.562	94.56
253.795	77.56
254.028	89.56
254.261	77.56
254.494	88.56
254.727	84.56
254.96	95.56
255.193	86.56
255.426	73.56
255.659	77.56
255.892	72.56
256.124	68.56
256.357	99.56
256.59	80.56
256.823	72.56
257.056	87.56
257.289	83.56
257.521	86.56
257.754	75.56
257.987	78.56
258.22	73.56
258.452	75.56
258.685	82.56
258.918	87.56
259.151	72.56
259.383	85.56
259.616	88.56
259.849	71.56
260.081	70.56
260.314	59.56
260.547	60.56
260.779	89.56
261.012	100.56
261.244	77.56
261.477	88.56
261.71	83.56
261.942	78.56
262.175	82.56
262.407	80.56
262.64	69.56
262.872	75.56
263.105	81.56
263.337	81.56
263.57	72.56
263.802	73.56
264.035	74.56
264.267	77.56
264.499	85.56
264.732	86.56
264.964	99.56
265.197	89.56
265.429	77.56
265.661	78.56
265.894	81.56
266.126	86.56
266.358	81.56
266.591	96.56
266.823	77.56
267.055	85.56
267.287	69.56
267.52	74.56
267.752	93.56
267.984	86.56
268.216	61.56
268.448	88.56
268.681	64.56
268.913	87.56
269.145	75.56
269.377	72.56
269.609	83.56
269.841	89.56
270.073	85.56
270.306	91.56
270.538	80.56
270.77	93.56
271.002	79.56
271.234	93.56
271.466	77.56
271.698	84.56
271.93	86.56
272.162	78.56
272.394	69.56
272.626	87.56
272.858	87.56
273.09	90.56
273.322	80.56
273.553	82.56
273.785	80.56
274.017	84.56
274.249	82.56
274.481	80.56
274.713	92.56
274.945	74.56
275.176	75.56
275.408	73.56
275.64	73.56
275.872	80.56
276.104	83.56
276.335	82.56
276.567	67.56
276.799	93.56
277.031	70.56
277.262	76.56
277.494	84.56
277.726	90.56
277.957	77.56
278.189	80.56
278.421	80.56
278.652	78.56
278.884	90.56
279.115	78.56
279.347	76.56
279.579	86.56
279.81	89.56
280.042	80.56
280.273	91.56
280.505	77.56
280.736	62.56
280.968	84.56
281.199	85.56
281.431	90.56
281.662	80.56
281.894	80.56
282.125	78.56
282.356	86.56
282.588	82.56
282.819	73.56
283.051	96.56
283.282	81.56
283.513	93.56
283.745	82.56
283.976	85.56
284.207	89.56
284.439	67.56
284.67	80.56
284.901	92.56
285.132	85.56
285.364	75.56
285.595	93.56
285.826	89.56
286.057	76.56
286.288	61.56
286.52	86.56
286.751	64.56
286.982	74.56
287.213	75.56
287.444	81.56
287.675	72.56
287.906	69.56
288.138	81.56
288.369	83.56
288.6	83.56
288.831	86.56
289.062	96.56
289.293	84.56
289.524	89.56
289.755	77.56
289.986	85.56
290.217	72.56
290.448	74.56
290.679	88.56
290.91	88.56
291.141	81.56
291.371	77.56
291.602	80.56
291.833	69.56
292.064	75.56
292.295	81.56
292.526	92.56
292.757	92.56
292.987	86.56
293.218	96.56
293.449	77.56
293.68	72.56
293.91	72.56
294.141	78.56
294.372	90.56
294.603	90.56
294.833	87.56
295.064	81.56
295.295	93.56
295.525	94.56
295.756	87.56
295.987	85.56
296.217	87.56
296.448	101.56
296.679	83.56
296.909	83.56
297.14	84.56
297.37	75.56
297.601	97.56
297.831	84.56
298.062	106.56
298.292	87.56
298.523	91.56
298.753	86.56
298.984	78.56
299.214	82.56
299.445	98.56
299.675	90.56
299.905	89.56
300.136	91.56
300.366	81.56
300.597	81.56
300.827	85.56
301.057	95.56
301.288	75.56
301.518	81.56
301.748	86.56
301.979	87.56
302.209	81.56
302.439	75.56
302.669	82.56
302.9	89.56
303.13	84.56
303.36	79.56
303.59	94.56
303.82	82.56
304.051	91.56
304.281	76.56
304.511	77.56
304.741	82.56
304.971	65.56
305.201	82.56
305.431	88.56
305.661	88.56
305.891	95.56
306.121	91.56
306.352	92.56
306.582	75.56
306.812	83.56
307.042	84.56
307.272	82.56
307.502	82.56
307.731	71.56
307.961	79.56
308.191	85.56
308.421	67.56
308.651	84.56
308.881	93.56
309.111	83.56
309.341	68.56
309.571	84.56
309.8	87.56
310.03	92.56
310.26	76.56
310.49	84.56
310.72	88.56
310.949	94.56
311.179	68.56
311.409	74.56
311.639	88.56
311.868	80.56
312.098	76.56
312.328	76.56
312.557	89.56
312.787	86.56
313.017	89.56
313.246	83.56
313.476	88.56
313.706	77.56
313.935	79.56
314.165	83.56
314.394	85.56
314.624	92.56
314.853	93.56
315.083	78.56
315.312	83.56
315.542	91.56
315.771	87.56
316.001	90.56
316.23	82.56
316.46	85.56
316.689	85.56
316.919	83.56
317.148	76.56
317.377	83.56
317.607	90.56
317.836	80.56
318.065	87.56
318.295	74.56
318.524	92.56
318.753	76.56
318.983	73.56
319.212	82.56
319.441	89.56
319.67	80.56
319.9	78.56
320.129	82.56
320.358	84.56
320.587	69.56
320.816	92.56
321.046	69.56
321.275	82.56
321.504	65.56
321.733	90.56
321.962	91.56
322.191	83.56
322.42	89.56
322.649	74.56
322.878	90.56
323.108	92.56
323.337	88.56
323.566	90.56
323.795	94.56
324.024	80.56
324.253	75.56
324.482	78.56
324.71	90.56
324.939	99.56
325.168	94.56
325.397	67.56
325.626	73.56
325.855	88.56
326.084	87.56
326.313	94.56
326.542	68.56
326.77	74.56
326.999	75.56
327.228	77.56
327.457	90.56
327.686	85.56
327.914	88.56
328.143	77.56
328.372	85.56
328.6	83.56
328.829	83.56
329.058	81.56
329.287	83.56
329.515	76.56
329.744	88.56
329.972	83.56
330.201	84.56
330.43	81.56
330.658	84.56
330.887	78.56
331.115	85.56
331.344	93.56
331.572	94.56
331.801	85.56
332.03	88.56
332.258	89.56
332.486	90.56
332.715	86.56
332.943	92.56
333.172	81.56
333.4	81.56
333.629	83.56
333.857	81.56
334.085	78.56
334.314	74.56
334.542	85.56
334.771	91.56
334.999	85.56
335.227	80.56
335.455	85.56
335.684	69.56
335.912	77.56
336.14	83.56
336.369	90.56
336.597	76.56
336.825	85.56
337.053	80.56
337.281	67.56
337.51	82.56
337.738	82.56
337.966	79.56
338.194	85.56
338.422	99.56
338.65	83.56
338.878	83.56
339.106	86.56
339.334	99.56
339.562	86.56
339.79	94.56
340.018	87.56
340.246	80.56
340.474	90.56
340.702	84.56
340.93	71.56
341.158	99.56
341.386	88.56
341.614	79.56
341.842	78.56
342.07	80.56
342.298	81.56
342.526	92.56
342.754	79.56
342.981	88.56
343.209	76.56
343.437	85.56
343.665	85.56
343.893	86.56
344.12	96.56
344.348	79.56
344.576	88.56
344.804	84.56
345.031	88.56
345.259	83.56
345.487	86.56
345.714	84.56
345.942	83.56
346.17	81.56
346.397	91.56
346.625	88.56
346.853	80.56
347.08	86.56
347.308	75.56
347.535	85.56
347.763	70.56
347.99	79.56
348.218	91.56
348.445	79.56
348.673	80.56
348.9	81.56
349.128	96.56
349.355	82.56
349.583	90.56
349.81	91.56
350.037	86.56
350.265	82.56
350.492	82.56
350.72	84.56
350.947	87.56
351.174	91.56
351.402	89.56
351.629	83.56
351.856	79.56
352.083	84.56
352.311	81.56
352.538	79.56
352.765	85.56
352.992	92.56
353.22	81.56
353.447	71.56
353.674	74.56
353.901	89.56
354.128	90.56
354.355	86.56
354.583	97.56
354.81	79.56
355.037	77.56
355.264	80.56
355.491	85.56
355.718	84.56
355.945	78.56
356.172	79.56
356.399	88.56
356.626	85.56
356.853	72.56
357.08	90.56
357.307	87.56
357.534	72.56
357.761	75.56
357.988	89.56
358.215	93.56
358.441	78.56
358.668	76.56
358.895	91.56
359.122	91.56
359.349	89.56
359.576	82.56
359.802	80.56
360.029	72.56
360.256	93.56
360.483	77.56
360.709	85.56
360.936	90.56
361.163	74.56
361.39	72.56
361.616	75.56
361.843	82.56
362.07	88.56
362.296	78.56
362.523	80.56
362.749	83.56
362.976	97.56
363.203	82.56
363.429	96.56
363.656	101.56
363.882	75.56
364.109	97.56
364.335	67.56
364.562	96.56
364.788	91.56
365.015	99.56
365.241	67.56
365.468	86.56
365.694	71.56
365.92	84.56
366.147	89.56
366.373	90.56
366.599	77.56
366.826	88.56
367.052	91.56
367.278	69.56
367.505	76.56
367.731	93.56
367.957	76.56
368.184	82.56
368.41	88.56
368.636	87.56
368.862	82.56
369.089	87.56
369.315	69.56
369.541	78.56
369.767	72.56
369.993	90.56
370.219	78.56
370.445	79.56
370.672	79.56
370.898	73.56
371.124	84.56
371.35	79.56
371.576	78.56
371.802	82.56
372.028	91.56
372.254	91.56
372.48	86.56
372.706	78.56
372.932	78.56
373.158	82.56
373.384	75.56
373.61	74.56
373.835	87.56
374.061	83.56
374.287	77.56
374.513	87.56
374.739	95.56
374.965	101.56
375.191	95.56
375.416	89.56
375.642	85.56
375.868	90.56
376.094	72.56
376.319	65.56
376.545	86.56
376.771	93.56
376.997	66.56
377.222	76.56
377.448	81.56
377.674	88.56
377.899	77.56
378.125	87.56
378.35	80.56
378.576	80.56
378.802	100.56
379.027	83.56
379.253	85.56
379.478	79.56
379.704	87.56
379.929	86.56
380.155	82.56
380.38	73.56
380.606	77.56
380.831	93.56
381.057	91.56
381.282	89.56
381.507	88.56
381.733	85.56
381.958	87.56
382.184	77.56
382.409	76.56
382.634	90.56
382.86	84.56
383.085	82.56
383.31	83.56
383.535	76.56
383.761	82.56
383.986	75.56
384.211	81.56
384.436	91.56
384.662	80.56
384.887	89.56
385.112	83.56
385.337	89.56
385.562	70.56
385.787	64.56
386.013	91.56
386.238	96.56
386.463	97.56
386.688	85.56
386.913	70.56
387.138	73.56
387.363	83.56
387.588	68.56
387.813	78.56
388.038	98.56
388.263	88.56
388.488	82.56
388.713	80.56
388.938	80.56
389.163	72.56
389.387	81.56
389.612	82.56
389.837	80.56
390.062	76.56
390.287	85.56
390.512	93.56
390.736	85.56
390.961	71.56
391.186	82.56
391.411	93.56
391.636	83.56
391.86	74.56
392.085	93.56
392.31	85.56
392.534	91.56
392.759	84.56
392.984	78.56
393.208	92.56
393.433	91.56
393.658	93.56
393.882	84.56
394.107	95.56
394.331	90.56
394.556	75.56
394.78	84.56
395.005	81.56
395.229	84.56
395.454	81.56
395.678	71.56
395.903	96.56
396.127	77.56
396.352	89.56
396.576	93.56
396.801	73.56
397.025	83.56
397.249	77.56
397.474	82.56
397.698	90.56
397.922	85.56
398.147	74.56
398.371	84.56
398.595	75.56
398.82	76.56
399.044	79.56
399.268	68.56
399.492	78.56
399.717	80.56
399.941	80.56
400.165	84.56
400.389	83.56
400.613	77.56
400.837	91.56
401.062	91.56
401.286	83.56
401.51	94.56
401.734	73.56
401.958	73.56
402.182	90.56
402.406	70.56
402.63	83.56
402.854	84.56
403.078	78.56
403.302	84.56
403.526	87.56
403.75	71.56
403.974	76.56
404.198	90.56
404.422	87.56
404.645	72.56
404.869	88.56
405.093	84.56
405.317	75.56
405.541	70.56
405.765	81.56
405.988	69.56
406.212	75.56
406.436	77.56
406.66	86.56
406.883	81.56
407.107	92.56
407.331	84.56
407.555	80.56
407.778	76.56
408.002	82.56
408.226	91.56
408.449	86.56
408.673	85.56
408.896	80.56
409.12	76.56
409.344	93.56
409.567	76.56
409.791	91.56
410.014	86.56
410.238	86.56
410.461	96.56
410.685	76.56
410.908	79.56
411.132	92.56
411.355	75.56
411.578	84.56
411.802	84.56
412.025	77.56
412.249	73.56
412.472	97.56
412.695	73.56
412.919	84.56
413.142	100.56
413.365	83.56
413.589	75.56
413.812	82.56
414.035	86.56
414.258	88.56
414.482	90.56
414.705	91.56
414.928	95.56
415.151	81.56
415.374	89.56
415.597	88.56
415.821	79.56
416.044	74.56
416.267	82.56
416.49	77.56
416.713	82.56
416.936	64.56
417.159	76.56
417.382	84.56
417.605	76.56
417.828	95.56
418.051	84.56
418.274	103.56
418.497	81.56
418.72	81.56
418.943	88.56
419.166	90.56
419.389	88.56
419.611	81.56
419.834	82.56
420.057	71.56
420.28	74.56
420.503	84.56
420.726	89.56
420.948	77.56
421.171	94.56
421.394	80.56
421.617	78.56
421.839	75.56
422.062	76.56
422.285	83.56
422.507	84.56
422.73	73.56
422.953	86.56
423.175	88.56
423.398	70.56
423.621	76.56
423.843	95.56
424.066	77.56
424.288	86.56
424.511	78.56
424.733	81.56
424.956	78.56
425.178	81.56
425.401	68.56
425.623	84.56
425.846	92.56
426.068	71.56
426.291	73.56
426.513	70.56
426.735	111.56
426.958	89.56
427.18	80.56
427.402	83.56
427.625	92.56
427.847	88.56
428.069	69.56
428.292	84.56
428.514	83.56
428.736	75.56
428.958	88.56
429.181	71.56
429.403	78.56
429.625	86.56
429.847	80.56
430.069	82.56
430.292	77.56
430.514	82.56
430.736	83.56
430.958	83.56
431.18	81.56
431.402	94.56
431.624	69.56
431.846	74.56
432.068	89.56
432.29	73.56
432.512	86.56
432.734	84.56
432.956	82.56
433.178	84.56
433.4	82.56
433.622	84.56
433.844	89.56
434.066	79.56
434.287	82.56
434.509	87.56
434.731	76.56
434.953	77.56
435.175	78.56
435.397	89.56
435.618	73.56
435.84	91.56
436.062	77.56
436.284	73.56
436.505	73.56
436.727	93.56
436.949	77.56
437.17	59.56
437.392	73.56
437.614	86.56
437.835	82.56
438.057	72.56
438.278	66.56
438.5	73.56
438.721	85.56
438.943	77.56
439.165	91.56
439.386	77.56
439.608	70.56
439.829	81.56
440.05	91.56
440.272	73.56
440.493	74.56
440.715	75.56
440.936	72.56
441.158	94.56
441.379	82.56
441.6	84.56
441.822	85.56
442.043	77.56
442.264	84.56
442.486	102.56
442.707	92.56
442.928	83.56
443.149	82.56
443.371	84.56
443.592	67.56
443.813	63.56
444.034	88.56
444.255	86.56
444.476	82.56
444.698	84.56
444.919	73.56
445.14	176.56
445.361	129.56
445.582	82.56
445.803	92.56
446.024	80.56
446.245	82.56
446.466	100.56
446.687	100.56
446.908	84.56
447.129	84.56
447.35	81.56
447.571	77.56
447.792	79.56
448.013	75.56
448.234	69.56
448.455	87.56
448.675	71.56
448.896	78.56
449.117	78.56
449.338	92.56
449.559	86.56
449.779	68.56
450	82.56
450.221	82.56
450.442	82.56
450.662	108.56
450.883	84.56
451.104	82.56
451.324	86.56
451.545	73.56
451.766	74.56
451.986	96.56
452.207	92.56
452.428	91.56
452.648	84.56
452.869	81.56
453.089	92.56
453.31	79.56
453.53	78.56
453.751	88.56
453.971	74.56
454.192	71.56
454.412	78.56
454.633	75.56
454.853	81.56
455.073	79.56
455.294	88.56
455.514	86.56
455.734	89.56
455.955	75.56
456.175	73.56
456.395	85.56
456.616	90.56
456.836	94.56
457.056	73.56
457.276	76.56
457.497	68.56
457.717	89.56
457.937	78.56
458.157	68.56
458.377	85.56
458.598	93.56
458.818	80.56
459.038	88.56
459.258	90.56
459.478	85.56
459.698	84.56
459.918	93.56
460.138	87.56
460.358	76.56
460.578	88.56
460.798	77.56
461.018	69.56
461.238	81.56
461.458	92.56
461.678	71.56
461.898	76.56
462.118	71.56
462.338	73.56
462.558	83.56
462.777	82.56
462.997	76.56
463.217	94.56
463.437	84.56
463.657	72.56
463.876	73.56
464.096	70.56
464.316	85.56
464.536	87.56
464.755	94.56
464.975	81.56
465.195	76.56
465.414	88.56
465.634	78.56
465.854	89.56
466.073	86.56
466.293	91.56
466.512	69.56
466.732	82.56
466.951	76.56
467.171	70.56
467.391	64.56
467.61	67.56
467.829	68.56
468.049	91.56
468.268	74.56
468.488	92.56
468.707	76.56
468.927	78.56
469.146	87.56
469.365	96.56
469.585	78.56
469.804	80.56
470.023	84.56
470.243	76.56
470.462	83.56
470.681	80.56
470.901	76.56
471.12	68.56
471.339	99.56
471.558	63.56
471.777	83.56
471.997	83.56
472.216	77.56
472.435	93.56
472.654	82.56
472.873	71.56
473.092	81.56
473.311	67.56
473.53	68.56
473.749	79.56
473.968	94.56
474.187	87.56
474.406	88.56
474.625	89.56
474.844	72.56
475.063	77.56
475.282	80.56
475.501	77.56
475.72	78.56
475.939	86.56
476.158	74.56
476.377	70.56
476.596	86.56
476.814	79.56
477.033	78.56
477.252	85.56
477.471	80.56
477.69	58.56
477.908	84.56
478.127	98.56
478.346	94.56
478.564	89.56
478.783	75.56
479.002	81.56
479.22	77.56
479.439	77.56
479.658	84.56
479.876	72.56
480.095	88.56
480.313	93.56
480.532	88.56
480.751	89.56
480.969	72.56
481.188	85.56
481.406	89.56
481.624	80.56
481.843	76.56
482.061	72.56
482.28	89.56
482.498	85.56
482.717	93.56
482.935	98.56
483.153	90.56
483.372	90.56
483.59	88.56
483.808	89.56
484.027	88.56
484.245	93.56
484.463	91.56
484.681	74.56
484.9	91.56
485.118	97.56
485.336	84.56
485.554	77.56
485.772	88.56
485.99	71.56
486.209	89.56
486.427	93.56
486.645	77.56
486.863	96.56
487.081	77.56
487.299	84.56
487.517	79.56
487.735	94.56
487.953	84.56
488.171	83.56
488.389	85.56
488.607	84.56
488.825	66.56
489.043	79.56
489.261	88.56
489.479	84.56
489.696	102.56
489.914	85.56
490.132	99.56
490.35	86.56
490.568	86.56
490.786	92.56
491.003	91.56
491.221	97.56
491.439	71.56
491.657	64.56
491.874	82.56
492.092	86.56
492.31	96.56
492.527	96.56
492.745	82.56
492.963	97.56
493.18	97.56
493.398	96.56
493.615	79.56
493.833	97.56
494.05	82.56
494.268	75.56
494.485	82.56
494.703	74.56
494.92	84.56
495.138	91.56
495.355	91.56
495.573	86.56
495.79	80.56
496.008	89.56
496.225	86.56
496.442	73.56
496.66	92.56
496.877	82.56
497.094	76.56
497.312	86.56
497.529	91.56
497.746	80.56
497.963	90.56
498.181	83.56
498.398	78.56
498.615	102.56
498.832	79.56
499.049	87.56
499.267	91.56
499.484	94.56
499.701	97.56
499.918	71.56
500.135	85.56
500.352	106.56
500.569	77.56
500.786	91.56
501.003	91.56
501.22	97.56
501.437	84.56
501.654	92.56
501.871	84.56
502.088	80.56
502.305	90.56
502.522	79.56
502.739	88.56
502.956	80.56
503.172	84.56
503.389	91.56
503.606	83.56
503.823	87.56
504.04	78.56
504.256	85.56
504.473	78.56
504.69	91.56
504.907	79.56
505.123	85.56
505.34	71.56
505.557	76.56
505.773	91.56
505.99	90.56
506.207	85.56
506.423	89.56
506.64	85.56
506.856	86.56
507.073	87.56
507.289	87.56
507.506	98.56
507.722	85.56
507.939	96.56
508.155	91.56
508.372	89.56
508.588	88.56
508.805	85.56
509.021	101.56
509.238	86.56
509.454	97.56
509.67	64.56
509.887	78.56
510.103	78.56
510.319	75.56
510.536	81.56
510.752	82.56
510.968	89.56
511.184	81.56
511.401	89.56
511.617	87.56
511.833	82.56
512.049	85.56
512.265	76.56
512.481	90.56
512.698	90.56
512.914	85.56
513.13	93.56
513.346	80.56
513.562	83.56
513.778	97.56
513.994	82.56
514.21	82.56
514.426	72.56
514.642	80.56
514.858	86.56
515.074	80.56
515.29	86.56
515.506	89.56
515.721	86.56
515.937	91.56
516.153	73.56
516.369	74.56
516.585	79.56
516.801	90.56
517.016	74.56
517.232	80.56
517.448	78.56
517.664	69.56
517.879	80.56
518.095	78.56
518.311	74.56
518.527	94.56
518.742	86.56
518.958	90.56
519.173	71.56
