Data from Zn(NO3)2Standard.Agarose3%.GreenCap.LampEnergy5.5.E.O_HRD10591_15-01-44-768.txt Node
Date: Mon Jul 22 15:01:44 EDT 2019
User: cochatt
Spectrometer: HR+D1059
Trigger mode: 1
Integration Time (sec): 1.000000E-1
Scans to average: 1
Electric dark correction enabled: true
Nonlinearity correction enabled: false
Boxcar width: 0
XAxis mode: Wavelengths
Number of Pixels in Spectrum: 2048
>>>>>Begin Spectral Data<<<<<
223.165	-7.31
223.4	-7.31
223.635	-7.31
223.869	-19.31
224.104	-17.31
224.338	-22.31
224.573	-6.31
224.808	-12.31
225.042	-5.31
225.277	-7.31
225.511	-8.31
225.746	-2.31
225.98	17.69
226.215	9.69
226.449	4.69
226.683	26.69
226.918	36.69
227.152	12.69
227.387	45.69
227.621	33.69
227.856	52.69
228.09	46.69
228.324	40.69
228.559	56.69
228.793	67.69
229.027	65.69
229.262	77.69
229.496	62.69
229.73	77.69
229.964	57.69
230.199	75.69
230.433	68.69
230.667	60.69
230.901	72.69
231.136	86.69
231.37	82.69
231.604	80.69
231.838	92.69
232.072	83.69
232.306	80.69
232.541	87.69
232.775	78.69
233.009	83.69
233.243	84.69
233.477	77.69
233.711	83.69
233.945	80.69
234.179	73.69
234.413	81.69
234.647	77.69
234.881	80.69
235.115	76.69
235.349	75.69
235.583	72.69
235.817	72.69
236.051	74.69
236.285	81.69
236.519	77.69
236.753	77.69
236.987	76.69
237.221	85.69
237.455	86.69
237.689	90.69
237.922	67.69
238.156	70.69
238.39	73.69
238.624	69.69
238.858	72.69
239.091	68.69
239.325	86.69
239.559	82.69
239.793	69.69
240.027	82.69
240.26	74.69
240.494	69.69
240.728	83.69
240.961	68.69
241.195	84.69
241.429	77.69
241.662	76.69
241.896	74.69
242.13	76.69
242.363	89.69
242.597	79.69
242.83	62.69
243.064	83.69
243.298	70.69
243.531	74.69
243.765	76.69
243.998	69.69
244.232	78.69
244.465	83.69
244.699	87.69
244.932	77.69
245.166	83.69
245.399	69.69
245.633	69.69
245.866	91.69
246.099	73.69
246.333	92.69
246.566	79.69
246.8	67.69
247.033	73.69
247.266	73.69
247.5	77.69
247.733	86.69
247.966	85.69
248.2	101.69
248.433	89.69
248.666	81.69
248.899	83.69
249.133	86.69
249.366	87.69
249.599	91.69
249.832	62.69
250.066	77.69
250.299	72.69
250.532	75.69
250.765	93.69
250.998	70.69
251.231	80.69
251.465	77.69
251.698	83.69
251.931	69.69
252.164	82.69
252.397	79.69
252.63	78.69
252.863	87.69
253.096	81.69
253.329	72.69
253.562	91.69
253.795	90.69
254.028	84.69
254.261	82.69
254.494	82.69
254.727	82.69
254.96	73.69
255.193	91.69
255.426	86.69
255.659	81.69
255.892	83.69
256.124	78.69
256.357	75.69
256.59	77.69
256.823	92.69
257.056	56.69
257.289	88.69
257.521	88.69
257.754	81.69
257.987	84.69
258.22	77.69
258.452	77.69
258.685	73.69
258.918	69.69
259.151	77.69
259.383	66.69
259.616	82.69
259.849	78.69
260.081	68.69
260.314	93.69
260.547	80.69
260.779	82.69
261.012	70.69
261.244	75.69
261.477	82.69
261.71	84.69
261.942	69.69
262.175	99.69
262.407	73.69
262.64	74.69
262.872	70.69
263.105	76.69
263.337	93.69
263.57	84.69
263.802	83.69
264.035	83.69
264.267	67.69
264.499	83.69
264.732	79.69
264.964	88.69
265.197	81.69
265.429	94.69
265.661	86.69
265.894	78.69
266.126	89.69
266.358	87.69
266.591	71.69
266.823	68.69
267.055	70.69
267.287	82.69
267.52	77.69
267.752	81.69
267.984	72.69
268.216	94.69
268.448	85.69
268.681	81.69
268.913	99.69
269.145	91.69
269.377	72.69
269.609	97.69
269.841	84.69
270.073	91.69
270.306	92.69
270.538	93.69
270.77	90.69
271.002	87.69
271.234	83.69
271.466	94.69
271.698	71.69
271.93	78.69
272.162	67.69
272.394	90.69
272.626	97.69
272.858	72.69
273.09	80.69
273.322	86.69
273.553	89.69
273.785	89.69
274.017	96.69
274.249	93.69
274.481	75.69
274.713	77.69
274.945	80.69
275.176	75.69
275.408	73.69
275.64	75.69
275.872	80.69
276.104	89.69
276.335	88.69
276.567	93.69
276.799	102.69
277.031	84.69
277.262	80.69
277.494	89.69
277.726	91.69
277.957	80.69
278.189	74.69
278.421	88.69
278.652	91.69
278.884	96.69
279.115	88.69
279.347	82.69
279.579	77.69
279.81	75.69
280.042	94.69
280.273	78.69
280.505	80.69
280.736	96.69
280.968	87.69
281.199	92.69
281.431	92.69
281.662	88.69
281.894	92.69
282.125	108.69
282.356	84.69
282.588	83.69
282.819	80.69
283.051	90.69
283.282	69.69
283.513	80.69
283.745	88.69
283.976	89.69
284.207	77.69
284.439	77.69
284.67	74.69
284.901	85.69
285.132	91.69
285.364	91.69
285.595	89.69
285.826	93.69
286.057	78.69
286.288	87.69
286.52	69.69
286.751	97.69
286.982	82.69
287.213	78.69
287.444	83.69
287.675	90.69
287.906	83.69
288.138	85.69
288.369	93.69
288.6	92.69
288.831	82.69
289.062	73.69
289.293	78.69
289.524	94.69
289.755	78.69
289.986	77.69
290.217	92.69
290.448	91.69
290.679	83.69
290.91	97.69
291.141	88.69
291.371	94.69
291.602	69.69
291.833	86.69
292.064	94.69
292.295	82.69
292.526	79.69
292.757	89.69
292.987	94.69
293.218	101.69
293.449	84.69
293.68	86.69
293.91	90.69
294.141	76.69
294.372	87.69
294.603	91.69
294.833	90.69
295.064	81.69
295.295	87.69
295.525	76.69
295.756	72.69
295.987	78.69
296.217	94.69
296.448	80.69
296.679	84.69
296.909	86.69
297.14	88.69
297.37	100.69
297.601	77.69
297.831	89.69
298.062	89.69
298.292	89.69
298.523	74.69
298.753	83.69
298.984	95.69
299.214	97.69
299.445	88.69
299.675	87.69
299.905	90.69
300.136	89.69
300.366	78.69
300.597	71.69
300.827	94.69
301.057	81.69
301.288	81.69
301.518	76.69
301.748	83.69
301.979	81.69
302.209	87.69
302.439	103.69
302.669	99.69
302.9	92.69
303.13	90.69
303.36	93.69
303.59	82.69
303.82	101.69
304.051	96.69
304.281	68.69
304.511	70.69
304.741	80.69
304.971	84.69
305.201	58.69
305.431	77.69
305.661	86.69
305.891	76.69
306.121	74.69
306.352	89.69
306.582	77.69
306.812	89.69
307.042	92.69
307.272	78.69
307.502	79.69
307.731	105.69
307.961	86.69
308.191	88.69
308.421	83.69
308.651	90.69
308.881	91.69
309.111	90.69
309.341	88.69
309.571	92.69
309.8	97.69
310.03	88.69
310.26	82.69
310.49	77.69
310.72	78.69
310.949	97.69
311.179	81.69
311.409	95.69
311.639	85.69
311.868	84.69
312.098	89.69
312.328	84.69
312.557	84.69
312.787	90.69
313.017	88.69
313.246	93.69
313.476	77.69
313.706	75.69
313.935	92.69
314.165	98.69
314.394	81.69
314.624	81.69
314.853	81.69
315.083	83.69
315.312	75.69
315.542	81.69
315.771	88.69
316.001	92.69
316.23	84.69
316.46	94.69
316.689	74.69
316.919	88.69
317.148	78.69
317.377	95.69
317.607	92.69
317.836	88.69
318.065	92.69
318.295	82.69
318.524	85.69
318.753	80.69
318.983	88.69
319.212	79.69
319.441	90.69
319.67	82.69
319.9	101.69
320.129	77.69
320.358	100.69
320.587	86.69
320.816	85.69
321.046	85.69
321.275	78.69
321.504	84.69
321.733	95.69
321.962	79.69
322.191	90.69
322.42	95.69
322.649	92.69
322.878	81.69
323.108	88.69
323.337	88.69
323.566	86.69
323.795	78.69
324.024	83.69
324.253	80.69
324.482	78.69
324.71	83.69
324.939	84.69
325.168	85.69
325.397	93.69
325.626	98.69
325.855	93.69
326.084	91.69
326.313	96.69
326.542	89.69
326.77	93.69
326.999	81.69
327.228	87.69
327.457	83.69
327.686	90.69
327.914	87.69
328.143	81.69
328.372	79.69
328.6	82.69
328.829	81.69
329.058	75.69
329.287	79.69
329.515	96.69
329.744	92.69
329.972	99.69
330.201	88.69
330.43	86.69
330.658	96.69
330.887	84.69
331.115	89.69
331.344	81.69
331.572	87.69
331.801	71.69
332.03	86.69
332.258	79.69
332.486	90.69
332.715	89.69
332.943	90.69
333.172	89.69
333.4	95.69
333.629	89.69
333.857	88.69
334.085	92.69
334.314	81.69
334.542	85.69
334.771	79.69
334.999	85.69
335.227	76.69
335.455	82.69
335.684	89.69
335.912	81.69
336.14	79.69
336.369	77.69
336.597	78.69
336.825	77.69
337.053	96.69
337.281	94.69
337.51	76.69
337.738	80.69
337.966	100.69
338.194	93.69
338.422	87.69
338.65	89.69
338.878	67.69
339.106	78.69
339.334	89.69
339.562	90.69
339.79	99.69
340.018	91.69
340.246	93.69
340.474	76.69
340.702	69.69
340.93	80.69
341.158	79.69
341.386	88.69
341.614	89.69
341.842	96.69
342.07	92.69
342.298	72.69
342.526	86.69
342.754	89.69
342.981	81.69
343.209	80.69
343.437	97.69
343.665	89.69
343.893	72.69
344.12	80.69
344.348	94.69
344.576	81.69
344.804	80.69
345.031	77.69
345.259	84.69
345.487	79.69
345.714	77.69
345.942	67.69
346.17	87.69
346.397	90.69
346.625	87.69
346.853	91.69
347.08	88.69
347.308	92.69
347.535	90.69
347.763	80.69
347.99	85.69
348.218	85.69
348.445	88.69
348.673	92.69
348.9	100.69
349.128	95.69
349.355	96.69
349.583	97.69
349.81	81.69
350.037	86.69
350.265	85.69
350.492	83.69
350.72	81.69
350.947	88.69
351.174	84.69
351.402	64.69
351.629	78.69
351.856	91.69
352.083	88.69
352.311	104.69
352.538	80.69
352.765	80.69
352.992	76.69
353.22	78.69
353.447	72.69
353.674	98.69
353.901	87.69
354.128	77.69
354.355	92.69
354.583	71.69
354.81	75.69
355.037	77.69
355.264	84.69
355.491	75.69
355.718	84.69
355.945	80.69
356.172	79.69
356.399	91.69
356.626	79.69
356.853	86.69
357.08	82.69
357.307	90.69
357.534	101.69
357.761	78.69
357.988	88.69
358.215	77.69
358.441	86.69
358.668	81.69
358.895	90.69
359.122	91.69
359.349	92.69
359.576	85.69
359.802	89.69
360.029	90.69
360.256	80.69
360.483	89.69
360.709	96.69
360.936	84.69
361.163	85.69
361.39	89.69
361.616	89.69
361.843	100.69
362.07	90.69
362.296	83.69
362.523	82.69
362.749	88.69
362.976	72.69
363.203	83.69
363.429	99.69
363.656	87.69
363.882	96.69
364.109	68.69
364.335	77.69
364.562	88.69
364.788	98.69
365.015	91.69
365.241	88.69
365.468	76.69
365.694	75.69
365.92	83.69
366.147	75.69
366.373	85.69
366.599	91.69
366.826	102.69
367.052	91.69
367.278	82.69
367.505	88.69
367.731	89.69
367.957	86.69
368.184	67.69
368.41	86.69
368.636	96.69
368.862	103.69
369.089	71.69
369.315	83.69
369.541	90.69
369.767	86.69
369.993	81.69
370.219	88.69
370.445	94.69
370.672	85.69
370.898	92.69
371.124	72.69
371.35	84.69
371.576	91.69
371.802	84.69
372.028	86.69
372.254	95.69
372.48	88.69
372.706	81.69
372.932	76.69
373.158	84.69
373.384	89.69
373.61	91.69
373.835	97.69
374.061	91.69
374.287	89.69
374.513	79.69
374.739	84.69
374.965	83.69
375.191	90.69
375.416	97.69
375.642	72.69
375.868	76.69
376.094	75.69
376.319	86.69
376.545	77.69
376.771	91.69
376.997	83.69
377.222	90.69
377.448	87.69
377.674	82.69
377.899	83.69
378.125	82.69
378.35	77.69
378.576	78.69
378.802	89.69
379.027	78.69
379.253	82.69
379.478	89.69
379.704	81.69
379.929	82.69
380.155	76.69
380.38	86.69
380.606	88.69
380.831	92.69
381.057	93.69
381.282	88.69
381.507	83.69
381.733	85.69
381.958	77.69
382.184	85.69
382.409	91.69
382.634	77.69
382.86	95.69
383.085	91.69
383.31	73.69
383.535	91.69
383.761	85.69
383.986	89.69
384.211	90.69
384.436	92.69
384.662	80.69
384.887	79.69
385.112	74.69
385.337	73.69
385.562	75.69
385.787	90.69
386.013	84.69
386.238	81.69
386.463	91.69
386.688	85.69
386.913	86.69
387.138	92.69
387.363	93.69
387.588	93.69
387.813	79.69
388.038	80.69
388.263	93.69
388.488	98.69
388.713	77.69
388.938	87.69
389.163	91.69
389.387	72.69
389.612	88.69
389.837	87.69
390.062	91.69
390.287	86.69
390.512	82.69
390.736	97.69
390.961	91.69
391.186	84.69
391.411	85.69
391.636	92.69
391.86	85.69
392.085	79.69
392.31	77.69
392.534	88.69
392.759	85.69
392.984	76.69
393.208	90.69
393.433	76.69
393.658	77.69
393.882	85.69
394.107	93.69
394.331	89.69
394.556	83.69
394.78	87.69
395.005	85.69
395.229	92.69
395.454	69.69
395.678	86.69
395.903	87.69
396.127	98.69
396.352	90.69
396.576	83.69
396.801	81.69
397.025	82.69
397.249	90.69
397.474	86.69
397.698	81.69
397.922	96.69
398.147	81.69
398.371	84.69
398.595	85.69
398.82	83.69
399.044	75.69
399.268	88.69
399.492	86.69
399.717	88.69
399.941	82.69
400.165	91.69
400.389	92.69
400.613	73.69
400.837	76.69
401.062	81.69
401.286	90.69
401.51	76.69
401.734	82.69
401.958	103.69
402.182	82.69
402.406	79.69
402.63	77.69
402.854	81.69
403.078	77.69
403.302	85.69
403.526	96.69
403.75	93.69
403.974	73.69
404.198	91.69
404.422	100.69
404.645	88.69
404.869	99.69
405.093	87.69
405.317	81.69
405.541	84.69
405.765	92.69
405.988	91.69
406.212	81.69
406.436	100.69
406.66	94.69
406.883	77.69
407.107	84.69
407.331	87.69
407.555	79.69
407.778	77.69
408.002	91.69
408.226	76.69
408.449	102.69
408.673	89.69
408.896	86.69
409.12	91.69
409.344	93.69
409.567	89.69
409.791	76.69
410.014	80.69
410.238	90.69
410.461	77.69
410.685	88.69
410.908	79.69
411.132	96.69
411.355	93.69
411.578	89.69
411.802	91.69
412.025	85.69
412.249	92.69
412.472	83.69
412.695	89.69
412.919	92.69
413.142	82.69
413.365	82.69
413.589	97.69
413.812	97.69
414.035	96.69
414.258	87.69
414.482	93.69
414.705	81.69
414.928	93.69
415.151	98.69
415.374	81.69
415.597	79.69
415.821	90.69
416.044	107.69
416.267	86.69
416.49	90.69
416.713	94.69
416.936	97.69
417.159	82.69
417.382	84.69
417.605	87.69
417.828	99.69
418.051	72.69
418.274	94.69
418.497	86.69
418.72	80.69
418.943	107.69
419.166	86.69
419.389	93.69
419.611	104.69
419.834	96.69
420.057	87.69
420.28	88.69
420.503	88.69
420.726	85.69
420.948	98.69
421.171	86.69
421.394	102.69
421.617	84.69
421.839	81.69
422.062	85.69
422.285	110.69
422.507	85.69
422.73	81.69
422.953	86.69
423.175	84.69
423.398	89.69
423.621	96.69
423.843	96.69
424.066	82.69
424.288	95.69
424.511	88.69
424.733	99.69
424.956	107.69
425.178	96.69
425.401	84.69
425.623	82.69
425.846	81.69
426.068	82.69
426.291	90.69
426.513	75.69
426.735	85.69
426.958	73.69
427.18	86.69
427.402	94.69
427.625	99.69
427.847	95.69
428.069	94.69
428.292	93.69
428.514	94.69
428.736	67.69
428.958	93.69
429.181	76.69
429.403	86.69
429.625	93.69
429.847	83.69
430.069	72.69
430.292	96.69
430.514	100.69
430.736	87.69
430.958	91.69
431.18	91.69
431.402	88.69
431.624	86.69
431.846	99.69
432.068	76.69
432.29	92.69
432.512	74.69
432.734	75.69
432.956	84.69
433.178	106.69
433.4	96.69
433.622	100.69
433.844	99.69
434.066	95.69
434.287	82.69
434.509	73.69
434.731	86.69
434.953	83.69
435.175	101.69
435.397	77.69
435.618	94.69
435.84	84.69
436.062	91.69
436.284	92.69
436.505	76.69
436.727	85.69
436.949	90.69
437.17	97.69
437.392	85.69
437.614	71.69
437.835	90.69
438.057	78.69
438.278	84.69
438.5	91.69
438.721	70.69
438.943	96.69
439.165	90.69
439.386	83.69
439.608	104.69
439.829	94.69
440.05	90.69
440.272	95.69
440.493	98.69
440.715	85.69
440.936	90.69
441.158	95.69
441.379	99.69
441.6	85.69
441.822	88.69
442.043	87.69
442.264	91.69
442.486	80.69
442.707	91.69
442.928	85.69
443.149	83.69
443.371	91.69
443.592	91.69
443.813	91.69
444.034	85.69
444.255	92.69
444.476	85.69
444.698	87.69
444.919	97.69
445.14	184.69
445.361	117.69
445.582	90.69
445.803	85.69
446.024	84.69
446.245	103.69
446.466	104.69
446.687	97.69
446.908	94.69
447.129	101.69
447.35	90.69
447.571	97.69
447.792	105.69
448.013	81.69
448.234	88.69
448.455	92.69
448.675	79.69
448.896	80.69
449.117	91.69
449.338	99.69
449.559	88.69
449.779	104.69
450	86.69
450.221	90.69
450.442	86.69
450.662	74.69
450.883	87.69
451.104	78.69
451.324	94.69
451.545	95.69
451.766	80.69
451.986	89.69
452.207	90.69
452.428	90.69
452.648	82.69
452.869	82.69
453.089	98.69
453.31	101.69
453.53	93.69
453.751	82.69
453.971	74.69
454.192	76.69
454.412	74.69
454.633	97.69
454.853	87.69
455.073	87.69
455.294	102.69
455.514	82.69
455.734	75.69
455.955	96.69
456.175	77.69
456.395	100.69
456.616	84.69
456.836	86.69
457.056	86.69
457.276	89.69
457.497	85.69
457.717	85.69
457.937	93.69
458.157	88.69
458.377	96.69
458.598	85.69
458.818	83.69
459.038	72.69
459.258	68.69
459.478	89.69
459.698	90.69
459.918	78.69
460.138	86.69
460.358	97.69
460.578	96.69
460.798	82.69
461.018	97.69
461.238	92.69
461.458	89.69
461.678	91.69
461.898	99.69
462.118	86.69
462.338	88.69
462.558	95.69
462.777	89.69
462.997	73.69
463.217	88.69
463.437	83.69
463.657	94.69
463.876	89.69
464.096	91.69
464.316	83.69
464.536	82.69
464.755	74.69
464.975	87.69
465.195	96.69
465.414	96.69
465.634	84.69
465.854	86.69
466.073	82.69
466.293	86.69
466.512	83.69
466.732	97.69
466.951	97.69
467.171	90.69
467.391	82.69
467.61	96.69
467.829	103.69
468.049	92.69
468.268	90.69
468.488	88.69
468.707	72.69
468.927	85.69
469.146	94.69
469.365	74.69
469.585	92.69
469.804	98.69
470.023	82.69
470.243	88.69
470.462	89.69
470.681	80.69
470.901	95.69
471.12	96.69
471.339	92.69
471.558	95.69
471.777	89.69
471.997	95.69
472.216	91.69
472.435	99.69
472.654	84.69
472.873	94.69
473.092	85.69
473.311	82.69
473.53	87.69
473.749	94.69
473.968	83.69
474.187	97.69
474.406	85.69
474.625	85.69
474.844	96.69
475.063	103.69
475.282	88.69
475.501	82.69
475.72	85.69
475.939	85.69
476.158	93.69
476.377	83.69
476.596	91.69
476.814	105.69
477.033	94.69
477.252	103.69
477.471	89.69
477.69	88.69
477.908	87.69
478.127	86.69
478.346	97.69
478.564	103.69
478.783	96.69
479.002	116.69
479.22	101.69
479.439	92.69
479.658	84.69
479.876	101.69
480.095	101.69
480.313	86.69
480.532	102.69
480.751	87.69
480.969	90.69
481.188	89.69
481.406	84.69
481.624	83.69
481.843	76.69
482.061	97.69
482.28	89.69
482.498	81.69
482.717	88.69
482.935	85.69
483.153	91.69
483.372	89.69
483.59	88.69
483.808	97.69
484.027	93.69
484.245	93.69
484.463	77.69
484.681	95.69
484.9	105.69
485.118	92.69
485.336	86.69
485.554	90.69
485.772	79.69
485.99	77.69
486.209	88.69
486.427	87.69
486.645	98.69
486.863	88.69
487.081	93.69
487.299	92.69
487.517	98.69
487.735	97.69
487.953	104.69
488.171	96.69
488.389	100.69
488.607	83.69
488.825	84.69
489.043	92.69
489.261	94.69
489.479	102.69
489.696	103.69
489.914	97.69
490.132	86.69
490.35	97.69
490.568	96.69
490.786	99.69
491.003	99.69
491.221	93.69
491.439	95.69
491.657	105.69
491.874	109.69
492.092	112.69
492.31	114.69
492.527	108.69
492.745	110.69
492.963	97.69
493.18	100.69
493.398	102.69
493.615	104.69
493.833	83.69
494.05	104.69
494.268	103.69
494.485	86.69
494.703	105.69
494.92	99.69
495.138	100.69
495.355	98.69
495.573	88.69
495.79	89.69
496.008	106.69
496.225	93.69
496.442	78.69
496.66	103.69
496.877	91.69
497.094	112.69
497.312	112.69
497.529	109.69
497.746	102.69
497.963	100.69
498.181	88.69
498.398	91.69
498.615	86.69
498.832	92.69
499.049	73.69
499.267	89.69
499.484	84.69
499.701	90.69
499.918	83.69
500.135	95.69
500.352	86.69
500.569	87.69
500.786	89.69
501.003	82.69
501.22	81.69
501.437	89.69
501.654	88.69
501.871	90.69
502.088	85.69
502.305	96.69
502.522	98.69
502.739	93.69
502.956	109.69
503.172	83.69
503.389	103.69
503.606	96.69
503.823	92.69
504.04	101.69
504.256	88.69
504.473	89.69
504.69	77.69
504.907	101.69
505.123	101.69
505.34	103.69
505.557	74.69
505.773	91.69
505.99	76.69
506.207	83.69
506.423	87.69
506.64	82.69
506.856	81.69
507.073	71.69
507.289	89.69
507.506	83.69
507.722	92.69
507.939	93.69
508.155	76.69
508.372	91.69
508.588	82.69
508.805	88.69
509.021	78.69
509.238	79.69
509.454	86.69
509.67	74.69
509.887	86.69
510.103	82.69
510.319	92.69
510.536	106.69
510.752	87.69
510.968	79.69
511.184	93.69
511.401	77.69
511.617	84.69
511.833	96.69
512.049	92.69
512.265	84.69
512.481	75.69
512.698	76.69
512.914	87.69
513.13	92.69
513.346	87.69
513.562	84.69
513.778	88.69
513.994	79.69
514.21	76.69
514.426	86.69
514.642	83.69
514.858	80.69
515.074	82.69
515.29	72.69
515.506	91.69
515.721	85.69
515.937	93.69
516.153	77.69
516.369	85.69
516.585	70.69
516.801	66.69
517.016	100.69
517.232	81.69
517.448	92.69
517.664	83.69
517.879	86.69
518.095	87.69
518.311	89.69
