Data from Zn(NO3)2Standard.Agarose3%.GreenCap.LampEnergy10E.O_HRD10591_15-09-09-952.txt Node
Date: Mon Jul 22 15:09:09 EDT 2019
User: cochatt
Spectrometer: HR+D1059
Trigger mode: 1
Integration Time (sec): 1.000000E-1
Scans to average: 1
Electric dark correction enabled: true
Nonlinearity correction enabled: false
Boxcar width: 0
XAxis mode: Wavelengths
Number of Pixels in Spectrum: 2048
>>>>>Begin Spectral Data<<<<<
223.165	-11.5
223.4	-11.5
223.635	-11.5
223.869	-20.5
224.104	-10.5
224.338	-16.5
224.573	-20.5
224.808	-9.5
225.042	-2.5
225.277	-4.5
225.511	-3.5
225.746	9.5
225.98	14.5
226.215	1.5
226.449	11.5
226.683	13.5
226.918	24.5
227.152	24.5
227.387	34.5
227.621	42.5
227.856	43.5
228.09	42.5
228.324	47.5
228.559	57.5
228.793	49.5
229.027	70.5
229.262	61.5
229.496	70.5
229.73	69.5
229.964	62.5
230.199	74.5
230.433	75.5
230.667	81.5
230.901	69.5
231.136	78.5
231.37	76.5
231.604	89.5
231.838	85.5
232.072	71.5
232.306	88.5
232.541	77.5
232.775	81.5
233.009	67.5
233.243	89.5
233.477	96.5
233.711	80.5
233.945	89.5
234.179	96.5
234.413	88.5
234.647	90.5
234.881	78.5
235.115	86.5
235.349	110.5
235.583	85.5
235.817	73.5
236.051	72.5
236.285	79.5
236.519	73.5
236.753	67.5
236.987	82.5
237.221	85.5
237.455	85.5
237.689	79.5
237.922	72.5
238.156	75.5
238.39	71.5
238.624	69.5
238.858	68.5
239.091	82.5
239.325	85.5
239.559	77.5
239.793	78.5
240.027	80.5
240.26	83.5
240.494	86.5
240.728	83.5
240.961	73.5
241.195	72.5
241.429	70.5
241.662	86.5
241.896	74.5
242.13	83.5
242.363	83.5
242.597	76.5
242.83	72.5
243.064	72.5
243.298	77.5
243.531	79.5
243.765	72.5
243.998	94.5
244.232	82.5
244.465	85.5
244.699	76.5
244.932	83.5
245.166	69.5
245.399	83.5
245.633	85.5
245.866	74.5
246.099	58.5
246.333	85.5
246.566	72.5
246.8	69.5
247.033	72.5
247.266	72.5
247.5	71.5
247.733	75.5
247.966	81.5
248.2	80.5
248.433	68.5
248.666	84.5
248.899	95.5
249.133	80.5
249.366	86.5
249.599	71.5
249.832	78.5
250.066	89.5
250.299	93.5
250.532	79.5
250.765	71.5
250.998	78.5
251.231	77.5
251.465	77.5
251.698	76.5
251.931	95.5
252.164	84.5
252.397	85.5
252.63	72.5
252.863	85.5
253.096	81.5
253.329	68.5
253.562	74.5
253.795	71.5
254.028	83.5
254.261	85.5
254.494	78.5
254.727	84.5
254.96	90.5
255.193	75.5
255.426	82.5
255.659	77.5
255.892	90.5
256.124	78.5
256.357	76.5
256.59	90.5
256.823	93.5
257.056	83.5
257.289	92.5
257.521	84.5
257.754	94.5
257.987	73.5
258.22	73.5
258.452	84.5
258.685	87.5
258.918	74.5
259.151	73.5
259.383	78.5
259.616	84.5
259.849	75.5
260.081	73.5
260.314	87.5
260.547	82.5
260.779	85.5
261.012	76.5
261.244	82.5
261.477	94.5
261.71	87.5
261.942	77.5
262.175	79.5
262.407	75.5
262.64	83.5
262.872	81.5
263.105	78.5
263.337	86.5
263.57	95.5
263.802	85.5
264.035	70.5
264.267	86.5
264.499	82.5
264.732	89.5
264.964	76.5
265.197	88.5
265.429	71.5
265.661	79.5
265.894	86.5
266.126	84.5
266.358	90.5
266.591	82.5
266.823	85.5
267.055	86.5
267.287	96.5
267.52	91.5
267.752	95.5
267.984	96.5
268.216	95.5
268.448	93.5
268.681	78.5
268.913	84.5
269.145	78.5
269.377	99.5
269.609	70.5
269.841	71.5
270.073	99.5
270.306	78.5
270.538	81.5
270.77	83.5
271.002	76.5
271.234	74.5
271.466	84.5
271.698	79.5
271.93	75.5
272.162	87.5
272.394	91.5
272.626	69.5
272.858	75.5
273.09	81.5
273.322	88.5
273.553	78.5
273.785	97.5
274.017	85.5
274.249	67.5
274.481	86.5
274.713	93.5
274.945	78.5
275.176	94.5
275.408	83.5
275.64	87.5
275.872	78.5
276.104	78.5
276.335	78.5
276.567	90.5
276.799	79.5
277.031	89.5
277.262	90.5
277.494	88.5
277.726	93.5
277.957	92.5
278.189	82.5
278.421	86.5
278.652	89.5
278.884	95.5
279.115	78.5
279.347	92.5
279.579	98.5
279.81	84.5
280.042	87.5
280.273	85.5
280.505	90.5
280.736	85.5
280.968	80.5
281.199	97.5
281.431	84.5
281.662	78.5
281.894	80.5
282.125	83.5
282.356	88.5
282.588	88.5
282.819	85.5
283.051	88.5
283.282	84.5
283.513	80.5
283.745	81.5
283.976	77.5
284.207	81.5
284.439	78.5
284.67	78.5
284.901	86.5
285.132	86.5
285.364	91.5
285.595	90.5
285.826	77.5
286.057	89.5
286.288	84.5
286.52	73.5
286.751	92.5
286.982	84.5
287.213	78.5
287.444	83.5
287.675	87.5
287.906	93.5
288.138	75.5
288.369	82.5
288.6	77.5
288.831	87.5
289.062	86.5
289.293	95.5
289.524	84.5
289.755	85.5
289.986	72.5
290.217	88.5
290.448	80.5
290.679	77.5
290.91	101.5
291.141	97.5
291.371	92.5
291.602	89.5
291.833	71.5
292.064	90.5
292.295	83.5
292.526	82.5
292.757	80.5
292.987	82.5
293.218	90.5
293.449	84.5
293.68	76.5
293.91	89.5
294.141	89.5
294.372	90.5
294.603	87.5
294.833	71.5
295.064	88.5
295.295	88.5
295.525	79.5
295.756	100.5
295.987	90.5
296.217	97.5
296.448	79.5
296.679	92.5
296.909	77.5
297.14	84.5
297.37	94.5
297.601	99.5
297.831	88.5
298.062	89.5
298.292	89.5
298.523	81.5
298.753	86.5
298.984	80.5
299.214	90.5
299.445	76.5
299.675	104.5
299.905	65.5
300.136	70.5
300.366	88.5
300.597	96.5
300.827	84.5
301.057	76.5
301.288	78.5
301.518	95.5
301.748	80.5
301.979	83.5
302.209	82.5
302.439	91.5
302.669	78.5
302.9	81.5
303.13	85.5
303.36	89.5
303.59	87.5
303.82	86.5
304.051	85.5
304.281	73.5
304.511	91.5
304.741	67.5
304.971	77.5
305.201	84.5
305.431	97.5
305.661	80.5
305.891	85.5
306.121	91.5
306.352	95.5
306.582	85.5
306.812	74.5
307.042	82.5
307.272	87.5
307.502	91.5
307.731	87.5
307.961	92.5
308.191	85.5
308.421	81.5
308.651	88.5
308.881	92.5
309.111	66.5
309.341	90.5
309.571	88.5
309.8	91.5
310.03	88.5
310.26	91.5
310.49	86.5
310.72	86.5
310.949	83.5
311.179	83.5
311.409	83.5
311.639	88.5
311.868	92.5
312.098	96.5
312.328	92.5
312.557	98.5
312.787	78.5
313.017	86.5
313.246	77.5
313.476	93.5
313.706	92.5
313.935	79.5
314.165	83.5
314.394	101.5
314.624	83.5
314.853	101.5
315.083	84.5
315.312	86.5
315.542	104.5
315.771	88.5
316.001	86.5
316.23	83.5
316.46	75.5
316.689	86.5
316.919	81.5
317.148	85.5
317.377	94.5
317.607	99.5
317.836	86.5
318.065	80.5
318.295	77.5
318.524	79.5
318.753	83.5
318.983	97.5
319.212	69.5
319.441	87.5
319.67	76.5
319.9	89.5
320.129	83.5
320.358	100.5
320.587	75.5
320.816	90.5
321.046	85.5
321.275	84.5
321.504	85.5
321.733	82.5
321.962	75.5
322.191	82.5
322.42	108.5
322.649	96.5
322.878	85.5
323.108	94.5
323.337	79.5
323.566	98.5
323.795	90.5
324.024	94.5
324.253	87.5
324.482	85.5
324.71	106.5
324.939	89.5
325.168	88.5
325.397	74.5
325.626	91.5
325.855	91.5
326.084	81.5
326.313	85.5
326.542	89.5
326.77	80.5
326.999	83.5
327.228	95.5
327.457	83.5
327.686	79.5
327.914	87.5
328.143	78.5
328.372	86.5
328.6	90.5
328.829	85.5
329.058	84.5
329.287	74.5
329.515	74.5
329.744	84.5
329.972	81.5
330.201	92.5
330.43	68.5
330.658	70.5
330.887	79.5
331.115	91.5
331.344	79.5
331.572	88.5
331.801	94.5
332.03	80.5
332.258	85.5
332.486	70.5
332.715	98.5
332.943	86.5
333.172	85.5
333.4	77.5
333.629	97.5
333.857	84.5
334.085	81.5
334.314	101.5
334.542	72.5
334.771	79.5
334.999	92.5
335.227	85.5
335.455	89.5
335.684	82.5
335.912	87.5
336.14	98.5
336.369	82.5
336.597	90.5
336.825	92.5
337.053	87.5
337.281	87.5
337.51	86.5
337.738	87.5
337.966	98.5
338.194	99.5
338.422	68.5
338.65	89.5
338.878	89.5
339.106	84.5
339.334	99.5
339.562	89.5
339.79	83.5
340.018	87.5
340.246	82.5
340.474	71.5
340.702	95.5
340.93	85.5
341.158	85.5
341.386	87.5
341.614	90.5
341.842	76.5
342.07	91.5
342.298	94.5
342.526	93.5
342.754	71.5
342.981	89.5
343.209	96.5
343.437	80.5
343.665	66.5
343.893	79.5
344.12	82.5
344.348	84.5
344.576	79.5
344.804	76.5
345.031	71.5
345.259	72.5
345.487	76.5
345.714	74.5
345.942	97.5
346.17	89.5
346.397	84.5
346.625	89.5
346.853	86.5
347.08	82.5
347.308	90.5
347.535	94.5
347.763	88.5
347.99	97.5
348.218	92.5
348.445	88.5
348.673	83.5
348.9	89.5
349.128	78.5
349.355	83.5
349.583	74.5
349.81	76.5
350.037	84.5
350.265	96.5
350.492	76.5
350.72	89.5
350.947	81.5
351.174	100.5
351.402	79.5
351.629	63.5
351.856	90.5
352.083	92.5
352.311	85.5
352.538	97.5
352.765	74.5
352.992	87.5
353.22	78.5
353.447	76.5
353.674	85.5
353.901	80.5
354.128	81.5
354.355	77.5
354.583	86.5
354.81	84.5
355.037	84.5
355.264	78.5
355.491	79.5
355.718	77.5
355.945	84.5
356.172	91.5
356.399	81.5
356.626	90.5
356.853	75.5
357.08	82.5
357.307	89.5
357.534	101.5
357.761	87.5
357.988	87.5
358.215	83.5
358.441	90.5
358.668	85.5
358.895	85.5
359.122	84.5
359.349	91.5
359.576	83.5
359.802	84.5
360.029	92.5
360.256	98.5
360.483	81.5
360.709	87.5
360.936	77.5
361.163	93.5
361.39	79.5
361.616	87.5
361.843	78.5
362.07	99.5
362.296	85.5
362.523	85.5
362.749	97.5
362.976	73.5
363.203	85.5
363.429	80.5
363.656	85.5
363.882	75.5
364.109	72.5
364.335	96.5
364.562	86.5
364.788	97.5
365.015	68.5
365.241	74.5
365.468	90.5
365.694	75.5
365.92	79.5
366.147	89.5
366.373	80.5
366.599	75.5
366.826	85.5
367.052	83.5
367.278	71.5
367.505	73.5
367.731	80.5
367.957	77.5
368.184	77.5
368.41	91.5
368.636	88.5
368.862	80.5
369.089	94.5
369.315	84.5
369.541	87.5
369.767	93.5
369.993	87.5
370.219	82.5
370.445	95.5
370.672	87.5
370.898	83.5
371.124	93.5
371.35	81.5
371.576	84.5
371.802	89.5
372.028	83.5
372.254	98.5
372.48	90.5
372.706	83.5
372.932	84.5
373.158	79.5
373.384	98.5
373.61	82.5
373.835	82.5
374.061	79.5
374.287	88.5
374.513	80.5
374.739	79.5
374.965	86.5
375.191	87.5
375.416	86.5
375.642	86.5
375.868	90.5
376.094	101.5
376.319	89.5
376.545	84.5
376.771	93.5
376.997	79.5
377.222	97.5
377.448	90.5
377.674	90.5
377.899	94.5
378.125	91.5
378.35	87.5
378.576	94.5
378.802	85.5
379.027	84.5
379.253	90.5
379.478	84.5
379.704	99.5
379.929	86.5
380.155	91.5
380.38	112.5
380.606	92.5
380.831	94.5
381.057	92.5
381.282	86.5
381.507	84.5
381.733	101.5
381.958	83.5
382.184	75.5
382.409	85.5
382.634	93.5
382.86	90.5
383.085	87.5
383.31	86.5
383.535	95.5
383.761	89.5
383.986	77.5
384.211	96.5
384.436	90.5
384.662	102.5
384.887	90.5
385.112	86.5
385.337	97.5
385.562	97.5
385.787	95.5
386.013	102.5
386.238	86.5
386.463	90.5
386.688	75.5
386.913	92.5
387.138	81.5
387.363	93.5
387.588	93.5
387.813	90.5
388.038	88.5
388.263	102.5
388.488	93.5
388.713	88.5
388.938	87.5
389.163	84.5
389.387	88.5
389.612	88.5
389.837	98.5
390.062	94.5
390.287	86.5
390.512	97.5
390.736	80.5
390.961	92.5
391.186	102.5
391.411	87.5
391.636	107.5
391.86	110.5
392.085	93.5
392.31	90.5
392.534	93.5
392.759	97.5
392.984	116.5
393.208	106.5
393.433	95.5
393.658	92.5
393.882	88.5
394.107	102.5
394.331	96.5
394.556	98.5
394.78	93.5
395.005	102.5
395.229	95.5
395.454	91.5
395.678	99.5
395.903	108.5
396.127	101.5
396.352	93.5
396.576	74.5
396.801	86.5
397.025	95.5
397.249	91.5
397.474	94.5
397.698	107.5
397.922	92.5
398.147	97.5
398.371	85.5
398.595	97.5
398.82	98.5
399.044	103.5
399.268	102.5
399.492	96.5
399.717	91.5
399.941	95.5
400.165	98.5
400.389	93.5
400.613	97.5
400.837	103.5
401.062	93.5
401.286	98.5
401.51	95.5
401.734	84.5
401.958	81.5
402.182	92.5
402.406	94.5
402.63	91.5
402.854	93.5
403.078	94.5
403.302	108.5
403.526	88.5
403.75	87.5
403.974	106.5
404.198	99.5
404.422	108.5
404.645	106.5
404.869	94.5
405.093	98.5
405.317	102.5
405.541	91.5
405.765	101.5
405.988	89.5
406.212	107.5
406.436	87.5
406.66	104.5
406.883	102.5
407.107	95.5
407.331	104.5
407.555	101.5
407.778	89.5
408.002	100.5
408.226	101.5
408.449	89.5
408.673	108.5
408.896	116.5
409.12	106.5
409.344	107.5
409.567	98.5
409.791	97.5
410.014	108.5
410.238	105.5
410.461	103.5
410.685	99.5
410.908	105.5
411.132	107.5
411.355	106.5
411.578	98.5
411.802	89.5
412.025	99.5
412.249	94.5
412.472	99.5
412.695	100.5
412.919	107.5
413.142	105.5
413.365	106.5
413.589	95.5
413.812	99.5
414.035	95.5
414.258	110.5
414.482	107.5
414.705	103.5
414.928	97.5
415.151	111.5
415.374	114.5
415.597	91.5
415.821	104.5
416.044	102.5
416.267	97.5
416.49	95.5
416.713	91.5
416.936	110.5
417.159	105.5
417.382	90.5
417.605	87.5
417.828	101.5
418.051	96.5
418.274	105.5
418.497	109.5
418.72	107.5
418.943	102.5
419.166	112.5
419.389	125.5
419.611	102.5
419.834	104.5
420.057	99.5
420.28	89.5
420.503	92.5
420.726	109.5
420.948	100.5
421.171	106.5
421.394	122.5
421.617	108.5
421.839	105.5
422.062	113.5
422.285	111.5
422.507	102.5
422.73	96.5
422.953	107.5
423.175	101.5
423.398	90.5
423.621	98.5
423.843	104.5
424.066	114.5
424.288	116.5
424.511	115.5
424.733	113.5
424.956	109.5
425.178	103.5
425.401	102.5
425.623	108.5
425.846	87.5
426.068	87.5
426.291	106.5
426.513	120.5
426.735	98.5
426.958	101.5
427.18	105.5
427.402	103.5
427.625	106.5
427.847	93.5
428.069	101.5
428.292	97.5
428.514	102.5
428.736	111.5
428.958	105.5
429.181	99.5
429.403	114.5
429.625	110.5
429.847	93.5
430.069	101.5
430.292	96.5
430.514	109.5
430.736	97.5
430.958	116.5
431.18	105.5
431.402	107.5
431.624	110.5
431.846	92.5
432.068	97.5
432.29	102.5
432.512	110.5
432.734	99.5
432.956	101.5
433.178	100.5
433.4	113.5
433.622	109.5
433.844	115.5
434.066	95.5
434.287	103.5
434.509	91.5
434.731	89.5
434.953	95.5
435.175	107.5
435.397	100.5
435.618	98.5
435.84	90.5
436.062	111.5
436.284	114.5
436.505	101.5
436.727	104.5
436.949	94.5
437.17	102.5
437.392	100.5
437.614	91.5
437.835	94.5
438.057	95.5
438.278	99.5
438.5	102.5
438.721	105.5
438.943	102.5
439.165	100.5
439.386	121.5
439.608	115.5
439.829	112.5
440.05	110.5
440.272	126.5
440.493	115.5
440.715	109.5
440.936	129.5
441.158	110.5
441.379	98.5
441.6	133.5
441.822	120.5
442.043	123.5
442.264	111.5
442.486	110.5
442.707	114.5
442.928	108.5
443.149	112.5
443.371	119.5
443.592	126.5
443.813	115.5
444.034	108.5
444.255	126.5
444.476	102.5
444.698	126.5
444.919	121.5
445.14	244.5
445.361	195.5
445.582	114.5
445.803	116.5
446.024	115.5
446.245	120.5
446.466	113.5
446.687	115.5
446.908	122.5
447.129	123.5
447.35	125.5
447.571	117.5
447.792	108.5
448.013	115.5
448.234	97.5
448.455	114.5
448.675	119.5
448.896	110.5
449.117	105.5
449.338	101.5
449.559	109.5
449.779	109.5
450	114.5
450.221	101.5
450.442	105.5
450.662	122.5
450.883	113.5
451.104	99.5
451.324	114.5
451.545	104.5
451.766	112.5
451.986	109.5
452.207	120.5
452.428	95.5
452.648	114.5
452.869	108.5
453.089	98.5
453.31	90.5
453.53	103.5
453.751	102.5
453.971	98.5
454.192	85.5
454.412	107.5
454.633	94.5
454.853	101.5
455.073	85.5
455.294	98.5
455.514	97.5
455.734	97.5
455.955	102.5
456.175	107.5
456.395	94.5
456.616	99.5
456.836	99.5
457.056	98.5
457.276	107.5
457.497	97.5
457.717	107.5
457.937	91.5
458.157	97.5
458.377	91.5
458.598	87.5
458.818	75.5
459.038	82.5
459.258	100.5
459.478	99.5
459.698	89.5
459.918	101.5
460.138	97.5
460.358	97.5
460.578	107.5
460.798	87.5
461.018	89.5
461.238	110.5
461.458	109.5
461.678	104.5
461.898	101.5
462.118	89.5
462.338	89.5
462.558	98.5
462.777	98.5
462.997	88.5
463.217	90.5
463.437	95.5
463.657	89.5
463.876	98.5
464.096	105.5
464.316	87.5
464.536	96.5
464.755	93.5
464.975	100.5
465.195	106.5
465.414	89.5
465.634	83.5
465.854	98.5
466.073	94.5
466.293	111.5
466.512	99.5
466.732	107.5
466.951	109.5
467.171	110.5
467.391	106.5
467.61	108.5
467.829	115.5
468.049	117.5
468.268	116.5
468.488	108.5
468.707	105.5
468.927	99.5
469.146	121.5
469.365	127.5
469.585	109.5
469.804	104.5
470.023	122.5
470.243	121.5
470.462	96.5
470.681	113.5
470.901	108.5
471.12	105.5
471.339	107.5
471.558	127.5
471.777	121.5
471.997	112.5
472.216	118.5
472.435	97.5
472.654	95.5
472.873	98.5
473.092	100.5
473.311	102.5
473.53	107.5
473.749	98.5
473.968	110.5
474.187	101.5
474.406	89.5
474.625	108.5
474.844	106.5
475.063	102.5
475.282	107.5
475.501	102.5
475.72	110.5
475.939	110.5
476.158	103.5
476.377	97.5
476.596	107.5
476.814	101.5
477.033	96.5
477.252	107.5
477.471	103.5
477.69	99.5
477.908	104.5
478.127	111.5
478.346	100.5
478.564	114.5
478.783	110.5
479.002	126.5
479.22	121.5
479.439	101.5
479.658	106.5
479.876	109.5
480.095	101.5
480.313	102.5
480.532	119.5
480.751	102.5
480.969	79.5
481.188	89.5
481.406	95.5
481.624	89.5
481.843	83.5
482.061	97.5
482.28	90.5
482.498	105.5
482.717	99.5
482.935	99.5
483.153	117.5
483.372	115.5
483.59	122.5
483.808	120.5
484.027	100.5
484.245	106.5
484.463	111.5
484.681	130.5
484.9	114.5
485.118	108.5
485.336	95.5
485.554	93.5
485.772	92.5
485.99	88.5
486.209	92.5
486.427	87.5
486.645	95.5
486.863	99.5
487.081	117.5
487.299	110.5
487.517	110.5
487.735	132.5
487.953	147.5
488.171	128.5
488.389	133.5
488.607	106.5
488.825	119.5
489.043	108.5
489.261	105.5
489.479	108.5
489.696	102.5
489.914	112.5
490.132	111.5
490.35	111.5
490.568	123.5
490.786	127.5
491.003	126.5
491.221	126.5
491.439	127.5
491.657	145.5
491.874	145.5
492.092	137.5
492.31	160.5
492.527	150.5
492.745	146.5
492.963	136.5
493.18	129.5
493.398	142.5
493.615	151.5
493.833	121.5
494.05	121.5
494.268	127.5
494.485	128.5
494.703	135.5
494.92	134.5
495.138	142.5
495.355	148.5
495.573	138.5
495.79	132.5
496.008	118.5
496.225	127.5
496.442	122.5
496.66	131.5
496.877	126.5
497.094	132.5
497.312	119.5
497.529	123.5
497.746	121.5
497.963	106.5
498.181	119.5
498.398	112.5
498.615	109.5
498.832	107.5
499.049	99.5
499.267	103.5
499.484	103.5
499.701	115.5
499.918	102.5
500.135	99.5
500.352	109.5
500.569	106.5
500.786	113.5
501.003	121.5
501.22	102.5
501.437	103.5
501.654	104.5
501.871	109.5
502.088	107.5
502.305	127.5
502.522	100.5
502.739	109.5
502.956	113.5
503.172	103.5
503.389	111.5
503.606	94.5
503.823	94.5
504.04	94.5
504.256	97.5
504.473	93.5
504.69	114.5
504.907	106.5
505.123	97.5
505.34	108.5
505.557	110.5
505.773	100.5
505.99	115.5
506.207	115.5
506.423	104.5
506.64	106.5
506.856	86.5
507.073	110.5
507.289	104.5
507.506	105.5
507.722	96.5
507.939	106.5
508.155	102.5
508.372	93.5
508.588	97.5
508.805	103.5
509.021	100.5
509.238	95.5
509.454	95.5
509.67	80.5
509.887	100.5
510.103	93.5
510.319	94.5
510.536	87.5
510.752	86.5
510.968	87.5
511.184	87.5
511.401	86.5
511.617	92.5
511.833	97.5
512.049	95.5
512.265	91.5
512.481	84.5
512.698	92.5
512.914	88.5
513.13	102.5
513.346	75.5
513.562	87.5
513.778	78.5
513.994	94.5
514.21	101.5
514.426	85.5
514.642	92.5
514.858	87.5
515.074	82.5
515.29	94.5
515.506	84.5
515.721	95.5
515.937	81.5
516.153	75.5
516.369	87.5
516.585	90.5
516.801	90.5
517.016	91.5
517.232	86.5
517.448	82.5
517.664	101.5
517.879	92.5
518.095	92.5
518.311	80.5
518.527	77.5
518.742	88.5
518.958	92.5
519.173	95.5
519.389	93.5
519.605	97.5
519.82	108.5
520.036	110.5
520.251	98.5
520.467	98.5
520.682	93.5
520.898	70.5
521.113	96.5
521.329	89.5
521.544	95.5
521.76	93.5
521.975	90.5
522.19	91.5
522.406	83.5
522.621	100.5
522.836	105.5
523.052	96.5
523.267	103.5
523.482	113.5
523.698	105.5
523.913	100.5
524.128	106.5
524.343	93.5
524.559	98.5
524.774	87.5
524.989	85.5
525.204	96.5
525.419	104.5
525.634	105.5
525.849	91.5
526.064	99.5
526.28	85.5
526.495	74.5
526.71	92.5
526.925	84.5
527.14	75.5
527.355	75.5
527.57	79.5
527.785	87.5
527.999	95.5
528.214	91.5
528.429	90.5
528.644	97.5
528.859	101.5
529.074	106.5
529.289	110.5
529.503	124.5
529.718	106.5
529.933	103.5
530.148	93.5
530.363	92.5
530.577	76.5
530.792	95.5
531.007	88.5
531.221	90.5
531.436	90.5
531.651	92.5
531.865	83.5
532.08	85.5
532.295	90.5
532.509	84.5
532.724	89.5
532.938	80.5
533.153	93.5
533.367	103.5
533.582	109.5
533.796	109.5
