Data from Zn(NO3)2Standard.Agarose3%.GreenCap.LampEnergy5.5.E.O_HRD10591_15-02-51-768.txt Node
Date: Mon Jul 22 15:02:51 EDT 2019
User: cochatt
Spectrometer: HR+D1059
Trigger mode: 1
Integration Time (sec): 1.000000E-1
Scans to average: 1
Electric dark correction enabled: true
Nonlinearity correction enabled: false
Boxcar width: 0
XAxis mode: Wavelengths
Number of Pixels in Spectrum: 2048
>>>>>Begin Spectral Data<<<<<
223.165	-24.38
223.4	-24.38
223.635	-24.38
223.869	-12.38
224.104	-22.38
224.338	-10.38
224.573	-10.38
224.808	-9.38
225.042	-10.38
225.277	-10.38
225.511	6.62
225.746	7.62
225.98	-10.38
226.215	11.62
226.449	29.62
226.683	15.62
226.918	22.62
227.152	26.62
227.387	31.62
227.621	33.62
227.856	44.62
228.09	43.62
228.324	52.62
228.559	42.62
228.793	57.62
229.027	67.62
229.262	58.62
229.496	74.62
229.73	58.62
229.964	71.62
230.199	79.62
230.433	65.62
230.667	57.62
230.901	81.62
231.136	86.62
231.37	77.62
231.604	94.62
231.838	86.62
232.072	89.62
232.306	69.62
232.541	91.62
232.775	77.62
233.009	78.62
233.243	90.62
233.477	84.62
233.711	84.62
233.945	79.62
234.179	90.62
234.413	79.62
234.647	74.62
234.881	73.62
235.115	71.62
235.349	86.62
235.583	68.62
235.817	81.62
236.051	85.62
236.285	78.62
236.519	85.62
236.753	75.62
236.987	87.62
237.221	81.62
237.455	82.62
237.689	85.62
237.922	65.62
238.156	84.62
238.39	70.62
238.624	75.62
238.858	76.62
239.091	71.62
239.325	69.62
239.559	81.62
239.793	83.62
240.027	73.62
240.26	70.62
240.494	76.62
240.728	90.62
240.961	75.62
241.195	77.62
241.429	78.62
241.662	74.62
241.896	82.62
242.13	85.62
242.363	74.62
242.597	63.62
242.83	76.62
243.064	89.62
243.298	77.62
243.531	86.62
243.765	86.62
243.998	64.62
244.232	70.62
244.465	75.62
244.699	79.62
244.932	75.62
245.166	81.62
245.399	75.62
245.633	79.62
245.866	77.62
246.099	69.62
246.333	73.62
246.566	79.62
246.8	73.62
247.033	65.62
247.266	81.62
247.5	78.62
247.733	71.62
247.966	84.62
248.2	83.62
248.433	69.62
248.666	85.62
248.899	71.62
249.133	73.62
249.366	67.62
249.599	68.62
249.832	84.62
250.066	73.62
250.299	75.62
250.532	73.62
250.765	100.62
250.998	69.62
251.231	92.62
251.465	62.62
251.698	78.62
251.931	74.62
252.164	78.62
252.397	80.62
252.63	97.62
252.863	88.62
253.096	73.62
253.329	75.62
253.562	71.62
253.795	88.62
254.028	78.62
254.261	95.62
254.494	77.62
254.727	91.62
254.96	85.62
255.193	94.62
255.426	89.62
255.659	76.62
255.892	81.62
256.124	70.62
256.357	83.62
256.59	73.62
256.823	92.62
257.056	86.62
257.289	75.62
257.521	87.62
257.754	65.62
257.987	65.62
258.22	74.62
258.452	75.62
258.685	77.62
258.918	68.62
259.151	86.62
259.383	89.62
259.616	84.62
259.849	72.62
260.081	78.62
260.314	74.62
260.547	76.62
260.779	75.62
261.012	83.62
261.244	78.62
261.477	78.62
261.71	71.62
261.942	79.62
262.175	76.62
262.407	80.62
262.64	71.62
262.872	81.62
263.105	89.62
263.337	99.62
263.57	87.62
263.802	72.62
264.035	76.62
264.267	83.62
264.499	90.62
264.732	89.62
264.964	70.62
265.197	89.62
265.429	76.62
265.661	73.62
265.894	74.62
266.126	83.62
266.358	79.62
266.591	87.62
266.823	67.62
267.055	69.62
267.287	76.62
267.52	84.62
267.752	97.62
267.984	74.62
268.216	88.62
268.448	97.62
268.681	92.62
268.913	81.62
269.145	87.62
269.377	76.62
269.609	78.62
269.841	77.62
270.073	89.62
270.306	85.62
270.538	95.62
270.77	84.62
271.002	75.62
271.234	84.62
271.466	75.62
271.698	88.62
271.93	83.62
272.162	71.62
272.394	70.62
272.626	75.62
272.858	86.62
273.09	83.62
273.322	79.62
273.553	83.62
273.785	85.62
274.017	90.62
274.249	84.62
274.481	91.62
274.713	76.62
274.945	72.62
275.176	82.62
275.408	88.62
275.64	86.62
275.872	68.62
276.104	84.62
276.335	69.62
276.567	83.62
276.799	82.62
277.031	85.62
277.262	88.62
277.494	90.62
277.726	91.62
277.957	85.62
278.189	81.62
278.421	87.62
278.652	79.62
278.884	90.62
279.115	77.62
279.347	78.62
279.579	76.62
279.81	88.62
280.042	84.62
280.273	91.62
280.505	95.62
280.736	89.62
280.968	86.62
281.199	77.62
281.431	81.62
281.662	89.62
281.894	81.62
282.125	87.62
282.356	82.62
282.588	84.62
282.819	86.62
283.051	92.62
283.282	83.62
283.513	74.62
283.745	79.62
283.976	88.62
284.207	67.62
284.439	85.62
284.67	81.62
284.901	85.62
285.132	81.62
285.364	83.62
285.595	97.62
285.826	83.62
286.057	87.62
286.288	95.62
286.52	94.62
286.751	75.62
286.982	85.62
287.213	93.62
287.444	87.62
287.675	88.62
287.906	88.62
288.138	79.62
288.369	70.62
288.6	92.62
288.831	74.62
289.062	96.62
289.293	100.62
289.524	72.62
289.755	97.62
289.986	94.62
290.217	89.62
290.448	86.62
290.679	83.62
290.91	80.62
291.141	74.62
291.371	84.62
291.602	91.62
291.833	76.62
292.064	79.62
292.295	81.62
292.526	84.62
292.757	76.62
292.987	87.62
293.218	77.62
293.449	89.62
293.68	85.62
293.91	86.62
294.141	93.62
294.372	81.62
294.603	71.62
294.833	83.62
295.064	80.62
295.295	85.62
295.525	76.62
295.756	89.62
295.987	85.62
296.217	94.62
296.448	96.62
296.679	84.62
296.909	72.62
297.14	87.62
297.37	86.62
297.601	90.62
297.831	86.62
298.062	78.62
298.292	89.62
298.523	101.62
298.753	82.62
298.984	87.62
299.214	95.62
299.445	79.62
299.675	79.62
299.905	87.62
300.136	82.62
300.366	84.62
300.597	90.62
300.827	86.62
301.057	87.62
301.288	75.62
301.518	87.62
301.748	97.62
301.979	88.62
302.209	86.62
302.439	81.62
302.669	77.62
302.9	81.62
303.13	92.62
303.36	85.62
303.59	93.62
303.82	89.62
304.051	85.62
304.281	72.62
304.511	87.62
304.741	99.62
304.971	87.62
305.201	101.62
305.431	98.62
305.661	93.62
305.891	83.62
306.121	88.62
306.352	83.62
306.582	87.62
306.812	84.62
307.042	90.62
307.272	95.62
307.502	78.62
307.731	93.62
307.961	90.62
308.191	92.62
308.421	83.62
308.651	87.62
308.881	88.62
309.111	83.62
309.341	86.62
309.571	97.62
309.8	95.62
310.03	82.62
310.26	80.62
310.49	78.62
310.72	94.62
310.949	77.62
311.179	85.62
311.409	94.62
311.639	87.62
311.868	85.62
312.098	90.62
312.328	75.62
312.557	76.62
312.787	77.62
313.017	88.62
313.246	71.62
313.476	82.62
313.706	89.62
313.935	79.62
314.165	82.62
314.394	82.62
314.624	87.62
314.853	93.62
315.083	80.62
315.312	84.62
315.542	92.62
315.771	81.62
316.001	84.62
316.23	101.62
316.46	87.62
316.689	84.62
316.919	77.62
317.148	87.62
317.377	98.62
317.607	98.62
317.836	91.62
318.065	84.62
318.295	85.62
318.524	82.62
318.753	95.62
318.983	85.62
319.212	86.62
319.441	89.62
319.67	67.62
319.9	91.62
320.129	97.62
320.358	80.62
320.587	83.62
320.816	73.62
321.046	77.62
321.275	76.62
321.504	82.62
321.733	86.62
321.962	103.62
322.191	77.62
322.42	84.62
322.649	87.62
322.878	95.62
323.108	92.62
323.337	69.62
323.566	86.62
323.795	85.62
324.024	91.62
324.253	98.62
324.482	82.62
324.71	93.62
324.939	71.62
325.168	69.62
325.397	78.62
325.626	78.62
325.855	75.62
326.084	92.62
326.313	85.62
326.542	87.62
326.77	85.62
326.999	84.62
327.228	76.62
327.457	86.62
327.686	84.62
327.914	91.62
328.143	76.62
328.372	78.62
328.6	87.62
328.829	72.62
329.058	78.62
329.287	67.62
329.515	75.62
329.744	93.62
329.972	81.62
330.201	78.62
330.43	85.62
330.658	67.62
330.887	88.62
331.115	87.62
331.344	71.62
331.572	92.62
331.801	74.62
332.03	80.62
332.258	87.62
332.486	83.62
332.715	83.62
332.943	75.62
333.172	78.62
333.4	64.62
333.629	70.62
333.857	91.62
334.085	86.62
334.314	75.62
334.542	83.62
334.771	83.62
334.999	89.62
335.227	92.62
335.455	73.62
335.684	88.62
335.912	85.62
336.14	76.62
336.369	83.62
336.597	88.62
336.825	99.62
337.053	99.62
337.281	91.62
337.51	75.62
337.738	90.62
337.966	84.62
338.194	78.62
338.422	84.62
338.65	86.62
338.878	94.62
339.106	78.62
339.334	90.62
339.562	83.62
339.79	96.62
340.018	84.62
340.246	76.62
340.474	95.62
340.702	83.62
340.93	82.62
341.158	88.62
341.386	91.62
341.614	85.62
341.842	79.62
342.07	71.62
342.298	71.62
342.526	88.62
342.754	90.62
342.981	76.62
343.209	89.62
343.437	91.62
343.665	84.62
343.893	82.62
344.12	90.62
344.348	89.62
344.576	74.62
344.804	80.62
345.031	107.62
345.259	92.62
345.487	87.62
345.714	89.62
345.942	79.62
346.17	72.62
346.397	88.62
346.625	76.62
346.853	80.62
347.08	79.62
347.308	88.62
347.535	86.62
347.763	85.62
347.99	82.62
348.218	89.62
348.445	78.62
348.673	79.62
348.9	82.62
349.128	89.62
349.355	101.62
349.583	81.62
349.81	92.62
350.037	90.62
350.265	94.62
350.492	93.62
350.72	89.62
350.947	94.62
351.174	83.62
351.402	89.62
351.629	87.62
351.856	70.62
352.083	84.62
352.311	94.62
352.538	82.62
352.765	74.62
352.992	98.62
353.22	81.62
353.447	87.62
353.674	83.62
353.901	89.62
354.128	82.62
354.355	82.62
354.583	85.62
354.81	81.62
355.037	78.62
355.264	88.62
355.491	82.62
355.718	78.62
355.945	77.62
356.172	84.62
356.399	81.62
356.626	94.62
356.853	83.62
357.08	80.62
357.307	82.62
357.534	73.62
357.761	74.62
357.988	78.62
358.215	78.62
358.441	78.62
358.668	78.62
358.895	92.62
359.122	93.62
359.349	78.62
359.576	80.62
359.802	82.62
360.029	82.62
360.256	92.62
360.483	92.62
360.709	81.62
360.936	94.62
361.163	95.62
361.39	93.62
361.616	92.62
361.843	83.62
362.07	92.62
362.296	69.62
362.523	82.62
362.749	81.62
362.976	73.62
363.203	99.62
363.429	77.62
363.656	67.62
363.882	75.62
364.109	93.62
364.335	79.62
364.562	87.62
364.788	82.62
365.015	86.62
365.241	82.62
365.468	92.62
365.694	85.62
365.92	83.62
366.147	87.62
366.373	94.62
366.599	86.62
366.826	70.62
367.052	93.62
367.278	84.62
367.505	89.62
367.731	65.62
367.957	79.62
368.184	75.62
368.41	90.62
368.636	71.62
368.862	81.62
369.089	93.62
369.315	90.62
369.541	74.62
369.767	78.62
369.993	89.62
370.219	85.62
370.445	80.62
370.672	94.62
370.898	93.62
371.124	71.62
371.35	76.62
371.576	98.62
371.802	79.62
372.028	77.62
372.254	97.62
372.48	95.62
372.706	83.62
372.932	93.62
373.158	97.62
373.384	82.62
373.61	86.62
373.835	88.62
374.061	86.62
374.287	79.62
374.513	89.62
374.739	81.62
374.965	83.62
375.191	86.62
375.416	87.62
375.642	79.62
375.868	76.62
376.094	93.62
376.319	78.62
376.545	75.62
376.771	98.62
376.997	77.62
377.222	77.62
377.448	86.62
377.674	97.62
377.899	78.62
378.125	93.62
378.35	101.62
378.576	74.62
378.802	79.62
379.027	85.62
379.253	101.62
379.478	83.62
379.704	95.62
379.929	85.62
380.155	98.62
380.38	75.62
380.606	78.62
380.831	84.62
381.057	85.62
381.282	82.62
381.507	73.62
381.733	86.62
381.958	93.62
382.184	85.62
382.409	79.62
382.634	91.62
382.86	93.62
383.085	90.62
383.31	79.62
383.535	96.62
383.761	83.62
383.986	76.62
384.211	76.62
384.436	77.62
384.662	85.62
384.887	82.62
385.112	85.62
385.337	80.62
385.562	93.62
385.787	80.62
386.013	85.62
386.238	90.62
386.463	95.62
386.688	85.62
386.913	83.62
387.138	80.62
387.363	78.62
387.588	87.62
387.813	105.62
388.038	95.62
388.263	85.62
388.488	85.62
388.713	81.62
388.938	79.62
389.163	85.62
389.387	76.62
389.612	81.62
389.837	79.62
390.062	92.62
390.287	90.62
390.512	87.62
390.736	96.62
390.961	79.62
391.186	75.62
391.411	76.62
391.636	78.62
391.86	78.62
392.085	93.62
392.31	93.62
392.534	76.62
392.759	91.62
392.984	78.62
393.208	88.62
393.433	82.62
393.658	79.62
393.882	78.62
394.107	92.62
394.331	79.62
394.556	75.62
394.78	85.62
395.005	81.62
395.229	78.62
395.454	82.62
395.678	79.62
395.903	75.62
396.127	82.62
396.352	80.62
396.576	95.62
396.801	83.62
397.025	81.62
397.249	84.62
397.474	81.62
397.698	87.62
397.922	102.62
398.147	90.62
398.371	85.62
398.595	85.62
398.82	93.62
399.044	77.62
399.268	84.62
399.492	78.62
399.717	79.62
399.941	86.62
400.165	82.62
400.389	93.62
400.613	99.62
400.837	85.62
401.062	78.62
401.286	92.62
401.51	86.62
401.734	76.62
401.958	83.62
402.182	92.62
402.406	93.62
402.63	75.62
402.854	81.62
403.078	86.62
403.302	90.62
403.526	87.62
403.75	87.62
403.974	87.62
404.198	103.62
404.422	83.62
404.645	86.62
404.869	89.62
405.093	87.62
405.317	84.62
405.541	74.62
405.765	75.62
405.988	80.62
406.212	91.62
406.436	75.62
406.66	83.62
406.883	86.62
407.107	91.62
407.331	81.62
407.555	99.62
407.778	82.62
408.002	86.62
408.226	85.62
408.449	81.62
408.673	93.62
408.896	89.62
409.12	87.62
409.344	82.62
409.567	93.62
409.791	85.62
410.014	79.62
410.238	77.62
410.461	85.62
410.685	98.62
410.908	86.62
411.132	89.62
411.355	90.62
411.578	69.62
411.802	77.62
412.025	87.62
412.249	97.62
412.472	84.62
412.695	73.62
412.919	89.62
413.142	75.62
413.365	86.62
413.589	73.62
413.812	80.62
414.035	95.62
414.258	90.62
414.482	83.62
414.705	86.62
414.928	87.62
415.151	89.62
415.374	85.62
415.597	85.62
415.821	83.62
416.044	88.62
416.267	85.62
416.49	87.62
416.713	75.62
416.936	90.62
417.159	86.62
417.382	86.62
417.605	95.62
417.828	83.62
418.051	84.62
418.274	93.62
418.497	94.62
418.72	94.62
418.943	106.62
419.166	78.62
419.389	100.62
419.611	89.62
419.834	79.62
420.057	79.62
420.28	88.62
420.503	94.62
420.726	91.62
420.948	95.62
421.171	93.62
421.394	79.62
421.617	90.62
421.839	90.62
422.062	98.62
422.285	76.62
422.507	98.62
422.73	78.62
422.953	91.62
423.175	79.62
423.398	82.62
423.621	77.62
423.843	109.62
424.066	99.62
424.288	101.62
424.511	105.62
424.733	92.62
424.956	81.62
425.178	95.62
425.401	87.62
425.623	102.62
425.846	100.62
426.068	84.62
426.291	86.62
426.513	95.62
426.735	103.62
426.958	88.62
427.18	99.62
427.402	94.62
427.625	94.62
427.847	78.62
428.069	88.62
428.292	92.62
428.514	79.62
428.736	87.62
428.958	98.62
429.181	84.62
429.403	104.62
429.625	93.62
429.847	90.62
430.069	74.62
430.292	96.62
430.514	86.62
430.736	90.62
430.958	87.62
431.18	81.62
431.402	77.62
431.624	90.62
431.846	72.62
432.068	89.62
432.29	92.62
432.512	102.62
432.734	85.62
432.956	85.62
433.178	93.62
433.4	74.62
433.622	96.62
433.844	99.62
434.066	95.62
434.287	94.62
434.509	89.62
434.731	90.62
434.953	81.62
435.175	82.62
435.397	84.62
435.618	89.62
435.84	88.62
436.062	74.62
436.284	83.62
436.505	85.62
436.727	98.62
436.949	93.62
437.17	69.62
437.392	87.62
437.614	98.62
437.835	83.62
438.057	71.62
438.278	90.62
438.5	76.62
438.721	88.62
438.943	84.62
439.165	91.62
439.386	81.62
439.608	87.62
439.829	97.62
440.05	94.62
440.272	103.62
440.493	86.62
440.715	96.62
440.936	90.62
441.158	88.62
441.379	92.62
441.6	92.62
441.822	106.62
442.043	83.62
442.264	86.62
442.486	92.62
442.707	89.62
442.928	85.62
443.149	83.62
443.371	86.62
443.592	98.62
443.813	78.62
444.034	87.62
444.255	96.62
444.476	96.62
444.698	82.62
444.919	84.62
445.14	203.62
445.361	139.62
445.582	101.62
445.803	89.62
446.024	102.62
446.245	105.62
446.466	109.62
446.687	84.62
446.908	97.62
447.129	101.62
447.35	83.62
447.571	86.62
447.792	90.62
448.013	94.62
448.234	83.62
448.455	87.62
448.675	80.62
448.896	90.62
449.117	80.62
449.338	106.62
449.559	81.62
449.779	82.62
450	87.62
450.221	79.62
450.442	70.62
450.662	85.62
450.883	82.62
451.104	89.62
451.324	94.62
451.545	94.62
451.766	82.62
451.986	97.62
452.207	86.62
452.428	87.62
452.648	92.62
452.869	75.62
453.089	95.62
453.31	81.62
453.53	76.62
453.751	93.62
453.971	78.62
454.192	92.62
454.412	90.62
454.633	83.62
454.853	93.62
455.073	101.62
455.294	91.62
455.514	71.62
455.734	88.62
455.955	79.62
456.175	88.62
456.395	73.62
456.616	70.62
456.836	86.62
457.056	88.62
457.276	92.62
457.497	82.62
457.717	78.62
457.937	79.62
458.157	88.62
458.377	82.62
458.598	98.62
458.818	90.62
459.038	82.62
459.258	86.62
459.478	75.62
459.698	69.62
459.918	93.62
460.138	91.62
460.358	89.62
460.578	97.62
460.798	88.62
461.018	88.62
461.238	84.62
461.458	98.62
461.678	84.62
461.898	88.62
462.118	86.62
462.338	85.62
462.558	95.62
462.777	73.62
462.997	91.62
463.217	76.62
463.437	80.62
463.657	101.62
463.876	96.62
464.096	76.62
464.316	86.62
464.536	91.62
464.755	96.62
464.975	86.62
465.195	89.62
465.414	87.62
465.634	86.62
465.854	91.62
466.073	83.62
466.293	79.62
466.512	91.62
466.732	87.62
466.951	81.62
467.171	103.62
467.391	91.62
467.61	95.62
467.829	88.62
468.049	99.62
468.268	103.62
468.488	101.62
468.707	78.62
468.927	76.62
469.146	92.62
469.365	94.62
469.585	83.62
469.804	95.62
470.023	101.62
470.243	94.62
470.462	85.62
470.681	80.62
470.901	105.62
471.12	87.62
471.339	93.62
471.558	85.62
471.777	84.62
471.997	72.62
472.216	89.62
472.435	83.62
472.654	80.62
472.873	106.62
473.092	83.62
473.311	89.62
473.53	87.62
473.749	82.62
473.968	92.62
474.187	89.62
474.406	75.62
474.625	91.62
474.844	111.62
475.063	99.62
475.282	86.62
475.501	84.62
475.72	90.62
475.939	83.62
476.158	86.62
476.377	78.62
476.596	87.62
476.814	86.62
477.033	76.62
477.252	87.62
477.471	89.62
477.69	68.62
477.908	82.62
478.127	107.62
478.346	87.62
478.564	81.62
478.783	94.62
479.002	96.62
479.22	81.62
479.439	89.62
479.658	87.62
479.876	86.62
480.095	99.62
480.313	106.62
480.532	85.62
480.751	87.62
480.969	93.62
481.188	87.62
481.406	84.62
481.624	96.62
481.843	79.62
482.061	87.62
482.28	83.62
482.498	73.62
482.717	98.62
482.935	94.62
483.153	82.62
483.372	98.62
483.59	94.62
483.808	90.62
484.027	82.62
484.245	95.62
484.463	95.62
484.681	91.62
484.9	85.62
485.118	93.62
485.336	96.62
485.554	96.62
485.772	77.62
485.99	79.62
486.209	86.62
486.427	86.62
486.645	89.62
486.863	91.62
487.081	84.62
487.299	83.62
487.517	85.62
487.735	76.62
487.953	102.62
488.171	101.62
488.389	105.62
488.607	98.62
488.825	92.62
489.043	87.62
489.261	101.62
489.479	80.62
489.696	85.62
489.914	93.62
490.132	90.62
490.35	99.62
490.568	94.62
490.786	97.62
491.003	97.62
491.221	101.62
491.439	94.62
491.657	107.62
491.874	122.62
492.092	106.62
492.31	98.62
492.527	102.62
492.745	100.62
492.963	99.62
493.18	102.62
493.398	91.62
493.615	92.62
493.833	99.62
494.05	92.62
494.268	104.62
494.485	96.62
494.703	101.62
494.92	109.62
495.138	85.62
495.355	92.62
495.573	107.62
495.79	92.62
496.008	100.62
496.225	89.62
496.442	105.62
496.66	93.62
496.877	97.62
497.094	92.62
497.312	105.62
497.529	94.62
497.746	91.62
497.963	97.62
498.181	86.62
498.398	84.62
498.615	92.62
498.832	90.62
499.049	73.62
499.267	82.62
499.484	89.62
499.701	78.62
499.918	94.62
500.135	93.62
500.352	86.62
500.569	99.62
500.786	88.62
501.003	94.62
501.22	83.62
501.437	93.62
501.654	88.62
501.871	91.62
502.088	84.62
502.305	81.62
502.522	101.62
502.739	89.62
502.956	95.62
503.172	76.62
503.389	82.62
503.606	95.62
503.823	80.62
504.04	96.62
504.256	91.62
504.473	87.62
504.69	100.62
504.907	111.62
505.123	81.62
505.34	89.62
505.557	93.62
505.773	89.62
505.99	91.62
506.207	96.62
506.423	94.62
506.64	92.62
506.856	89.62
507.073	80.62
507.289	92.62
507.506	94.62
507.722	91.62
507.939	84.62
508.155	106.62
508.372	79.62
508.588	95.62
508.805	105.62
509.021	90.62
509.238	102.62
509.454	86.62
509.67	98.62
509.887	74.62
510.103	83.62
510.319	81.62
510.536	82.62
510.752	83.62
510.968	77.62
511.184	80.62
511.401	92.62
511.617	95.62
511.833	79.62
512.049	82.62
512.265	78.62
512.481	84.62
512.698	77.62
512.914	76.62
513.13	89.62
513.346	73.62
513.562	93.62
513.778	72.62
513.994	103.62
514.21	104.62
514.426	91.62
514.642	69.62
514.858	81.62
515.074	78.62
515.29	93.62
515.506	83.62
515.721	77.62
515.937	78.62
516.153	81.62
516.369	79.62
516.585	92.62
516.801	64.62
517.016	93.62
517.232	79.62
517.448	81.62
517.664	83.62
517.879	86.62
518.095	97.62
518.311	98.62
518.527	78.62
