Data from Zn(NO3)2Standard.Agarose3%.GreenCap.LampEnergy5.5.E.O_HRD10591_15-02-30-768.txt Node
Date: Mon Jul 22 15:02:30 EDT 2019
User: cochatt
Spectrometer: HR+D1059
Trigger mode: 1
Integration Time (sec): 1.000000E-1
Scans to average: 1
Electric dark correction enabled: true
Nonlinearity correction enabled: false
Boxcar width: 0
XAxis mode: Wavelengths
Number of Pixels in Spectrum: 2048
>>>>>Begin Spectral Data<<<<<
223.165	-15.94
223.4	-15.94
223.635	-15.94
223.869	-2.94
224.104	-27.94
224.338	-10.94
224.573	-25.94
224.808	-5.94
225.042	0.06
225.277	-14.94
225.511	-7.94
225.746	14.06
225.98	7.06
226.215	11.06
226.449	17.06
226.683	19.06
226.918	28.06
227.152	16.06
227.387	41.06
227.621	37.06
227.856	43.06
228.09	40.06
228.324	50.06
228.559	51.06
228.793	61.06
229.027	50.06
229.262	65.06
229.496	67.06
229.73	75.06
229.964	60.06
230.199	71.06
230.433	83.06
230.667	80.06
230.901	83.06
231.136	90.06
231.37	86.06
231.604	79.06
231.838	79.06
232.072	91.06
232.306	87.06
232.541	86.06
232.775	74.06
233.009	86.06
233.243	85.06
233.477	79.06
233.711	89.06
233.945	79.06
234.179	79.06
234.413	82.06
234.647	75.06
234.881	82.06
235.115	88.06
235.349	74.06
235.583	91.06
235.817	89.06
236.051	65.06
236.285	68.06
236.519	99.06
236.753	85.06
236.987	77.06
237.221	69.06
237.455	74.06
237.689	83.06
237.922	79.06
238.156	62.06
238.39	72.06
238.624	74.06
238.858	71.06
239.091	86.06
239.325	76.06
239.559	73.06
239.793	73.06
240.027	70.06
240.26	82.06
240.494	68.06
240.728	72.06
240.961	76.06
241.195	76.06
241.429	89.06
241.662	67.06
241.896	81.06
242.13	81.06
242.363	88.06
242.597	76.06
242.83	90.06
243.064	74.06
243.298	78.06
243.531	60.06
243.765	71.06
243.998	69.06
244.232	85.06
244.465	68.06
244.699	78.06
244.932	91.06
245.166	78.06
245.399	95.06
245.633	86.06
245.866	75.06
246.099	75.06
246.333	75.06
246.566	80.06
246.8	77.06
247.033	89.06
247.266	78.06
247.5	87.06
247.733	84.06
247.966	80.06
248.2	91.06
248.433	90.06
248.666	88.06
248.899	66.06
249.133	73.06
249.366	71.06
249.599	82.06
249.832	83.06
250.066	86.06
250.299	80.06
250.532	85.06
250.765	87.06
250.998	78.06
251.231	85.06
251.465	78.06
251.698	78.06
251.931	73.06
252.164	68.06
252.397	69.06
252.63	78.06
252.863	82.06
253.096	76.06
253.329	80.06
253.562	78.06
253.795	79.06
254.028	87.06
254.261	72.06
254.494	79.06
254.727	82.06
254.96	81.06
255.193	102.06
255.426	89.06
255.659	94.06
255.892	78.06
256.124	93.06
256.357	81.06
256.59	86.06
256.823	94.06
257.056	83.06
257.289	75.06
257.521	87.06
257.754	81.06
257.987	75.06
258.22	92.06
258.452	84.06
258.685	82.06
258.918	88.06
259.151	77.06
259.383	86.06
259.616	74.06
259.849	82.06
260.081	84.06
260.314	81.06
260.547	82.06
260.779	68.06
261.012	66.06
261.244	84.06
261.477	74.06
261.71	73.06
261.942	79.06
262.175	85.06
262.407	79.06
262.64	71.06
262.872	90.06
263.105	76.06
263.337	85.06
263.57	82.06
263.802	86.06
264.035	82.06
264.267	85.06
264.499	90.06
264.732	74.06
264.964	75.06
265.197	72.06
265.429	85.06
265.661	74.06
265.894	65.06
266.126	78.06
266.358	77.06
266.591	70.06
266.823	86.06
267.055	81.06
267.287	81.06
267.52	87.06
267.752	80.06
267.984	86.06
268.216	97.06
268.448	74.06
268.681	77.06
268.913	87.06
269.145	79.06
269.377	89.06
269.609	90.06
269.841	72.06
270.073	90.06
270.306	78.06
270.538	78.06
270.77	73.06
271.002	88.06
271.234	77.06
271.466	77.06
271.698	76.06
271.93	74.06
272.162	77.06
272.394	79.06
272.626	86.06
272.858	84.06
273.09	92.06
273.322	81.06
273.553	71.06
273.785	82.06
274.017	84.06
274.249	86.06
274.481	78.06
274.713	91.06
274.945	88.06
275.176	76.06
275.408	88.06
275.64	88.06
275.872	73.06
276.104	83.06
276.335	80.06
276.567	88.06
276.799	79.06
277.031	80.06
277.262	86.06
277.494	87.06
277.726	78.06
277.957	85.06
278.189	73.06
278.421	77.06
278.652	79.06
278.884	88.06
279.115	94.06
279.347	89.06
279.579	90.06
279.81	73.06
280.042	85.06
280.273	81.06
280.505	80.06
280.736	93.06
280.968	89.06
281.199	81.06
281.431	88.06
281.662	92.06
281.894	96.06
282.125	93.06
282.356	91.06
282.588	77.06
282.819	85.06
283.051	75.06
283.282	97.06
283.513	99.06
283.745	100.06
283.976	97.06
284.207	83.06
284.439	78.06
284.67	79.06
284.901	94.06
285.132	82.06
285.364	78.06
285.595	90.06
285.826	78.06
286.057	76.06
286.288	88.06
286.52	78.06
286.751	82.06
286.982	91.06
287.213	91.06
287.444	92.06
287.675	94.06
287.906	79.06
288.138	92.06
288.369	82.06
288.6	76.06
288.831	94.06
289.062	98.06
289.293	95.06
289.524	91.06
289.755	76.06
289.986	92.06
290.217	86.06
290.448	87.06
290.679	93.06
290.91	93.06
291.141	92.06
291.371	84.06
291.602	87.06
291.833	84.06
292.064	84.06
292.295	90.06
292.526	87.06
292.757	95.06
292.987	87.06
293.218	90.06
293.449	102.06
293.68	69.06
293.91	98.06
294.141	73.06
294.372	93.06
294.603	91.06
294.833	85.06
295.064	96.06
295.295	93.06
295.525	84.06
295.756	76.06
295.987	87.06
296.217	83.06
296.448	108.06
296.679	84.06
296.909	91.06
297.14	91.06
297.37	92.06
297.601	87.06
297.831	88.06
298.062	88.06
298.292	104.06
298.523	92.06
298.753	76.06
298.984	95.06
299.214	96.06
299.445	105.06
299.675	105.06
299.905	86.06
300.136	97.06
300.366	89.06
300.597	85.06
300.827	103.06
301.057	72.06
301.288	79.06
301.518	76.06
301.748	86.06
301.979	87.06
302.209	80.06
302.439	76.06
302.669	95.06
302.9	85.06
303.13	83.06
303.36	76.06
303.59	78.06
303.82	88.06
304.051	79.06
304.281	88.06
304.511	94.06
304.741	91.06
304.971	90.06
305.201	87.06
305.431	85.06
305.661	87.06
305.891	82.06
306.121	84.06
306.352	77.06
306.582	75.06
306.812	85.06
307.042	93.06
307.272	89.06
307.502	82.06
307.731	75.06
307.961	84.06
308.191	85.06
308.421	77.06
308.651	100.06
308.881	101.06
309.111	92.06
309.341	91.06
309.571	73.06
309.8	95.06
310.03	86.06
310.26	80.06
310.49	79.06
310.72	89.06
310.949	95.06
311.179	84.06
311.409	84.06
311.639	86.06
311.868	75.06
312.098	90.06
312.328	83.06
312.557	67.06
312.787	81.06
313.017	75.06
313.246	95.06
313.476	93.06
313.706	85.06
313.935	77.06
314.165	88.06
314.394	81.06
314.624	86.06
314.853	86.06
315.083	76.06
315.312	70.06
315.542	76.06
315.771	80.06
316.001	79.06
316.23	82.06
316.46	91.06
316.689	83.06
316.919	92.06
317.148	100.06
317.377	91.06
317.607	93.06
317.836	87.06
318.065	98.06
318.295	93.06
318.524	77.06
318.753	68.06
318.983	94.06
319.212	86.06
319.441	85.06
319.67	93.06
319.9	79.06
320.129	87.06
320.358	75.06
320.587	82.06
320.816	97.06
321.046	81.06
321.275	93.06
321.504	74.06
321.733	82.06
321.962	87.06
322.191	87.06
322.42	73.06
322.649	86.06
322.878	76.06
323.108	81.06
323.337	74.06
323.566	83.06
323.795	77.06
324.024	84.06
324.253	95.06
324.482	85.06
324.71	89.06
324.939	83.06
325.168	83.06
325.397	102.06
325.626	86.06
325.855	80.06
326.084	77.06
326.313	83.06
326.542	81.06
326.77	81.06
326.999	77.06
327.228	81.06
327.457	92.06
327.686	83.06
327.914	82.06
328.143	90.06
328.372	72.06
328.6	94.06
328.829	102.06
329.058	88.06
329.287	103.06
329.515	93.06
329.744	77.06
329.972	83.06
330.201	83.06
330.43	88.06
330.658	85.06
330.887	80.06
331.115	89.06
331.344	75.06
331.572	77.06
331.801	87.06
332.03	85.06
332.258	80.06
332.486	82.06
332.715	86.06
332.943	90.06
333.172	89.06
333.4	79.06
333.629	87.06
333.857	57.06
334.085	74.06
334.314	90.06
334.542	79.06
334.771	92.06
334.999	99.06
335.227	76.06
335.455	78.06
335.684	89.06
335.912	87.06
336.14	82.06
336.369	93.06
336.597	79.06
336.825	89.06
337.053	88.06
337.281	83.06
337.51	70.06
337.738	92.06
337.966	78.06
338.194	90.06
338.422	82.06
338.65	93.06
338.878	89.06
339.106	81.06
339.334	90.06
339.562	81.06
339.79	92.06
340.018	71.06
340.246	94.06
340.474	81.06
340.702	84.06
340.93	73.06
341.158	68.06
341.386	94.06
341.614	84.06
341.842	76.06
342.07	83.06
342.298	74.06
342.526	94.06
342.754	97.06
342.981	100.06
343.209	86.06
343.437	82.06
343.665	82.06
343.893	74.06
344.12	72.06
344.348	98.06
344.576	84.06
344.804	79.06
345.031	61.06
345.259	79.06
345.487	81.06
345.714	89.06
345.942	77.06
346.17	89.06
346.397	79.06
346.625	82.06
346.853	83.06
347.08	77.06
347.308	93.06
347.535	87.06
347.763	86.06
347.99	79.06
348.218	85.06
348.445	84.06
348.673	75.06
348.9	90.06
349.128	85.06
349.355	99.06
349.583	91.06
349.81	94.06
350.037	89.06
350.265	81.06
350.492	85.06
350.72	76.06
350.947	89.06
351.174	92.06
351.402	73.06
351.629	78.06
351.856	85.06
352.083	87.06
352.311	90.06
352.538	92.06
352.765	90.06
352.992	89.06
353.22	93.06
353.447	79.06
353.674	95.06
353.901	78.06
354.128	77.06
354.355	91.06
354.583	71.06
354.81	85.06
355.037	80.06
355.264	76.06
355.491	89.06
355.718	81.06
355.945	91.06
356.172	82.06
356.399	76.06
356.626	85.06
356.853	90.06
357.08	81.06
357.307	85.06
357.534	87.06
357.761	85.06
357.988	82.06
358.215	90.06
358.441	71.06
358.668	81.06
358.895	92.06
359.122	88.06
359.349	76.06
359.576	79.06
359.802	84.06
360.029	76.06
360.256	74.06
360.483	78.06
360.709	81.06
360.936	87.06
361.163	83.06
361.39	85.06
361.616	86.06
361.843	74.06
362.07	92.06
362.296	101.06
362.523	87.06
362.749	88.06
362.976	103.06
363.203	68.06
363.429	76.06
363.656	88.06
363.882	110.06
364.109	89.06
364.335	83.06
364.562	89.06
364.788	92.06
365.015	82.06
365.241	77.06
365.468	73.06
365.694	86.06
365.92	85.06
366.147	67.06
366.373	71.06
366.599	86.06
366.826	69.06
367.052	67.06
367.278	97.06
367.505	88.06
367.731	75.06
367.957	97.06
368.184	86.06
368.41	75.06
368.636	69.06
368.862	76.06
369.089	86.06
369.315	94.06
369.541	86.06
369.767	94.06
369.993	91.06
370.219	73.06
370.445	84.06
370.672	88.06
370.898	90.06
371.124	103.06
371.35	90.06
371.576	85.06
371.802	79.06
372.028	78.06
372.254	78.06
372.48	85.06
372.706	87.06
372.932	79.06
373.158	99.06
373.384	96.06
373.61	92.06
373.835	66.06
374.061	94.06
374.287	84.06
374.513	89.06
374.739	85.06
374.965	85.06
375.191	85.06
375.416	75.06
375.642	90.06
375.868	89.06
376.094	77.06
376.319	100.06
376.545	99.06
376.771	88.06
376.997	75.06
377.222	84.06
377.448	87.06
377.674	94.06
377.899	94.06
378.125	89.06
378.35	72.06
378.576	89.06
378.802	105.06
379.027	82.06
379.253	91.06
379.478	86.06
379.704	86.06
379.929	66.06
380.155	86.06
380.38	77.06
380.606	78.06
380.831	98.06
381.057	92.06
381.282	84.06
381.507	78.06
381.733	73.06
381.958	85.06
382.184	86.06
382.409	84.06
382.634	85.06
382.86	81.06
383.085	79.06
383.31	79.06
383.535	81.06
383.761	72.06
383.986	89.06
384.211	78.06
384.436	85.06
384.662	76.06
384.887	73.06
385.112	73.06
385.337	93.06
385.562	99.06
385.787	83.06
386.013	85.06
386.238	78.06
386.463	78.06
386.688	85.06
386.913	83.06
387.138	90.06
387.363	71.06
387.588	75.06
387.813	79.06
388.038	70.06
388.263	85.06
388.488	77.06
388.713	92.06
388.938	88.06
389.163	89.06
389.387	84.06
389.612	96.06
389.837	90.06
390.062	80.06
390.287	97.06
390.512	84.06
390.736	77.06
390.961	85.06
391.186	86.06
391.411	80.06
391.636	80.06
391.86	74.06
392.085	80.06
392.31	88.06
392.534	95.06
392.759	85.06
392.984	88.06
393.208	79.06
393.433	79.06
393.658	83.06
393.882	72.06
394.107	81.06
394.331	88.06
394.556	91.06
394.78	86.06
395.005	99.06
395.229	103.06
395.454	81.06
395.678	81.06
395.903	83.06
396.127	82.06
396.352	79.06
396.576	86.06
396.801	84.06
397.025	82.06
397.249	86.06
397.474	94.06
397.698	93.06
397.922	78.06
398.147	79.06
398.371	90.06
398.595	85.06
398.82	82.06
399.044	85.06
399.268	81.06
399.492	78.06
399.717	85.06
399.941	92.06
400.165	84.06
400.389	79.06
400.613	83.06
400.837	93.06
401.062	90.06
401.286	87.06
401.51	98.06
401.734	79.06
401.958	86.06
402.182	76.06
402.406	93.06
402.63	70.06
402.854	86.06
403.078	84.06
403.302	92.06
403.526	83.06
403.75	86.06
403.974	70.06
404.198	96.06
404.422	93.06
404.645	91.06
404.869	91.06
405.093	77.06
405.317	93.06
405.541	102.06
405.765	89.06
405.988	80.06
406.212	84.06
406.436	88.06
406.66	73.06
406.883	98.06
407.107	89.06
407.331	93.06
407.555	78.06
407.778	65.06
408.002	96.06
408.226	91.06
408.449	90.06
408.673	87.06
408.896	84.06
409.12	93.06
409.344	75.06
409.567	74.06
409.791	77.06
410.014	83.06
410.238	84.06
410.461	82.06
410.685	92.06
410.908	84.06
411.132	79.06
411.355	82.06
411.578	83.06
411.802	90.06
412.025	93.06
412.249	89.06
412.472	98.06
412.695	78.06
412.919	87.06
413.142	78.06
413.365	80.06
413.589	92.06
413.812	73.06
414.035	73.06
414.258	74.06
414.482	77.06
414.705	90.06
414.928	85.06
415.151	83.06
415.374	106.06
415.597	90.06
415.821	85.06
416.044	74.06
416.267	77.06
416.49	73.06
416.713	92.06
416.936	74.06
417.159	77.06
417.382	82.06
417.605	77.06
417.828	89.06
418.051	95.06
418.274	91.06
418.497	90.06
418.72	85.06
418.943	88.06
419.166	100.06
419.389	90.06
419.611	80.06
419.834	75.06
420.057	98.06
420.28	88.06
420.503	80.06
420.726	90.06
420.948	87.06
421.171	80.06
421.394	88.06
421.617	92.06
421.839	94.06
422.062	100.06
422.285	94.06
422.507	94.06
422.73	89.06
422.953	79.06
423.175	82.06
423.398	95.06
423.621	98.06
423.843	88.06
424.066	97.06
424.288	83.06
424.511	101.06
424.733	87.06
424.956	98.06
425.178	97.06
425.401	102.06
425.623	91.06
425.846	91.06
426.068	89.06
426.291	81.06
426.513	89.06
426.735	79.06
426.958	91.06
427.18	90.06
427.402	82.06
427.625	99.06
427.847	84.06
428.069	91.06
428.292	113.06
428.514	106.06
428.736	92.06
428.958	80.06
429.181	91.06
429.403	94.06
429.625	96.06
429.847	88.06
430.069	84.06
430.292	87.06
430.514	90.06
430.736	84.06
430.958	89.06
431.18	100.06
431.402	93.06
431.624	87.06
431.846	91.06
432.068	98.06
432.29	90.06
432.512	83.06
432.734	106.06
432.956	85.06
433.178	96.06
433.4	92.06
433.622	84.06
433.844	89.06
434.066	90.06
434.287	88.06
434.509	71.06
434.731	86.06
434.953	94.06
435.175	87.06
435.397	85.06
435.618	93.06
435.84	87.06
436.062	78.06
436.284	94.06
436.505	92.06
436.727	87.06
436.949	81.06
437.17	89.06
437.392	87.06
437.614	87.06
437.835	79.06
438.057	78.06
438.278	91.06
438.5	87.06
438.721	104.06
438.943	103.06
439.165	91.06
439.386	83.06
439.608	97.06
439.829	92.06
440.05	85.06
440.272	85.06
440.493	86.06
440.715	95.06
440.936	96.06
441.158	107.06
441.379	93.06
441.6	83.06
441.822	94.06
442.043	79.06
442.264	92.06
442.486	81.06
442.707	97.06
442.928	109.06
443.149	94.06
443.371	76.06
443.592	103.06
443.813	84.06
444.034	89.06
444.255	84.06
444.476	86.06
444.698	89.06
444.919	106.06
445.14	208.06
445.361	148.06
445.582	101.06
445.803	94.06
446.024	94.06
446.245	102.06
446.466	96.06
446.687	89.06
446.908	93.06
447.129	88.06
447.35	91.06
447.571	91.06
447.792	92.06
448.013	89.06
448.234	97.06
448.455	97.06
448.675	91.06
448.896	93.06
449.117	90.06
449.338	94.06
449.559	98.06
449.779	89.06
450	100.06
450.221	96.06
450.442	93.06
450.662	88.06
450.883	86.06
451.104	87.06
451.324	97.06
451.545	90.06
451.766	85.06
451.986	107.06
452.207	91.06
452.428	93.06
452.648	93.06
452.869	82.06
453.089	84.06
453.31	72.06
453.53	76.06
453.751	77.06
453.971	81.06
454.192	91.06
454.412	100.06
454.633	100.06
454.853	86.06
455.073	82.06
455.294	81.06
455.514	95.06
455.734	82.06
455.955	79.06
456.175	99.06
456.395	72.06
456.616	89.06
456.836	89.06
457.056	92.06
457.276	84.06
457.497	84.06
457.717	91.06
457.937	116.06
458.157	90.06
458.377	93.06
458.598	84.06
458.818	89.06
459.038	90.06
459.258	79.06
459.478	91.06
459.698	83.06
459.918	86.06
460.138	91.06
460.358	87.06
460.578	88.06
460.798	83.06
461.018	83.06
461.238	89.06
461.458	78.06
461.678	74.06
461.898	96.06
462.118	98.06
462.338	91.06
462.558	95.06
462.777	90.06
462.997	93.06
463.217	94.06
463.437	90.06
463.657	84.06
463.876	94.06
464.096	79.06
464.316	97.06
464.536	85.06
464.755	83.06
464.975	97.06
465.195	98.06
465.414	80.06
465.634	106.06
465.854	94.06
466.073	92.06
466.293	95.06
466.512	97.06
466.732	110.06
466.951	89.06
467.171	97.06
467.391	94.06
467.61	89.06
467.829	87.06
468.049	92.06
468.268	84.06
468.488	89.06
468.707	92.06
468.927	90.06
469.146	89.06
469.365	97.06
469.585	97.06
469.804	87.06
470.023	93.06
470.243	79.06
470.462	94.06
470.681	92.06
470.901	95.06
471.12	85.06
471.339	93.06
471.558	76.06
471.777	100.06
471.997	90.06
472.216	83.06
472.435	79.06
472.654	83.06
472.873	89.06
473.092	89.06
473.311	87.06
473.53	81.06
473.749	92.06
473.968	92.06
474.187	80.06
474.406	77.06
474.625	79.06
474.844	88.06
475.063	76.06
475.282	84.06
475.501	95.06
475.72	91.06
475.939	85.06
476.158	83.06
476.377	88.06
476.596	82.06
476.814	89.06
477.033	98.06
477.252	83.06
477.471	84.06
477.69	82.06
477.908	90.06
478.127	108.06
478.346	78.06
478.564	85.06
478.783	84.06
479.002	97.06
479.22	89.06
479.439	107.06
479.658	91.06
479.876	89.06
480.095	88.06
480.313	96.06
480.532	84.06
480.751	90.06
480.969	94.06
481.188	90.06
481.406	75.06
481.624	97.06
481.843	93.06
482.061	91.06
482.28	87.06
482.498	77.06
482.717	85.06
482.935	95.06
483.153	100.06
483.372	93.06
483.59	90.06
483.808	85.06
484.027	105.06
484.245	94.06
484.463	89.06
484.681	100.06
484.9	99.06
485.118	98.06
485.336	86.06
485.554	87.06
485.772	85.06
485.99	85.06
486.209	83.06
486.427	56.06
486.645	80.06
486.863	87.06
487.081	93.06
487.299	89.06
487.517	98.06
487.735	89.06
487.953	98.06
488.171	109.06
488.389	106.06
488.607	90.06
488.825	87.06
489.043	85.06
489.261	81.06
489.479	93.06
489.696	93.06
489.914	89.06
490.132	92.06
490.35	93.06
490.568	86.06
490.786	102.06
491.003	90.06
491.221	98.06
491.439	91.06
491.657	99.06
491.874	107.06
492.092	110.06
492.31	121.06
492.527	113.06
492.745	107.06
492.963	117.06
493.18	110.06
493.398	102.06
493.615	89.06
493.833	97.06
494.05	105.06
494.268	94.06
494.485	100.06
494.703	99.06
494.92	86.06
495.138	101.06
495.355	104.06
495.573	104.06
495.79	102.06
496.008	93.06
496.225	108.06
496.442	97.06
496.66	101.06
496.877	101.06
497.094	103.06
497.312	91.06
497.529	101.06
497.746	103.06
497.963	97.06
498.181	91.06
498.398	85.06
498.615	98.06
498.832	85.06
499.049	87.06
499.267	76.06
499.484	78.06
499.701	101.06
499.918	93.06
500.135	96.06
500.352	102.06
500.569	105.06
500.786	95.06
501.003	82.06
501.22	83.06
501.437	80.06
501.654	87.06
501.871	93.06
502.088	103.06
502.305	90.06
502.522	103.06
502.739	81.06
502.956	89.06
503.172	102.06
503.389	80.06
503.606	91.06
503.823	86.06
504.04	89.06
504.256	83.06
504.473	92.06
504.69	83.06
504.907	95.06
505.123	96.06
505.34	84.06
505.557	80.06
505.773	92.06
505.99	81.06
506.207	97.06
506.423	94.06
506.64	87.06
506.856	97.06
507.073	89.06
507.289	89.06
507.506	82.06
507.722	91.06
507.939	93.06
508.155	81.06
508.372	107.06
508.588	103.06
508.805	83.06
509.021	76.06
509.238	82.06
509.454	85.06
509.67	92.06
509.887	87.06
510.103	89.06
510.319	97.06
510.536	90.06
510.752	77.06
510.968	97.06
511.184	77.06
511.401	83.06
511.617	78.06
511.833	80.06
512.049	78.06
512.265	92.06
512.481	75.06
512.698	97.06
512.914	93.06
513.13	90.06
513.346	90.06
513.562	91.06
513.778	93.06
513.994	91.06
514.21	79.06
514.426	88.06
514.642	97.06
514.858	73.06
515.074	100.06
515.29	89.06
515.506	87.06
515.721	84.06
515.937	91.06
516.153	86.06
516.369	91.06
516.585	77.06
516.801	72.06
517.016	92.06
517.232	91.06
517.448	96.06
517.664	92.06
517.879	92.06
518.095	89.06
518.311	93.06
