Data from Zn(NO3)2Standard.Agarose3%.GreenCap.LampEnergy10E.O_HRD10591_15-06-51-942.txt Node
Date: Mon Jul 22 15:06:51 EDT 2019
User: cochatt
Spectrometer: HR+D1059
Trigger mode: 1
Integration Time (sec): 1.000000E-1
Scans to average: 1
Electric dark correction enabled: true
Nonlinearity correction enabled: false
Boxcar width: 0
XAxis mode: Wavelengths
Number of Pixels in Spectrum: 2048
>>>>>Begin Spectral Data<<<<<
223.165	-4.69
223.4	-4.69
223.635	-4.69
223.869	-8.69
224.104	-19.69
224.338	-12.69
224.573	-15.69
224.808	-16.69
225.042	-12.69
225.277	-1.69
225.511	4.31
225.746	0.31
225.98	5.31
226.215	10.31
226.449	11.31
226.683	3.31
226.918	19.31
227.152	38.31
227.387	28.31
227.621	31.31
227.856	54.31
228.09	47.31
228.324	53.31
228.559	36.31
228.793	45.31
229.027	56.31
229.262	63.31
229.496	74.31
229.73	63.31
229.964	80.31
230.199	80.31
230.433	73.31
230.667	69.31
230.901	60.31
231.136	76.31
231.37	78.31
231.604	83.31
231.838	72.31
232.072	89.31
232.306	75.31
232.541	61.31
232.775	73.31
233.009	80.31
233.243	84.31
233.477	72.31
233.711	88.31
233.945	92.31
234.179	81.31
234.413	87.31
234.647	91.31
234.881	88.31
235.115	72.31
235.349	87.31
235.583	80.31
235.817	73.31
236.051	80.31
236.285	67.31
236.519	83.31
236.753	68.31
236.987	79.31
237.221	89.31
237.455	86.31
237.689	86.31
237.922	68.31
238.156	75.31
238.39	76.31
238.624	71.31
238.858	83.31
239.091	77.31
239.325	76.31
239.559	74.31
239.793	81.31
240.027	73.31
240.26	76.31
240.494	84.31
240.728	85.31
240.961	70.31
241.195	77.31
241.429	73.31
241.662	77.31
241.896	84.31
242.13	79.31
242.363	74.31
242.597	65.31
242.83	58.31
243.064	74.31
243.298	60.31
243.531	73.31
243.765	78.31
243.998	85.31
244.232	77.31
244.465	72.31
244.699	86.31
244.932	84.31
245.166	73.31
245.399	92.31
245.633	81.31
245.866	75.31
246.099	83.31
246.333	95.31
246.566	78.31
246.8	80.31
247.033	82.31
247.266	81.31
247.5	67.31
247.733	79.31
247.966	77.31
248.2	88.31
248.433	87.31
248.666	84.31
248.899	66.31
249.133	94.31
249.366	82.31
249.599	79.31
249.832	69.31
250.066	83.31
250.299	66.31
250.532	82.31
250.765	79.31
250.998	76.31
251.231	69.31
251.465	84.31
251.698	78.31
251.931	87.31
252.164	80.31
252.397	76.31
252.63	73.31
252.863	94.31
253.096	70.31
253.329	76.31
253.562	77.31
253.795	76.31
254.028	65.31
254.261	77.31
254.494	86.31
254.727	91.31
254.96	82.31
255.193	66.31
255.426	77.31
255.659	71.31
255.892	79.31
256.124	89.31
256.357	91.31
256.59	76.31
256.823	94.31
257.056	95.31
257.289	79.31
257.521	92.31
257.754	87.31
257.987	79.31
258.22	93.31
258.452	86.31
258.685	80.31
258.918	75.31
259.151	85.31
259.383	86.31
259.616	76.31
259.849	78.31
260.081	87.31
260.314	79.31
260.547	75.31
260.779	90.31
261.012	84.31
261.244	97.31
261.477	88.31
261.71	83.31
261.942	83.31
262.175	85.31
262.407	78.31
262.64	87.31
262.872	82.31
263.105	82.31
263.337	82.31
263.57	81.31
263.802	64.31
264.035	90.31
264.267	70.31
264.499	71.31
264.732	76.31
264.964	97.31
265.197	81.31
265.429	77.31
265.661	86.31
265.894	81.31
266.126	70.31
266.358	80.31
266.591	79.31
266.823	82.31
267.055	84.31
267.287	97.31
267.52	73.31
267.752	83.31
267.984	69.31
268.216	76.31
268.448	75.31
268.681	84.31
268.913	65.31
269.145	72.31
269.377	98.31
269.609	85.31
269.841	82.31
270.073	83.31
270.306	80.31
270.538	83.31
270.77	88.31
271.002	86.31
271.234	83.31
271.466	85.31
271.698	90.31
271.93	86.31
272.162	81.31
272.394	64.31
272.626	72.31
272.858	85.31
273.09	89.31
273.322	91.31
273.553	78.31
273.785	80.31
274.017	80.31
274.249	75.31
274.481	77.31
274.713	93.31
274.945	78.31
275.176	83.31
275.408	93.31
275.64	84.31
275.872	90.31
276.104	104.31
276.335	91.31
276.567	75.31
276.799	76.31
277.031	79.31
277.262	74.31
277.494	73.31
277.726	92.31
277.957	87.31
278.189	84.31
278.421	83.31
278.652	79.31
278.884	71.31
279.115	83.31
279.347	87.31
279.579	71.31
279.81	82.31
280.042	81.31
280.273	89.31
280.505	97.31
280.736	87.31
280.968	93.31
281.199	84.31
281.431	87.31
281.662	95.31
281.894	98.31
282.125	82.31
282.356	85.31
282.588	82.31
282.819	81.31
283.051	71.31
283.282	87.31
283.513	91.31
283.745	85.31
283.976	76.31
284.207	87.31
284.439	82.31
284.67	87.31
284.901	92.31
285.132	88.31
285.364	84.31
285.595	90.31
285.826	67.31
286.057	92.31
286.288	78.31
286.52	81.31
286.751	83.31
286.982	77.31
287.213	83.31
287.444	76.31
287.675	79.31
287.906	65.31
288.138	81.31
288.369	90.31
288.6	79.31
288.831	83.31
289.062	75.31
289.293	97.31
289.524	94.31
289.755	85.31
289.986	85.31
290.217	93.31
290.448	77.31
290.679	83.31
290.91	87.31
291.141	88.31
291.371	84.31
291.602	92.31
291.833	87.31
292.064	82.31
292.295	80.31
292.526	82.31
292.757	82.31
292.987	76.31
293.218	76.31
293.449	85.31
293.68	84.31
293.91	97.31
294.141	82.31
294.372	94.31
294.603	81.31
294.833	97.31
295.064	84.31
295.295	87.31
295.525	87.31
295.756	90.31
295.987	92.31
296.217	91.31
296.448	88.31
296.679	83.31
296.909	70.31
297.14	96.31
297.37	80.31
297.601	92.31
297.831	78.31
298.062	94.31
298.292	85.31
298.523	86.31
298.753	76.31
298.984	74.31
299.214	90.31
299.445	93.31
299.675	81.31
299.905	98.31
300.136	85.31
300.366	87.31
300.597	75.31
300.827	87.31
301.057	71.31
301.288	85.31
301.518	94.31
301.748	83.31
301.979	80.31
302.209	88.31
302.439	92.31
302.669	90.31
302.9	83.31
303.13	77.31
303.36	90.31
303.59	75.31
303.82	72.31
304.051	83.31
304.281	87.31
304.511	96.31
304.741	77.31
304.971	80.31
305.201	74.31
305.431	80.31
305.661	90.31
305.891	95.31
306.121	95.31
306.352	85.31
306.582	91.31
306.812	80.31
307.042	91.31
307.272	85.31
307.502	81.31
307.731	86.31
307.961	101.31
308.191	80.31
308.421	82.31
308.651	79.31
308.881	78.31
309.111	88.31
309.341	86.31
309.571	93.31
309.8	77.31
310.03	85.31
310.26	98.31
310.49	78.31
310.72	91.31
310.949	76.31
311.179	82.31
311.409	90.31
311.639	85.31
311.868	83.31
312.098	95.31
312.328	80.31
312.557	97.31
312.787	85.31
313.017	89.31
313.246	95.31
313.476	77.31
313.706	77.31
313.935	85.31
314.165	87.31
314.394	74.31
314.624	82.31
314.853	84.31
315.083	85.31
315.312	83.31
315.542	75.31
315.771	89.31
316.001	88.31
316.23	85.31
316.46	86.31
316.689	97.31
316.919	81.31
317.148	84.31
317.377	80.31
317.607	86.31
317.836	77.31
318.065	93.31
318.295	89.31
318.524	92.31
318.753	96.31
318.983	89.31
319.212	99.31
319.441	75.31
319.67	99.31
319.9	69.31
320.129	83.31
320.358	84.31
320.587	80.31
320.816	84.31
321.046	77.31
321.275	91.31
321.504	90.31
321.733	73.31
321.962	85.31
322.191	80.31
322.42	86.31
322.649	93.31
322.878	82.31
323.108	88.31
323.337	80.31
323.566	77.31
323.795	81.31
324.024	75.31
324.253	88.31
324.482	99.31
324.71	87.31
324.939	84.31
325.168	88.31
325.397	79.31
325.626	78.31
325.855	91.31
326.084	72.31
326.313	93.31
326.542	82.31
326.77	90.31
326.999	85.31
327.228	85.31
327.457	79.31
327.686	83.31
327.914	87.31
328.143	90.31
328.372	80.31
328.6	69.31
328.829	84.31
329.058	81.31
329.287	90.31
329.515	81.31
329.744	89.31
329.972	66.31
330.201	84.31
330.43	83.31
330.658	89.31
330.887	82.31
331.115	77.31
331.344	75.31
331.572	88.31
331.801	88.31
332.03	82.31
332.258	82.31
332.486	74.31
332.715	84.31
332.943	91.31
333.172	89.31
333.4	80.31
333.629	81.31
333.857	80.31
334.085	85.31
334.314	82.31
334.542	90.31
334.771	90.31
334.999	87.31
335.227	89.31
335.455	88.31
335.684	73.31
335.912	91.31
336.14	69.31
336.369	68.31
336.597	78.31
336.825	81.31
337.053	91.31
337.281	80.31
337.51	93.31
337.738	94.31
337.966	82.31
338.194	84.31
338.422	97.31
338.65	80.31
338.878	93.31
339.106	98.31
339.334	81.31
339.562	72.31
339.79	82.31
340.018	82.31
340.246	102.31
340.474	89.31
340.702	92.31
340.93	85.31
341.158	103.31
341.386	95.31
341.614	87.31
341.842	90.31
342.07	74.31
342.298	91.31
342.526	70.31
342.754	77.31
342.981	85.31
343.209	85.31
343.437	85.31
343.665	80.31
343.893	84.31
344.12	85.31
344.348	82.31
344.576	78.31
344.804	84.31
345.031	88.31
345.259	80.31
345.487	83.31
345.714	82.31
345.942	72.31
346.17	91.31
346.397	81.31
346.625	77.31
346.853	67.31
347.08	90.31
347.308	84.31
347.535	76.31
347.763	76.31
347.99	88.31
348.218	82.31
348.445	71.31
348.673	86.31
348.9	80.31
349.128	95.31
349.355	83.31
349.583	86.31
349.81	76.31
350.037	88.31
350.265	84.31
350.492	80.31
350.72	89.31
350.947	86.31
351.174	91.31
351.402	80.31
351.629	88.31
351.856	76.31
352.083	78.31
352.311	83.31
352.538	83.31
352.765	77.31
352.992	87.31
353.22	95.31
353.447	84.31
353.674	74.31
353.901	91.31
354.128	82.31
354.355	87.31
354.583	88.31
354.81	80.31
355.037	84.31
355.264	87.31
355.491	74.31
355.718	82.31
355.945	80.31
356.172	70.31
356.399	70.31
356.626	71.31
356.853	83.31
357.08	89.31
357.307	83.31
357.534	62.31
357.761	94.31
357.988	85.31
358.215	85.31
358.441	82.31
358.668	75.31
358.895	83.31
359.122	84.31
359.349	96.31
359.576	104.31
359.802	72.31
360.029	88.31
360.256	81.31
360.483	75.31
360.709	77.31
360.936	90.31
361.163	92.31
361.39	73.31
361.616	74.31
361.843	77.31
362.07	90.31
362.296	81.31
362.523	81.31
362.749	81.31
362.976	83.31
363.203	74.31
363.429	80.31
363.656	77.31
363.882	90.31
364.109	77.31
364.335	77.31
364.562	71.31
364.788	97.31
365.015	79.31
365.241	75.31
365.468	76.31
365.694	76.31
365.92	80.31
366.147	85.31
366.373	81.31
366.599	73.31
366.826	80.31
367.052	74.31
367.278	74.31
367.505	71.31
367.731	91.31
367.957	90.31
368.184	84.31
368.41	84.31
368.636	74.31
368.862	80.31
369.089	83.31
369.315	88.31
369.541	81.31
369.767	81.31
369.993	77.31
370.219	84.31
370.445	95.31
370.672	97.31
370.898	86.31
371.124	79.31
371.35	87.31
371.576	76.31
371.802	87.31
372.028	93.31
372.254	79.31
372.48	87.31
372.706	69.31
372.932	92.31
373.158	101.31
373.384	102.31
373.61	87.31
373.835	89.31
374.061	75.31
374.287	89.31
374.513	108.31
374.739	86.31
374.965	75.31
375.191	76.31
375.416	90.31
375.642	85.31
375.868	75.31
376.094	93.31
376.319	84.31
376.545	104.31
376.771	90.31
376.997	95.31
377.222	84.31
377.448	85.31
377.674	86.31
377.899	87.31
378.125	83.31
378.35	79.31
378.576	79.31
378.802	84.31
379.027	91.31
379.253	88.31
379.478	92.31
379.704	85.31
379.929	80.31
380.155	81.31
380.38	93.31
380.606	83.31
380.831	92.31
381.057	88.31
381.282	80.31
381.507	100.31
381.733	90.31
381.958	86.31
382.184	75.31
382.409	85.31
382.634	94.31
382.86	87.31
383.085	87.31
383.31	97.31
383.535	83.31
383.761	85.31
383.986	88.31
384.211	90.31
384.436	79.31
384.662	81.31
384.887	85.31
385.112	90.31
385.337	84.31
385.562	86.31
385.787	88.31
386.013	99.31
386.238	83.31
386.463	76.31
386.688	75.31
386.913	87.31
387.138	92.31
387.363	104.31
387.588	90.31
387.813	79.31
388.038	84.31
388.263	84.31
388.488	90.31
388.713	96.31
388.938	85.31
389.163	75.31
389.387	77.31
389.612	91.31
389.837	90.31
390.062	90.31
390.287	82.31
390.512	100.31
390.736	86.31
390.961	94.31
391.186	83.31
391.411	81.31
391.636	87.31
391.86	103.31
392.085	97.31
392.31	83.31
392.534	83.31
392.759	94.31
392.984	87.31
393.208	72.31
393.433	98.31
393.658	88.31
393.882	81.31
394.107	83.31
394.331	81.31
394.556	107.31
394.78	86.31
395.005	99.31
395.229	89.31
395.454	99.31
395.678	88.31
395.903	95.31
396.127	93.31
396.352	94.31
396.576	76.31
396.801	102.31
397.025	87.31
397.249	93.31
397.474	99.31
397.698	83.31
397.922	89.31
398.147	92.31
398.371	90.31
398.595	92.31
398.82	96.31
399.044	96.31
399.268	92.31
399.492	94.31
399.717	100.31
399.941	81.31
400.165	104.31
400.389	83.31
400.613	87.31
400.837	99.31
401.062	85.31
401.286	89.31
401.51	99.31
401.734	89.31
401.958	82.31
402.182	112.31
402.406	83.31
402.63	107.31
402.854	107.31
403.078	108.31
403.302	114.31
403.526	89.31
403.75	85.31
403.974	88.31
404.198	88.31
404.422	101.31
404.645	99.31
404.869	100.31
405.093	105.31
405.317	84.31
405.541	94.31
405.765	91.31
405.988	93.31
406.212	99.31
406.436	83.31
406.66	81.31
406.883	102.31
407.107	102.31
407.331	101.31
407.555	103.31
407.778	100.31
408.002	88.31
408.226	84.31
408.449	91.31
408.673	96.31
408.896	104.31
409.12	98.31
409.344	112.31
409.567	125.31
409.791	97.31
410.014	86.31
410.238	93.31
410.461	100.31
410.685	100.31
410.908	80.31
411.132	120.31
411.355	95.31
411.578	98.31
411.802	96.31
412.025	99.31
412.249	113.31
412.472	103.31
412.695	110.31
412.919	99.31
413.142	82.31
413.365	102.31
413.589	106.31
413.812	97.31
414.035	96.31
414.258	85.31
414.482	109.31
414.705	101.31
414.928	96.31
415.151	105.31
415.374	93.31
415.597	91.31
415.821	87.31
416.044	96.31
416.267	91.31
416.49	111.31
416.713	102.31
416.936	98.31
417.159	103.31
417.382	90.31
417.605	98.31
417.828	100.31
418.051	107.31
418.274	98.31
418.497	116.31
418.72	103.31
418.943	91.31
419.166	102.31
419.389	104.31
419.611	104.31
419.834	106.31
420.057	117.31
420.28	97.31
420.503	105.31
420.726	99.31
420.948	95.31
421.171	111.31
421.394	104.31
421.617	100.31
421.839	104.31
422.062	96.31
422.285	120.31
422.507	107.31
422.73	99.31
422.953	104.31
423.175	114.31
423.398	101.31
423.621	105.31
423.843	108.31
424.066	92.31
424.288	104.31
424.511	101.31
424.733	115.31
424.956	108.31
425.178	112.31
425.401	100.31
425.623	113.31
425.846	115.31
426.068	103.31
426.291	106.31
426.513	97.31
426.735	104.31
426.958	90.31
427.18	103.31
427.402	105.31
427.625	103.31
427.847	104.31
428.069	101.31
428.292	99.31
428.514	111.31
428.736	102.31
428.958	100.31
429.181	109.31
429.403	113.31
429.625	100.31
429.847	95.31
430.069	105.31
430.292	107.31
430.514	107.31
430.736	103.31
430.958	108.31
431.18	101.31
431.402	105.31
431.624	97.31
431.846	91.31
432.068	91.31
432.29	96.31
432.512	92.31
432.734	100.31
432.956	116.31
433.178	106.31
433.4	108.31
433.622	100.31
433.844	101.31
434.066	103.31
434.287	105.31
434.509	83.31
434.731	96.31
434.953	99.31
435.175	108.31
435.397	104.31
435.618	99.31
435.84	97.31
436.062	92.31
436.284	106.31
436.505	100.31
436.727	108.31
436.949	109.31
437.17	100.31
437.392	103.31
437.614	104.31
437.835	93.31
438.057	78.31
438.278	98.31
438.5	91.31
438.721	106.31
438.943	116.31
439.165	114.31
439.386	99.31
439.608	105.31
439.829	98.31
440.05	117.31
440.272	100.31
440.493	124.31
440.715	124.31
440.936	106.31
441.158	107.31
441.379	111.31
441.6	85.31
441.822	103.31
442.043	99.31
442.264	93.31
442.486	92.31
442.707	104.31
442.928	89.31
443.149	111.31
443.371	92.31
443.592	101.31
443.813	113.31
444.034	115.31
444.255	103.31
444.476	100.31
444.698	119.31
444.919	106.31
445.14	237.31
445.361	156.31
445.582	111.31
445.803	117.31
446.024	110.31
446.245	107.31
446.466	109.31
446.687	123.31
446.908	107.31
447.129	108.31
447.35	117.31
447.571	116.31
447.792	112.31
448.013	107.31
448.234	111.31
448.455	106.31
448.675	114.31
448.896	120.31
449.117	106.31
449.338	110.31
449.559	99.31
449.779	95.31
450	120.31
450.221	117.31
450.442	105.31
450.662	117.31
450.883	96.31
451.104	107.31
451.324	105.31
451.545	96.31
451.766	116.31
451.986	103.31
452.207	91.31
452.428	97.31
452.648	103.31
452.869	86.31
453.089	103.31
453.31	89.31
453.53	92.31
453.751	94.31
453.971	95.31
454.192	92.31
454.412	105.31
454.633	102.31
454.853	95.31
455.073	103.31
455.294	103.31
455.514	99.31
455.734	91.31
455.955	82.31
456.175	92.31
456.395	89.31
456.616	103.31
456.836	77.31
457.056	101.31
457.276	97.31
457.497	84.31
457.717	88.31
457.937	87.31
458.157	84.31
458.377	94.31
458.598	87.31
458.818	78.31
459.038	84.31
459.258	71.31
459.478	83.31
459.698	89.31
459.918	87.31
460.138	100.31
460.358	88.31
460.578	101.31
460.798	97.31
461.018	96.31
461.238	102.31
461.458	93.31
461.678	99.31
461.898	92.31
462.118	102.31
462.338	111.31
462.558	105.31
462.777	93.31
462.997	80.31
463.217	91.31
463.437	99.31
463.657	80.31
463.876	89.31
464.096	104.31
464.316	75.31
464.536	92.31
464.755	87.31
464.975	97.31
465.195	92.31
465.414	82.31
465.634	91.31
465.854	116.31
466.073	99.31
466.293	88.31
466.512	103.31
466.732	99.31
466.951	108.31
467.171	97.31
467.391	94.31
467.61	111.31
467.829	118.31
468.049	112.31
468.268	106.31
468.488	121.31
468.707	113.31
468.927	90.31
469.146	102.31
469.365	119.31
469.585	99.31
469.804	116.31
470.023	114.31
470.243	108.31
470.462	117.31
470.681	110.31
470.901	97.31
471.12	115.31
471.339	108.31
471.558	104.31
471.777	103.31
471.997	99.31
472.216	100.31
472.435	99.31
472.654	95.31
472.873	100.31
473.092	97.31
473.311	98.31
473.53	101.31
473.749	104.31
473.968	109.31
474.187	109.31
474.406	96.31
474.625	95.31
474.844	98.31
475.063	104.31
475.282	97.31
475.501	98.31
475.72	108.31
475.939	94.31
476.158	109.31
476.377	114.31
476.596	107.31
476.814	96.31
477.033	91.31
477.252	111.31
477.471	84.31
477.69	102.31
477.908	103.31
478.127	111.31
478.346	103.31
478.564	109.31
478.783	102.31
479.002	105.31
479.22	101.31
479.439	100.31
479.658	106.31
479.876	90.31
480.095	93.31
480.313	99.31
480.532	104.31
480.751	93.31
480.969	90.31
481.188	75.31
481.406	81.31
481.624	74.31
481.843	85.31
482.061	90.31
482.28	95.31
482.498	111.31
482.717	92.31
482.935	88.31
483.153	103.31
483.372	123.31
483.59	98.31
483.808	115.31
484.027	89.31
484.245	105.31
484.463	102.31
484.681	106.31
484.9	121.31
485.118	94.31
485.336	100.31
485.554	106.31
485.772	108.31
485.99	102.31
486.209	89.31
486.427	96.31
486.645	91.31
486.863	102.31
487.081	114.31
487.299	96.31
487.517	103.31
487.735	139.31
487.953	129.31
488.171	129.31
488.389	136.31
488.607	105.31
488.825	103.31
489.043	108.31
489.261	101.31
489.479	118.31
489.696	116.31
489.914	127.31
490.132	120.31
490.35	114.31
490.568	112.31
490.786	123.31
491.003	120.31
491.221	130.31
491.439	127.31
491.657	123.31
491.874	128.31
492.092	163.31
492.31	155.31
492.527	146.31
492.745	145.31
492.963	136.31
493.18	143.31
493.398	124.31
493.615	131.31
493.833	127.31
494.05	113.31
494.268	130.31
494.485	132.31
494.703	123.31
494.92	133.31
495.138	119.31
495.355	143.31
495.573	120.31
495.79	128.31
496.008	109.31
496.225	119.31
496.442	119.31
496.66	134.31
496.877	125.31
497.094	110.31
497.312	123.31
497.529	113.31
497.746	116.31
497.963	106.31
498.181	95.31
498.398	97.31
498.615	114.31
498.832	81.31
499.049	96.31
499.267	97.31
499.484	112.31
499.701	124.31
499.918	104.31
500.135	118.31
500.352	114.31
500.569	116.31
500.786	113.31
501.003	120.31
501.22	113.31
501.437	108.31
501.654	111.31
501.871	107.31
502.088	105.31
502.305	111.31
502.522	99.31
502.739	101.31
502.956	107.31
503.172	97.31
503.389	105.31
503.606	99.31
503.823	101.31
504.04	105.31
504.256	94.31
504.473	90.31
504.69	103.31
504.907	88.31
505.123	101.31
505.34	102.31
505.557	99.31
505.773	113.31
505.99	113.31
506.207	117.31
506.423	99.31
506.64	94.31
506.856	95.31
507.073	106.31
507.289	117.31
507.506	103.31
507.722	101.31
507.939	98.31
508.155	99.31
508.372	97.31
508.588	115.31
508.805	103.31
509.021	103.31
509.238	99.31
509.454	93.31
509.67	94.31
509.887	92.31
510.103	88.31
510.319	84.31
510.536	93.31
510.752	91.31
510.968	82.31
511.184	93.31
511.401	79.31
511.617	81.31
511.833	86.31
512.049	84.31
512.265	87.31
512.481	85.31
512.698	100.31
512.914	85.31
513.13	86.31
513.346	73.31
513.562	83.31
513.778	91.31
513.994	93.31
514.21	88.31
514.426	93.31
514.642	84.31
514.858	112.31
515.074	77.31
