Data from Zn(NO3)2Standard.Agarose3%.GreenCap.LampEnergy10E.O_HRD10591_15-07-57-946.txt Node
Date: Mon Jul 22 15:07:57 EDT 2019
User: cochatt
Spectrometer: HR+D1059
Trigger mode: 1
Integration Time (sec): 1.000000E-1
Scans to average: 1
Electric dark correction enabled: true
Nonlinearity correction enabled: false
Boxcar width: 0
XAxis mode: Wavelengths
Number of Pixels in Spectrum: 2048
>>>>>Begin Spectral Data<<<<<
223.165	-17.38
223.4	-17.38
223.635	-17.38
223.869	-11.38
224.104	-21.38
224.338	-14.38
224.573	-0.38
224.808	-10.38
225.042	-7.38
225.277	-15.38
225.511	-14.38
225.746	5.62
225.98	7.62
226.215	15.62
226.449	25.62
226.683	17.62
226.918	14.62
227.152	25.62
227.387	34.62
227.621	38.62
227.856	54.62
228.09	48.62
228.324	58.62
228.559	61.62
228.793	50.62
229.027	58.62
229.262	40.62
229.496	57.62
229.73	75.62
229.964	70.62
230.199	69.62
230.433	58.62
230.667	70.62
230.901	77.62
231.136	74.62
231.37	81.62
231.604	72.62
231.838	70.62
232.072	79.62
232.306	92.62
232.541	80.62
232.775	79.62
233.009	83.62
233.243	78.62
233.477	70.62
233.711	79.62
233.945	86.62
234.179	87.62
234.413	85.62
234.647	77.62
234.881	87.62
235.115	69.62
235.349	77.62
235.583	87.62
235.817	75.62
236.051	79.62
236.285	75.62
236.519	71.62
236.753	74.62
236.987	72.62
237.221	84.62
237.455	79.62
237.689	74.62
237.922	75.62
238.156	79.62
238.39	94.62
238.624	70.62
238.858	79.62
239.091	74.62
239.325	58.62
239.559	75.62
239.793	64.62
240.027	78.62
240.26	79.62
240.494	84.62
240.728	59.62
240.961	78.62
241.195	88.62
241.429	73.62
241.662	82.62
241.896	69.62
242.13	81.62
242.363	90.62
242.597	68.62
242.83	81.62
243.064	73.62
243.298	63.62
243.531	75.62
243.765	60.62
243.998	73.62
244.232	74.62
244.465	78.62
244.699	71.62
244.932	69.62
245.166	75.62
245.399	71.62
245.633	60.62
245.866	72.62
246.099	84.62
246.333	65.62
246.566	77.62
246.8	66.62
247.033	83.62
247.266	75.62
247.5	69.62
247.733	68.62
247.966	81.62
248.2	65.62
248.433	73.62
248.666	75.62
248.899	84.62
249.133	74.62
249.366	100.62
249.599	80.62
249.832	77.62
250.066	74.62
250.299	63.62
250.532	78.62
250.765	83.62
250.998	81.62
251.231	75.62
251.465	86.62
251.698	79.62
251.931	79.62
252.164	79.62
252.397	82.62
252.63	61.62
252.863	85.62
253.096	79.62
253.329	81.62
253.562	81.62
253.795	82.62
254.028	86.62
254.261	78.62
254.494	82.62
254.727	68.62
254.96	75.62
255.193	81.62
255.426	89.62
255.659	68.62
255.892	79.62
256.124	80.62
256.357	73.62
256.59	81.62
256.823	82.62
257.056	84.62
257.289	91.62
257.521	78.62
257.754	86.62
257.987	72.62
258.22	67.62
258.452	82.62
258.685	78.62
258.918	73.62
259.151	73.62
259.383	101.62
259.616	61.62
259.849	84.62
260.081	87.62
260.314	82.62
260.547	85.62
260.779	92.62
261.012	76.62
261.244	102.62
261.477	81.62
261.71	87.62
261.942	75.62
262.175	85.62
262.407	74.62
262.64	83.62
262.872	74.62
263.105	72.62
263.337	77.62
263.57	79.62
263.802	67.62
264.035	56.62
264.267	73.62
264.499	79.62
264.732	89.62
264.964	70.62
265.197	84.62
265.429	77.62
265.661	63.62
265.894	85.62
266.126	84.62
266.358	87.62
266.591	88.62
266.823	75.62
267.055	88.62
267.287	74.62
267.52	80.62
267.752	82.62
267.984	91.62
268.216	68.62
268.448	78.62
268.681	77.62
268.913	98.62
269.145	84.62
269.377	73.62
269.609	86.62
269.841	97.62
270.073	75.62
270.306	80.62
270.538	98.62
270.77	83.62
271.002	87.62
271.234	74.62
271.466	94.62
271.698	65.62
271.93	78.62
272.162	83.62
272.394	88.62
272.626	82.62
272.858	74.62
273.09	70.62
273.322	73.62
273.553	85.62
273.785	83.62
274.017	102.62
274.249	83.62
274.481	74.62
274.713	83.62
274.945	80.62
275.176	81.62
275.408	85.62
275.64	81.62
275.872	81.62
276.104	69.62
276.335	80.62
276.567	87.62
276.799	84.62
277.031	88.62
277.262	70.62
277.494	88.62
277.726	88.62
277.957	80.62
278.189	68.62
278.421	92.62
278.652	68.62
278.884	84.62
279.115	87.62
279.347	86.62
279.579	87.62
279.81	81.62
280.042	75.62
280.273	87.62
280.505	83.62
280.736	86.62
280.968	93.62
281.199	87.62
281.431	82.62
281.662	78.62
281.894	86.62
282.125	83.62
282.356	81.62
282.588	72.62
282.819	73.62
283.051	82.62
283.282	73.62
283.513	96.62
283.745	81.62
283.976	82.62
284.207	81.62
284.439	86.62
284.67	82.62
284.901	79.62
285.132	83.62
285.364	72.62
285.595	74.62
285.826	77.62
286.057	83.62
286.288	73.62
286.52	82.62
286.751	66.62
286.982	78.62
287.213	74.62
287.444	69.62
287.675	68.62
287.906	73.62
288.138	97.62
288.369	80.62
288.6	72.62
288.831	96.62
289.062	88.62
289.293	84.62
289.524	80.62
289.755	92.62
289.986	71.62
290.217	98.62
290.448	90.62
290.679	86.62
290.91	85.62
291.141	87.62
291.371	71.62
291.602	73.62
291.833	91.62
292.064	63.62
292.295	80.62
292.526	73.62
292.757	75.62
292.987	78.62
293.218	83.62
293.449	87.62
293.68	82.62
293.91	75.62
294.141	74.62
294.372	78.62
294.603	72.62
294.833	73.62
295.064	88.62
295.295	76.62
295.525	81.62
295.756	87.62
295.987	84.62
296.217	76.62
296.448	91.62
296.679	88.62
296.909	84.62
297.14	87.62
297.37	99.62
297.601	81.62
297.831	91.62
298.062	81.62
298.292	67.62
298.523	96.62
298.753	87.62
298.984	75.62
299.214	85.62
299.445	80.62
299.675	84.62
299.905	74.62
300.136	89.62
300.366	77.62
300.597	72.62
300.827	70.62
301.057	77.62
301.288	100.62
301.518	83.62
301.748	79.62
301.979	95.62
302.209	73.62
302.439	75.62
302.669	71.62
302.9	57.62
303.13	68.62
303.36	69.62
303.59	81.62
303.82	72.62
304.051	85.62
304.281	92.62
304.511	85.62
304.741	83.62
304.971	64.62
305.201	80.62
305.431	90.62
305.661	83.62
305.891	83.62
306.121	88.62
306.352	81.62
306.582	80.62
306.812	95.62
307.042	92.62
307.272	74.62
307.502	79.62
307.731	97.62
307.961	83.62
308.191	80.62
308.421	89.62
308.651	98.62
308.881	77.62
309.111	81.62
309.341	75.62
309.571	83.62
309.8	80.62
310.03	83.62
310.26	92.62
310.49	78.62
310.72	77.62
310.949	69.62
311.179	86.62
311.409	79.62
311.639	79.62
311.868	82.62
312.098	81.62
312.328	89.62
312.557	76.62
312.787	83.62
313.017	85.62
313.246	68.62
313.476	69.62
313.706	80.62
313.935	81.62
314.165	70.62
314.394	79.62
314.624	89.62
314.853	81.62
315.083	89.62
315.312	73.62
315.542	96.62
315.771	89.62
316.001	87.62
316.23	85.62
316.46	91.62
316.689	95.62
316.919	82.62
317.148	80.62
317.377	84.62
317.607	79.62
317.836	74.62
318.065	76.62
318.295	73.62
318.524	89.62
318.753	80.62
318.983	82.62
319.212	85.62
319.441	75.62
319.67	85.62
319.9	86.62
320.129	78.62
320.358	90.62
320.587	90.62
320.816	64.62
321.046	81.62
321.275	79.62
321.504	90.62
321.733	72.62
321.962	91.62
322.191	82.62
322.42	75.62
322.649	74.62
322.878	87.62
323.108	79.62
323.337	98.62
323.566	84.62
323.795	75.62
324.024	88.62
324.253	85.62
324.482	86.62
324.71	97.62
324.939	82.62
325.168	78.62
325.397	82.62
325.626	86.62
325.855	82.62
326.084	70.62
326.313	87.62
326.542	91.62
326.77	86.62
326.999	93.62
327.228	90.62
327.457	82.62
327.686	75.62
327.914	74.62
328.143	82.62
328.372	74.62
328.6	75.62
328.829	71.62
329.058	84.62
329.287	80.62
329.515	94.62
329.744	80.62
329.972	78.62
330.201	82.62
330.43	74.62
330.658	58.62
330.887	87.62
331.115	82.62
331.344	61.62
331.572	84.62
331.801	83.62
332.03	90.62
332.258	79.62
332.486	81.62
332.715	82.62
332.943	82.62
333.172	96.62
333.4	84.62
333.629	88.62
333.857	75.62
334.085	70.62
334.314	90.62
334.542	86.62
334.771	80.62
334.999	82.62
335.227	88.62
335.455	81.62
335.684	98.62
335.912	90.62
336.14	83.62
336.369	83.62
336.597	83.62
336.825	65.62
337.053	81.62
337.281	70.62
337.51	77.62
337.738	75.62
337.966	89.62
338.194	75.62
338.422	74.62
338.65	89.62
338.878	75.62
339.106	85.62
339.334	91.62
339.562	86.62
339.79	68.62
340.018	88.62
340.246	98.62
340.474	75.62
340.702	77.62
340.93	82.62
341.158	80.62
341.386	87.62
341.614	84.62
341.842	80.62
342.07	85.62
342.298	83.62
342.526	73.62
342.754	77.62
342.981	83.62
343.209	90.62
343.437	99.62
343.665	96.62
343.893	90.62
344.12	71.62
344.348	79.62
344.576	72.62
344.804	85.62
345.031	74.62
345.259	86.62
345.487	90.62
345.714	75.62
345.942	84.62
346.17	65.62
346.397	74.62
346.625	76.62
346.853	80.62
347.08	77.62
347.308	102.62
347.535	87.62
347.763	75.62
347.99	81.62
348.218	79.62
348.445	85.62
348.673	94.62
348.9	84.62
349.128	80.62
349.355	74.62
349.583	82.62
349.81	78.62
350.037	83.62
350.265	75.62
350.492	73.62
350.72	79.62
350.947	87.62
351.174	89.62
351.402	84.62
351.629	75.62
351.856	67.62
352.083	75.62
352.311	73.62
352.538	63.62
352.765	79.62
352.992	90.62
353.22	76.62
353.447	88.62
353.674	86.62
353.901	79.62
354.128	82.62
354.355	73.62
354.583	67.62
354.81	83.62
355.037	81.62
355.264	80.62
355.491	83.62
355.718	72.62
355.945	69.62
356.172	74.62
356.399	83.62
356.626	64.62
356.853	90.62
357.08	72.62
357.307	85.62
357.534	77.62
357.761	89.62
357.988	72.62
358.215	71.62
358.441	65.62
358.668	81.62
358.895	81.62
359.122	80.62
359.349	89.62
359.576	83.62
359.802	81.62
360.029	78.62
360.256	68.62
360.483	70.62
360.709	72.62
360.936	71.62
361.163	71.62
361.39	87.62
361.616	76.62
361.843	76.62
362.07	66.62
362.296	76.62
362.523	82.62
362.749	89.62
362.976	77.62
363.203	74.62
363.429	87.62
363.656	88.62
363.882	77.62
364.109	73.62
364.335	79.62
364.562	89.62
364.788	71.62
365.015	60.62
365.241	90.62
365.468	82.62
365.694	80.62
365.92	89.62
366.147	81.62
366.373	74.62
366.599	85.62
366.826	94.62
367.052	80.62
367.278	87.62
367.505	93.62
367.731	83.62
367.957	83.62
368.184	83.62
368.41	72.62
368.636	81.62
368.862	73.62
369.089	85.62
369.315	71.62
369.541	86.62
369.767	77.62
369.993	74.62
370.219	89.62
370.445	82.62
370.672	91.62
370.898	78.62
371.124	70.62
371.35	84.62
371.576	73.62
371.802	77.62
372.028	80.62
372.254	74.62
372.48	75.62
372.706	86.62
372.932	73.62
373.158	78.62
373.384	90.62
373.61	86.62
373.835	75.62
374.061	87.62
374.287	85.62
374.513	83.62
374.739	85.62
374.965	80.62
375.191	77.62
375.416	68.62
375.642	78.62
375.868	93.62
376.094	73.62
376.319	81.62
376.545	96.62
376.771	85.62
376.997	76.62
377.222	66.62
377.448	82.62
377.674	85.62
377.899	94.62
378.125	85.62
378.35	89.62
378.576	81.62
378.802	80.62
379.027	101.62
379.253	96.62
379.478	80.62
379.704	99.62
379.929	89.62
380.155	78.62
380.38	88.62
380.606	79.62
380.831	91.62
381.057	83.62
381.282	82.62
381.507	83.62
381.733	91.62
381.958	101.62
382.184	74.62
382.409	84.62
382.634	83.62
382.86	83.62
383.085	83.62
383.31	87.62
383.535	87.62
383.761	101.62
383.986	98.62
384.211	82.62
384.436	99.62
384.662	57.62
384.887	76.62
385.112	72.62
385.337	105.62
385.562	91.62
385.787	82.62
386.013	100.62
386.238	82.62
386.463	87.62
386.688	64.62
386.913	93.62
387.138	72.62
387.363	85.62
387.588	92.62
387.813	94.62
388.038	71.62
388.263	98.62
388.488	95.62
388.713	83.62
388.938	85.62
389.163	96.62
389.387	92.62
389.612	76.62
389.837	98.62
390.062	87.62
390.287	100.62
390.512	98.62
390.736	90.62
390.961	84.62
391.186	88.62
391.411	91.62
391.636	96.62
391.86	91.62
392.085	80.62
392.31	92.62
392.534	102.62
392.759	83.62
392.984	71.62
393.208	88.62
393.433	91.62
393.658	89.62
393.882	78.62
394.107	91.62
394.331	79.62
394.556	82.62
394.78	91.62
395.005	93.62
395.229	88.62
395.454	90.62
395.678	88.62
395.903	86.62
396.127	86.62
396.352	83.62
396.576	85.62
396.801	89.62
397.025	93.62
397.249	87.62
397.474	86.62
397.698	87.62
397.922	86.62
398.147	95.62
398.371	81.62
398.595	98.62
398.82	84.62
399.044	70.62
399.268	95.62
399.492	83.62
399.717	79.62
399.941	74.62
400.165	98.62
400.389	90.62
400.613	102.62
400.837	99.62
401.062	90.62
401.286	88.62
401.51	109.62
401.734	90.62
401.958	88.62
402.182	88.62
402.406	89.62
402.63	95.62
402.854	83.62
403.078	104.62
403.302	106.62
403.526	98.62
403.75	86.62
403.974	95.62
404.198	95.62
404.422	105.62
404.645	76.62
404.869	107.62
405.093	94.62
405.317	93.62
405.541	102.62
405.765	83.62
405.988	92.62
406.212	105.62
406.436	94.62
406.66	78.62
406.883	95.62
407.107	90.62
407.331	81.62
407.555	94.62
407.778	97.62
408.002	99.62
408.226	94.62
408.449	84.62
408.673	104.62
408.896	89.62
409.12	101.62
409.344	92.62
409.567	102.62
409.791	100.62
410.014	92.62
410.238	97.62
410.461	85.62
410.685	110.62
410.908	98.62
411.132	99.62
411.355	92.62
411.578	94.62
411.802	108.62
412.025	90.62
412.249	99.62
412.472	98.62
412.695	78.62
412.919	89.62
413.142	88.62
413.365	100.62
413.589	95.62
413.812	87.62
414.035	99.62
414.258	99.62
414.482	104.62
414.705	99.62
414.928	97.62
415.151	107.62
415.374	90.62
415.597	92.62
415.821	80.62
416.044	87.62
416.267	109.62
416.49	110.62
416.713	117.62
416.936	89.62
417.159	102.62
417.382	120.62
417.605	106.62
417.828	119.62
418.051	94.62
418.274	112.62
418.497	119.62
418.72	109.62
418.943	90.62
419.166	102.62
419.389	103.62
419.611	104.62
419.834	104.62
420.057	103.62
420.28	95.62
420.503	99.62
420.726	102.62
420.948	105.62
421.171	107.62
421.394	109.62
421.617	100.62
421.839	98.62
422.062	99.62
422.285	102.62
422.507	83.62
422.73	87.62
422.953	103.62
423.175	96.62
423.398	86.62
423.621	99.62
423.843	95.62
424.066	104.62
424.288	120.62
424.511	103.62
424.733	106.62
424.956	98.62
425.178	90.62
425.401	98.62
425.623	107.62
425.846	104.62
426.068	112.62
426.291	106.62
426.513	101.62
426.735	103.62
426.958	102.62
427.18	93.62
427.402	90.62
427.625	81.62
427.847	97.62
428.069	79.62
428.292	107.62
428.514	103.62
428.736	87.62
428.958	105.62
429.181	95.62
429.403	89.62
429.625	96.62
429.847	99.62
430.069	103.62
430.292	110.62
430.514	99.62
430.736	107.62
430.958	113.62
431.18	106.62
431.402	110.62
431.624	103.62
431.846	96.62
432.068	76.62
432.29	85.62
432.512	91.62
432.734	92.62
432.956	126.62
433.178	105.62
433.4	109.62
433.622	103.62
433.844	102.62
434.066	97.62
434.287	91.62
434.509	76.62
434.731	85.62
434.953	86.62
435.175	116.62
435.397	104.62
435.618	103.62
435.84	105.62
436.062	94.62
436.284	100.62
436.505	107.62
436.727	101.62
436.949	92.62
437.17	111.62
437.392	109.62
437.614	101.62
437.835	100.62
438.057	102.62
438.278	89.62
438.5	100.62
438.721	112.62
438.943	100.62
439.165	107.62
439.386	101.62
439.608	116.62
439.829	113.62
440.05	109.62
440.272	108.62
440.493	102.62
440.715	114.62
440.936	119.62
441.158	110.62
441.379	105.62
441.6	104.62
441.822	108.62
442.043	116.62
442.264	116.62
442.486	101.62
442.707	98.62
442.928	106.62
443.149	99.62
443.371	120.62
443.592	95.62
443.813	102.62
444.034	98.62
444.255	102.62
444.476	103.62
444.698	115.62
444.919	113.62
445.14	206.62
445.361	152.62
445.582	113.62
445.803	101.62
446.024	113.62
446.245	104.62
446.466	117.62
446.687	119.62
446.908	129.62
447.129	102.62
447.35	127.62
447.571	117.62
447.792	113.62
448.013	116.62
448.234	119.62
448.455	102.62
448.675	112.62
448.896	115.62
449.117	103.62
449.338	100.62
449.559	115.62
449.779	106.62
450	121.62
450.221	113.62
450.442	127.62
450.662	88.62
450.883	95.62
451.104	115.62
451.324	99.62
451.545	86.62
451.766	103.62
451.986	98.62
452.207	92.62
452.428	103.62
452.648	99.62
452.869	119.62
453.089	97.62
453.31	110.62
453.53	81.62
453.751	95.62
453.971	95.62
454.192	89.62
454.412	89.62
454.633	100.62
454.853	95.62
455.073	111.62
455.294	102.62
455.514	96.62
455.734	87.62
455.955	87.62
456.175	91.62
456.395	93.62
456.616	82.62
456.836	88.62
457.056	97.62
457.276	91.62
457.497	84.62
457.717	75.62
457.937	82.62
458.157	88.62
458.377	100.62
458.598	82.62
458.818	77.62
459.038	93.62
459.258	80.62
459.478	82.62
459.698	91.62
459.918	78.62
460.138	80.62
460.358	81.62
460.578	103.62
460.798	103.62
461.018	91.62
461.238	98.62
461.458	84.62
461.678	86.62
461.898	100.62
462.118	97.62
462.338	105.62
462.558	102.62
462.777	97.62
462.997	95.62
463.217	105.62
463.437	98.62
463.657	80.62
463.876	96.62
464.096	93.62
464.316	100.62
464.536	102.62
464.755	104.62
464.975	97.62
465.195	110.62
465.414	85.62
465.634	93.62
465.854	103.62
466.073	102.62
466.293	97.62
466.512	111.62
466.732	88.62
466.951	99.62
467.171	102.62
467.391	93.62
467.61	106.62
467.829	109.62
468.049	102.62
468.268	113.62
468.488	112.62
468.707	99.62
468.927	102.62
469.146	94.62
469.365	96.62
469.585	103.62
469.804	105.62
470.023	111.62
470.243	119.62
470.462	122.62
470.681	111.62
470.901	105.62
471.12	105.62
471.339	95.62
471.558	109.62
471.777	105.62
471.997	113.62
472.216	97.62
472.435	98.62
472.654	84.62
472.873	90.62
473.092	87.62
473.311	91.62
473.53	88.62
473.749	96.62
473.968	104.62
474.187	94.62
474.406	100.62
474.625	98.62
474.844	104.62
475.063	93.62
475.282	91.62
475.501	92.62
475.72	100.62
475.939	88.62
476.158	104.62
476.377	100.62
476.596	99.62
476.814	93.62
477.033	103.62
477.252	99.62
477.471	112.62
477.69	110.62
477.908	114.62
478.127	117.62
478.346	112.62
478.564	119.62
478.783	110.62
479.002	93.62
479.22	93.62
479.439	109.62
479.658	96.62
479.876	86.62
480.095	106.62
480.313	97.62
480.532	104.62
480.751	96.62
480.969	91.62
481.188	79.62
481.406	95.62
481.624	97.62
481.843	90.62
482.061	83.62
482.28	93.62
482.498	104.62
482.717	93.62
482.935	107.62
483.153	114.62
483.372	123.62
483.59	112.62
483.808	113.62
484.027	93.62
484.245	103.62
484.463	117.62
484.681	113.62
484.9	111.62
485.118	119.62
485.336	99.62
485.554	84.62
485.772	87.62
485.99	83.62
486.209	93.62
486.427	88.62
486.645	100.62
486.863	93.62
487.081	106.62
487.299	102.62
487.517	113.62
487.735	120.62
487.953	134.62
488.171	132.62
488.389	118.62
488.607	112.62
488.825	104.62
489.043	97.62
489.261	113.62
489.479	114.62
489.696	117.62
489.914	118.62
490.132	130.62
490.35	113.62
490.568	99.62
490.786	121.62
491.003	117.62
491.221	117.62
491.439	135.62
491.657	120.62
491.874	142.62
492.092	153.62
492.31	146.62
492.527	151.62
492.745	145.62
492.963	136.62
493.18	141.62
493.398	136.62
493.615	122.62
493.833	115.62
494.05	122.62
494.268	122.62
494.485	138.62
494.703	125.62
494.92	125.62
495.138	133.62
495.355	138.62
495.573	133.62
495.79	127.62
496.008	135.62
496.225	122.62
496.442	128.62
496.66	118.62
496.877	125.62
497.094	124.62
497.312	118.62
497.529	115.62
497.746	116.62
497.963	113.62
498.181	113.62
498.398	101.62
498.615	115.62
498.832	94.62
499.049	104.62
499.267	97.62
499.484	94.62
499.701	101.62
499.918	110.62
500.135	100.62
500.352	111.62
500.569	104.62
500.786	118.62
501.003	109.62
501.22	114.62
501.437	110.62
501.654	96.62
501.871	111.62
502.088	99.62
502.305	91.62
502.522	110.62
502.739	99.62
502.956	108.62
503.172	97.62
503.389	112.62
503.606	89.62
503.823	115.62
504.04	100.62
504.256	113.62
504.473	109.62
504.69	99.62
504.907	90.62
505.123	101.62
505.34	93.62
505.557	105.62
505.773	93.62
505.99	105.62
506.207	95.62
506.423	93.62
506.64	97.62
506.856	91.62
507.073	105.62
507.289	113.62
507.506	97.62
507.722	94.62
507.939	92.62
508.155	82.62
508.372	84.62
508.588	105.62
508.805	101.62
509.021	94.62
509.238	88.62
509.454	88.62
509.67	98.62
509.887	101.62
510.103	93.62
510.319	83.62
510.536	86.62
510.752	90.62
510.968	79.62
511.184	80.62
511.401	73.62
511.617	78.62
511.833	88.62
512.049	82.62
512.265	102.62
512.481	84.62
512.698	81.62
512.914	74.62
513.13	92.62
513.346	100.62
513.562	96.62
513.778	89.62
513.994	73.62
514.21	83.62
514.426	81.62
514.642	86.62
514.858	92.62
515.074	81.62
515.29	81.62
