Data from Zn(NO3)2Standard.Agarose3%.GreenCap.LampEnergy5.5.E.O_HRD10591_15-02-14-767.txt Node
Date: Mon Jul 22 15:02:14 EDT 2019
User: cochatt
Spectrometer: HR+D1059
Trigger mode: 1
Integration Time (sec): 1.000000E-1
Scans to average: 1
Electric dark correction enabled: true
Nonlinearity correction enabled: false
Boxcar width: 0
XAxis mode: Wavelengths
Number of Pixels in Spectrum: 2048
>>>>>Begin Spectral Data<<<<<
223.165	-16.5
223.4	-16.5
223.635	-16.5
223.869	-13.5
224.104	-11.5
224.338	-10.5
224.573	-25.5
224.808	-28.5
225.042	-13.5
225.277	-12.5
225.511	0.5
225.746	-2.5
225.98	13.5
226.215	4.5
226.449	21.5
226.683	24.5
226.918	32.5
227.152	37.5
227.387	18.5
227.621	43.5
227.856	52.5
228.09	38.5
228.324	49.5
228.559	62.5
228.793	63.5
229.027	63.5
229.262	60.5
229.496	66.5
229.73	83.5
229.964	76.5
230.199	90.5
230.433	75.5
230.667	77.5
230.901	63.5
231.136	96.5
231.37	87.5
231.604	91.5
231.838	84.5
232.072	89.5
232.306	88.5
232.541	76.5
232.775	80.5
233.009	75.5
233.243	88.5
233.477	85.5
233.711	88.5
233.945	83.5
234.179	86.5
234.413	87.5
234.647	70.5
234.881	79.5
235.115	73.5
235.349	88.5
235.583	74.5
235.817	89.5
236.051	65.5
236.285	82.5
236.519	87.5
236.753	66.5
236.987	70.5
237.221	86.5
237.455	91.5
237.689	81.5
237.922	70.5
238.156	85.5
238.39	83.5
238.624	74.5
238.858	80.5
239.091	76.5
239.325	76.5
239.559	81.5
239.793	87.5
240.027	81.5
240.26	78.5
240.494	71.5
240.728	89.5
240.961	87.5
241.195	76.5
241.429	93.5
241.662	65.5
241.896	78.5
242.13	75.5
242.363	79.5
242.597	84.5
242.83	83.5
243.064	69.5
243.298	84.5
243.531	67.5
243.765	75.5
243.998	68.5
244.232	83.5
244.465	72.5
244.699	61.5
244.932	83.5
245.166	80.5
245.399	80.5
245.633	80.5
245.866	77.5
246.099	63.5
246.333	75.5
246.566	84.5
246.8	79.5
247.033	76.5
247.266	84.5
247.5	85.5
247.733	84.5
247.966	84.5
248.2	85.5
248.433	78.5
248.666	75.5
248.899	89.5
249.133	71.5
249.366	82.5
249.599	63.5
249.832	74.5
250.066	84.5
250.299	69.5
250.532	73.5
250.765	91.5
250.998	77.5
251.231	74.5
251.465	92.5
251.698	80.5
251.931	82.5
252.164	71.5
252.397	95.5
252.63	93.5
252.863	75.5
253.096	80.5
253.329	81.5
253.562	81.5
253.795	69.5
254.028	70.5
254.261	85.5
254.494	75.5
254.727	81.5
254.96	75.5
255.193	72.5
255.426	74.5
255.659	67.5
255.892	78.5
256.124	86.5
256.357	74.5
256.59	85.5
256.823	79.5
257.056	86.5
257.289	84.5
257.521	81.5
257.754	84.5
257.987	84.5
258.22	68.5
258.452	76.5
258.685	85.5
258.918	73.5
259.151	78.5
259.383	99.5
259.616	81.5
259.849	87.5
260.081	79.5
260.314	67.5
260.547	58.5
260.779	73.5
261.012	71.5
261.244	87.5
261.477	85.5
261.71	85.5
261.942	87.5
262.175	70.5
262.407	78.5
262.64	69.5
262.872	83.5
263.105	80.5
263.337	80.5
263.57	74.5
263.802	83.5
264.035	75.5
264.267	74.5
264.499	78.5
264.732	94.5
264.964	76.5
265.197	69.5
265.429	90.5
265.661	85.5
265.894	85.5
266.126	78.5
266.358	87.5
266.591	89.5
266.823	67.5
267.055	85.5
267.287	95.5
267.52	95.5
267.752	94.5
267.984	80.5
268.216	87.5
268.448	75.5
268.681	95.5
268.913	90.5
269.145	83.5
269.377	77.5
269.609	82.5
269.841	98.5
270.073	76.5
270.306	69.5
270.538	77.5
270.77	84.5
271.002	96.5
271.234	75.5
271.466	95.5
271.698	80.5
271.93	96.5
272.162	90.5
272.394	85.5
272.626	85.5
272.858	83.5
273.09	81.5
273.322	81.5
273.553	78.5
273.785	84.5
274.017	84.5
274.249	94.5
274.481	82.5
274.713	69.5
274.945	74.5
275.176	82.5
275.408	97.5
275.64	81.5
275.872	87.5
276.104	86.5
276.335	80.5
276.567	77.5
276.799	69.5
277.031	73.5
277.262	82.5
277.494	96.5
277.726	85.5
277.957	80.5
278.189	90.5
278.421	84.5
278.652	75.5
278.884	88.5
279.115	86.5
279.347	78.5
279.579	82.5
279.81	79.5
280.042	78.5
280.273	91.5
280.505	83.5
280.736	88.5
280.968	93.5
281.199	82.5
281.431	86.5
281.662	73.5
281.894	83.5
282.125	93.5
282.356	94.5
282.588	89.5
282.819	75.5
283.051	91.5
283.282	83.5
283.513	78.5
283.745	85.5
283.976	75.5
284.207	75.5
284.439	87.5
284.67	87.5
284.901	88.5
285.132	82.5
285.364	75.5
285.595	82.5
285.826	86.5
286.057	85.5
286.288	78.5
286.52	77.5
286.751	89.5
286.982	83.5
287.213	71.5
287.444	83.5
287.675	82.5
287.906	95.5
288.138	81.5
288.369	95.5
288.6	89.5
288.831	77.5
289.062	96.5
289.293	98.5
289.524	79.5
289.755	73.5
289.986	80.5
290.217	89.5
290.448	87.5
290.679	81.5
290.91	87.5
291.141	79.5
291.371	77.5
291.602	80.5
291.833	91.5
292.064	80.5
292.295	77.5
292.526	81.5
292.757	81.5
292.987	89.5
293.218	85.5
293.449	80.5
293.68	83.5
293.91	80.5
294.141	78.5
294.372	77.5
294.603	81.5
294.833	96.5
295.064	84.5
295.295	85.5
295.525	71.5
295.756	97.5
295.987	91.5
296.217	79.5
296.448	77.5
296.679	91.5
296.909	81.5
297.14	85.5
297.37	86.5
297.601	84.5
297.831	92.5
298.062	74.5
298.292	93.5
298.523	76.5
298.753	87.5
298.984	85.5
299.214	82.5
299.445	87.5
299.675	88.5
299.905	92.5
300.136	88.5
300.366	83.5
300.597	77.5
300.827	86.5
301.057	90.5
301.288	86.5
301.518	106.5
301.748	80.5
301.979	75.5
302.209	95.5
302.439	86.5
302.669	94.5
302.9	86.5
303.13	81.5
303.36	80.5
303.59	85.5
303.82	88.5
304.051	95.5
304.281	84.5
304.511	86.5
304.741	77.5
304.971	96.5
305.201	100.5
305.431	76.5
305.661	86.5
305.891	93.5
306.121	71.5
306.352	79.5
306.582	75.5
306.812	70.5
307.042	79.5
307.272	76.5
307.502	77.5
307.731	95.5
307.961	85.5
308.191	95.5
308.421	84.5
308.651	86.5
308.881	90.5
309.111	79.5
309.341	89.5
309.571	97.5
309.8	80.5
310.03	78.5
310.26	82.5
310.49	75.5
310.72	92.5
310.949	76.5
311.179	95.5
311.409	92.5
311.639	86.5
311.868	91.5
312.098	86.5
312.328	86.5
312.557	97.5
312.787	83.5
313.017	75.5
313.246	79.5
313.476	93.5
313.706	78.5
313.935	72.5
314.165	78.5
314.394	77.5
314.624	84.5
314.853	89.5
315.083	90.5
315.312	71.5
315.542	81.5
315.771	75.5
316.001	75.5
316.23	79.5
316.46	84.5
316.689	81.5
316.919	87.5
317.148	100.5
317.377	83.5
317.607	85.5
317.836	82.5
318.065	84.5
318.295	74.5
318.524	99.5
318.753	76.5
318.983	94.5
319.212	83.5
319.441	93.5
319.67	71.5
319.9	71.5
320.129	89.5
320.358	93.5
320.587	91.5
320.816	88.5
321.046	80.5
321.275	76.5
321.504	72.5
321.733	76.5
321.962	97.5
322.191	81.5
322.42	82.5
322.649	97.5
322.878	83.5
323.108	91.5
323.337	81.5
323.566	89.5
323.795	97.5
324.024	71.5
324.253	73.5
324.482	76.5
324.71	88.5
324.939	89.5
325.168	98.5
325.397	90.5
325.626	94.5
325.855	81.5
326.084	83.5
326.313	99.5
326.542	90.5
326.77	87.5
326.999	89.5
327.228	79.5
327.457	84.5
327.686	83.5
327.914	85.5
328.143	91.5
328.372	77.5
328.6	84.5
328.829	91.5
329.058	84.5
329.287	85.5
329.515	82.5
329.744	101.5
329.972	92.5
330.201	88.5
330.43	84.5
330.658	95.5
330.887	76.5
331.115	84.5
331.344	93.5
331.572	73.5
331.801	71.5
332.03	82.5
332.258	77.5
332.486	81.5
332.715	74.5
332.943	69.5
333.172	78.5
333.4	71.5
333.629	82.5
333.857	77.5
334.085	86.5
334.314	89.5
334.542	96.5
334.771	90.5
334.999	84.5
335.227	77.5
335.455	84.5
335.684	81.5
335.912	83.5
336.14	81.5
336.369	76.5
336.597	90.5
336.825	96.5
337.053	85.5
337.281	87.5
337.51	87.5
337.738	76.5
337.966	91.5
338.194	74.5
338.422	81.5
338.65	97.5
338.878	75.5
339.106	102.5
339.334	91.5
339.562	78.5
339.79	96.5
340.018	80.5
340.246	91.5
340.474	86.5
340.702	78.5
340.93	86.5
341.158	98.5
341.386	92.5
341.614	87.5
341.842	75.5
342.07	68.5
342.298	83.5
342.526	77.5
342.754	78.5
342.981	68.5
343.209	83.5
343.437	77.5
343.665	92.5
343.893	92.5
344.12	78.5
344.348	82.5
344.576	72.5
344.804	77.5
345.031	74.5
345.259	78.5
345.487	92.5
345.714	79.5
345.942	96.5
346.17	82.5
346.397	78.5
346.625	69.5
346.853	85.5
347.08	89.5
347.308	91.5
347.535	77.5
347.763	79.5
347.99	81.5
348.218	78.5
348.445	100.5
348.673	78.5
348.9	84.5
349.128	87.5
349.355	89.5
349.583	82.5
349.81	86.5
350.037	97.5
350.265	93.5
350.492	87.5
350.72	84.5
350.947	82.5
351.174	86.5
351.402	93.5
351.629	78.5
351.856	83.5
352.083	75.5
352.311	81.5
352.538	87.5
352.765	85.5
352.992	76.5
353.22	78.5
353.447	69.5
353.674	81.5
353.901	105.5
354.128	85.5
354.355	77.5
354.583	87.5
354.81	88.5
355.037	77.5
355.264	83.5
355.491	87.5
355.718	78.5
355.945	81.5
356.172	84.5
356.399	71.5
356.626	86.5
356.853	82.5
357.08	70.5
357.307	88.5
357.534	84.5
357.761	91.5
357.988	89.5
358.215	87.5
358.441	72.5
358.668	89.5
358.895	79.5
359.122	101.5
359.349	82.5
359.576	98.5
359.802	89.5
360.029	78.5
360.256	93.5
360.483	78.5
360.709	77.5
360.936	92.5
361.163	92.5
361.39	84.5
361.616	83.5
361.843	89.5
362.07	80.5
362.296	92.5
362.523	79.5
362.749	77.5
362.976	76.5
363.203	100.5
363.429	88.5
363.656	76.5
363.882	88.5
364.109	94.5
364.335	86.5
364.562	89.5
364.788	80.5
365.015	82.5
365.241	73.5
365.468	74.5
365.694	85.5
365.92	74.5
366.147	85.5
366.373	90.5
366.599	88.5
366.826	77.5
367.052	80.5
367.278	75.5
367.505	83.5
367.731	91.5
367.957	83.5
368.184	87.5
368.41	76.5
368.636	77.5
368.862	80.5
369.089	86.5
369.315	75.5
369.541	87.5
369.767	76.5
369.993	83.5
370.219	85.5
370.445	85.5
370.672	73.5
370.898	80.5
371.124	88.5
371.35	93.5
371.576	90.5
371.802	78.5
372.028	91.5
372.254	66.5
372.48	79.5
372.706	88.5
372.932	73.5
373.158	89.5
373.384	72.5
373.61	97.5
373.835	94.5
374.061	77.5
374.287	89.5
374.513	74.5
374.739	85.5
374.965	84.5
375.191	84.5
375.416	107.5
375.642	92.5
375.868	91.5
376.094	86.5
376.319	89.5
376.545	91.5
376.771	70.5
376.997	79.5
377.222	84.5
377.448	85.5
377.674	72.5
377.899	94.5
378.125	95.5
378.35	93.5
378.576	84.5
378.802	85.5
379.027	80.5
379.253	90.5
379.478	81.5
379.704	70.5
379.929	76.5
380.155	94.5
380.38	84.5
380.606	72.5
380.831	85.5
381.057	73.5
381.282	73.5
381.507	82.5
381.733	74.5
381.958	87.5
382.184	83.5
382.409	83.5
382.634	100.5
382.86	81.5
383.085	88.5
383.31	82.5
383.535	89.5
383.761	76.5
383.986	90.5
384.211	77.5
384.436	82.5
384.662	79.5
384.887	87.5
385.112	88.5
385.337	79.5
385.562	90.5
385.787	64.5
386.013	101.5
386.238	96.5
386.463	82.5
386.688	82.5
386.913	76.5
387.138	72.5
387.363	85.5
387.588	90.5
387.813	92.5
388.038	72.5
388.263	84.5
388.488	83.5
388.713	77.5
388.938	87.5
389.163	92.5
389.387	80.5
389.612	90.5
389.837	86.5
390.062	87.5
390.287	97.5
390.512	88.5
390.736	81.5
390.961	97.5
391.186	81.5
391.411	83.5
391.636	81.5
391.86	82.5
392.085	84.5
392.31	75.5
392.534	82.5
392.759	87.5
392.984	82.5
393.208	82.5
393.433	95.5
393.658	85.5
393.882	84.5
394.107	75.5
394.331	81.5
394.556	78.5
394.78	67.5
395.005	79.5
395.229	80.5
395.454	83.5
395.678	91.5
395.903	90.5
396.127	71.5
396.352	75.5
396.576	79.5
396.801	84.5
397.025	83.5
397.249	82.5
397.474	80.5
397.698	82.5
397.922	93.5
398.147	79.5
398.371	77.5
398.595	79.5
398.82	83.5
399.044	82.5
399.268	86.5
399.492	88.5
399.717	76.5
399.941	72.5
400.165	78.5
400.389	82.5
400.613	81.5
400.837	78.5
401.062	114.5
401.286	78.5
401.51	80.5
401.734	89.5
401.958	85.5
402.182	83.5
402.406	86.5
402.63	81.5
402.854	80.5
403.078	97.5
403.302	82.5
403.526	80.5
403.75	81.5
403.974	96.5
404.198	79.5
404.422	81.5
404.645	81.5
404.869	84.5
405.093	72.5
405.317	75.5
405.541	89.5
405.765	88.5
405.988	86.5
406.212	76.5
406.436	87.5
406.66	107.5
406.883	74.5
407.107	86.5
407.331	90.5
407.555	76.5
407.778	90.5
408.002	87.5
408.226	74.5
408.449	92.5
408.673	87.5
408.896	77.5
409.12	96.5
409.344	95.5
409.567	80.5
409.791	76.5
410.014	83.5
410.238	88.5
410.461	91.5
410.685	95.5
410.908	88.5
411.132	73.5
411.355	79.5
411.578	86.5
411.802	96.5
412.025	98.5
412.249	87.5
412.472	81.5
412.695	80.5
412.919	89.5
413.142	95.5
413.365	96.5
413.589	83.5
413.812	74.5
414.035	87.5
414.258	97.5
414.482	83.5
414.705	90.5
414.928	89.5
415.151	102.5
415.374	81.5
415.597	91.5
415.821	76.5
416.044	76.5
416.267	88.5
416.49	77.5
416.713	83.5
416.936	94.5
417.159	84.5
417.382	81.5
417.605	96.5
417.828	112.5
418.051	89.5
418.274	90.5
418.497	85.5
418.72	90.5
418.943	103.5
419.166	93.5
419.389	94.5
419.611	98.5
419.834	86.5
420.057	85.5
420.28	92.5
420.503	65.5
420.726	77.5
420.948	82.5
421.171	93.5
421.394	100.5
421.617	100.5
421.839	74.5
422.062	96.5
422.285	83.5
422.507	88.5
422.73	75.5
422.953	91.5
423.175	89.5
423.398	77.5
423.621	77.5
423.843	93.5
424.066	80.5
424.288	85.5
424.511	73.5
424.733	100.5
424.956	95.5
425.178	102.5
425.401	91.5
425.623	97.5
425.846	92.5
426.068	92.5
426.291	81.5
426.513	74.5
426.735	92.5
426.958	80.5
427.18	95.5
427.402	84.5
427.625	82.5
427.847	83.5
428.069	82.5
428.292	91.5
428.514	85.5
428.736	89.5
428.958	98.5
429.181	88.5
429.403	87.5
429.625	102.5
429.847	100.5
430.069	93.5
430.292	84.5
430.514	86.5
430.736	102.5
430.958	98.5
431.18	87.5
431.402	83.5
431.624	90.5
431.846	77.5
432.068	84.5
432.29	72.5
432.512	86.5
432.734	92.5
432.956	93.5
433.178	100.5
433.4	90.5
433.622	93.5
433.844	101.5
434.066	96.5
434.287	84.5
434.509	81.5
434.731	99.5
434.953	79.5
435.175	79.5
435.397	97.5
435.618	86.5
435.84	90.5
436.062	80.5
436.284	70.5
436.505	92.5
436.727	91.5
436.949	83.5
437.17	85.5
437.392	85.5
437.614	91.5
437.835	94.5
438.057	79.5
438.278	85.5
438.5	78.5
438.721	88.5
438.943	79.5
439.165	94.5
439.386	91.5
439.608	84.5
439.829	72.5
440.05	104.5
440.272	89.5
440.493	80.5
440.715	91.5
440.936	101.5
441.158	91.5
441.379	99.5
441.6	87.5
441.822	85.5
442.043	93.5
442.264	93.5
442.486	90.5
442.707	95.5
442.928	89.5
443.149	84.5
443.371	73.5
443.592	92.5
443.813	87.5
444.034	83.5
444.255	90.5
444.476	92.5
444.698	89.5
444.919	110.5
445.14	217.5
445.361	163.5
445.582	78.5
445.803	87.5
446.024	76.5
446.245	97.5
446.466	98.5
446.687	93.5
446.908	90.5
447.129	98.5
447.35	84.5
447.571	93.5
447.792	88.5
448.013	104.5
448.234	91.5
448.455	86.5
448.675	85.5
448.896	107.5
449.117	84.5
449.338	93.5
449.559	88.5
449.779	74.5
450	86.5
450.221	82.5
450.442	86.5
450.662	103.5
450.883	92.5
451.104	107.5
451.324	88.5
451.545	86.5
451.766	83.5
451.986	89.5
452.207	84.5
452.428	84.5
452.648	80.5
452.869	95.5
453.089	78.5
453.31	70.5
453.53	82.5
453.751	95.5
453.971	89.5
454.192	77.5
454.412	87.5
454.633	89.5
454.853	83.5
455.073	85.5
455.294	86.5
455.514	81.5
455.734	81.5
455.955	77.5
456.175	92.5
456.395	85.5
456.616	95.5
456.836	101.5
457.056	75.5
457.276	83.5
457.497	80.5
457.717	83.5
457.937	74.5
458.157	79.5
458.377	82.5
458.598	90.5
458.818	90.5
459.038	88.5
459.258	69.5
459.478	72.5
459.698	83.5
459.918	84.5
460.138	95.5
460.358	94.5
460.578	85.5
460.798	91.5
461.018	92.5
461.238	84.5
461.458	80.5
461.678	94.5
461.898	89.5
462.118	91.5
462.338	93.5
462.558	89.5
462.777	86.5
462.997	80.5
463.217	78.5
463.437	78.5
463.657	81.5
463.876	86.5
464.096	94.5
464.316	82.5
464.536	88.5
464.755	85.5
464.975	87.5
465.195	95.5
465.414	90.5
465.634	76.5
465.854	91.5
466.073	96.5
466.293	85.5
466.512	80.5
466.732	77.5
466.951	81.5
467.171	82.5
467.391	83.5
467.61	90.5
467.829	102.5
468.049	101.5
468.268	86.5
468.488	90.5
468.707	87.5
468.927	84.5
469.146	79.5
469.365	90.5
469.585	87.5
469.804	100.5
470.023	96.5
470.243	86.5
470.462	91.5
470.681	87.5
470.901	83.5
471.12	80.5
471.339	68.5
471.558	90.5
471.777	89.5
471.997	85.5
472.216	93.5
472.435	95.5
472.654	68.5
472.873	87.5
473.092	72.5
473.311	67.5
473.53	68.5
473.749	86.5
473.968	96.5
474.187	89.5
474.406	99.5
474.625	97.5
474.844	91.5
475.063	80.5
475.282	92.5
475.501	84.5
475.72	90.5
475.939	77.5
476.158	79.5
476.377	79.5
476.596	76.5
476.814	89.5
477.033	81.5
477.252	82.5
477.471	99.5
477.69	88.5
477.908	95.5
478.127	89.5
478.346	97.5
478.564	90.5
478.783	96.5
479.002	84.5
479.22	83.5
479.439	92.5
479.658	81.5
479.876	83.5
480.095	99.5
480.313	95.5
480.532	70.5
480.751	70.5
480.969	75.5
481.188	86.5
481.406	86.5
481.624	76.5
481.843	86.5
482.061	99.5
482.28	82.5
482.498	79.5
482.717	91.5
482.935	80.5
483.153	85.5
483.372	89.5
483.59	99.5
483.808	91.5
484.027	88.5
484.245	96.5
484.463	92.5
484.681	89.5
484.9	98.5
485.118	73.5
485.336	89.5
485.554	94.5
485.772	90.5
485.99	108.5
486.209	93.5
486.427	99.5
486.645	87.5
486.863	83.5
487.081	90.5
487.299	93.5
487.517	82.5
487.735	86.5
487.953	93.5
488.171	107.5
488.389	102.5
488.607	82.5
488.825	89.5
489.043	92.5
489.261	83.5
489.479	98.5
489.696	88.5
489.914	86.5
490.132	83.5
490.35	85.5
490.568	91.5
490.786	88.5
491.003	104.5
491.221	98.5
491.439	101.5
491.657	103.5
491.874	92.5
492.092	92.5
492.31	122.5
492.527	113.5
492.745	104.5
492.963	115.5
493.18	96.5
493.398	112.5
493.615	113.5
493.833	91.5
494.05	108.5
494.268	104.5
494.485	101.5
494.703	103.5
494.92	99.5
495.138	103.5
495.355	102.5
495.573	107.5
495.79	98.5
496.008	100.5
496.225	98.5
496.442	93.5
496.66	92.5
496.877	93.5
497.094	112.5
497.312	112.5
497.529	93.5
497.746	93.5
497.963	93.5
498.181	77.5
498.398	82.5
498.615	89.5
498.832	92.5
499.049	90.5
499.267	85.5
499.484	92.5
499.701	106.5
499.918	100.5
500.135	95.5
500.352	93.5
500.569	92.5
500.786	108.5
501.003	101.5
501.22	101.5
501.437	92.5
501.654	88.5
501.871	87.5
502.088	89.5
502.305	95.5
502.522	83.5
502.739	103.5
502.956	101.5
503.172	84.5
503.389	77.5
503.606	93.5
503.823	101.5
504.04	106.5
504.256	101.5
504.473	88.5
504.69	88.5
504.907	84.5
505.123	97.5
505.34	95.5
505.557	101.5
505.773	97.5
505.99	76.5
506.207	76.5
506.423	87.5
506.64	85.5
506.856	90.5
507.073	83.5
507.289	81.5
507.506	76.5
507.722	95.5
507.939	89.5
508.155	95.5
508.372	73.5
508.588	76.5
508.805	85.5
509.021	92.5
509.238	84.5
509.454	80.5
509.67	91.5
509.887	94.5
510.103	84.5
510.319	88.5
510.536	80.5
510.752	90.5
510.968	72.5
511.184	72.5
511.401	70.5
511.617	75.5
511.833	85.5
512.049	87.5
512.265	91.5
512.481	84.5
512.698	85.5
512.914	91.5
513.13	87.5
513.346	71.5
513.562	88.5
513.778	83.5
513.994	65.5
514.21	82.5
514.426	84.5
514.642	89.5
514.858	82.5
515.074	87.5
515.29	89.5
515.506	81.5
515.721	83.5
515.937	87.5
516.153	89.5
516.369	80.5
516.585	80.5
516.801	93.5
517.016	81.5
517.232	85.5
517.448	79.5
517.664	79.5
517.879	86.5
518.095	87.5
518.311	92.5
518.527	97.5
518.742	78.5
518.958	84.5
519.173	94.5
519.389	87.5
519.605	93.5
519.82	77.5
520.036	88.5
520.251	88.5
520.467	90.5
520.682	89.5
520.898	76.5
521.113	75.5
521.329	81.5
521.544	83.5
521.76	81.5
521.975	65.5
522.19	78.5
522.406	88.5
522.621	86.5
522.836	88.5
523.052	92.5
523.267	93.5
523.482	83.5
523.698	88.5
523.913	95.5
524.128	93.5
524.343	93.5
524.559	90.5
524.774	92.5
524.989	93.5
525.204	96.5
525.419	84.5
525.634	87.5
525.849	91.5
526.064	75.5
526.28	81.5
526.495	83.5
526.71	75.5
526.925	85.5
527.14	74.5
527.355	81.5
527.57	79.5
527.785	98.5
527.999	89.5
528.214	91.5
528.429	99.5
528.644	95.5
528.859	96.5
529.074	90.5
529.289	93.5
529.503	96.5
529.718	94.5
529.933	89.5
530.148	81.5
530.363	83.5
530.577	92.5
530.792	85.5
531.007	98.5
531.221	81.5
531.436	69.5
531.651	74.5
531.865	81.5
532.08	70.5
532.295	78.5
532.509	88.5
532.724	87.5
532.938	87.5
533.153	70.5
533.367	74.5
533.582	95.5
533.796	87.5
534.011	94.5
534.225	84.5
534.44	83.5
534.654	80.5
534.868	91.5
535.083	73.5
535.297	91.5
535.511	98.5
535.726	85.5
535.94	94.5
536.154	83.5
536.369	81.5
536.583	74.5
536.797	91.5
537.011	75.5
537.225	91.5
537.44	87.5
537.654	86.5
537.868	84.5
538.082	86.5
538.296	91.5
538.51	88.5
538.724	84.5
