Data from Zn(NO3)2Standard.Agarose3%.GreenCap.LampEnergy10E.O_HRD10591_15-06-21-942.txt Node
Date: Mon Jul 22 15:06:21 EDT 2019
User: cochatt
Spectrometer: HR+D1059
Trigger mode: 1
Integration Time (sec): 1.000000E-1
Scans to average: 1
Electric dark correction enabled: true
Nonlinearity correction enabled: false
Boxcar width: 0
XAxis mode: Wavelengths
Number of Pixels in Spectrum: 2048
>>>>>Begin Spectral Data<<<<<
223.165	-14.44
223.4	-14.44
223.635	-14.44
223.869	-14.44
224.104	-12.44
224.338	-11.44
224.573	-22.44
224.808	-16.44
225.042	-8.44
225.277	8.56
225.511	11.56
225.746	-10.44
225.98	8.56
226.215	3.56
226.449	5.56
226.683	12.56
226.918	27.56
227.152	32.56
227.387	24.56
227.621	35.56
227.856	54.56
228.09	45.56
228.324	49.56
228.559	55.56
228.793	61.56
229.027	54.56
229.262	72.56
229.496	66.56
229.73	70.56
229.964	53.56
230.199	71.56
230.433	67.56
230.667	75.56
230.901	73.56
231.136	71.56
231.37	67.56
231.604	69.56
231.838	74.56
232.072	65.56
232.306	84.56
232.541	76.56
232.775	81.56
233.009	73.56
233.243	83.56
233.477	77.56
233.711	81.56
233.945	85.56
234.179	92.56
234.413	90.56
234.647	72.56
234.881	81.56
235.115	83.56
235.349	79.56
235.583	77.56
235.817	74.56
236.051	64.56
236.285	67.56
236.519	85.56
236.753	96.56
236.987	83.56
237.221	82.56
237.455	82.56
237.689	76.56
237.922	72.56
238.156	83.56
238.39	83.56
238.624	83.56
238.858	75.56
239.091	75.56
239.325	76.56
239.559	80.56
239.793	68.56
240.027	86.56
240.26	75.56
240.494	85.56
240.728	75.56
240.961	90.56
241.195	72.56
241.429	83.56
241.662	83.56
241.896	77.56
242.13	87.56
242.363	71.56
242.597	77.56
242.83	71.56
243.064	77.56
243.298	79.56
243.531	83.56
243.765	66.56
243.998	79.56
244.232	92.56
244.465	80.56
244.699	80.56
244.932	83.56
245.166	70.56
245.399	70.56
245.633	73.56
245.866	83.56
246.099	68.56
246.333	80.56
246.566	85.56
246.8	84.56
247.033	93.56
247.266	89.56
247.5	87.56
247.733	80.56
247.966	73.56
248.2	90.56
248.433	80.56
248.666	83.56
248.899	81.56
249.133	73.56
249.366	84.56
249.599	75.56
249.832	83.56
250.066	64.56
250.299	88.56
250.532	79.56
250.765	87.56
250.998	75.56
251.231	70.56
251.465	77.56
251.698	85.56
251.931	73.56
252.164	67.56
252.397	81.56
252.63	73.56
252.863	88.56
253.096	68.56
253.329	79.56
253.562	83.56
253.795	98.56
254.028	90.56
254.261	74.56
254.494	73.56
254.727	99.56
254.96	89.56
255.193	78.56
255.426	70.56
255.659	79.56
255.892	75.56
256.124	82.56
256.357	75.56
256.59	92.56
256.823	76.56
257.056	87.56
257.289	86.56
257.521	87.56
257.754	75.56
257.987	72.56
258.22	80.56
258.452	72.56
258.685	82.56
258.918	95.56
259.151	77.56
259.383	73.56
259.616	83.56
259.849	93.56
260.081	73.56
260.314	88.56
260.547	81.56
260.779	74.56
261.012	74.56
261.244	84.56
261.477	75.56
261.71	81.56
261.942	73.56
262.175	77.56
262.407	100.56
262.64	78.56
262.872	76.56
263.105	98.56
263.337	89.56
263.57	79.56
263.802	89.56
264.035	74.56
264.267	79.56
264.499	72.56
264.732	102.56
264.964	79.56
265.197	94.56
265.429	81.56
265.661	89.56
265.894	82.56
266.126	82.56
266.358	82.56
266.591	85.56
266.823	86.56
267.055	67.56
267.287	78.56
267.52	91.56
267.752	84.56
267.984	78.56
268.216	81.56
268.448	78.56
268.681	85.56
268.913	84.56
269.145	92.56
269.377	77.56
269.609	76.56
269.841	77.56
270.073	86.56
270.306	97.56
270.538	85.56
270.77	72.56
271.002	79.56
271.234	77.56
271.466	75.56
271.698	85.56
271.93	77.56
272.162	81.56
272.394	91.56
272.626	82.56
272.858	75.56
273.09	85.56
273.322	82.56
273.553	71.56
273.785	99.56
274.017	78.56
274.249	72.56
274.481	79.56
274.713	77.56
274.945	91.56
275.176	77.56
275.408	86.56
275.64	81.56
275.872	88.56
276.104	86.56
276.335	81.56
276.567	85.56
276.799	73.56
277.031	74.56
277.262	92.56
277.494	81.56
277.726	62.56
277.957	97.56
278.189	89.56
278.421	61.56
278.652	77.56
278.884	87.56
279.115	69.56
279.347	84.56
279.579	78.56
279.81	88.56
280.042	87.56
280.273	73.56
280.505	69.56
280.736	75.56
280.968	87.56
281.199	75.56
281.431	78.56
281.662	83.56
281.894	87.56
282.125	81.56
282.356	84.56
282.588	81.56
282.819	87.56
283.051	77.56
283.282	86.56
283.513	85.56
283.745	76.56
283.976	69.56
284.207	78.56
284.439	89.56
284.67	71.56
284.901	80.56
285.132	86.56
285.364	89.56
285.595	93.56
285.826	86.56
286.057	99.56
286.288	82.56
286.52	91.56
286.751	84.56
286.982	93.56
287.213	79.56
287.444	78.56
287.675	75.56
287.906	85.56
288.138	77.56
288.369	100.56
288.6	85.56
288.831	83.56
289.062	87.56
289.293	83.56
289.524	92.56
289.755	100.56
289.986	83.56
290.217	88.56
290.448	83.56
290.679	88.56
290.91	94.56
291.141	99.56
291.371	92.56
291.602	69.56
291.833	89.56
292.064	93.56
292.295	83.56
292.526	83.56
292.757	88.56
292.987	87.56
293.218	86.56
293.449	77.56
293.68	92.56
293.91	91.56
294.141	85.56
294.372	73.56
294.603	84.56
294.833	81.56
295.064	91.56
295.295	88.56
295.525	84.56
295.756	87.56
295.987	86.56
296.217	90.56
296.448	99.56
296.679	86.56
296.909	95.56
297.14	74.56
297.37	74.56
297.601	76.56
297.831	86.56
298.062	92.56
298.292	79.56
298.523	89.56
298.753	94.56
298.984	85.56
299.214	95.56
299.445	95.56
299.675	85.56
299.905	75.56
300.136	76.56
300.366	83.56
300.597	86.56
300.827	90.56
301.057	87.56
301.288	92.56
301.518	85.56
301.748	86.56
301.979	94.56
302.209	79.56
302.439	89.56
302.669	76.56
302.9	102.56
303.13	90.56
303.36	70.56
303.59	83.56
303.82	94.56
304.051	89.56
304.281	97.56
304.511	87.56
304.741	97.56
304.971	85.56
305.201	75.56
305.431	91.56
305.661	82.56
305.891	93.56
306.121	102.56
306.352	87.56
306.582	95.56
306.812	84.56
307.042	65.56
307.272	83.56
307.502	80.56
307.731	79.56
307.961	88.56
308.191	82.56
308.421	73.56
308.651	78.56
308.881	81.56
309.111	77.56
309.341	84.56
309.571	82.56
309.8	87.56
310.03	87.56
310.26	87.56
310.49	91.56
310.72	83.56
310.949	89.56
311.179	81.56
311.409	74.56
311.639	72.56
311.868	82.56
312.098	98.56
312.328	83.56
312.557	81.56
312.787	85.56
313.017	78.56
313.246	92.56
313.476	99.56
313.706	86.56
313.935	75.56
314.165	93.56
314.394	92.56
314.624	87.56
314.853	77.56
315.083	91.56
315.312	83.56
315.542	74.56
315.771	90.56
316.001	87.56
316.23	76.56
316.46	88.56
316.689	80.56
316.919	91.56
317.148	85.56
317.377	78.56
317.607	84.56
317.836	94.56
318.065	87.56
318.295	83.56
318.524	86.56
318.753	76.56
318.983	94.56
319.212	90.56
319.441	74.56
319.67	82.56
319.9	88.56
320.129	86.56
320.358	85.56
320.587	86.56
320.816	92.56
321.046	84.56
321.275	87.56
321.504	82.56
321.733	70.56
321.962	86.56
322.191	76.56
322.42	87.56
322.649	93.56
322.878	92.56
323.108	83.56
323.337	92.56
323.566	90.56
323.795	86.56
324.024	79.56
324.253	84.56
324.482	77.56
324.71	78.56
324.939	97.56
325.168	88.56
325.397	92.56
325.626	81.56
325.855	77.56
326.084	84.56
326.313	83.56
326.542	78.56
326.77	89.56
326.999	77.56
327.228	78.56
327.457	97.56
327.686	81.56
327.914	95.56
328.143	92.56
328.372	96.56
328.6	96.56
328.829	95.56
329.058	81.56
329.287	88.56
329.515	84.56
329.744	74.56
329.972	78.56
330.201	85.56
330.43	86.56
330.658	76.56
330.887	94.56
331.115	95.56
331.344	88.56
331.572	95.56
331.801	75.56
332.03	90.56
332.258	99.56
332.486	76.56
332.715	87.56
332.943	88.56
333.172	83.56
333.4	97.56
333.629	97.56
333.857	95.56
334.085	89.56
334.314	85.56
334.542	84.56
334.771	88.56
334.999	92.56
335.227	88.56
335.455	92.56
335.684	91.56
335.912	74.56
336.14	76.56
336.369	87.56
336.597	78.56
336.825	96.56
337.053	86.56
337.281	84.56
337.51	80.56
337.738	76.56
337.966	99.56
338.194	88.56
338.422	77.56
338.65	90.56
338.878	83.56
339.106	85.56
339.334	86.56
339.562	82.56
339.79	89.56
340.018	85.56
340.246	73.56
340.474	78.56
340.702	86.56
340.93	80.56
341.158	78.56
341.386	86.56
341.614	83.56
341.842	87.56
342.07	78.56
342.298	76.56
342.526	85.56
342.754	83.56
342.981	82.56
343.209	86.56
343.437	101.56
343.665	91.56
343.893	83.56
344.12	88.56
344.348	88.56
344.576	92.56
344.804	90.56
345.031	87.56
345.259	94.56
345.487	94.56
345.714	90.56
345.942	93.56
346.17	69.56
346.397	82.56
346.625	90.56
346.853	89.56
347.08	83.56
347.308	85.56
347.535	88.56
347.763	71.56
347.99	87.56
348.218	98.56
348.445	84.56
348.673	79.56
348.9	88.56
349.128	93.56
349.355	82.56
349.583	85.56
349.81	60.56
350.037	73.56
350.265	91.56
350.492	103.56
350.72	97.56
350.947	82.56
351.174	83.56
351.402	95.56
351.629	85.56
351.856	86.56
352.083	89.56
352.311	89.56
352.538	85.56
352.765	78.56
352.992	80.56
353.22	85.56
353.447	80.56
353.674	92.56
353.901	85.56
354.128	97.56
354.355	92.56
354.583	66.56
354.81	83.56
355.037	78.56
355.264	89.56
355.491	81.56
355.718	73.56
355.945	77.56
356.172	92.56
356.399	76.56
356.626	70.56
356.853	78.56
357.08	90.56
357.307	93.56
357.534	73.56
357.761	84.56
357.988	78.56
358.215	80.56
358.441	84.56
358.668	89.56
358.895	77.56
359.122	84.56
359.349	75.56
359.576	92.56
359.802	85.56
360.029	72.56
360.256	78.56
360.483	89.56
360.709	89.56
360.936	73.56
361.163	86.56
361.39	83.56
361.616	85.56
361.843	80.56
362.07	70.56
362.296	90.56
362.523	79.56
362.749	90.56
362.976	99.56
363.203	82.56
363.429	95.56
363.656	86.56
363.882	89.56
364.109	86.56
364.335	92.56
364.562	79.56
364.788	91.56
365.015	95.56
365.241	100.56
365.468	97.56
365.694	85.56
365.92	85.56
366.147	84.56
366.373	78.56
366.599	79.56
366.826	79.56
367.052	83.56
367.278	92.56
367.505	75.56
367.731	90.56
367.957	89.56
368.184	85.56
368.41	69.56
368.636	101.56
368.862	92.56
369.089	86.56
369.315	82.56
369.541	88.56
369.767	78.56
369.993	83.56
370.219	69.56
370.445	95.56
370.672	83.56
370.898	97.56
371.124	102.56
371.35	99.56
371.576	105.56
371.802	72.56
372.028	91.56
372.254	84.56
372.48	86.56
372.706	96.56
372.932	79.56
373.158	94.56
373.384	87.56
373.61	97.56
373.835	71.56
374.061	101.56
374.287	88.56
374.513	99.56
374.739	83.56
374.965	90.56
375.191	92.56
375.416	90.56
375.642	88.56
375.868	97.56
376.094	95.56
376.319	99.56
376.545	89.56
376.771	83.56
376.997	94.56
377.222	97.56
377.448	88.56
377.674	78.56
377.899	82.56
378.125	81.56
378.35	82.56
378.576	94.56
378.802	94.56
379.027	93.56
379.253	94.56
379.478	97.56
379.704	75.56
379.929	86.56
380.155	82.56
380.38	75.56
380.606	85.56
380.831	88.56
381.057	95.56
381.282	73.56
381.507	100.56
381.733	102.56
381.958	92.56
382.184	67.56
382.409	88.56
382.634	93.56
382.86	91.56
383.085	97.56
383.31	95.56
383.535	94.56
383.761	86.56
383.986	84.56
384.211	93.56
384.436	75.56
384.662	100.56
384.887	82.56
385.112	90.56
385.337	77.56
385.562	82.56
385.787	93.56
386.013	96.56
386.238	83.56
386.463	105.56
386.688	79.56
386.913	99.56
387.138	83.56
387.363	85.56
387.588	81.56
387.813	98.56
388.038	90.56
388.263	84.56
388.488	98.56
388.713	97.56
388.938	89.56
389.163	90.56
389.387	78.56
389.612	87.56
389.837	86.56
390.062	103.56
390.287	96.56
390.512	97.56
390.736	86.56
390.961	90.56
391.186	92.56
391.411	90.56
391.636	92.56
391.86	97.56
392.085	74.56
392.31	91.56
392.534	100.56
392.759	100.56
392.984	95.56
393.208	77.56
393.433	97.56
393.658	99.56
393.882	99.56
394.107	96.56
394.331	83.56
394.556	108.56
394.78	101.56
395.005	82.56
395.229	91.56
395.454	90.56
395.678	95.56
395.903	89.56
396.127	75.56
396.352	93.56
396.576	99.56
396.801	100.56
397.025	97.56
397.249	108.56
397.474	96.56
397.698	91.56
397.922	97.56
398.147	100.56
398.371	95.56
398.595	105.56
398.82	101.56
399.044	102.56
399.268	83.56
399.492	87.56
399.717	90.56
399.941	98.56
400.165	105.56
400.389	99.56
400.613	99.56
400.837	106.56
401.062	93.56
401.286	90.56
401.51	86.56
401.734	96.56
401.958	100.56
402.182	105.56
402.406	99.56
402.63	99.56
402.854	98.56
403.078	85.56
403.302	84.56
403.526	88.56
403.75	106.56
403.974	90.56
404.198	107.56
404.422	105.56
404.645	96.56
404.869	87.56
405.093	89.56
405.317	108.56
405.541	100.56
405.765	96.56
405.988	85.56
406.212	105.56
406.436	90.56
406.66	95.56
406.883	98.56
407.107	92.56
407.331	92.56
407.555	106.56
407.778	104.56
408.002	98.56
408.226	104.56
408.449	109.56
408.673	91.56
408.896	98.56
409.12	106.56
409.344	108.56
409.567	100.56
409.791	92.56
410.014	102.56
410.238	91.56
410.461	107.56
410.685	100.56
410.908	95.56
411.132	100.56
411.355	90.56
411.578	98.56
411.802	91.56
412.025	101.56
412.249	101.56
412.472	84.56
412.695	91.56
412.919	94.56
413.142	102.56
413.365	107.56
413.589	89.56
413.812	90.56
414.035	115.56
414.258	93.56
414.482	93.56
414.705	108.56
414.928	94.56
415.151	95.56
415.374	89.56
415.597	102.56
415.821	97.56
416.044	95.56
416.267	91.56
416.49	99.56
416.713	105.56
416.936	110.56
417.159	113.56
417.382	103.56
417.605	99.56
417.828	106.56
418.051	98.56
418.274	105.56
418.497	106.56
418.72	102.56
418.943	118.56
419.166	98.56
419.389	103.56
419.611	108.56
419.834	100.56
420.057	104.56
420.28	108.56
420.503	105.56
420.726	123.56
420.948	121.56
421.171	103.56
421.394	104.56
421.617	109.56
421.839	125.56
422.062	117.56
422.285	97.56
422.507	93.56
422.73	120.56
422.953	104.56
423.175	97.56
423.398	101.56
423.621	109.56
423.843	106.56
424.066	101.56
424.288	104.56
424.511	106.56
424.733	106.56
424.956	94.56
425.178	117.56
425.401	107.56
425.623	114.56
425.846	93.56
426.068	98.56
426.291	98.56
426.513	113.56
426.735	108.56
426.958	97.56
427.18	109.56
427.402	93.56
427.625	99.56
427.847	106.56
428.069	116.56
428.292	110.56
428.514	108.56
428.736	108.56
428.958	102.56
429.181	97.56
429.403	101.56
429.625	117.56
429.847	93.56
430.069	102.56
430.292	106.56
430.514	91.56
430.736	105.56
430.958	105.56
431.18	102.56
431.402	92.56
431.624	100.56
431.846	100.56
432.068	92.56
432.29	90.56
432.512	87.56
432.734	86.56
432.956	104.56
433.178	101.56
433.4	103.56
433.622	116.56
433.844	101.56
434.066	96.56
434.287	98.56
434.509	97.56
434.731	97.56
434.953	94.56
435.175	92.56
435.397	95.56
435.618	100.56
435.84	113.56
436.062	101.56
436.284	101.56
436.505	107.56
436.727	105.56
436.949	106.56
437.17	91.56
437.392	90.56
437.614	102.56
437.835	92.56
438.057	97.56
438.278	106.56
438.5	99.56
438.721	104.56
438.943	102.56
439.165	110.56
439.386	111.56
439.608	106.56
439.829	92.56
440.05	131.56
440.272	101.56
440.493	107.56
440.715	101.56
440.936	110.56
441.158	107.56
441.379	108.56
441.6	116.56
441.822	103.56
442.043	110.56
442.264	110.56
442.486	107.56
442.707	102.56
442.928	110.56
443.149	108.56
443.371	114.56
443.592	108.56
443.813	115.56
444.034	119.56
444.255	110.56
444.476	129.56
444.698	108.56
444.919	122.56
445.14	246.56
445.361	179.56
445.582	120.56
445.803	106.56
446.024	117.56
446.245	114.56
446.466	107.56
446.687	125.56
446.908	118.56
447.129	119.56
447.35	103.56
447.571	115.56
447.792	105.56
448.013	104.56
448.234	112.56
448.455	107.56
448.675	98.56
448.896	111.56
449.117	114.56
449.338	95.56
449.559	103.56
449.779	102.56
450	120.56
450.221	118.56
450.442	117.56
450.662	99.56
450.883	111.56
451.104	105.56
451.324	103.56
451.545	121.56
451.766	100.56
451.986	114.56
452.207	97.56
452.428	107.56
452.648	98.56
452.869	110.56
453.089	93.56
453.31	88.56
453.53	84.56
453.751	94.56
453.971	113.56
454.192	102.56
454.412	106.56
454.633	91.56
454.853	106.56
455.073	96.56
455.294	104.56
455.514	95.56
455.734	92.56
455.955	101.56
456.175	94.56
456.395	93.56
456.616	82.56
456.836	84.56
457.056	93.56
457.276	89.56
457.497	94.56
457.717	100.56
457.937	95.56
458.157	98.56
458.377	88.56
458.598	81.56
458.818	83.56
459.038	87.56
459.258	71.56
459.478	88.56
459.698	79.56
459.918	83.56
460.138	105.56
460.358	115.56
460.578	102.56
460.798	108.56
461.018	100.56
461.238	93.56
461.458	97.56
461.678	95.56
461.898	92.56
462.118	93.56
462.338	98.56
462.558	107.56
462.777	70.56
462.997	105.56
463.217	92.56
463.437	81.56
463.657	85.56
463.876	85.56
464.096	89.56
464.316	75.56
464.536	93.56
464.755	109.56
464.975	96.56
465.195	117.56
465.414	110.56
465.634	108.56
465.854	105.56
466.073	83.56
466.293	119.56
466.512	102.56
466.732	102.56
466.951	104.56
467.171	105.56
467.391	94.56
467.61	108.56
467.829	97.56
468.049	104.56
468.268	105.56
468.488	99.56
468.707	91.56
468.927	101.56
469.146	104.56
469.365	103.56
469.585	103.56
469.804	103.56
470.023	106.56
470.243	111.56
470.462	120.56
470.681	116.56
470.901	102.56
471.12	99.56
471.339	108.56
471.558	129.56
471.777	124.56
471.997	107.56
472.216	107.56
472.435	106.56
472.654	89.56
472.873	99.56
473.092	99.56
473.311	99.56
473.53	100.56
473.749	103.56
473.968	105.56
474.187	108.56
474.406	94.56
474.625	91.56
474.844	102.56
475.063	102.56
475.282	111.56
475.501	103.56
475.72	107.56
475.939	87.56
476.158	86.56
476.377	100.56
476.596	86.56
476.814	107.56
477.033	89.56
477.252	75.56
477.471	89.56
477.69	96.56
477.908	114.56
478.127	120.56
478.346	115.56
478.564	106.56
478.783	108.56
479.002	107.56
479.22	102.56
479.439	115.56
479.658	94.56
479.876	98.56
480.095	103.56
480.313	109.56
480.532	102.56
480.751	98.56
480.969	75.56
481.188	75.56
481.406	94.56
481.624	73.56
481.843	78.56
482.061	97.56
482.28	85.56
482.498	106.56
482.717	103.56
482.935	101.56
483.153	107.56
483.372	109.56
483.59	110.56
483.808	105.56
484.027	102.56
484.245	108.56
484.463	107.56
484.681	122.56
484.9	113.56
485.118	102.56
485.336	109.56
485.554	96.56
485.772	91.56
485.99	89.56
486.209	80.56
486.427	98.56
486.645	100.56
486.863	102.56
487.081	107.56
487.299	115.56
487.517	95.56
487.735	121.56
487.953	136.56
488.171	126.56
488.389	118.56
488.607	113.56
488.825	111.56
489.043	106.56
489.261	119.56
489.479	108.56
489.696	105.56
489.914	101.56
490.132	103.56
490.35	119.56
490.568	132.56
490.786	131.56
491.003	110.56
491.221	133.56
491.439	137.56
491.657	125.56
491.874	126.56
492.092	157.56
492.31	156.56
492.527	154.56
492.745	149.56
492.963	140.56
493.18	125.56
493.398	129.56
493.615	111.56
493.833	123.56
494.05	121.56
494.268	125.56
494.485	125.56
494.703	145.56
494.92	114.56
495.138	122.56
495.355	119.56
495.573	121.56
495.79	123.56
496.008	120.56
496.225	114.56
496.442	116.56
496.66	121.56
496.877	124.56
497.094	126.56
497.312	114.56
497.529	125.56
497.746	121.56
497.963	106.56
498.181	94.56
498.398	90.56
498.615	101.56
498.832	95.56
499.049	99.56
499.267	99.56
499.484	110.56
499.701	109.56
499.918	104.56
500.135	97.56
500.352	114.56
500.569	112.56
500.786	117.56
501.003	117.56
501.22	108.56
501.437	105.56
501.654	102.56
501.871	101.56
502.088	103.56
502.305	105.56
502.522	99.56
502.739	108.56
502.956	97.56
503.172	114.56
503.389	107.56
503.606	107.56
503.823	111.56
504.04	97.56
504.256	109.56
504.473	111.56
504.69	103.56
504.907	103.56
505.123	100.56
505.34	112.56
505.557	100.56
505.773	105.56
505.99	91.56
506.207	99.56
506.423	113.56
506.64	121.56
506.856	100.56
507.073	107.56
507.289	114.56
507.506	91.56
507.722	98.56
507.939	110.56
508.155	108.56
508.372	95.56
508.588	94.56
508.805	106.56
509.021	96.56
509.238	86.56
509.454	106.56
509.67	91.56
509.887	90.56
510.103	81.56
510.319	98.56
510.536	69.56
510.752	72.56
510.968	89.56
511.184	90.56
511.401	84.56
511.617	93.56
511.833	86.56
512.049	104.56
512.265	90.56
512.481	91.56
512.698	84.56
512.914	84.56
513.13	85.56
513.346	86.56
513.562	87.56
513.778	84.56
513.994	85.56
514.21	88.56
514.426	89.56
