Data from Zn(NO3)2Standard.Agarose3%.GreenCap.LampEnergy10E.O_HRD10591_15-06-11-942.txt Node
Date: Mon Jul 22 15:06:11 EDT 2019
User: cochatt
Spectrometer: HR+D1059
Trigger mode: 1
Integration Time (sec): 1.000000E-1
Scans to average: 1
Electric dark correction enabled: true
Nonlinearity correction enabled: false
Boxcar width: 0
XAxis mode: Wavelengths
Number of Pixels in Spectrum: 2048
>>>>>Begin Spectral Data<<<<<
223.165	-21.88
223.4	-21.88
223.635	-21.88
223.869	-22.88
224.104	-16.88
224.338	-6.88
224.573	-4.88
224.808	-11.88
225.042	-11.88
225.277	0.12
225.511	6.12
225.746	5.12
225.98	12.12
226.215	-16.88
226.449	10.12
226.683	22.12
226.918	21.12
227.152	37.12
227.387	35.12
227.621	35.12
227.856	49.12
228.09	42.12
228.324	51.12
228.559	62.12
228.793	54.12
229.027	54.12
229.262	62.12
229.496	56.12
229.73	74.12
229.964	78.12
230.199	70.12
230.433	85.12
230.667	51.12
230.901	81.12
231.136	82.12
231.37	72.12
231.604	79.12
231.838	82.12
232.072	77.12
232.306	86.12
232.541	81.12
232.775	96.12
233.009	69.12
233.243	78.12
233.477	85.12
233.711	80.12
233.945	96.12
234.179	82.12
234.413	99.12
234.647	85.12
234.881	89.12
235.115	85.12
235.349	85.12
235.583	86.12
235.817	84.12
236.051	85.12
236.285	68.12
236.519	97.12
236.753	76.12
236.987	77.12
237.221	65.12
237.455	77.12
237.689	66.12
237.922	82.12
238.156	80.12
238.39	93.12
238.624	62.12
238.858	76.12
239.091	67.12
239.325	79.12
239.559	84.12
239.793	81.12
240.027	86.12
240.26	76.12
240.494	67.12
240.728	91.12
240.961	84.12
241.195	92.12
241.429	88.12
241.662	74.12
241.896	88.12
242.13	84.12
242.363	86.12
242.597	81.12
242.83	79.12
243.064	84.12
243.298	81.12
243.531	77.12
243.765	85.12
243.998	84.12
244.232	65.12
244.465	74.12
244.699	91.12
244.932	67.12
245.166	70.12
245.399	74.12
245.633	89.12
245.866	83.12
246.099	86.12
246.333	76.12
246.566	92.12
246.8	91.12
247.033	79.12
247.266	79.12
247.5	66.12
247.733	78.12
247.966	79.12
248.2	88.12
248.433	78.12
248.666	78.12
248.899	80.12
249.133	75.12
249.366	83.12
249.599	93.12
249.832	83.12
250.066	85.12
250.299	79.12
250.532	87.12
250.765	80.12
250.998	84.12
251.231	99.12
251.465	81.12
251.698	79.12
251.931	75.12
252.164	96.12
252.397	79.12
252.63	78.12
252.863	76.12
253.096	73.12
253.329	83.12
253.562	69.12
253.795	89.12
254.028	84.12
254.261	99.12
254.494	78.12
254.727	79.12
254.96	94.12
255.193	82.12
255.426	83.12
255.659	77.12
255.892	67.12
256.124	68.12
256.357	81.12
256.59	92.12
256.823	97.12
257.056	82.12
257.289	71.12
257.521	77.12
257.754	83.12
257.987	83.12
258.22	89.12
258.452	85.12
258.685	77.12
258.918	72.12
259.151	88.12
259.383	85.12
259.616	85.12
259.849	83.12
260.081	74.12
260.314	70.12
260.547	94.12
260.779	87.12
261.012	72.12
261.244	77.12
261.477	90.12
261.71	91.12
261.942	82.12
262.175	81.12
262.407	78.12
262.64	80.12
262.872	77.12
263.105	88.12
263.337	82.12
263.57	78.12
263.802	78.12
264.035	87.12
264.267	89.12
264.499	90.12
264.732	82.12
264.964	74.12
265.197	96.12
265.429	74.12
265.661	76.12
265.894	78.12
266.126	83.12
266.358	76.12
266.591	96.12
266.823	84.12
267.055	81.12
267.287	94.12
267.52	94.12
267.752	88.12
267.984	77.12
268.216	87.12
268.448	93.12
268.681	78.12
268.913	83.12
269.145	83.12
269.377	94.12
269.609	92.12
269.841	74.12
270.073	87.12
270.306	86.12
270.538	74.12
270.77	84.12
271.002	90.12
271.234	93.12
271.466	88.12
271.698	91.12
271.93	98.12
272.162	98.12
272.394	91.12
272.626	83.12
272.858	96.12
273.09	91.12
273.322	89.12
273.553	87.12
273.785	87.12
274.017	77.12
274.249	79.12
274.481	93.12
274.713	84.12
274.945	95.12
275.176	98.12
275.408	76.12
275.64	76.12
275.872	79.12
276.104	91.12
276.335	72.12
276.567	80.12
276.799	76.12
277.031	85.12
277.262	84.12
277.494	73.12
277.726	87.12
277.957	84.12
278.189	78.12
278.421	80.12
278.652	84.12
278.884	78.12
279.115	82.12
279.347	76.12
279.579	78.12
279.81	82.12
280.042	84.12
280.273	89.12
280.505	92.12
280.736	83.12
280.968	81.12
281.199	80.12
281.431	80.12
281.662	95.12
281.894	76.12
282.125	86.12
282.356	84.12
282.588	86.12
282.819	86.12
283.051	77.12
283.282	85.12
283.513	78.12
283.745	86.12
283.976	80.12
284.207	87.12
284.439	80.12
284.67	92.12
284.901	95.12
285.132	86.12
285.364	78.12
285.595	72.12
285.826	78.12
286.057	89.12
286.288	86.12
286.52	95.12
286.751	93.12
286.982	74.12
287.213	85.12
287.444	78.12
287.675	84.12
287.906	108.12
288.138	71.12
288.369	84.12
288.6	79.12
288.831	90.12
289.062	88.12
289.293	83.12
289.524	81.12
289.755	79.12
289.986	74.12
290.217	87.12
290.448	74.12
290.679	72.12
290.91	82.12
291.141	80.12
291.371	84.12
291.602	84.12
291.833	95.12
292.064	72.12
292.295	89.12
292.526	94.12
292.757	87.12
292.987	93.12
293.218	84.12
293.449	91.12
293.68	74.12
293.91	88.12
294.141	81.12
294.372	94.12
294.603	104.12
294.833	79.12
295.064	78.12
295.295	96.12
295.525	73.12
295.756	91.12
295.987	75.12
296.217	81.12
296.448	91.12
296.679	89.12
296.909	79.12
297.14	86.12
297.37	102.12
297.601	92.12
297.831	84.12
298.062	82.12
298.292	93.12
298.523	87.12
298.753	91.12
298.984	77.12
299.214	78.12
299.445	84.12
299.675	88.12
299.905	84.12
300.136	91.12
300.366	95.12
300.597	77.12
300.827	83.12
301.057	82.12
301.288	93.12
301.518	84.12
301.748	83.12
301.979	81.12
302.209	96.12
302.439	87.12
302.669	77.12
302.9	86.12
303.13	86.12
303.36	75.12
303.59	80.12
303.82	90.12
304.051	85.12
304.281	95.12
304.511	101.12
304.741	79.12
304.971	85.12
305.201	82.12
305.431	95.12
305.661	107.12
305.891	92.12
306.121	91.12
306.352	83.12
306.582	87.12
306.812	88.12
307.042	91.12
307.272	93.12
307.502	74.12
307.731	87.12
307.961	79.12
308.191	83.12
308.421	86.12
308.651	83.12
308.881	70.12
309.111	78.12
309.341	83.12
309.571	91.12
309.8	89.12
310.03	83.12
310.26	84.12
310.49	84.12
310.72	87.12
310.949	94.12
311.179	89.12
311.409	80.12
311.639	69.12
311.868	77.12
312.098	77.12
312.328	94.12
312.557	91.12
312.787	90.12
313.017	89.12
313.246	88.12
313.476	87.12
313.706	102.12
313.935	87.12
314.165	73.12
314.394	88.12
314.624	94.12
314.853	85.12
315.083	69.12
315.312	81.12
315.542	76.12
315.771	66.12
316.001	87.12
316.23	106.12
316.46	92.12
316.689	86.12
316.919	84.12
317.148	84.12
317.377	77.12
317.607	93.12
317.836	95.12
318.065	107.12
318.295	82.12
318.524	67.12
318.753	89.12
318.983	90.12
319.212	92.12
319.441	92.12
319.67	84.12
319.9	83.12
320.129	72.12
320.358	85.12
320.587	90.12
320.816	83.12
321.046	93.12
321.275	77.12
321.504	82.12
321.733	98.12
321.962	79.12
322.191	95.12
322.42	87.12
322.649	96.12
322.878	82.12
323.108	79.12
323.337	95.12
323.566	83.12
323.795	89.12
324.024	82.12
324.253	75.12
324.482	73.12
324.71	90.12
324.939	96.12
325.168	96.12
325.397	87.12
325.626	84.12
325.855	92.12
326.084	91.12
326.313	86.12
326.542	74.12
326.77	93.12
326.999	85.12
327.228	91.12
327.457	90.12
327.686	86.12
327.914	88.12
328.143	98.12
328.372	80.12
328.6	83.12
328.829	83.12
329.058	87.12
329.287	71.12
329.515	89.12
329.744	88.12
329.972	79.12
330.201	72.12
330.43	92.12
330.658	91.12
330.887	87.12
331.115	80.12
331.344	84.12
331.572	95.12
331.801	81.12
332.03	83.12
332.258	88.12
332.486	72.12
332.715	88.12
332.943	97.12
333.172	81.12
333.4	89.12
333.629	96.12
333.857	74.12
334.085	77.12
334.314	80.12
334.542	81.12
334.771	86.12
334.999	92.12
335.227	90.12
335.455	79.12
335.684	81.12
335.912	85.12
336.14	83.12
336.369	95.12
336.597	84.12
336.825	85.12
337.053	85.12
337.281	79.12
337.51	92.12
337.738	88.12
337.966	87.12
338.194	88.12
338.422	83.12
338.65	87.12
338.878	86.12
339.106	88.12
339.334	93.12
339.562	102.12
339.79	82.12
340.018	79.12
340.246	90.12
340.474	101.12
340.702	83.12
340.93	97.12
341.158	94.12
341.386	83.12
341.614	83.12
341.842	97.12
342.07	93.12
342.298	77.12
342.526	87.12
342.754	87.12
342.981	65.12
343.209	77.12
343.437	84.12
343.665	72.12
343.893	92.12
344.12	83.12
344.348	91.12
344.576	95.12
344.804	91.12
345.031	84.12
345.259	76.12
345.487	80.12
345.714	92.12
345.942	95.12
346.17	94.12
346.397	87.12
346.625	86.12
346.853	93.12
347.08	85.12
347.308	98.12
347.535	87.12
347.763	84.12
347.99	91.12
348.218	79.12
348.445	91.12
348.673	83.12
348.9	79.12
349.128	86.12
349.355	74.12
349.583	90.12
349.81	91.12
350.037	86.12
350.265	89.12
350.492	93.12
350.72	86.12
350.947	82.12
351.174	95.12
351.402	98.12
351.629	89.12
351.856	80.12
352.083	80.12
352.311	95.12
352.538	89.12
352.765	80.12
352.992	78.12
353.22	82.12
353.447	104.12
353.674	81.12
353.901	91.12
354.128	88.12
354.355	93.12
354.583	68.12
354.81	99.12
355.037	95.12
355.264	78.12
355.491	94.12
355.718	86.12
355.945	71.12
356.172	92.12
356.399	94.12
356.626	91.12
356.853	96.12
357.08	84.12
357.307	76.12
357.534	80.12
357.761	85.12
357.988	86.12
358.215	93.12
358.441	84.12
358.668	86.12
358.895	62.12
359.122	86.12
359.349	92.12
359.576	96.12
359.802	97.12
360.029	77.12
360.256	87.12
360.483	82.12
360.709	87.12
360.936	87.12
361.163	94.12
361.39	74.12
361.616	78.12
361.843	92.12
362.07	93.12
362.296	98.12
362.523	93.12
362.749	83.12
362.976	81.12
363.203	89.12
363.429	67.12
363.656	95.12
363.882	94.12
364.109	97.12
364.335	94.12
364.562	92.12
364.788	91.12
365.015	80.12
365.241	87.12
365.468	80.12
365.694	86.12
365.92	76.12
366.147	79.12
366.373	88.12
366.599	77.12
366.826	79.12
367.052	68.12
367.278	78.12
367.505	90.12
367.731	94.12
367.957	98.12
368.184	88.12
368.41	96.12
368.636	91.12
368.862	82.12
369.089	86.12
369.315	82.12
369.541	93.12
369.767	92.12
369.993	79.12
370.219	102.12
370.445	84.12
370.672	99.12
370.898	94.12
371.124	84.12
371.35	89.12
371.576	94.12
371.802	90.12
372.028	92.12
372.254	84.12
372.48	95.12
372.706	87.12
372.932	93.12
373.158	89.12
373.384	92.12
373.61	81.12
373.835	77.12
374.061	90.12
374.287	92.12
374.513	87.12
374.739	87.12
374.965	76.12
375.191	98.12
375.416	90.12
375.642	100.12
375.868	88.12
376.094	91.12
376.319	99.12
376.545	82.12
376.771	79.12
376.997	78.12
377.222	98.12
377.448	89.12
377.674	96.12
377.899	91.12
378.125	95.12
378.35	85.12
378.576	85.12
378.802	93.12
379.027	87.12
379.253	80.12
379.478	84.12
379.704	79.12
379.929	94.12
380.155	87.12
380.38	82.12
380.606	80.12
380.831	90.12
381.057	90.12
381.282	70.12
381.507	79.12
381.733	85.12
381.958	83.12
382.184	88.12
382.409	95.12
382.634	97.12
382.86	91.12
383.085	87.12
383.31	103.12
383.535	92.12
383.761	86.12
383.986	87.12
384.211	98.12
384.436	102.12
384.662	99.12
384.887	102.12
385.112	92.12
385.337	90.12
385.562	90.12
385.787	81.12
386.013	93.12
386.238	106.12
386.463	101.12
386.688	108.12
386.913	90.12
387.138	99.12
387.363	88.12
387.588	90.12
387.813	97.12
388.038	84.12
388.263	89.12
388.488	76.12
388.713	98.12
388.938	84.12
389.163	87.12
389.387	92.12
389.612	94.12
389.837	102.12
390.062	87.12
390.287	86.12
390.512	92.12
390.736	84.12
390.961	94.12
391.186	92.12
391.411	91.12
391.636	102.12
391.86	104.12
392.085	97.12
392.31	84.12
392.534	94.12
392.759	120.12
392.984	94.12
393.208	96.12
393.433	85.12
393.658	101.12
393.882	90.12
394.107	79.12
394.331	103.12
394.556	108.12
394.78	91.12
395.005	99.12
395.229	97.12
395.454	85.12
395.678	87.12
395.903	80.12
396.127	103.12
396.352	94.12
396.576	92.12
396.801	96.12
397.025	86.12
397.249	93.12
397.474	77.12
397.698	95.12
397.922	90.12
398.147	100.12
398.371	94.12
398.595	94.12
398.82	99.12
399.044	100.12
399.268	101.12
399.492	106.12
399.717	89.12
399.941	84.12
400.165	78.12
400.389	103.12
400.613	105.12
400.837	96.12
401.062	84.12
401.286	112.12
401.51	78.12
401.734	82.12
401.958	96.12
402.182	100.12
402.406	77.12
402.63	110.12
402.854	93.12
403.078	89.12
403.302	106.12
403.526	98.12
403.75	107.12
403.974	74.12
404.198	92.12
404.422	93.12
404.645	90.12
404.869	107.12
405.093	102.12
405.317	100.12
405.541	114.12
405.765	120.12
405.988	103.12
406.212	100.12
406.436	102.12
406.66	97.12
406.883	92.12
407.107	100.12
407.331	92.12
407.555	100.12
407.778	95.12
408.002	114.12
408.226	108.12
408.449	96.12
408.673	94.12
408.896	101.12
409.12	94.12
409.344	100.12
409.567	88.12
409.791	101.12
410.014	106.12
410.238	107.12
410.461	110.12
410.685	114.12
410.908	103.12
411.132	102.12
411.355	95.12
411.578	115.12
411.802	94.12
412.025	90.12
412.249	117.12
412.472	102.12
412.695	93.12
412.919	99.12
413.142	87.12
413.365	108.12
413.589	111.12
413.812	114.12
414.035	100.12
414.258	105.12
414.482	102.12
414.705	120.12
414.928	95.12
415.151	97.12
415.374	104.12
415.597	99.12
415.821	119.12
416.044	108.12
416.267	103.12
416.49	100.12
416.713	115.12
416.936	103.12
417.159	111.12
417.382	95.12
417.605	99.12
417.828	112.12
418.051	102.12
418.274	113.12
418.497	106.12
418.72	108.12
418.943	107.12
419.166	92.12
419.389	108.12
419.611	114.12
419.834	110.12
420.057	115.12
420.28	107.12
420.503	103.12
420.726	105.12
420.948	92.12
421.171	84.12
421.394	102.12
421.617	94.12
421.839	101.12
422.062	101.12
422.285	108.12
422.507	109.12
422.73	109.12
422.953	108.12
423.175	94.12
423.398	109.12
423.621	112.12
423.843	93.12
424.066	105.12
424.288	125.12
424.511	114.12
424.733	98.12
424.956	135.12
425.178	118.12
425.401	111.12
425.623	103.12
425.846	112.12
426.068	109.12
426.291	103.12
426.513	116.12
426.735	116.12
426.958	114.12
427.18	111.12
427.402	100.12
427.625	108.12
427.847	109.12
428.069	120.12
428.292	98.12
428.514	115.12
428.736	104.12
428.958	103.12
429.181	92.12
429.403	97.12
429.625	111.12
429.847	101.12
430.069	104.12
430.292	107.12
430.514	111.12
430.736	105.12
430.958	106.12
431.18	113.12
431.402	100.12
431.624	94.12
431.846	94.12
432.068	84.12
432.29	83.12
432.512	104.12
432.734	90.12
432.956	118.12
433.178	106.12
433.4	95.12
433.622	118.12
433.844	110.12
434.066	116.12
434.287	97.12
434.509	79.12
434.731	96.12
434.953	89.12
435.175	92.12
435.397	113.12
435.618	105.12
435.84	103.12
436.062	86.12
436.284	109.12
436.505	112.12
436.727	116.12
436.949	112.12
437.17	106.12
437.392	98.12
437.614	101.12
437.835	105.12
438.057	94.12
438.278	92.12
438.5	91.12
438.721	109.12
438.943	120.12
439.165	112.12
439.386	93.12
439.608	89.12
439.829	118.12
440.05	103.12
440.272	117.12
440.493	116.12
440.715	113.12
440.936	108.12
441.158	129.12
441.379	108.12
441.6	109.12
441.822	101.12
442.043	117.12
442.264	124.12
442.486	118.12
442.707	119.12
442.928	98.12
443.149	102.12
443.371	98.12
443.592	116.12
443.813	126.12
444.034	96.12
444.255	107.12
444.476	132.12
444.698	121.12
444.919	120.12
445.14	242.12
445.361	152.12
445.582	116.12
445.803	110.12
446.024	102.12
446.245	100.12
446.466	115.12
446.687	117.12
446.908	124.12
447.129	122.12
447.35	121.12
447.571	115.12
447.792	123.12
448.013	114.12
448.234	123.12
448.455	113.12
448.675	104.12
448.896	110.12
449.117	122.12
449.338	109.12
449.559	124.12
449.779	126.12
450	115.12
450.221	109.12
450.442	120.12
450.662	109.12
450.883	110.12
451.104	111.12
451.324	103.12
451.545	115.12
451.766	112.12
451.986	110.12
452.207	101.12
452.428	104.12
452.648	116.12
452.869	99.12
453.089	100.12
453.31	87.12
453.53	95.12
453.751	116.12
453.971	98.12
454.192	95.12
454.412	96.12
454.633	84.12
454.853	103.12
455.073	99.12
455.294	106.12
455.514	118.12
455.734	98.12
455.955	107.12
456.175	97.12
456.395	99.12
456.616	97.12
456.836	96.12
457.056	99.12
457.276	88.12
457.497	88.12
457.717	103.12
457.937	106.12
458.157	89.12
458.377	87.12
458.598	100.12
458.818	91.12
459.038	85.12
459.258	90.12
459.478	88.12
459.698	92.12
459.918	89.12
460.138	87.12
460.358	86.12
460.578	120.12
460.798	112.12
461.018	115.12
461.238	111.12
461.458	106.12
461.678	107.12
461.898	97.12
462.118	89.12
462.338	92.12
462.558	98.12
462.777	101.12
462.997	101.12
463.217	90.12
463.437	115.12
463.657	98.12
463.876	96.12
464.096	93.12
464.316	90.12
464.536	95.12
464.755	101.12
464.975	114.12
465.195	108.12
465.414	116.12
465.634	102.12
465.854	90.12
466.073	105.12
466.293	118.12
466.512	107.12
466.732	113.12
466.951	108.12
467.171	119.12
467.391	104.12
467.61	118.12
467.829	105.12
468.049	117.12
468.268	110.12
468.488	111.12
468.707	119.12
468.927	102.12
469.146	108.12
469.365	109.12
469.585	99.12
469.804	124.12
470.023	105.12
470.243	116.12
470.462	114.12
470.681	119.12
470.901	98.12
471.12	116.12
471.339	116.12
471.558	119.12
471.777	127.12
471.997	108.12
472.216	103.12
472.435	114.12
472.654	105.12
472.873	115.12
473.092	96.12
473.311	94.12
473.53	106.12
473.749	108.12
473.968	103.12
474.187	100.12
474.406	99.12
474.625	102.12
474.844	109.12
475.063	100.12
475.282	110.12
475.501	104.12
475.72	119.12
475.939	117.12
476.158	101.12
476.377	107.12
476.596	116.12
476.814	101.12
477.033	93.12
477.252	106.12
477.471	121.12
477.69	108.12
477.908	120.12
478.127	105.12
478.346	112.12
478.564	116.12
478.783	110.12
479.002	113.12
479.22	108.12
479.439	118.12
479.658	107.12
479.876	102.12
480.095	98.12
480.313	103.12
480.532	100.12
480.751	104.12
480.969	100.12
481.188	99.12
481.406	92.12
481.624	85.12
481.843	86.12
482.061	87.12
482.28	95.12
482.498	104.12
482.717	99.12
482.935	99.12
483.153	108.12
483.372	114.12
483.59	107.12
483.808	106.12
484.027	94.12
484.245	104.12
484.463	116.12
484.681	127.12
484.9	109.12
485.118	126.12
485.336	116.12
485.554	95.12
485.772	101.12
485.99	105.12
486.209	94.12
486.427	98.12
486.645	93.12
486.863	107.12
487.081	106.12
487.299	106.12
487.517	114.12
487.735	119.12
487.953	126.12
488.171	117.12
488.389	123.12
488.607	120.12
488.825	114.12
489.043	99.12
489.261	106.12
489.479	111.12
489.696	120.12
489.914	107.12
490.132	107.12
490.35	118.12
490.568	118.12
490.786	123.12
491.003	124.12
491.221	136.12
491.439	137.12
491.657	120.12
491.874	134.12
492.092	142.12
492.31	171.12
492.527	164.12
492.745	147.12
492.963	139.12
493.18	144.12
493.398	136.12
493.615	131.12
493.833	133.12
494.05	138.12
494.268	131.12
494.485	130.12
494.703	131.12
494.92	127.12
495.138	134.12
495.355	140.12
495.573	134.12
495.79	130.12
496.008	116.12
496.225	123.12
496.442	126.12
496.66	133.12
496.877	120.12
497.094	123.12
497.312	124.12
497.529	118.12
497.746	124.12
497.963	116.12
498.181	100.12
498.398	105.12
498.615	97.12
498.832	121.12
499.049	94.12
499.267	98.12
499.484	110.12
499.701	119.12
499.918	110.12
500.135	111.12
500.352	121.12
500.569	129.12
500.786	138.12
501.003	115.12
501.22	114.12
501.437	116.12
501.654	127.12
501.871	118.12
502.088	108.12
502.305	120.12
502.522	116.12
502.739	95.12
502.956	102.12
503.172	118.12
503.389	101.12
503.606	124.12
503.823	97.12
504.04	98.12
504.256	103.12
504.473	110.12
504.69	101.12
504.907	102.12
505.123	102.12
505.34	102.12
505.557	100.12
505.773	104.12
505.99	101.12
506.207	105.12
506.423	101.12
506.64	110.12
506.856	114.12
507.073	94.12
507.289	100.12
507.506	102.12
507.722	89.12
507.939	98.12
508.155	83.12
508.372	106.12
508.588	103.12
508.805	99.12
509.021	103.12
509.238	85.12
509.454	83.12
509.67	91.12
509.887	90.12
510.103	95.12
510.319	95.12
510.536	83.12
510.752	86.12
510.968	92.12
511.184	86.12
511.401	93.12
511.617	98.12
511.833	87.12
512.049	101.12
512.265	109.12
512.481	97.12
512.698	89.12
512.914	87.12
513.13	74.12
513.346	90.12
513.562	95.12
513.778	95.12
