Data from Zn(NO3)2Standard.Agarose3%.GreenCap.LampEnergy10E.O_HRD10591_15-08-50-951.txt Node
Date: Mon Jul 22 15:08:50 EDT 2019
User: cochatt
Spectrometer: HR+D1059
Trigger mode: 1
Integration Time (sec): 1.000000E-1
Scans to average: 1
Electric dark correction enabled: true
Nonlinearity correction enabled: false
Boxcar width: 0
XAxis mode: Wavelengths
Number of Pixels in Spectrum: 2048
>>>>>Begin Spectral Data<<<<<
223.165	-29.56
223.4	-29.56
223.635	-29.56
223.869	-21.56
224.104	-10.56
224.338	-1.56
224.573	-11.56
224.808	-13.56
225.042	-8.56
225.277	-0.56
225.511	7.44
225.746	5.44
225.98	4.44
226.215	2.44
226.449	10.44
226.683	6.44
226.918	36.44
227.152	24.44
227.387	40.44
227.621	40.44
227.856	47.44
228.09	49.44
228.324	59.44
228.559	57.44
228.793	62.44
229.027	62.44
229.262	54.44
229.496	48.44
229.73	58.44
229.964	65.44
230.199	58.44
230.433	82.44
230.667	65.44
230.901	79.44
231.136	77.44
231.37	75.44
231.604	94.44
231.838	82.44
232.072	75.44
232.306	81.44
232.541	80.44
232.775	84.44
233.009	85.44
233.243	80.44
233.477	81.44
233.711	75.44
233.945	71.44
234.179	86.44
234.413	76.44
234.647	84.44
234.881	86.44
235.115	70.44
235.349	74.44
235.583	80.44
235.817	80.44
236.051	76.44
236.285	81.44
236.519	73.44
236.753	79.44
236.987	71.44
237.221	80.44
237.455	66.44
237.689	74.44
237.922	72.44
238.156	62.44
238.39	69.44
238.624	80.44
238.858	82.44
239.091	73.44
239.325	77.44
239.559	82.44
239.793	84.44
240.027	74.44
240.26	75.44
240.494	73.44
240.728	72.44
240.961	74.44
241.195	73.44
241.429	71.44
241.662	74.44
241.896	83.44
242.13	84.44
242.363	72.44
242.597	76.44
242.83	77.44
243.064	68.44
243.298	75.44
243.531	68.44
243.765	61.44
243.998	78.44
244.232	91.44
244.465	81.44
244.699	81.44
244.932	77.44
245.166	80.44
245.399	71.44
245.633	82.44
245.866	79.44
246.099	82.44
246.333	72.44
246.566	86.44
246.8	84.44
247.033	94.44
247.266	72.44
247.5	73.44
247.733	64.44
247.966	80.44
248.2	75.44
248.433	70.44
248.666	71.44
248.899	75.44
249.133	84.44
249.366	84.44
249.599	84.44
249.832	74.44
250.066	82.44
250.299	67.44
250.532	66.44
250.765	79.44
250.998	67.44
251.231	86.44
251.465	102.44
251.698	84.44
251.931	80.44
252.164	73.44
252.397	71.44
252.63	75.44
252.863	78.44
253.096	80.44
253.329	76.44
253.562	91.44
253.795	89.44
254.028	74.44
254.261	70.44
254.494	69.44
254.727	77.44
254.96	84.44
255.193	69.44
255.426	79.44
255.659	80.44
255.892	77.44
256.124	66.44
256.357	69.44
256.59	77.44
256.823	91.44
257.056	90.44
257.289	92.44
257.521	71.44
257.754	93.44
257.987	68.44
258.22	85.44
258.452	86.44
258.685	73.44
258.918	86.44
259.151	90.44
259.383	74.44
259.616	89.44
259.849	82.44
260.081	82.44
260.314	80.44
260.547	72.44
260.779	80.44
261.012	86.44
261.244	88.44
261.477	77.44
261.71	70.44
261.942	86.44
262.175	83.44
262.407	78.44
262.64	82.44
262.872	78.44
263.105	82.44
263.337	85.44
263.57	71.44
263.802	86.44
264.035	81.44
264.267	67.44
264.499	68.44
264.732	76.44
264.964	79.44
265.197	73.44
265.429	82.44
265.661	92.44
265.894	74.44
266.126	80.44
266.358	80.44
266.591	77.44
266.823	80.44
267.055	95.44
267.287	94.44
267.52	82.44
267.752	82.44
267.984	70.44
268.216	80.44
268.448	78.44
268.681	71.44
268.913	78.44
269.145	76.44
269.377	74.44
269.609	84.44
269.841	100.44
270.073	85.44
270.306	91.44
270.538	80.44
270.77	79.44
271.002	70.44
271.234	81.44
271.466	101.44
271.698	91.44
271.93	82.44
272.162	82.44
272.394	77.44
272.626	77.44
272.858	64.44
273.09	76.44
273.322	74.44
273.553	83.44
273.785	88.44
274.017	85.44
274.249	71.44
274.481	83.44
274.713	96.44
274.945	89.44
275.176	81.44
275.408	89.44
275.64	76.44
275.872	73.44
276.104	85.44
276.335	81.44
276.567	100.44
276.799	96.44
277.031	82.44
277.262	77.44
277.494	84.44
277.726	84.44
277.957	75.44
278.189	88.44
278.421	87.44
278.652	76.44
278.884	70.44
279.115	90.44
279.347	82.44
279.579	80.44
279.81	73.44
280.042	73.44
280.273	76.44
280.505	76.44
280.736	88.44
280.968	87.44
281.199	90.44
281.431	75.44
281.662	80.44
281.894	88.44
282.125	86.44
282.356	85.44
282.588	96.44
282.819	69.44
283.051	76.44
283.282	85.44
283.513	107.44
283.745	87.44
283.976	87.44
284.207	86.44
284.439	78.44
284.67	85.44
284.901	91.44
285.132	81.44
285.364	79.44
285.595	85.44
285.826	83.44
286.057	87.44
286.288	74.44
286.52	86.44
286.751	92.44
286.982	86.44
287.213	71.44
287.444	86.44
287.675	89.44
287.906	72.44
288.138	74.44
288.369	71.44
288.6	83.44
288.831	92.44
289.062	80.44
289.293	87.44
289.524	71.44
289.755	70.44
289.986	85.44
290.217	81.44
290.448	78.44
290.679	77.44
290.91	83.44
291.141	88.44
291.371	67.44
291.602	92.44
291.833	86.44
292.064	75.44
292.295	80.44
292.526	76.44
292.757	82.44
292.987	86.44
293.218	81.44
293.449	96.44
293.68	78.44
293.91	78.44
294.141	98.44
294.372	85.44
294.603	85.44
294.833	90.44
295.064	74.44
295.295	80.44
295.525	73.44
295.756	75.44
295.987	95.44
296.217	97.44
296.448	92.44
296.679	86.44
296.909	83.44
297.14	88.44
297.37	74.44
297.601	87.44
297.831	91.44
298.062	76.44
298.292	86.44
298.523	89.44
298.753	87.44
298.984	78.44
299.214	94.44
299.445	74.44
299.675	86.44
299.905	75.44
300.136	70.44
300.366	81.44
300.597	83.44
300.827	82.44
301.057	83.44
301.288	82.44
301.518	85.44
301.748	97.44
301.979	86.44
302.209	91.44
302.439	93.44
302.669	91.44
302.9	85.44
303.13	73.44
303.36	96.44
303.59	77.44
303.82	102.44
304.051	84.44
304.281	102.44
304.511	105.44
304.741	83.44
304.971	94.44
305.201	97.44
305.431	76.44
305.661	80.44
305.891	91.44
306.121	87.44
306.352	84.44
306.582	82.44
306.812	79.44
307.042	87.44
307.272	83.44
307.502	60.44
307.731	75.44
307.961	94.44
308.191	89.44
308.421	85.44
308.651	72.44
308.881	90.44
309.111	84.44
309.341	80.44
309.571	82.44
309.8	83.44
310.03	89.44
310.26	82.44
310.49	91.44
310.72	71.44
310.949	73.44
311.179	78.44
311.409	92.44
311.639	73.44
311.868	87.44
312.098	75.44
312.328	78.44
312.557	77.44
312.787	74.44
313.017	77.44
313.246	81.44
313.476	80.44
313.706	75.44
313.935	70.44
314.165	76.44
314.394	80.44
314.624	74.44
314.853	88.44
315.083	84.44
315.312	91.44
315.542	87.44
315.771	81.44
316.001	74.44
316.23	82.44
316.46	82.44
316.689	86.44
316.919	80.44
317.148	91.44
317.377	88.44
317.607	90.44
317.836	87.44
318.065	75.44
318.295	88.44
318.524	90.44
318.753	81.44
318.983	94.44
319.212	76.44
319.441	73.44
319.67	91.44
319.9	76.44
320.129	59.44
320.358	82.44
320.587	94.44
320.816	100.44
321.046	88.44
321.275	92.44
321.504	88.44
321.733	93.44
321.962	95.44
322.191	93.44
322.42	75.44
322.649	80.44
322.878	86.44
323.108	85.44
323.337	102.44
323.566	76.44
323.795	91.44
324.024	98.44
324.253	81.44
324.482	89.44
324.71	84.44
324.939	88.44
325.168	82.44
325.397	86.44
325.626	89.44
325.855	89.44
326.084	73.44
326.313	81.44
326.542	75.44
326.77	90.44
326.999	75.44
327.228	88.44
327.457	90.44
327.686	76.44
327.914	89.44
328.143	91.44
328.372	95.44
328.6	87.44
328.829	94.44
329.058	83.44
329.287	65.44
329.515	77.44
329.744	79.44
329.972	91.44
330.201	81.44
330.43	94.44
330.658	71.44
330.887	73.44
331.115	93.44
331.344	81.44
331.572	91.44
331.801	80.44
332.03	76.44
332.258	78.44
332.486	98.44
332.715	86.44
332.943	75.44
333.172	83.44
333.4	92.44
333.629	75.44
333.857	88.44
334.085	74.44
334.314	80.44
334.542	82.44
334.771	91.44
334.999	85.44
335.227	79.44
335.455	75.44
335.684	80.44
335.912	88.44
336.14	76.44
336.369	88.44
336.597	72.44
336.825	82.44
337.053	83.44
337.281	88.44
337.51	86.44
337.738	77.44
337.966	93.44
338.194	83.44
338.422	84.44
338.65	78.44
338.878	80.44
339.106	91.44
339.334	82.44
339.562	93.44
339.79	75.44
340.018	65.44
340.246	80.44
340.474	73.44
340.702	87.44
340.93	94.44
341.158	89.44
341.386	90.44
341.614	85.44
341.842	95.44
342.07	101.44
342.298	80.44
342.526	80.44
342.754	95.44
342.981	84.44
343.209	96.44
343.437	76.44
343.665	76.44
343.893	66.44
344.12	81.44
344.348	75.44
344.576	86.44
344.804	78.44
345.031	93.44
345.259	80.44
345.487	86.44
345.714	89.44
345.942	68.44
346.17	86.44
346.397	88.44
346.625	67.44
346.853	87.44
347.08	66.44
347.308	91.44
347.535	86.44
347.763	90.44
347.99	82.44
348.218	80.44
348.445	88.44
348.673	78.44
348.9	92.44
349.128	80.44
349.355	83.44
349.583	76.44
349.81	77.44
350.037	73.44
350.265	81.44
350.492	81.44
350.72	87.44
350.947	80.44
351.174	80.44
351.402	75.44
351.629	78.44
351.856	90.44
352.083	69.44
352.311	70.44
352.538	79.44
352.765	89.44
352.992	82.44
353.22	87.44
353.447	86.44
353.674	74.44
353.901	85.44
354.128	76.44
354.355	80.44
354.583	99.44
354.81	80.44
355.037	86.44
355.264	95.44
355.491	73.44
355.718	88.44
355.945	72.44
356.172	94.44
356.399	72.44
356.626	88.44
356.853	83.44
357.08	90.44
357.307	89.44
357.534	91.44
357.761	74.44
357.988	85.44
358.215	84.44
358.441	84.44
358.668	98.44
358.895	86.44
359.122	87.44
359.349	83.44
359.576	94.44
359.802	88.44
360.029	90.44
360.256	79.44
360.483	82.44
360.709	80.44
360.936	71.44
361.163	79.44
361.39	84.44
361.616	67.44
361.843	86.44
362.07	78.44
362.296	70.44
362.523	74.44
362.749	82.44
362.976	86.44
363.203	92.44
363.429	104.44
363.656	87.44
363.882	80.44
364.109	79.44
364.335	83.44
364.562	86.44
364.788	88.44
365.015	89.44
365.241	79.44
365.468	79.44
365.694	82.44
365.92	79.44
366.147	75.44
366.373	80.44
366.599	94.44
366.826	78.44
367.052	86.44
367.278	87.44
367.505	77.44
367.731	89.44
367.957	68.44
368.184	87.44
368.41	79.44
368.636	83.44
368.862	84.44
369.089	85.44
369.315	83.44
369.541	96.44
369.767	81.44
369.993	70.44
370.219	101.44
370.445	81.44
370.672	90.44
370.898	82.44
371.124	80.44
371.35	82.44
371.576	79.44
371.802	80.44
372.028	73.44
372.254	87.44
372.48	74.44
372.706	80.44
372.932	85.44
373.158	86.44
373.384	87.44
373.61	99.44
373.835	85.44
374.061	80.44
374.287	80.44
374.513	82.44
374.739	99.44
374.965	88.44
375.191	98.44
375.416	107.44
375.642	86.44
375.868	72.44
376.094	73.44
376.319	85.44
376.545	84.44
376.771	77.44
376.997	87.44
377.222	87.44
377.448	86.44
377.674	89.44
377.899	69.44
378.125	76.44
378.35	87.44
378.576	75.44
378.802	82.44
379.027	90.44
379.253	88.44
379.478	88.44
379.704	88.44
379.929	88.44
380.155	84.44
380.38	89.44
380.606	82.44
380.831	93.44
381.057	89.44
381.282	87.44
381.507	88.44
381.733	98.44
381.958	97.44
382.184	95.44
382.409	103.44
382.634	91.44
382.86	82.44
383.085	85.44
383.31	77.44
383.535	88.44
383.761	94.44
383.986	72.44
384.211	89.44
384.436	68.44
384.662	84.44
384.887	75.44
385.112	80.44
385.337	88.44
385.562	81.44
385.787	96.44
386.013	94.44
386.238	83.44
386.463	97.44
386.688	85.44
386.913	87.44
387.138	96.44
387.363	89.44
387.588	85.44
387.813	97.44
388.038	84.44
388.263	80.44
388.488	73.44
388.713	86.44
388.938	85.44
389.163	96.44
389.387	94.44
389.612	94.44
389.837	86.44
390.062	96.44
390.287	81.44
390.512	91.44
390.736	90.44
390.961	85.44
391.186	109.44
391.411	90.44
391.636	87.44
391.86	92.44
392.085	92.44
392.31	90.44
392.534	81.44
392.759	90.44
392.984	101.44
393.208	92.44
393.433	101.44
393.658	99.44
393.882	85.44
394.107	81.44
394.331	92.44
394.556	89.44
394.78	94.44
395.005	88.44
395.229	95.44
395.454	83.44
395.678	76.44
395.903	90.44
396.127	89.44
396.352	75.44
396.576	74.44
396.801	94.44
397.025	84.44
397.249	98.44
397.474	95.44
397.698	80.44
397.922	95.44
398.147	90.44
398.371	73.44
398.595	84.44
398.82	99.44
399.044	84.44
399.268	89.44
399.492	98.44
399.717	94.44
399.941	87.44
400.165	89.44
400.389	96.44
400.613	113.44
400.837	76.44
401.062	92.44
401.286	95.44
401.51	105.44
401.734	105.44
401.958	91.44
402.182	84.44
402.406	89.44
402.63	84.44
402.854	92.44
403.078	103.44
403.302	96.44
403.526	90.44
403.75	87.44
403.974	91.44
404.198	98.44
404.422	98.44
404.645	103.44
404.869	90.44
405.093	92.44
405.317	90.44
405.541	99.44
405.765	86.44
405.988	96.44
406.212	74.44
406.436	89.44
406.66	96.44
406.883	89.44
407.107	103.44
407.331	100.44
407.555	101.44
407.778	107.44
408.002	84.44
408.226	95.44
408.449	94.44
408.673	88.44
408.896	91.44
409.12	84.44
409.344	96.44
409.567	102.44
409.791	100.44
410.014	99.44
410.238	99.44
410.461	103.44
410.685	103.44
410.908	91.44
411.132	108.44
411.355	101.44
411.578	98.44
411.802	102.44
412.025	102.44
412.249	102.44
412.472	83.44
412.695	90.44
412.919	85.44
413.142	96.44
413.365	91.44
413.589	99.44
413.812	88.44
414.035	91.44
414.258	111.44
414.482	103.44
414.705	90.44
414.928	101.44
415.151	94.44
415.374	95.44
415.597	91.44
415.821	86.44
416.044	92.44
416.267	103.44
416.49	114.44
416.713	82.44
416.936	99.44
417.159	98.44
417.382	106.44
417.605	112.44
417.828	103.44
418.051	106.44
418.274	101.44
418.497	108.44
418.72	110.44
418.943	114.44
419.166	99.44
419.389	116.44
419.611	96.44
419.834	98.44
420.057	108.44
420.28	104.44
420.503	102.44
420.726	95.44
420.948	92.44
421.171	85.44
421.394	92.44
421.617	114.44
421.839	99.44
422.062	95.44
422.285	111.44
422.507	102.44
422.73	98.44
422.953	110.44
423.175	95.44
423.398	110.44
423.621	104.44
423.843	104.44
424.066	120.44
424.288	109.44
424.511	103.44
424.733	99.44
424.956	105.44
425.178	116.44
425.401	94.44
425.623	116.44
425.846	99.44
426.068	95.44
426.291	103.44
426.513	93.44
426.735	89.44
426.958	97.44
427.18	116.44
427.402	103.44
427.625	111.44
427.847	99.44
428.069	94.44
428.292	99.44
428.514	92.44
428.736	95.44
428.958	112.44
429.181	84.44
429.403	107.44
429.625	93.44
429.847	102.44
430.069	98.44
430.292	108.44
430.514	82.44
430.736	95.44
430.958	116.44
431.18	111.44
431.402	95.44
431.624	107.44
431.846	98.44
432.068	84.44
432.29	96.44
432.512	79.44
432.734	104.44
432.956	102.44
433.178	98.44
433.4	91.44
433.622	105.44
433.844	88.44
434.066	99.44
434.287	96.44
434.509	84.44
434.731	86.44
434.953	118.44
435.175	89.44
435.397	95.44
435.618	91.44
435.84	90.44
436.062	92.44
436.284	97.44
436.505	97.44
436.727	114.44
436.949	103.44
437.17	97.44
437.392	93.44
437.614	105.44
437.835	90.44
438.057	72.44
438.278	91.44
438.5	97.44
438.721	103.44
438.943	111.44
439.165	104.44
439.386	120.44
439.608	110.44
439.829	112.44
440.05	108.44
440.272	99.44
440.493	103.44
440.715	99.44
440.936	113.44
441.158	122.44
441.379	105.44
441.6	117.44
441.822	97.44
442.043	102.44
442.264	116.44
442.486	100.44
442.707	98.44
442.928	112.44
443.149	124.44
443.371	105.44
443.592	105.44
443.813	111.44
444.034	106.44
444.255	104.44
444.476	99.44
444.698	107.44
444.919	111.44
445.14	242.44
445.361	164.44
445.582	116.44
445.803	101.44
446.024	110.44
446.245	116.44
446.466	114.44
446.687	105.44
446.908	117.44
447.129	107.44
447.35	112.44
447.571	119.44
447.792	104.44
448.013	105.44
448.234	107.44
448.455	106.44
448.675	101.44
448.896	114.44
449.117	112.44
449.338	98.44
449.559	98.44
449.779	93.44
450	91.44
450.221	109.44
450.442	107.44
450.662	118.44
450.883	97.44
451.104	111.44
451.324	82.44
451.545	108.44
451.766	114.44
451.986	91.44
452.207	99.44
452.428	100.44
452.648	100.44
452.869	97.44
453.089	96.44
453.31	98.44
453.53	90.44
453.751	93.44
453.971	76.44
454.192	99.44
454.412	82.44
454.633	90.44
454.853	84.44
455.073	102.44
455.294	96.44
455.514	95.44
455.734	85.44
455.955	90.44
456.175	102.44
456.395	87.44
456.616	98.44
456.836	87.44
457.056	110.44
457.276	90.44
457.497	87.44
457.717	87.44
457.937	98.44
458.157	96.44
458.377	98.44
458.598	75.44
458.818	103.44
459.038	88.44
459.258	70.44
459.478	82.44
459.698	81.44
459.918	73.44
460.138	84.44
460.358	97.44
460.578	95.44
460.798	82.44
461.018	97.44
461.238	87.44
461.458	102.44
461.678	101.44
461.898	102.44
462.118	94.44
462.338	92.44
462.558	87.44
462.777	88.44
462.997	96.44
463.217	96.44
463.437	90.44
463.657	85.44
463.876	91.44
464.096	80.44
464.316	87.44
464.536	95.44
464.755	80.44
464.975	108.44
465.195	97.44
465.414	98.44
465.634	96.44
465.854	104.44
466.073	99.44
466.293	86.44
466.512	95.44
466.732	94.44
466.951	95.44
467.171	106.44
467.391	104.44
467.61	118.44
467.829	89.44
468.049	103.44
468.268	104.44
468.488	98.44
468.707	105.44
468.927	96.44
469.146	98.44
469.365	92.44
469.585	93.44
469.804	108.44
470.023	119.44
470.243	103.44
470.462	118.44
470.681	103.44
470.901	102.44
471.12	101.44
471.339	106.44
471.558	110.44
471.777	108.44
471.997	106.44
472.216	97.44
472.435	99.44
472.654	78.44
472.873	86.44
473.092	95.44
473.311	79.44
473.53	88.44
473.749	86.44
473.968	105.44
474.187	96.44
474.406	90.44
474.625	94.44
474.844	103.44
475.063	111.44
475.282	97.44
475.501	91.44
475.72	110.44
475.939	88.44
476.158	110.44
476.377	92.44
476.596	80.44
476.814	108.44
477.033	111.44
477.252	86.44
477.471	102.44
477.69	99.44
477.908	112.44
478.127	106.44
478.346	110.44
478.564	97.44
478.783	114.44
479.002	118.44
479.22	102.44
479.439	107.44
479.658	100.44
479.876	88.44
480.095	94.44
480.313	101.44
480.532	95.44
480.751	98.44
480.969	87.44
481.188	89.44
481.406	84.44
481.624	84.44
481.843	94.44
482.061	94.44
482.28	102.44
482.498	92.44
482.717	86.44
482.935	98.44
483.153	117.44
483.372	130.44
483.59	107.44
483.808	104.44
484.027	95.44
484.245	97.44
484.463	109.44
484.681	114.44
484.9	115.44
485.118	102.44
485.336	104.44
485.554	94.44
485.772	101.44
485.99	87.44
486.209	108.44
486.427	87.44
486.645	92.44
486.863	122.44
487.081	112.44
487.299	94.44
487.517	110.44
487.735	114.44
487.953	135.44
488.171	135.44
488.389	123.44
488.607	120.44
488.825	103.44
489.043	101.44
489.261	110.44
489.479	118.44
489.696	114.44
489.914	117.44
490.132	106.44
490.35	116.44
490.568	126.44
490.786	121.44
491.003	124.44
491.221	114.44
491.439	127.44
491.657	130.44
491.874	130.44
492.092	133.44
492.31	148.44
492.527	154.44
492.745	136.44
492.963	131.44
493.18	123.44
493.398	137.44
493.615	123.44
493.833	127.44
494.05	112.44
494.268	140.44
494.485	113.44
494.703	121.44
494.92	128.44
495.138	132.44
495.355	112.44
495.573	128.44
495.79	110.44
496.008	122.44
496.225	110.44
496.442	121.44
496.66	129.44
496.877	113.44
497.094	126.44
497.312	124.44
497.529	126.44
497.746	123.44
497.963	110.44
498.181	110.44
498.398	85.44
498.615	110.44
498.832	91.44
499.049	96.44
499.267	102.44
499.484	114.44
499.701	98.44
499.918	104.44
500.135	107.44
500.352	112.44
500.569	101.44
500.786	103.44
501.003	117.44
501.22	101.44
501.437	111.44
501.654	118.44
501.871	102.44
502.088	119.44
502.305	88.44
502.522	92.44
502.739	98.44
502.956	93.44
503.172	103.44
503.389	87.44
503.606	89.44
503.823	106.44
504.04	109.44
504.256	96.44
504.473	90.44
504.69	112.44
504.907	115.44
505.123	91.44
505.34	96.44
505.557	102.44
505.773	94.44
505.99	96.44
506.207	101.44
506.423	92.44
506.64	96.44
506.856	96.44
507.073	105.44
507.289	96.44
507.506	100.44
507.722	110.44
507.939	93.44
508.155	100.44
508.372	91.44
508.588	81.44
508.805	100.44
509.021	87.44
509.238	82.44
509.454	98.44
509.67	93.44
509.887	84.44
510.103	90.44
510.319	82.44
510.536	71.44
510.752	99.44
510.968	81.44
511.184	98.44
511.401	91.44
511.617	93.44
511.833	90.44
512.049	71.44
512.265	91.44
512.481	92.44
512.698	90.44
512.914	94.44
513.13	93.44
513.346	86.44
513.562	93.44
513.778	87.44
513.994	96.44
514.21	82.44
514.426	82.44
514.642	75.44
514.858	83.44
515.074	95.44
515.29	84.44
515.506	83.44
515.721	89.44
