Data from Zn(NO3)2Standard.Agarose3%.GreenCap.LampEnergy10E.O_HRD10591_15-07-00-943.txt Node
Date: Mon Jul 22 15:07:00 EDT 2019
User: cochatt
Spectrometer: HR+D1059
Trigger mode: 1
Integration Time (sec): 1.000000E-1
Scans to average: 1
Electric dark correction enabled: true
Nonlinearity correction enabled: false
Boxcar width: 0
XAxis mode: Wavelengths
Number of Pixels in Spectrum: 2048
>>>>>Begin Spectral Data<<<<<
223.165	-24.62
223.4	-24.62
223.635	-24.62
223.869	-12.62
224.104	-12.62
224.338	-18.62
224.573	-9.62
224.808	-5.62
225.042	2.38
225.277	-22.62
225.511	-1.62
225.746	12.38
225.98	2.38
226.215	5.38
226.449	21.38
226.683	17.38
226.918	28.38
227.152	18.38
227.387	33.38
227.621	31.38
227.856	50.38
228.09	50.38
228.324	50.38
228.559	62.38
228.793	53.38
229.027	69.38
229.262	64.38
229.496	59.38
229.73	75.38
229.964	57.38
230.199	67.38
230.433	79.38
230.667	84.38
230.901	92.38
231.136	82.38
231.37	76.38
231.604	74.38
231.838	93.38
232.072	79.38
232.306	61.38
232.541	84.38
232.775	81.38
233.009	88.38
233.243	84.38
233.477	69.38
233.711	69.38
233.945	84.38
234.179	71.38
234.413	93.38
234.647	90.38
234.881	78.38
235.115	86.38
235.349	74.38
235.583	65.38
235.817	87.38
236.051	92.38
236.285	82.38
236.519	90.38
236.753	83.38
236.987	81.38
237.221	65.38
237.455	87.38
237.689	69.38
237.922	74.38
238.156	72.38
238.39	80.38
238.624	83.38
238.858	77.38
239.091	66.38
239.325	83.38
239.559	73.38
239.793	77.38
240.027	75.38
240.26	71.38
240.494	84.38
240.728	83.38
240.961	85.38
241.195	71.38
241.429	70.38
241.662	72.38
241.896	74.38
242.13	81.38
242.363	75.38
242.597	75.38
242.83	71.38
243.064	84.38
243.298	83.38
243.531	74.38
243.765	80.38
243.998	67.38
244.232	85.38
244.465	72.38
244.699	74.38
244.932	61.38
245.166	60.38
245.399	72.38
245.633	82.38
245.866	76.38
246.099	86.38
246.333	69.38
246.566	75.38
246.8	67.38
247.033	79.38
247.266	79.38
247.5	66.38
247.733	84.38
247.966	83.38
248.2	66.38
248.433	85.38
248.666	75.38
248.899	97.38
249.133	75.38
249.366	81.38
249.599	82.38
249.832	87.38
250.066	82.38
250.299	80.38
250.532	66.38
250.765	75.38
250.998	72.38
251.231	75.38
251.465	83.38
251.698	73.38
251.931	83.38
252.164	75.38
252.397	84.38
252.63	84.38
252.863	78.38
253.096	81.38
253.329	76.38
253.562	91.38
253.795	87.38
254.028	76.38
254.261	78.38
254.494	72.38
254.727	91.38
254.96	84.38
255.193	88.38
255.426	63.38
255.659	91.38
255.892	81.38
256.124	75.38
256.357	66.38
256.59	84.38
256.823	91.38
257.056	81.38
257.289	85.38
257.521	76.38
257.754	88.38
257.987	92.38
258.22	88.38
258.452	82.38
258.685	73.38
258.918	78.38
259.151	83.38
259.383	90.38
259.616	88.38
259.849	82.38
260.081	84.38
260.314	80.38
260.547	91.38
260.779	71.38
261.012	80.38
261.244	73.38
261.477	97.38
261.71	71.38
261.942	79.38
262.175	104.38
262.407	80.38
262.64	83.38
262.872	76.38
263.105	81.38
263.337	100.38
263.57	76.38
263.802	70.38
264.035	78.38
264.267	80.38
264.499	77.38
264.732	82.38
264.964	88.38
265.197	69.38
265.429	81.38
265.661	84.38
265.894	86.38
266.126	83.38
266.358	77.38
266.591	83.38
266.823	88.38
267.055	80.38
267.287	72.38
267.52	82.38
267.752	88.38
267.984	93.38
268.216	91.38
268.448	89.38
268.681	75.38
268.913	79.38
269.145	80.38
269.377	80.38
269.609	80.38
269.841	87.38
270.073	77.38
270.306	78.38
270.538	81.38
270.77	78.38
271.002	89.38
271.234	81.38
271.466	74.38
271.698	84.38
271.93	88.38
272.162	89.38
272.394	75.38
272.626	83.38
272.858	106.38
273.09	88.38
273.322	69.38
273.553	85.38
273.785	77.38
274.017	84.38
274.249	95.38
274.481	77.38
274.713	84.38
274.945	75.38
275.176	82.38
275.408	83.38
275.64	87.38
275.872	73.38
276.104	86.38
276.335	79.38
276.567	82.38
276.799	76.38
277.031	78.38
277.262	94.38
277.494	97.38
277.726	78.38
277.957	89.38
278.189	75.38
278.421	85.38
278.652	91.38
278.884	86.38
279.115	89.38
279.347	83.38
279.579	84.38
279.81	88.38
280.042	74.38
280.273	88.38
280.505	87.38
280.736	81.38
280.968	80.38
281.199	85.38
281.431	85.38
281.662	85.38
281.894	70.38
282.125	89.38
282.356	92.38
282.588	76.38
282.819	73.38
283.051	83.38
283.282	70.38
283.513	87.38
283.745	81.38
283.976	82.38
284.207	88.38
284.439	84.38
284.67	90.38
284.901	82.38
285.132	78.38
285.364	81.38
285.595	84.38
285.826	76.38
286.057	108.38
286.288	92.38
286.52	81.38
286.751	85.38
286.982	81.38
287.213	77.38
287.444	81.38
287.675	86.38
287.906	82.38
288.138	81.38
288.369	87.38
288.6	99.38
288.831	91.38
289.062	78.38
289.293	90.38
289.524	72.38
289.755	81.38
289.986	83.38
290.217	88.38
290.448	83.38
290.679	79.38
290.91	86.38
291.141	73.38
291.371	81.38
291.602	79.38
291.833	82.38
292.064	99.38
292.295	87.38
292.526	79.38
292.757	81.38
292.987	83.38
293.218	82.38
293.449	71.38
293.68	76.38
293.91	84.38
294.141	93.38
294.372	99.38
294.603	80.38
294.833	98.38
295.064	87.38
295.295	89.38
295.525	85.38
295.756	77.38
295.987	89.38
296.217	78.38
296.448	95.38
296.679	67.38
296.909	92.38
297.14	85.38
297.37	91.38
297.601	82.38
297.831	86.38
298.062	80.38
298.292	94.38
298.523	71.38
298.753	92.38
298.984	85.38
299.214	85.38
299.445	81.38
299.675	78.38
299.905	75.38
300.136	77.38
300.366	64.38
300.597	80.38
300.827	90.38
301.057	95.38
301.288	94.38
301.518	88.38
301.748	79.38
301.979	96.38
302.209	82.38
302.439	90.38
302.669	96.38
302.9	80.38
303.13	82.38
303.36	77.38
303.59	60.38
303.82	90.38
304.051	90.38
304.281	81.38
304.511	91.38
304.741	89.38
304.971	83.38
305.201	89.38
305.431	84.38
305.661	83.38
305.891	102.38
306.121	77.38
306.352	86.38
306.582	76.38
306.812	86.38
307.042	96.38
307.272	71.38
307.502	94.38
307.731	87.38
307.961	92.38
308.191	89.38
308.421	96.38
308.651	96.38
308.881	82.38
309.111	87.38
309.341	79.38
309.571	85.38
309.8	89.38
310.03	78.38
310.26	88.38
310.49	83.38
310.72	81.38
310.949	66.38
311.179	66.38
311.409	82.38
311.639	90.38
311.868	75.38
312.098	84.38
312.328	82.38
312.557	97.38
312.787	100.38
313.017	87.38
313.246	95.38
313.476	84.38
313.706	84.38
313.935	90.38
314.165	81.38
314.394	80.38
314.624	84.38
314.853	84.38
315.083	88.38
315.312	88.38
315.542	89.38
315.771	99.38
316.001	92.38
316.23	86.38
316.46	78.38
316.689	91.38
316.919	105.38
317.148	83.38
317.377	99.38
317.607	90.38
317.836	96.38
318.065	81.38
318.295	90.38
318.524	86.38
318.753	82.38
318.983	87.38
319.212	90.38
319.441	96.38
319.67	90.38
319.9	75.38
320.129	81.38
320.358	85.38
320.587	92.38
320.816	81.38
321.046	77.38
321.275	82.38
321.504	93.38
321.733	89.38
321.962	76.38
322.191	75.38
322.42	83.38
322.649	87.38
322.878	83.38
323.108	86.38
323.337	88.38
323.566	96.38
323.795	69.38
324.024	91.38
324.253	81.38
324.482	83.38
324.71	82.38
324.939	84.38
325.168	84.38
325.397	88.38
325.626	97.38
325.855	90.38
326.084	69.38
326.313	85.38
326.542	94.38
326.77	99.38
326.999	95.38
327.228	78.38
327.457	84.38
327.686	75.38
327.914	84.38
328.143	89.38
328.372	80.38
328.6	92.38
328.829	86.38
329.058	87.38
329.287	95.38
329.515	78.38
329.744	91.38
329.972	72.38
330.201	86.38
330.43	78.38
330.658	73.38
330.887	77.38
331.115	77.38
331.344	56.38
331.572	93.38
331.801	85.38
332.03	88.38
332.258	96.38
332.486	87.38
332.715	80.38
332.943	103.38
333.172	80.38
333.4	84.38
333.629	71.38
333.857	88.38
334.085	83.38
334.314	83.38
334.542	80.38
334.771	64.38
334.999	83.38
335.227	85.38
335.455	87.38
335.684	76.38
335.912	77.38
336.14	72.38
336.369	85.38
336.597	87.38
336.825	83.38
337.053	98.38
337.281	75.38
337.51	85.38
337.738	92.38
337.966	79.38
338.194	68.38
338.422	78.38
338.65	86.38
338.878	79.38
339.106	88.38
339.334	83.38
339.562	82.38
339.79	82.38
340.018	86.38
340.246	84.38
340.474	92.38
340.702	73.38
340.93	84.38
341.158	73.38
341.386	85.38
341.614	84.38
341.842	75.38
342.07	84.38
342.298	85.38
342.526	81.38
342.754	77.38
342.981	76.38
343.209	81.38
343.437	88.38
343.665	84.38
343.893	93.38
344.12	88.38
344.348	72.38
344.576	92.38
344.804	97.38
345.031	81.38
345.259	66.38
345.487	83.38
345.714	85.38
345.942	74.38
346.17	105.38
346.397	83.38
346.625	83.38
346.853	83.38
347.08	85.38
347.308	96.38
347.535	71.38
347.763	88.38
347.99	73.38
348.218	81.38
348.445	71.38
348.673	82.38
348.9	86.38
349.128	81.38
349.355	83.38
349.583	92.38
349.81	96.38
350.037	93.38
350.265	82.38
350.492	72.38
350.72	76.38
350.947	92.38
351.174	95.38
351.402	83.38
351.629	77.38
351.856	83.38
352.083	80.38
352.311	84.38
352.538	75.38
352.765	77.38
352.992	87.38
353.22	101.38
353.447	104.38
353.674	90.38
353.901	86.38
354.128	76.38
354.355	79.38
354.583	71.38
354.81	96.38
355.037	81.38
355.264	86.38
355.491	91.38
355.718	83.38
355.945	85.38
356.172	92.38
356.399	97.38
356.626	83.38
356.853	77.38
357.08	89.38
357.307	83.38
357.534	81.38
357.761	82.38
357.988	87.38
358.215	85.38
358.441	87.38
358.668	80.38
358.895	97.38
359.122	85.38
359.349	85.38
359.576	72.38
359.802	82.38
360.029	87.38
360.256	85.38
360.483	87.38
360.709	87.38
360.936	96.38
361.163	75.38
361.39	87.38
361.616	85.38
361.843	81.38
362.07	79.38
362.296	79.38
362.523	103.38
362.749	79.38
362.976	102.38
363.203	78.38
363.429	73.38
363.656	89.38
363.882	88.38
364.109	75.38
364.335	76.38
364.562	96.38
364.788	78.38
365.015	88.38
365.241	86.38
365.468	85.38
365.694	75.38
365.92	80.38
366.147	78.38
366.373	90.38
366.599	82.38
366.826	84.38
367.052	79.38
367.278	85.38
367.505	75.38
367.731	74.38
367.957	97.38
368.184	99.38
368.41	81.38
368.636	81.38
368.862	91.38
369.089	67.38
369.315	87.38
369.541	88.38
369.767	89.38
369.993	72.38
370.219	85.38
370.445	84.38
370.672	91.38
370.898	81.38
371.124	83.38
371.35	86.38
371.576	87.38
371.802	89.38
372.028	96.38
372.254	76.38
372.48	89.38
372.706	74.38
372.932	87.38
373.158	85.38
373.384	79.38
373.61	99.38
373.835	83.38
374.061	87.38
374.287	93.38
374.513	96.38
374.739	83.38
374.965	89.38
375.191	85.38
375.416	92.38
375.642	85.38
375.868	93.38
376.094	82.38
376.319	84.38
376.545	68.38
376.771	89.38
376.997	93.38
377.222	86.38
377.448	84.38
377.674	86.38
377.899	72.38
378.125	82.38
378.35	82.38
378.576	89.38
378.802	78.38
379.027	75.38
379.253	90.38
379.478	86.38
379.704	83.38
379.929	78.38
380.155	88.38
380.38	77.38
380.606	96.38
380.831	84.38
381.057	92.38
381.282	82.38
381.507	77.38
381.733	81.38
381.958	94.38
382.184	82.38
382.409	82.38
382.634	94.38
382.86	89.38
383.085	85.38
383.31	97.38
383.535	74.38
383.761	88.38
383.986	90.38
384.211	72.38
384.436	89.38
384.662	84.38
384.887	93.38
385.112	96.38
385.337	92.38
385.562	90.38
385.787	81.38
386.013	77.38
386.238	81.38
386.463	87.38
386.688	74.38
386.913	85.38
387.138	92.38
387.363	92.38
387.588	90.38
387.813	79.38
388.038	98.38
388.263	100.38
388.488	95.38
388.713	83.38
388.938	77.38
389.163	100.38
389.387	72.38
389.612	77.38
389.837	93.38
390.062	73.38
390.287	94.38
390.512	92.38
390.736	81.38
390.961	83.38
391.186	86.38
391.411	84.38
391.636	74.38
391.86	102.38
392.085	105.38
392.31	86.38
392.534	96.38
392.759	86.38
392.984	100.38
393.208	86.38
393.433	109.38
393.658	101.38
393.882	88.38
394.107	98.38
394.331	90.38
394.556	88.38
394.78	83.38
395.005	97.38
395.229	95.38
395.454	93.38
395.678	88.38
395.903	80.38
396.127	92.38
396.352	93.38
396.576	89.38
396.801	97.38
397.025	98.38
397.249	81.38
397.474	91.38
397.698	85.38
397.922	90.38
398.147	95.38
398.371	82.38
398.595	85.38
398.82	90.38
399.044	97.38
399.268	99.38
399.492	89.38
399.717	93.38
399.941	92.38
400.165	85.38
400.389	107.38
400.613	84.38
400.837	91.38
401.062	96.38
401.286	92.38
401.51	98.38
401.734	100.38
401.958	86.38
402.182	89.38
402.406	90.38
402.63	99.38
402.854	85.38
403.078	101.38
403.302	99.38
403.526	94.38
403.75	103.38
403.974	94.38
404.198	97.38
404.422	96.38
404.645	96.38
404.869	92.38
405.093	95.38
405.317	106.38
405.541	101.38
405.765	90.38
405.988	95.38
406.212	95.38
406.436	95.38
406.66	111.38
406.883	96.38
407.107	99.38
407.331	102.38
407.555	106.38
407.778	103.38
408.002	94.38
408.226	92.38
408.449	98.38
408.673	97.38
408.896	95.38
409.12	96.38
409.344	106.38
409.567	104.38
409.791	96.38
410.014	99.38
410.238	98.38
410.461	90.38
410.685	105.38
410.908	92.38
411.132	107.38
411.355	115.38
411.578	106.38
411.802	92.38
412.025	107.38
412.249	104.38
412.472	107.38
412.695	106.38
412.919	106.38
413.142	101.38
413.365	96.38
413.589	104.38
413.812	104.38
414.035	106.38
414.258	98.38
414.482	83.38
414.705	108.38
414.928	89.38
415.151	104.38
415.374	96.38
415.597	93.38
415.821	104.38
416.044	113.38
416.267	89.38
416.49	87.38
416.713	96.38
416.936	87.38
417.159	104.38
417.382	78.38
417.605	102.38
417.828	108.38
418.051	97.38
418.274	105.38
418.497	117.38
418.72	99.38
418.943	111.38
419.166	106.38
419.389	104.38
419.611	81.38
419.834	101.38
420.057	98.38
420.28	112.38
420.503	122.38
420.726	117.38
420.948	107.38
421.171	96.38
421.394	100.38
421.617	111.38
421.839	97.38
422.062	100.38
422.285	100.38
422.507	90.38
422.73	103.38
422.953	104.38
423.175	111.38
423.398	101.38
423.621	105.38
423.843	99.38
424.066	114.38
424.288	108.38
424.511	119.38
424.733	116.38
424.956	119.38
425.178	100.38
425.401	104.38
425.623	108.38
425.846	98.38
426.068	105.38
426.291	101.38
426.513	113.38
426.735	91.38
426.958	121.38
427.18	106.38
427.402	100.38
427.625	99.38
427.847	113.38
428.069	117.38
428.292	100.38
428.514	99.38
428.736	112.38
428.958	115.38
429.181	115.38
429.403	97.38
429.625	92.38
429.847	95.38
430.069	96.38
430.292	105.38
430.514	115.38
430.736	88.38
430.958	107.38
431.18	98.38
431.402	91.38
431.624	98.38
431.846	91.38
432.068	90.38
432.29	90.38
432.512	101.38
432.734	114.38
432.956	108.38
433.178	104.38
433.4	104.38
433.622	99.38
433.844	106.38
434.066	91.38
434.287	88.38
434.509	91.38
434.731	82.38
434.953	95.38
435.175	90.38
435.397	103.38
435.618	87.38
435.84	87.38
436.062	85.38
436.284	104.38
436.505	96.38
436.727	94.38
436.949	115.38
437.17	97.38
437.392	93.38
437.614	101.38
437.835	89.38
438.057	98.38
438.278	100.38
438.5	108.38
438.721	96.38
438.943	115.38
439.165	122.38
439.386	120.38
439.608	102.38
439.829	103.38
440.05	96.38
440.272	104.38
440.493	108.38
440.715	105.38
440.936	105.38
441.158	106.38
441.379	104.38
441.6	119.38
441.822	123.38
442.043	114.38
442.264	108.38
442.486	109.38
442.707	112.38
442.928	106.38
443.149	92.38
443.371	107.38
443.592	110.38
443.813	104.38
444.034	86.38
444.255	116.38
444.476	90.38
444.698	109.38
444.919	113.38
445.14	232.38
445.361	165.38
445.582	123.38
445.803	119.38
446.024	86.38
446.245	121.38
446.466	103.38
446.687	121.38
446.908	106.38
447.129	129.38
447.35	102.38
447.571	112.38
447.792	108.38
448.013	96.38
448.234	102.38
448.455	113.38
448.675	109.38
448.896	105.38
449.117	115.38
449.338	117.38
449.559	103.38
449.779	110.38
450	118.38
450.221	102.38
450.442	115.38
450.662	103.38
450.883	108.38
451.104	115.38
451.324	96.38
451.545	100.38
451.766	108.38
451.986	101.38
452.207	106.38
452.428	98.38
452.648	99.38
452.869	106.38
453.089	93.38
453.31	100.38
453.53	94.38
453.751	96.38
453.971	86.38
454.192	90.38
454.412	93.38
454.633	103.38
454.853	102.38
455.073	94.38
455.294	82.38
455.514	107.38
455.734	99.38
455.955	95.38
456.175	106.38
456.395	76.38
456.616	99.38
456.836	99.38
457.056	91.38
457.276	92.38
457.497	101.38
457.717	83.38
457.937	89.38
458.157	84.38
458.377	92.38
458.598	91.38
458.818	85.38
459.038	82.38
459.258	97.38
459.478	84.38
459.698	81.38
459.918	82.38
460.138	91.38
460.358	98.38
460.578	84.38
460.798	108.38
461.018	113.38
461.238	97.38
461.458	97.38
461.678	89.38
461.898	99.38
462.118	100.38
462.338	100.38
462.558	97.38
462.777	103.38
462.997	98.38
463.217	95.38
463.437	106.38
463.657	90.38
463.876	97.38
464.096	81.38
464.316	93.38
464.536	94.38
464.755	88.38
464.975	119.38
465.195	97.38
465.414	96.38
465.634	85.38
465.854	111.38
466.073	113.38
466.293	103.38
466.512	93.38
466.732	100.38
466.951	117.38
467.171	106.38
467.391	93.38
467.61	107.38
467.829	104.38
468.049	102.38
468.268	113.38
468.488	120.38
468.707	101.38
468.927	123.38
469.146	127.38
469.365	104.38
469.585	99.38
469.804	112.38
470.023	96.38
470.243	111.38
470.462	117.38
470.681	111.38
470.901	108.38
471.12	115.38
471.339	113.38
471.558	118.38
471.777	111.38
471.997	107.38
472.216	120.38
472.435	108.38
472.654	106.38
472.873	106.38
473.092	80.38
473.311	100.38
473.53	106.38
473.749	103.38
473.968	130.38
474.187	113.38
474.406	111.38
474.625	100.38
474.844	111.38
475.063	116.38
475.282	97.38
475.501	105.38
475.72	100.38
475.939	105.38
476.158	113.38
476.377	95.38
476.596	97.38
476.814	122.38
477.033	93.38
477.252	99.38
477.471	121.38
477.69	111.38
477.908	116.38
478.127	105.38
478.346	116.38
478.564	113.38
478.783	108.38
479.002	113.38
479.22	107.38
479.439	115.38
479.658	95.38
479.876	88.38
480.095	110.38
480.313	97.38
480.532	104.38
480.751	82.38
480.969	84.38
481.188	85.38
481.406	102.38
481.624	90.38
481.843	91.38
482.061	81.38
482.28	99.38
482.498	95.38
482.717	100.38
482.935	100.38
483.153	111.38
483.372	108.38
483.59	115.38
483.808	107.38
484.027	107.38
484.245	101.38
484.463	97.38
484.681	119.38
484.9	105.38
485.118	111.38
485.336	109.38
485.554	84.38
485.772	94.38
485.99	94.38
486.209	88.38
486.427	77.38
486.645	100.38
486.863	95.38
487.081	113.38
487.299	103.38
487.517	100.38
487.735	116.38
487.953	135.38
488.171	115.38
488.389	115.38
488.607	123.38
488.825	115.38
489.043	105.38
489.261	118.38
489.479	94.38
489.696	117.38
489.914	111.38
490.132	105.38
490.35	124.38
490.568	114.38
490.786	124.38
491.003	122.38
491.221	125.38
491.439	129.38
491.657	127.38
491.874	136.38
492.092	137.38
492.31	147.38
492.527	137.38
492.745	152.38
492.963	126.38
493.18	123.38
493.398	132.38
493.615	128.38
493.833	120.38
494.05	137.38
494.268	137.38
494.485	136.38
494.703	118.38
494.92	113.38
495.138	123.38
495.355	135.38
495.573	113.38
495.79	132.38
496.008	126.38
496.225	121.38
496.442	119.38
496.66	119.38
496.877	127.38
497.094	123.38
497.312	113.38
497.529	117.38
497.746	117.38
497.963	111.38
498.181	117.38
498.398	99.38
498.615	99.38
498.832	102.38
499.049	97.38
499.267	104.38
499.484	122.38
499.701	96.38
499.918	108.38
500.135	122.38
500.352	126.38
500.569	118.38
500.786	111.38
501.003	106.38
501.22	109.38
501.437	114.38
501.654	117.38
501.871	119.38
502.088	105.38
502.305	97.38
502.522	103.38
502.739	105.38
502.956	107.38
503.172	114.38
503.389	104.38
503.606	101.38
503.823	101.38
504.04	96.38
504.256	103.38
504.473	94.38
504.69	97.38
504.907	97.38
505.123	100.38
505.34	104.38
505.557	102.38
505.773	109.38
505.99	93.38
506.207	103.38
506.423	107.38
506.64	99.38
506.856	117.38
507.073	106.38
507.289	110.38
507.506	96.38
507.722	99.38
507.939	98.38
508.155	90.38
508.372	97.38
508.588	110.38
508.805	117.38
509.021	79.38
509.238	102.38
509.454	88.38
509.67	94.38
509.887	77.38
510.103	79.38
510.319	81.38
510.536	87.38
510.752	96.38
510.968	91.38
511.184	82.38
511.401	81.38
511.617	81.38
511.833	91.38
512.049	76.38
512.265	82.38
512.481	99.38
512.698	80.38
512.914	104.38
513.13	101.38
513.346	87.38
513.562	92.38
513.778	93.38
513.994	90.38
514.21	74.38
514.426	90.38
514.642	81.38
514.858	79.38
