Data from Zn(NO3)2Standard.Agarose3%.GreenCap.LampEnergy10E.O_HRD10591_15-06-57-941.txt Node
Date: Mon Jul 22 15:06:57 EDT 2019
User: cochatt
Spectrometer: HR+D1059
Trigger mode: 1
Integration Time (sec): 1.000000E-1
Scans to average: 1
Electric dark correction enabled: true
Nonlinearity correction enabled: false
Boxcar width: 0
XAxis mode: Wavelengths
Number of Pixels in Spectrum: 2048
>>>>>Begin Spectral Data<<<<<
223.165	-14.31
223.4	-14.31
223.635	-14.31
223.869	-27.31
224.104	-21.31
224.338	-14.31
224.573	-22.31
224.808	-0.31
225.042	-22.31
225.277	-10.31
225.511	-4.31
225.746	1.69
225.98	10.69
226.215	24.69
226.449	33.69
226.683	23.69
226.918	15.69
227.152	26.69
227.387	35.69
227.621	23.69
227.856	34.69
228.09	49.69
228.324	40.69
228.559	61.69
228.793	57.69
229.027	77.69
229.262	68.69
229.496	56.69
229.73	63.69
229.964	67.69
230.199	76.69
230.433	73.69
230.667	65.69
230.901	84.69
231.136	77.69
231.37	76.69
231.604	72.69
231.838	68.69
232.072	67.69
232.306	72.69
232.541	69.69
232.775	76.69
233.009	82.69
233.243	77.69
233.477	82.69
233.711	67.69
233.945	81.69
234.179	76.69
234.413	84.69
234.647	67.69
234.881	90.69
235.115	70.69
235.349	82.69
235.583	91.69
235.817	79.69
236.051	67.69
236.285	68.69
236.519	72.69
236.753	69.69
236.987	73.69
237.221	74.69
237.455	62.69
237.689	75.69
237.922	77.69
238.156	71.69
238.39	82.69
238.624	65.69
238.858	85.69
239.091	86.69
239.325	70.69
239.559	75.69
239.793	62.69
240.027	72.69
240.26	61.69
240.494	73.69
240.728	64.69
240.961	74.69
241.195	73.69
241.429	73.69
241.662	58.69
241.896	75.69
242.13	70.69
242.363	74.69
242.597	74.69
242.83	71.69
243.064	55.69
243.298	80.69
243.531	77.69
243.765	72.69
243.998	78.69
244.232	71.69
244.465	60.69
244.699	63.69
244.932	66.69
245.166	69.69
245.399	75.69
245.633	93.69
245.866	55.69
246.099	82.69
246.333	79.69
246.566	74.69
246.8	69.69
247.033	68.69
247.266	85.69
247.5	67.69
247.733	63.69
247.966	65.69
248.2	60.69
248.433	65.69
248.666	72.69
248.899	82.69
249.133	94.69
249.366	73.69
249.599	70.69
249.832	63.69
250.066	78.69
250.299	71.69
250.532	79.69
250.765	84.69
250.998	74.69
251.231	84.69
251.465	69.69
251.698	76.69
251.931	77.69
252.164	84.69
252.397	74.69
252.63	82.69
252.863	81.69
253.096	71.69
253.329	94.69
253.562	85.69
253.795	73.69
254.028	85.69
254.261	71.69
254.494	70.69
254.727	81.69
254.96	82.69
255.193	77.69
255.426	85.69
255.659	83.69
255.892	82.69
256.124	91.69
256.357	83.69
256.59	80.69
256.823	79.69
257.056	65.69
257.289	73.69
257.521	85.69
257.754	83.69
257.987	73.69
258.22	82.69
258.452	79.69
258.685	65.69
258.918	79.69
259.151	72.69
259.383	86.69
259.616	84.69
259.849	98.69
260.081	89.69
260.314	85.69
260.547	72.69
260.779	73.69
261.012	78.69
261.244	95.69
261.477	90.69
261.71	69.69
261.942	72.69
262.175	76.69
262.407	85.69
262.64	72.69
262.872	83.69
263.105	75.69
263.337	84.69
263.57	71.69
263.802	78.69
264.035	84.69
264.267	78.69
264.499	76.69
264.732	70.69
264.964	72.69
265.197	78.69
265.429	70.69
265.661	82.69
265.894	73.69
266.126	77.69
266.358	82.69
266.591	81.69
266.823	79.69
267.055	79.69
267.287	76.69
267.52	82.69
267.752	85.69
267.984	80.69
268.216	70.69
268.448	75.69
268.681	50.69
268.913	64.69
269.145	77.69
269.377	79.69
269.609	71.69
269.841	84.69
270.073	89.69
270.306	70.69
270.538	77.69
270.77	79.69
271.002	65.69
271.234	93.69
271.466	105.69
271.698	94.69
271.93	71.69
272.162	87.69
272.394	91.69
272.626	70.69
272.858	84.69
273.09	93.69
273.322	69.69
273.553	68.69
273.785	74.69
274.017	77.69
274.249	77.69
274.481	82.69
274.713	89.69
274.945	88.69
275.176	68.69
275.408	66.69
275.64	83.69
275.872	80.69
276.104	75.69
276.335	83.69
276.567	96.69
276.799	82.69
277.031	79.69
277.262	69.69
277.494	80.69
277.726	83.69
277.957	86.69
278.189	68.69
278.421	82.69
278.652	92.69
278.884	73.69
279.115	91.69
279.347	78.69
279.579	81.69
279.81	81.69
280.042	88.69
280.273	74.69
280.505	91.69
280.736	75.69
280.968	73.69
281.199	79.69
281.431	81.69
281.662	73.69
281.894	85.69
282.125	66.69
282.356	73.69
282.588	80.69
282.819	74.69
283.051	86.69
283.282	75.69
283.513	88.69
283.745	73.69
283.976	75.69
284.207	76.69
284.439	84.69
284.67	94.69
284.901	67.69
285.132	85.69
285.364	63.69
285.595	93.69
285.826	84.69
286.057	75.69
286.288	80.69
286.52	79.69
286.751	89.69
286.982	83.69
287.213	71.69
287.444	73.69
287.675	79.69
287.906	82.69
288.138	73.69
288.369	77.69
288.6	94.69
288.831	79.69
289.062	84.69
289.293	94.69
289.524	80.69
289.755	83.69
289.986	78.69
290.217	76.69
290.448	77.69
290.679	79.69
290.91	89.69
291.141	64.69
291.371	75.69
291.602	74.69
291.833	80.69
292.064	80.69
292.295	94.69
292.526	93.69
292.757	87.69
292.987	89.69
293.218	78.69
293.449	65.69
293.68	81.69
293.91	78.69
294.141	78.69
294.372	73.69
294.603	77.69
294.833	83.69
295.064	94.69
295.295	82.69
295.525	80.69
295.756	75.69
295.987	80.69
296.217	85.69
296.448	83.69
296.679	83.69
296.909	70.69
297.14	83.69
297.37	82.69
297.601	77.69
297.831	75.69
298.062	73.69
298.292	67.69
298.523	88.69
298.753	81.69
298.984	91.69
299.214	96.69
299.445	83.69
299.675	86.69
299.905	70.69
300.136	67.69
300.366	80.69
300.597	87.69
300.827	84.69
301.057	79.69
301.288	82.69
301.518	96.69
301.748	85.69
301.979	89.69
302.209	91.69
302.439	83.69
302.669	75.69
302.9	92.69
303.13	93.69
303.36	81.69
303.59	91.69
303.82	78.69
304.051	77.69
304.281	85.69
304.511	82.69
304.741	93.69
304.971	78.69
305.201	84.69
305.431	101.69
305.661	87.69
305.891	76.69
306.121	95.69
306.352	72.69
306.582	86.69
306.812	85.69
307.042	87.69
307.272	78.69
307.502	86.69
307.731	76.69
307.961	81.69
308.191	72.69
308.421	96.69
308.651	91.69
308.881	88.69
309.111	80.69
309.341	76.69
309.571	91.69
309.8	90.69
310.03	91.69
310.26	85.69
310.49	85.69
310.72	89.69
310.949	86.69
311.179	75.69
311.409	100.69
311.639	84.69
311.868	84.69
312.098	75.69
312.328	69.69
312.557	81.69
312.787	83.69
313.017	78.69
313.246	79.69
313.476	83.69
313.706	80.69
313.935	73.69
314.165	72.69
314.394	74.69
314.624	81.69
314.853	99.69
315.083	73.69
315.312	90.69
315.542	88.69
315.771	96.69
316.001	74.69
316.23	91.69
316.46	97.69
316.689	78.69
316.919	87.69
317.148	79.69
317.377	81.69
317.607	80.69
317.836	93.69
318.065	93.69
318.295	86.69
318.524	83.69
318.753	73.69
318.983	81.69
319.212	84.69
319.441	75.69
319.67	86.69
319.9	93.69
320.129	85.69
320.358	93.69
320.587	79.69
320.816	79.69
321.046	90.69
321.275	81.69
321.504	81.69
321.733	83.69
321.962	94.69
322.191	78.69
322.42	77.69
322.649	77.69
322.878	77.69
323.108	83.69
323.337	83.69
323.566	78.69
323.795	95.69
324.024	79.69
324.253	78.69
324.482	81.69
324.71	85.69
324.939	74.69
325.168	83.69
325.397	89.69
325.626	87.69
325.855	79.69
326.084	76.69
326.313	83.69
326.542	82.69
326.77	81.69
326.999	77.69
327.228	80.69
327.457	90.69
327.686	91.69
327.914	74.69
328.143	83.69
328.372	86.69
328.6	106.69
328.829	85.69
329.058	78.69
329.287	73.69
329.515	81.69
329.744	83.69
329.972	88.69
330.201	89.69
330.43	74.69
330.658	78.69
330.887	79.69
331.115	81.69
331.344	75.69
331.572	79.69
331.801	88.69
332.03	78.69
332.258	86.69
332.486	83.69
332.715	65.69
332.943	71.69
333.172	69.69
333.4	94.69
333.629	99.69
333.857	83.69
334.085	79.69
334.314	73.69
334.542	77.69
334.771	73.69
334.999	83.69
335.227	89.69
335.455	80.69
335.684	79.69
335.912	98.69
336.14	74.69
336.369	95.69
336.597	89.69
336.825	84.69
337.053	88.69
337.281	79.69
337.51	90.69
337.738	80.69
337.966	78.69
338.194	80.69
338.422	73.69
338.65	58.69
338.878	83.69
339.106	84.69
339.334	94.69
339.562	91.69
339.79	78.69
340.018	75.69
340.246	73.69
340.474	79.69
340.702	77.69
340.93	80.69
341.158	76.69
341.386	65.69
341.614	76.69
341.842	90.69
342.07	89.69
342.298	82.69
342.526	77.69
342.754	75.69
342.981	85.69
343.209	78.69
343.437	76.69
343.665	81.69
343.893	73.69
344.12	83.69
344.348	84.69
344.576	88.69
344.804	78.69
345.031	81.69
345.259	82.69
345.487	80.69
345.714	82.69
345.942	74.69
346.17	70.69
346.397	94.69
346.625	72.69
346.853	78.69
347.08	86.69
347.308	83.69
347.535	87.69
347.763	80.69
347.99	85.69
348.218	98.69
348.445	73.69
348.673	88.69
348.9	90.69
349.128	85.69
349.355	90.69
349.583	88.69
349.81	73.69
350.037	82.69
350.265	76.69
350.492	79.69
350.72	83.69
350.947	89.69
351.174	82.69
351.402	80.69
351.629	77.69
351.856	80.69
352.083	81.69
352.311	77.69
352.538	86.69
352.765	85.69
352.992	66.69
353.22	85.69
353.447	73.69
353.674	83.69
353.901	83.69
354.128	75.69
354.355	79.69
354.583	74.69
354.81	86.69
355.037	79.69
355.264	79.69
355.491	70.69
355.718	94.69
355.945	88.69
356.172	67.69
356.399	80.69
356.626	74.69
356.853	91.69
357.08	100.69
357.307	89.69
357.534	75.69
357.761	85.69
357.988	71.69
358.215	87.69
358.441	75.69
358.668	80.69
358.895	81.69
359.122	83.69
359.349	75.69
359.576	89.69
359.802	83.69
360.029	84.69
360.256	83.69
360.483	87.69
360.709	76.69
360.936	85.69
361.163	86.69
361.39	85.69
361.616	80.69
361.843	89.69
362.07	84.69
362.296	93.69
362.523	70.69
362.749	80.69
362.976	90.69
363.203	69.69
363.429	92.69
363.656	78.69
363.882	88.69
364.109	70.69
364.335	87.69
364.562	84.69
364.788	83.69
365.015	77.69
365.241	79.69
365.468	89.69
365.694	72.69
365.92	87.69
366.147	88.69
366.373	76.69
366.599	89.69
366.826	80.69
367.052	78.69
367.278	83.69
367.505	92.69
367.731	94.69
367.957	79.69
368.184	84.69
368.41	72.69
368.636	89.69
368.862	91.69
369.089	85.69
369.315	78.69
369.541	83.69
369.767	87.69
369.993	83.69
370.219	75.69
370.445	95.69
370.672	80.69
370.898	85.69
371.124	89.69
371.35	85.69
371.576	101.69
371.802	75.69
372.028	89.69
372.254	88.69
372.48	77.69
372.706	91.69
372.932	81.69
373.158	95.69
373.384	91.69
373.61	78.69
373.835	66.69
374.061	77.69
374.287	74.69
374.513	75.69
374.739	84.69
374.965	84.69
375.191	75.69
375.416	86.69
375.642	77.69
375.868	81.69
376.094	83.69
376.319	86.69
376.545	77.69
376.771	85.69
376.997	68.69
377.222	88.69
377.448	72.69
377.674	74.69
377.899	65.69
378.125	74.69
378.35	76.69
378.576	70.69
378.802	82.69
379.027	81.69
379.253	78.69
379.478	69.69
379.704	57.69
379.929	84.69
380.155	98.69
380.38	85.69
380.606	79.69
380.831	78.69
381.057	78.69
381.282	86.69
381.507	70.69
381.733	88.69
381.958	93.69
382.184	84.69
382.409	98.69
382.634	102.69
382.86	86.69
383.085	78.69
383.31	70.69
383.535	87.69
383.761	87.69
383.986	81.69
384.211	93.69
384.436	86.69
384.662	80.69
384.887	93.69
385.112	82.69
385.337	91.69
385.562	83.69
385.787	82.69
386.013	83.69
386.238	88.69
386.463	76.69
386.688	99.69
386.913	105.69
387.138	79.69
387.363	81.69
387.588	93.69
387.813	94.69
388.038	87.69
388.263	92.69
388.488	102.69
388.713	87.69
388.938	87.69
389.163	94.69
389.387	89.69
389.612	95.69
389.837	90.69
390.062	80.69
390.287	89.69
390.512	75.69
390.736	99.69
390.961	85.69
391.186	76.69
391.411	82.69
391.636	96.69
391.86	82.69
392.085	107.69
392.31	97.69
392.534	75.69
392.759	97.69
392.984	91.69
393.208	87.69
393.433	86.69
393.658	91.69
393.882	79.69
394.107	67.69
394.331	89.69
394.556	94.69
394.78	89.69
395.005	97.69
395.229	90.69
395.454	68.69
395.678	87.69
395.903	90.69
396.127	83.69
396.352	90.69
396.576	97.69
396.801	86.69
397.025	105.69
397.249	80.69
397.474	87.69
397.698	98.69
397.922	106.69
398.147	87.69
398.371	97.69
398.595	94.69
398.82	79.69
399.044	87.69
399.268	82.69
399.492	98.69
399.717	94.69
399.941	87.69
400.165	93.69
400.389	90.69
400.613	96.69
400.837	82.69
401.062	85.69
401.286	95.69
401.51	96.69
401.734	88.69
401.958	90.69
402.182	90.69
402.406	93.69
402.63	89.69
402.854	88.69
403.078	90.69
403.302	91.69
403.526	84.69
403.75	96.69
403.974	89.69
404.198	94.69
404.422	89.69
404.645	95.69
404.869	96.69
405.093	90.69
405.317	93.69
405.541	100.69
405.765	97.69
405.988	104.69
406.212	107.69
406.436	96.69
406.66	106.69
406.883	90.69
407.107	88.69
407.331	102.69
407.555	97.69
407.778	96.69
408.002	97.69
408.226	80.69
408.449	84.69
408.673	88.69
408.896	97.69
409.12	103.69
409.344	82.69
409.567	83.69
409.791	100.69
410.014	111.69
410.238	102.69
410.461	93.69
410.685	104.69
410.908	103.69
411.132	82.69
411.355	88.69
411.578	104.69
411.802	90.69
412.025	97.69
412.249	101.69
412.472	97.69
412.695	84.69
412.919	81.69
413.142	90.69
413.365	100.69
413.589	91.69
413.812	99.69
414.035	101.69
414.258	89.69
414.482	101.69
414.705	97.69
414.928	83.69
415.151	95.69
415.374	96.69
415.597	92.69
415.821	106.69
416.044	102.69
416.267	91.69
416.49	96.69
416.713	89.69
416.936	94.69
417.159	100.69
417.382	94.69
417.605	96.69
417.828	95.69
418.051	94.69
418.274	99.69
418.497	99.69
418.72	107.69
418.943	100.69
419.166	103.69
419.389	94.69
419.611	97.69
419.834	81.69
420.057	100.69
420.28	102.69
420.503	106.69
420.726	105.69
420.948	111.69
421.171	101.69
421.394	96.69
421.617	105.69
421.839	106.69
422.062	118.69
422.285	101.69
422.507	93.69
422.73	122.69
422.953	101.69
423.175	104.69
423.398	93.69
423.621	111.69
423.843	110.69
424.066	96.69
424.288	97.69
424.511	95.69
424.733	85.69
424.956	99.69
425.178	96.69
425.401	107.69
425.623	106.69
425.846	108.69
426.068	106.69
426.291	109.69
426.513	99.69
426.735	116.69
426.958	99.69
427.18	95.69
427.402	102.69
427.625	106.69
427.847	97.69
428.069	101.69
428.292	83.69
428.514	100.69
428.736	86.69
428.958	104.69
429.181	107.69
429.403	114.69
429.625	109.69
429.847	107.69
430.069	95.69
430.292	112.69
430.514	99.69
430.736	93.69
430.958	92.69
431.18	94.69
431.402	99.69
431.624	105.69
431.846	96.69
432.068	87.69
432.29	91.69
432.512	78.69
432.734	92.69
432.956	91.69
433.178	111.69
433.4	115.69
433.622	109.69
433.844	102.69
434.066	100.69
434.287	101.69
434.509	87.69
434.731	87.69
434.953	90.69
435.175	96.69
435.397	102.69
435.618	102.69
435.84	97.69
436.062	103.69
436.284	104.69
436.505	101.69
436.727	102.69
436.949	111.69
437.17	105.69
437.392	111.69
437.614	93.69
437.835	97.69
438.057	89.69
438.278	98.69
438.5	100.69
438.721	106.69
438.943	104.69
439.165	100.69
439.386	103.69
439.608	120.69
439.829	125.69
440.05	131.69
440.272	111.69
440.493	118.69
440.715	117.69
440.936	113.69
441.158	95.69
441.379	107.69
441.6	109.69
441.822	100.69
442.043	121.69
442.264	107.69
442.486	89.69
442.707	103.69
442.928	111.69
443.149	103.69
443.371	103.69
443.592	105.69
443.813	101.69
444.034	109.69
444.255	117.69
444.476	121.69
444.698	104.69
444.919	109.69
445.14	231.69
445.361	173.69
445.582	97.69
445.803	91.69
446.024	110.69
446.245	114.69
446.466	115.69
446.687	123.69
446.908	114.69
447.129	114.69
447.35	120.69
447.571	111.69
447.792	114.69
448.013	112.69
448.234	102.69
448.455	120.69
448.675	108.69
448.896	94.69
449.117	115.69
449.338	109.69
449.559	114.69
449.779	105.69
450	111.69
450.221	99.69
450.442	95.69
450.662	119.69
450.883	103.69
451.104	114.69
451.324	109.69
451.545	111.69
451.766	109.69
451.986	110.69
452.207	97.69
452.428	92.69
452.648	100.69
452.869	101.69
453.089	104.69
453.31	98.69
453.53	90.69
453.751	95.69
453.971	94.69
454.192	81.69
454.412	98.69
454.633	94.69
454.853	112.69
455.073	93.69
455.294	91.69
455.514	96.69
455.734	95.69
455.955	103.69
456.175	84.69
456.395	88.69
456.616	89.69
456.836	99.69
457.056	98.69
457.276	86.69
457.497	95.69
457.717	83.69
457.937	113.69
458.157	104.69
458.377	97.69
458.598	89.69
458.818	85.69
459.038	75.69
459.258	79.69
459.478	87.69
459.698	66.69
459.918	75.69
460.138	88.69
460.358	98.69
460.578	91.69
460.798	87.69
461.018	94.69
461.238	103.69
461.458	101.69
461.678	88.69
461.898	77.69
462.118	87.69
462.338	101.69
462.558	86.69
462.777	102.69
462.997	87.69
463.217	81.69
463.437	96.69
463.657	87.69
463.876	105.69
464.096	95.69
464.316	79.69
464.536	98.69
464.755	104.69
464.975	105.69
465.195	104.69
465.414	102.69
465.634	98.69
465.854	99.69
466.073	103.69
466.293	93.69
466.512	93.69
466.732	104.69
466.951	98.69
467.171	111.69
467.391	99.69
467.61	107.69
467.829	103.69
468.049	102.69
468.268	99.69
468.488	104.69
468.707	103.69
468.927	114.69
469.146	105.69
469.365	102.69
469.585	93.69
469.804	106.69
470.023	110.69
470.243	106.69
470.462	109.69
470.681	101.69
470.901	118.69
471.12	105.69
471.339	115.69
471.558	109.69
471.777	114.69
471.997	111.69
472.216	112.69
472.435	99.69
472.654	95.69
472.873	92.69
473.092	109.69
473.311	85.69
473.53	107.69
473.749	100.69
473.968	118.69
474.187	102.69
474.406	87.69
474.625	109.69
474.844	117.69
475.063	107.69
475.282	107.69
475.501	104.69
475.72	94.69
475.939	106.69
476.158	94.69
476.377	101.69
476.596	93.69
476.814	85.69
477.033	98.69
477.252	95.69
477.471	100.69
477.69	113.69
477.908	109.69
478.127	117.69
478.346	102.69
478.564	111.69
478.783	101.69
479.002	102.69
479.22	103.69
479.439	127.69
479.658	98.69
479.876	94.69
480.095	98.69
480.313	115.69
480.532	97.69
480.751	107.69
480.969	93.69
481.188	97.69
481.406	80.69
481.624	81.69
481.843	74.69
482.061	93.69
482.28	90.69
482.498	98.69
482.717	87.69
482.935	100.69
483.153	114.69
483.372	106.69
483.59	106.69
483.808	121.69
484.027	111.69
484.245	110.69
484.463	101.69
484.681	121.69
484.9	123.69
485.118	123.69
485.336	102.69
485.554	79.69
485.772	91.69
485.99	95.69
486.209	83.69
486.427	98.69
486.645	106.69
486.863	95.69
487.081	113.69
487.299	93.69
487.517	106.69
487.735	131.69
487.953	142.69
488.171	117.69
488.389	121.69
488.607	128.69
488.825	118.69
489.043	112.69
489.261	99.69
489.479	98.69
489.696	108.69
489.914	111.69
490.132	106.69
490.35	99.69
490.568	114.69
490.786	120.69
491.003	135.69
491.221	123.69
491.439	127.69
491.657	129.69
491.874	135.69
492.092	143.69
492.31	145.69
492.527	145.69
492.745	145.69
492.963	123.69
493.18	138.69
493.398	122.69
493.615	124.69
493.833	121.69
494.05	135.69
494.268	113.69
494.485	128.69
494.703	125.69
494.92	117.69
495.138	110.69
495.355	118.69
495.573	119.69
495.79	120.69
496.008	114.69
496.225	107.69
496.442	123.69
496.66	126.69
496.877	123.69
497.094	129.69
497.312	121.69
497.529	122.69
497.746	122.69
497.963	104.69
498.181	121.69
498.398	97.69
498.615	103.69
498.832	107.69
499.049	91.69
499.267	101.69
499.484	99.69
499.701	108.69
499.918	110.69
500.135	103.69
500.352	97.69
500.569	98.69
500.786	108.69
501.003	90.69
501.22	111.69
501.437	111.69
501.654	114.69
501.871	111.69
502.088	91.69
502.305	110.69
502.522	109.69
502.739	99.69
502.956	99.69
503.172	93.69
503.389	96.69
503.606	98.69
503.823	91.69
504.04	114.69
504.256	93.69
504.473	95.69
504.69	94.69
504.907	109.69
505.123	91.69
505.34	102.69
505.557	110.69
505.773	100.69
505.99	104.69
506.207	108.69
506.423	94.69
506.64	104.69
506.856	89.69
507.073	103.69
507.289	100.69
507.506	89.69
507.722	102.69
507.939	88.69
508.155	93.69
508.372	99.69
508.588	101.69
508.805	103.69
509.021	89.69
509.238	86.69
509.454	90.69
509.67	113.69
509.887	90.69
510.103	98.69
510.319	80.69
510.536	79.69
510.752	75.69
510.968	93.69
511.184	86.69
511.401	74.69
511.617	100.69
511.833	88.69
512.049	78.69
512.265	81.69
512.481	74.69
512.698	88.69
512.914	75.69
513.13	87.69
513.346	102.69
513.562	95.69
513.778	92.69
513.994	88.69
514.21	86.69
514.426	80.69
514.642	93.69
514.858	85.69
515.074	86.69
515.29	75.69
