Data from Zn(NO3)2Standard.Agarose3%.GreenCap.LampEnergy5.5.E.O_HRD10591_15-01-23-767.txt Node
Date: Mon Jul 22 15:01:23 EDT 2019
User: cochatt
Spectrometer: HR+D1059
Trigger mode: 1
Integration Time (sec): 1.000000E-1
Scans to average: 1
Electric dark correction enabled: true
Nonlinearity correction enabled: false
Boxcar width: 0
XAxis mode: Wavelengths
Number of Pixels in Spectrum: 2048
>>>>>Begin Spectral Data<<<<<
223.165	-8.94
223.4	-8.94
223.635	-8.94
223.869	-14.94
224.104	-20.94
224.338	-14.94
224.573	-19.94
224.808	-25.94
225.042	-3.94
225.277	0.06
225.511	-6.94
225.746	7.06
225.98	10.06
226.215	9.06
226.449	12.06
226.683	17.06
226.918	35.06
227.152	26.06
227.387	35.06
227.621	24.06
227.856	38.06
228.09	46.06
228.324	46.06
228.559	50.06
228.793	58.06
229.027	51.06
229.262	60.06
229.496	67.06
229.73	62.06
229.964	76.06
230.199	75.06
230.433	76.06
230.667	85.06
230.901	76.06
231.136	73.06
231.37	75.06
231.604	51.06
231.838	83.06
232.072	80.06
232.306	67.06
232.541	80.06
232.775	75.06
233.009	93.06
233.243	79.06
233.477	71.06
233.711	67.06
233.945	76.06
234.179	74.06
234.413	76.06
234.647	80.06
234.881	84.06
235.115	79.06
235.349	94.06
235.583	81.06
235.817	74.06
236.051	87.06
236.285	65.06
236.519	73.06
236.753	73.06
236.987	74.06
237.221	75.06
237.455	72.06
237.689	82.06
237.922	76.06
238.156	86.06
238.39	73.06
238.624	64.06
238.858	79.06
239.091	84.06
239.325	69.06
239.559	74.06
239.793	81.06
240.027	63.06
240.26	80.06
240.494	71.06
240.728	62.06
240.961	85.06
241.195	84.06
241.429	66.06
241.662	92.06
241.896	92.06
242.13	80.06
242.363	70.06
242.597	76.06
242.83	79.06
243.064	86.06
243.298	67.06
243.531	79.06
243.765	79.06
243.998	76.06
244.232	72.06
244.465	87.06
244.699	76.06
244.932	78.06
245.166	80.06
245.399	83.06
245.633	74.06
245.866	74.06
246.099	74.06
246.333	66.06
246.566	84.06
246.8	70.06
247.033	81.06
247.266	92.06
247.5	71.06
247.733	72.06
247.966	81.06
248.2	75.06
248.433	75.06
248.666	74.06
248.899	88.06
249.133	82.06
249.366	88.06
249.599	79.06
249.832	78.06
250.066	67.06
250.299	64.06
250.532	67.06
250.765	76.06
250.998	82.06
251.231	81.06
251.465	86.06
251.698	84.06
251.931	80.06
252.164	54.06
252.397	85.06
252.63	75.06
252.863	81.06
253.096	79.06
253.329	73.06
253.562	74.06
253.795	74.06
254.028	78.06
254.261	71.06
254.494	73.06
254.727	93.06
254.96	84.06
255.193	71.06
255.426	92.06
255.659	80.06
255.892	80.06
256.124	76.06
256.357	73.06
256.59	68.06
256.823	78.06
257.056	86.06
257.289	74.06
257.521	70.06
257.754	82.06
257.987	77.06
258.22	70.06
258.452	92.06
258.685	89.06
258.918	79.06
259.151	75.06
259.383	70.06
259.616	78.06
259.849	78.06
260.081	87.06
260.314	95.06
260.547	78.06
260.779	84.06
261.012	76.06
261.244	75.06
261.477	76.06
261.71	90.06
261.942	76.06
262.175	85.06
262.407	79.06
262.64	82.06
262.872	86.06
263.105	76.06
263.337	79.06
263.57	73.06
263.802	81.06
264.035	66.06
264.267	77.06
264.499	78.06
264.732	76.06
264.964	94.06
265.197	86.06
265.429	83.06
265.661	75.06
265.894	72.06
266.126	78.06
266.358	70.06
266.591	88.06
266.823	79.06
267.055	76.06
267.287	79.06
267.52	78.06
267.752	74.06
267.984	80.06
268.216	92.06
268.448	76.06
268.681	88.06
268.913	72.06
269.145	80.06
269.377	84.06
269.609	91.06
269.841	85.06
270.073	84.06
270.306	75.06
270.538	83.06
270.77	75.06
271.002	82.06
271.234	62.06
271.466	87.06
271.698	91.06
271.93	89.06
272.162	77.06
272.394	76.06
272.626	79.06
272.858	84.06
273.09	65.06
273.322	81.06
273.553	88.06
273.785	84.06
274.017	91.06
274.249	74.06
274.481	78.06
274.713	87.06
274.945	81.06
275.176	67.06
275.408	72.06
275.64	90.06
275.872	78.06
276.104	91.06
276.335	87.06
276.567	76.06
276.799	83.06
277.031	75.06
277.262	75.06
277.494	82.06
277.726	88.06
277.957	69.06
278.189	94.06
278.421	91.06
278.652	95.06
278.884	93.06
279.115	81.06
279.347	73.06
279.579	90.06
279.81	79.06
280.042	77.06
280.273	89.06
280.505	87.06
280.736	78.06
280.968	80.06
281.199	95.06
281.431	79.06
281.662	98.06
281.894	83.06
282.125	78.06
282.356	90.06
282.588	82.06
282.819	84.06
283.051	94.06
283.282	90.06
283.513	80.06
283.745	83.06
283.976	75.06
284.207	94.06
284.439	74.06
284.67	78.06
284.901	85.06
285.132	91.06
285.364	74.06
285.595	76.06
285.826	86.06
286.057	84.06
286.288	91.06
286.52	89.06
286.751	93.06
286.982	74.06
287.213	63.06
287.444	86.06
287.675	84.06
287.906	80.06
288.138	72.06
288.369	85.06
288.6	78.06
288.831	80.06
289.062	90.06
289.293	85.06
289.524	90.06
289.755	83.06
289.986	75.06
290.217	77.06
290.448	73.06
290.679	88.06
290.91	88.06
291.141	78.06
291.371	70.06
291.602	111.06
291.833	70.06
292.064	81.06
292.295	82.06
292.526	93.06
292.757	98.06
292.987	87.06
293.218	71.06
293.449	83.06
293.68	77.06
293.91	84.06
294.141	75.06
294.372	87.06
294.603	77.06
294.833	74.06
295.064	78.06
295.295	78.06
295.525	86.06
295.756	85.06
295.987	69.06
296.217	87.06
296.448	79.06
296.679	90.06
296.909	89.06
297.14	79.06
297.37	86.06
297.601	95.06
297.831	86.06
298.062	88.06
298.292	81.06
298.523	103.06
298.753	86.06
298.984	83.06
299.214	88.06
299.445	97.06
299.675	89.06
299.905	84.06
300.136	83.06
300.366	71.06
300.597	76.06
300.827	87.06
301.057	76.06
301.288	90.06
301.518	75.06
301.748	80.06
301.979	71.06
302.209	82.06
302.439	87.06
302.669	76.06
302.9	85.06
303.13	73.06
303.36	80.06
303.59	84.06
303.82	93.06
304.051	91.06
304.281	82.06
304.511	95.06
304.741	84.06
304.971	86.06
305.201	72.06
305.431	83.06
305.661	89.06
305.891	84.06
306.121	94.06
306.352	90.06
306.582	90.06
306.812	77.06
307.042	90.06
307.272	85.06
307.502	73.06
307.731	76.06
307.961	72.06
308.191	81.06
308.421	78.06
308.651	90.06
308.881	79.06
309.111	88.06
309.341	82.06
309.571	78.06
309.8	78.06
310.03	71.06
310.26	85.06
310.49	75.06
310.72	73.06
310.949	91.06
311.179	80.06
311.409	84.06
311.639	81.06
311.868	88.06
312.098	91.06
312.328	88.06
312.557	86.06
312.787	81.06
313.017	87.06
313.246	97.06
313.476	95.06
313.706	90.06
313.935	73.06
314.165	90.06
314.394	86.06
314.624	90.06
314.853	64.06
315.083	80.06
315.312	84.06
315.542	96.06
315.771	89.06
316.001	86.06
316.23	76.06
316.46	72.06
316.689	83.06
316.919	77.06
317.148	81.06
317.377	97.06
317.607	98.06
317.836	65.06
318.065	90.06
318.295	65.06
318.524	86.06
318.753	69.06
318.983	89.06
319.212	76.06
319.441	98.06
319.67	82.06
319.9	84.06
320.129	79.06
320.358	75.06
320.587	88.06
320.816	89.06
321.046	73.06
321.275	81.06
321.504	86.06
321.733	92.06
321.962	80.06
322.191	97.06
322.42	77.06
322.649	112.06
322.878	85.06
323.108	76.06
323.337	82.06
323.566	90.06
323.795	87.06
324.024	86.06
324.253	81.06
324.482	69.06
324.71	99.06
324.939	84.06
325.168	91.06
325.397	74.06
325.626	88.06
325.855	72.06
326.084	78.06
326.313	83.06
326.542	69.06
326.77	87.06
326.999	78.06
327.228	91.06
327.457	78.06
327.686	74.06
327.914	68.06
328.143	81.06
328.372	77.06
328.6	74.06
328.829	76.06
329.058	75.06
329.287	84.06
329.515	87.06
329.744	80.06
329.972	76.06
330.201	85.06
330.43	94.06
330.658	83.06
330.887	89.06
331.115	78.06
331.344	73.06
331.572	79.06
331.801	78.06
332.03	78.06
332.258	82.06
332.486	95.06
332.715	87.06
332.943	73.06
333.172	76.06
333.4	84.06
333.629	84.06
333.857	85.06
334.085	75.06
334.314	82.06
334.542	82.06
334.771	75.06
334.999	90.06
335.227	73.06
335.455	65.06
335.684	88.06
335.912	89.06
336.14	87.06
336.369	83.06
336.597	91.06
336.825	72.06
337.053	79.06
337.281	72.06
337.51	80.06
337.738	90.06
337.966	91.06
338.194	83.06
338.422	81.06
338.65	70.06
338.878	82.06
339.106	81.06
339.334	85.06
339.562	85.06
339.79	91.06
340.018	78.06
340.246	75.06
340.474	72.06
340.702	73.06
340.93	89.06
341.158	84.06
341.386	85.06
341.614	80.06
341.842	79.06
342.07	71.06
342.298	92.06
342.526	73.06
342.754	87.06
342.981	90.06
343.209	83.06
343.437	72.06
343.665	74.06
343.893	80.06
344.12	88.06
344.348	68.06
344.576	91.06
344.804	90.06
345.031	82.06
345.259	82.06
345.487	82.06
345.714	80.06
345.942	91.06
346.17	90.06
346.397	90.06
346.625	81.06
346.853	87.06
347.08	84.06
347.308	79.06
347.535	83.06
347.763	87.06
347.99	82.06
348.218	92.06
348.445	95.06
348.673	70.06
348.9	76.06
349.128	92.06
349.355	82.06
349.583	88.06
349.81	70.06
350.037	87.06
350.265	90.06
350.492	107.06
350.72	91.06
350.947	78.06
351.174	80.06
351.402	80.06
351.629	73.06
351.856	80.06
352.083	78.06
352.311	78.06
352.538	84.06
352.765	75.06
352.992	88.06
353.22	81.06
353.447	76.06
353.674	99.06
353.901	92.06
354.128	76.06
354.355	71.06
354.583	74.06
354.81	79.06
355.037	84.06
355.264	87.06
355.491	78.06
355.718	68.06
355.945	94.06
356.172	84.06
356.399	70.06
356.626	87.06
356.853	89.06
357.08	71.06
357.307	83.06
357.534	75.06
357.761	81.06
357.988	86.06
358.215	88.06
358.441	94.06
358.668	81.06
358.895	91.06
359.122	82.06
359.349	73.06
359.576	84.06
359.802	89.06
360.029	92.06
360.256	90.06
360.483	87.06
360.709	87.06
360.936	87.06
361.163	86.06
361.39	87.06
361.616	78.06
361.843	98.06
362.07	75.06
362.296	69.06
362.523	80.06
362.749	82.06
362.976	72.06
363.203	76.06
363.429	72.06
363.656	84.06
363.882	63.06
364.109	80.06
364.335	78.06
364.562	86.06
364.788	93.06
365.015	84.06
365.241	76.06
365.468	83.06
365.694	91.06
365.92	78.06
366.147	87.06
366.373	88.06
366.599	88.06
366.826	87.06
367.052	79.06
367.278	64.06
367.505	92.06
367.731	82.06
367.957	84.06
368.184	83.06
368.41	96.06
368.636	79.06
368.862	88.06
369.089	75.06
369.315	67.06
369.541	85.06
369.767	78.06
369.993	85.06
370.219	84.06
370.445	90.06
370.672	64.06
370.898	71.06
371.124	83.06
371.35	86.06
371.576	87.06
371.802	84.06
372.028	92.06
372.254	85.06
372.48	78.06
372.706	89.06
372.932	87.06
373.158	82.06
373.384	74.06
373.61	85.06
373.835	88.06
374.061	79.06
374.287	79.06
374.513	78.06
374.739	79.06
374.965	84.06
375.191	92.06
375.416	83.06
375.642	96.06
375.868	82.06
376.094	78.06
376.319	76.06
376.545	75.06
376.771	86.06
376.997	79.06
377.222	84.06
377.448	81.06
377.674	94.06
377.899	90.06
378.125	70.06
378.35	89.06
378.576	77.06
378.802	72.06
379.027	74.06
379.253	88.06
379.478	85.06
379.704	70.06
379.929	95.06
380.155	75.06
380.38	87.06
380.606	88.06
380.831	94.06
381.057	83.06
381.282	86.06
381.507	78.06
381.733	72.06
381.958	84.06
382.184	75.06
382.409	89.06
382.634	98.06
382.86	83.06
383.085	70.06
383.31	84.06
383.535	90.06
383.761	81.06
383.986	79.06
384.211	80.06
384.436	80.06
384.662	97.06
384.887	90.06
385.112	96.06
385.337	74.06
385.562	89.06
385.787	83.06
386.013	91.06
386.238	87.06
386.463	87.06
386.688	81.06
386.913	93.06
387.138	71.06
387.363	81.06
387.588	110.06
387.813	69.06
388.038	82.06
388.263	88.06
388.488	78.06
388.713	73.06
388.938	88.06
389.163	88.06
389.387	79.06
389.612	95.06
389.837	68.06
390.062	71.06
390.287	85.06
390.512	81.06
390.736	83.06
390.961	67.06
391.186	87.06
391.411	82.06
391.636	66.06
391.86	79.06
392.085	78.06
392.31	84.06
392.534	90.06
392.759	76.06
392.984	77.06
393.208	85.06
393.433	91.06
393.658	82.06
393.882	80.06
394.107	84.06
394.331	82.06
394.556	77.06
394.78	70.06
395.005	92.06
395.229	79.06
395.454	72.06
395.678	76.06
395.903	88.06
396.127	89.06
396.352	73.06
396.576	80.06
396.801	76.06
397.025	95.06
397.249	87.06
397.474	99.06
397.698	79.06
397.922	82.06
398.147	91.06
398.371	92.06
398.595	83.06
398.82	83.06
399.044	77.06
399.268	80.06
399.492	72.06
399.717	72.06
399.941	70.06
400.165	96.06
400.389	86.06
400.613	93.06
400.837	88.06
401.062	77.06
401.286	92.06
401.51	83.06
401.734	85.06
401.958	94.06
402.182	80.06
402.406	79.06
402.63	85.06
402.854	86.06
403.078	81.06
403.302	78.06
403.526	105.06
403.75	94.06
403.974	89.06
404.198	74.06
404.422	87.06
404.645	93.06
404.869	87.06
405.093	79.06
405.317	83.06
405.541	81.06
405.765	91.06
405.988	89.06
406.212	89.06
406.436	76.06
406.66	75.06
406.883	88.06
407.107	84.06
407.331	87.06
407.555	91.06
407.778	81.06
408.002	79.06
408.226	95.06
408.449	72.06
408.673	76.06
408.896	65.06
409.12	78.06
409.344	83.06
409.567	84.06
409.791	67.06
410.014	75.06
410.238	75.06
410.461	77.06
410.685	76.06
410.908	70.06
411.132	76.06
411.355	75.06
411.578	101.06
411.802	91.06
412.025	83.06
412.249	77.06
412.472	89.06
412.695	82.06
412.919	81.06
413.142	85.06
413.365	84.06
413.589	87.06
413.812	98.06
414.035	82.06
414.258	73.06
414.482	76.06
414.705	89.06
414.928	88.06
415.151	87.06
415.374	84.06
415.597	73.06
415.821	93.06
416.044	89.06
416.267	78.06
416.49	84.06
416.713	80.06
416.936	92.06
417.159	79.06
417.382	85.06
417.605	100.06
417.828	93.06
418.051	74.06
418.274	88.06
418.497	91.06
418.72	82.06
418.943	96.06
419.166	92.06
419.389	97.06
419.611	87.06
419.834	92.06
420.057	84.06
420.28	90.06
420.503	96.06
420.726	80.06
420.948	89.06
421.171	81.06
421.394	77.06
421.617	86.06
421.839	84.06
422.062	77.06
422.285	82.06
422.507	84.06
422.73	95.06
422.953	87.06
423.175	86.06
423.398	81.06
423.621	91.06
423.843	96.06
424.066	77.06
424.288	82.06
424.511	88.06
424.733	88.06
424.956	88.06
425.178	89.06
425.401	83.06
425.623	101.06
425.846	85.06
426.068	81.06
426.291	80.06
426.513	94.06
426.735	88.06
426.958	91.06
427.18	94.06
427.402	84.06
427.625	70.06
427.847	70.06
428.069	84.06
428.292	79.06
428.514	93.06
428.736	89.06
428.958	91.06
429.181	93.06
429.403	89.06
429.625	80.06
429.847	85.06
430.069	82.06
430.292	103.06
430.514	88.06
430.736	90.06
430.958	87.06
431.18	90.06
431.402	88.06
431.624	83.06
431.846	97.06
432.068	80.06
432.29	79.06
432.512	81.06
432.734	74.06
432.956	78.06
433.178	85.06
433.4	82.06
433.622	81.06
433.844	82.06
434.066	95.06
434.287	98.06
434.509	80.06
434.731	75.06
434.953	88.06
435.175	96.06
435.397	89.06
435.618	84.06
435.84	80.06
436.062	83.06
436.284	80.06
436.505	102.06
436.727	92.06
436.949	85.06
437.17	98.06
437.392	104.06
437.614	93.06
437.835	96.06
438.057	99.06
438.278	79.06
438.5	85.06
438.721	84.06
438.943	97.06
439.165	88.06
439.386	89.06
439.608	76.06
439.829	96.06
440.05	105.06
440.272	98.06
440.493	89.06
440.715	90.06
440.936	90.06
441.158	91.06
441.379	92.06
441.6	86.06
441.822	82.06
442.043	85.06
442.264	81.06
442.486	75.06
442.707	88.06
442.928	82.06
443.149	100.06
443.371	102.06
443.592	86.06
443.813	88.06
444.034	88.06
444.255	100.06
444.476	86.06
444.698	96.06
444.919	95.06
445.14	191.06
445.361	123.06
445.582	100.06
445.803	92.06
446.024	99.06
446.245	85.06
446.466	89.06
446.687	83.06
446.908	89.06
447.129	92.06
447.35	94.06
447.571	98.06
447.792	79.06
448.013	98.06
448.234	88.06
448.455	84.06
448.675	92.06
448.896	85.06
449.117	87.06
449.338	85.06
449.559	96.06
449.779	86.06
450	80.06
450.221	92.06
450.442	100.06
450.662	82.06
450.883	96.06
451.104	96.06
451.324	88.06
451.545	85.06
451.766	79.06
451.986	72.06
452.207	98.06
452.428	87.06
452.648	90.06
452.869	77.06
453.089	77.06
453.31	95.06
453.53	82.06
453.751	74.06
453.971	86.06
454.192	69.06
454.412	75.06
454.633	82.06
454.853	91.06
455.073	106.06
455.294	89.06
455.514	81.06
455.734	88.06
455.955	98.06
456.175	88.06
456.395	75.06
456.616	82.06
456.836	90.06
457.056	100.06
457.276	84.06
457.497	100.06
457.717	80.06
457.937	92.06
458.157	68.06
458.377	87.06
458.598	84.06
458.818	78.06
459.038	75.06
459.258	80.06
459.478	80.06
459.698	71.06
459.918	74.06
460.138	86.06
460.358	88.06
460.578	82.06
460.798	94.06
461.018	88.06
461.238	92.06
461.458	85.06
461.678	72.06
461.898	90.06
462.118	83.06
462.338	81.06
462.558	82.06
462.777	79.06
462.997	87.06
463.217	79.06
463.437	72.06
463.657	81.06
463.876	91.06
464.096	76.06
464.316	81.06
464.536	87.06
464.755	80.06
464.975	82.06
465.195	81.06
465.414	80.06
465.634	95.06
465.854	99.06
466.073	85.06
466.293	84.06
466.512	87.06
466.732	94.06
466.951	94.06
467.171	88.06
467.391	95.06
467.61	75.06
467.829	97.06
468.049	90.06
468.268	79.06
468.488	82.06
468.707	87.06
468.927	103.06
469.146	91.06
469.365	78.06
469.585	86.06
469.804	94.06
470.023	74.06
470.243	81.06
470.462	91.06
470.681	81.06
470.901	82.06
471.12	93.06
471.339	86.06
471.558	81.06
471.777	90.06
471.997	79.06
472.216	90.06
472.435	100.06
472.654	81.06
472.873	98.06
473.092	89.06
473.311	90.06
473.53	90.06
473.749	97.06
473.968	71.06
474.187	71.06
474.406	96.06
474.625	88.06
474.844	83.06
475.063	91.06
475.282	85.06
475.501	75.06
475.72	77.06
475.939	85.06
476.158	75.06
476.377	90.06
476.596	84.06
476.814	86.06
477.033	68.06
477.252	74.06
477.471	82.06
477.69	87.06
477.908	103.06
478.127	97.06
478.346	82.06
478.564	102.06
478.783	104.06
479.002	102.06
479.22	90.06
479.439	83.06
479.658	90.06
479.876	82.06
480.095	75.06
480.313	87.06
480.532	76.06
480.751	98.06
480.969	79.06
481.188	75.06
481.406	100.06
481.624	82.06
481.843	79.06
482.061	82.06
482.28	90.06
482.498	102.06
482.717	91.06
482.935	78.06
483.153	76.06
483.372	95.06
483.59	105.06
483.808	91.06
484.027	83.06
484.245	94.06
484.463	85.06
484.681	86.06
484.9	98.06
485.118	95.06
485.336	72.06
485.554	88.06
485.772	98.06
485.99	89.06
486.209	71.06
486.427	83.06
486.645	85.06
486.863	78.06
487.081	98.06
487.299	97.06
487.517	88.06
487.735	108.06
487.953	99.06
488.171	101.06
488.389	87.06
488.607	83.06
488.825	87.06
489.043	90.06
489.261	88.06
489.479	101.06
489.696	79.06
489.914	85.06
490.132	101.06
490.35	99.06
490.568	118.06
490.786	96.06
491.003	102.06
491.221	94.06
491.439	86.06
491.657	107.06
491.874	100.06
492.092	100.06
492.31	107.06
492.527	113.06
492.745	99.06
492.963	94.06
493.18	95.06
493.398	98.06
493.615	104.06
493.833	107.06
494.05	103.06
494.268	102.06
494.485	106.06
494.703	103.06
494.92	84.06
495.138	99.06
495.355	91.06
495.573	107.06
495.79	86.06
496.008	97.06
496.225	106.06
496.442	92.06
496.66	93.06
496.877	86.06
497.094	96.06
497.312	85.06
497.529	83.06
497.746	103.06
497.963	98.06
498.181	98.06
498.398	91.06
498.615	85.06
498.832	87.06
499.049	84.06
499.267	82.06
499.484	64.06
499.701	84.06
499.918	92.06
500.135	92.06
500.352	94.06
500.569	98.06
500.786	106.06
501.003	94.06
501.22	94.06
501.437	98.06
501.654	91.06
501.871	78.06
502.088	84.06
502.305	89.06
502.522	97.06
502.739	86.06
502.956	84.06
503.172	83.06
503.389	91.06
503.606	85.06
503.823	77.06
504.04	87.06
504.256	83.06
504.473	84.06
504.69	82.06
504.907	79.06
505.123	90.06
505.34	90.06
505.557	91.06
505.773	99.06
505.99	97.06
506.207	88.06
506.423	92.06
506.64	91.06
506.856	92.06
507.073	80.06
507.289	89.06
507.506	75.06
507.722	92.06
507.939	86.06
508.155	100.06
508.372	107.06
508.588	100.06
508.805	91.06
509.021	72.06
509.238	86.06
509.454	96.06
509.67	78.06
509.887	84.06
510.103	77.06
510.319	95.06
510.536	85.06
510.752	71.06
510.968	85.06
511.184	86.06
511.401	92.06
511.617	82.06
511.833	67.06
512.049	95.06
512.265	75.06
512.481	76.06
512.698	82.06
512.914	79.06
513.13	79.06
513.346	85.06
513.562	90.06
513.778	108.06
513.994	79.06
514.21	80.06
514.426	83.06
514.642	87.06
514.858	81.06
515.074	73.06
515.29	71.06
515.506	81.06
515.721	83.06
515.937	84.06
516.153	74.06
516.369	71.06
516.585	88.06
516.801	79.06
517.016	71.06
517.232	79.06
517.448	80.06
517.664	87.06
517.879	77.06
518.095	82.06
518.311	75.06
518.527	92.06
518.742	83.06
