Data from Zn(NO3)2Standard.Agarose3%.GreenCap.LampEnergy10E.O_HRD10591_15-08-49-951.txt Node
Date: Mon Jul 22 15:08:49 EDT 2019
User: cochatt
Spectrometer: HR+D1059
Trigger mode: 1
Integration Time (sec): 1.000000E-1
Scans to average: 1
Electric dark correction enabled: true
Nonlinearity correction enabled: false
Boxcar width: 0
XAxis mode: Wavelengths
Number of Pixels in Spectrum: 2048
>>>>>Begin Spectral Data<<<<<
223.165	-28.12
223.4	-28.12
223.635	-28.12
223.869	-23.12
224.104	-9.12
224.338	-13.12
224.573	-15.12
224.808	-4.12
225.042	-8.12
225.277	-13.12
225.511	4.88
225.746	-0.12
225.98	2.88
226.215	21.88
226.449	12.88
226.683	25.88
226.918	23.88
227.152	21.88
227.387	26.88
227.621	40.88
227.856	49.88
228.09	41.88
228.324	41.88
228.559	55.88
228.793	50.88
229.027	64.88
229.262	66.88
229.496	62.88
229.73	64.88
229.964	63.88
230.199	68.88
230.433	70.88
230.667	71.88
230.901	62.88
231.136	70.88
231.37	57.88
231.604	73.88
231.838	80.88
232.072	81.88
232.306	73.88
232.541	80.88
232.775	80.88
233.009	81.88
233.243	77.88
233.477	77.88
233.711	83.88
233.945	78.88
234.179	82.88
234.413	72.88
234.647	80.88
234.881	80.88
235.115	77.88
235.349	83.88
235.583	77.88
235.817	66.88
236.051	76.88
236.285	74.88
236.519	67.88
236.753	77.88
236.987	74.88
237.221	71.88
237.455	68.88
237.689	88.88
237.922	71.88
238.156	86.88
238.39	69.88
238.624	73.88
238.858	77.88
239.091	71.88
239.325	76.88
239.559	62.88
239.793	70.88
240.027	64.88
240.26	66.88
240.494	78.88
240.728	78.88
240.961	74.88
241.195	81.88
241.429	71.88
241.662	78.88
241.896	68.88
242.13	79.88
242.363	71.88
242.597	72.88
242.83	72.88
243.064	65.88
243.298	82.88
243.531	71.88
243.765	76.88
243.998	76.88
244.232	80.88
244.465	66.88
244.699	74.88
244.932	85.88
245.166	75.88
245.399	83.88
245.633	59.88
245.866	74.88
246.099	64.88
246.333	83.88
246.566	64.88
246.8	64.88
247.033	66.88
247.266	78.88
247.5	72.88
247.733	87.88
247.966	71.88
248.2	78.88
248.433	80.88
248.666	83.88
248.899	84.88
249.133	69.88
249.366	76.88
249.599	81.88
249.832	79.88
250.066	65.88
250.299	64.88
250.532	89.88
250.765	70.88
250.998	73.88
251.231	84.88
251.465	77.88
251.698	82.88
251.931	80.88
252.164	65.88
252.397	68.88
252.63	69.88
252.863	74.88
253.096	63.88
253.329	83.88
253.562	77.88
253.795	80.88
254.028	71.88
254.261	92.88
254.494	77.88
254.727	72.88
254.96	68.88
255.193	73.88
255.426	71.88
255.659	82.88
255.892	72.88
256.124	59.88
256.357	72.88
256.59	75.88
256.823	80.88
257.056	73.88
257.289	69.88
257.521	82.88
257.754	67.88
257.987	80.88
258.22	83.88
258.452	80.88
258.685	83.88
258.918	55.88
259.151	72.88
259.383	78.88
259.616	62.88
259.849	78.88
260.081	77.88
260.314	71.88
260.547	70.88
260.779	70.88
261.012	82.88
261.244	87.88
261.477	92.88
261.71	85.88
261.942	78.88
262.175	77.88
262.407	72.88
262.64	69.88
262.872	70.88
263.105	73.88
263.337	85.88
263.57	77.88
263.802	61.88
264.035	62.88
264.267	91.88
264.499	80.88
264.732	78.88
264.964	81.88
265.197	67.88
265.429	80.88
265.661	76.88
265.894	82.88
266.126	77.88
266.358	66.88
266.591	78.88
266.823	86.88
267.055	71.88
267.287	75.88
267.52	67.88
267.752	87.88
267.984	68.88
268.216	85.88
268.448	77.88
268.681	80.88
268.913	75.88
269.145	82.88
269.377	69.88
269.609	58.88
269.841	63.88
270.073	70.88
270.306	75.88
270.538	84.88
270.77	72.88
271.002	75.88
271.234	76.88
271.466	99.88
271.698	79.88
271.93	96.88
272.162	85.88
272.394	84.88
272.626	83.88
272.858	79.88
273.09	79.88
273.322	93.88
273.553	78.88
273.785	83.88
274.017	68.88
274.249	68.88
274.481	71.88
274.713	81.88
274.945	72.88
275.176	70.88
275.408	78.88
275.64	69.88
275.872	68.88
276.104	65.88
276.335	87.88
276.567	82.88
276.799	85.88
277.031	82.88
277.262	79.88
277.494	69.88
277.726	75.88
277.957	77.88
278.189	71.88
278.421	74.88
278.652	79.88
278.884	88.88
279.115	82.88
279.347	75.88
279.579	71.88
279.81	81.88
280.042	80.88
280.273	73.88
280.505	78.88
280.736	77.88
280.968	80.88
281.199	94.88
281.431	80.88
281.662	78.88
281.894	77.88
282.125	72.88
282.356	80.88
282.588	69.88
282.819	74.88
283.051	86.88
283.282	74.88
283.513	79.88
283.745	74.88
283.976	88.88
284.207	83.88
284.439	81.88
284.67	79.88
284.901	84.88
285.132	74.88
285.364	73.88
285.595	86.88
285.826	93.88
286.057	87.88
286.288	71.88
286.52	75.88
286.751	68.88
286.982	80.88
287.213	82.88
287.444	82.88
287.675	70.88
287.906	83.88
288.138	81.88
288.369	71.88
288.6	82.88
288.831	69.88
289.062	89.88
289.293	86.88
289.524	90.88
289.755	78.88
289.986	81.88
290.217	76.88
290.448	74.88
290.679	81.88
290.91	81.88
291.141	69.88
291.371	93.88
291.602	90.88
291.833	79.88
292.064	85.88
292.295	88.88
292.526	67.88
292.757	82.88
292.987	92.88
293.218	76.88
293.449	72.88
293.68	84.88
293.91	71.88
294.141	84.88
294.372	73.88
294.603	87.88
294.833	84.88
295.064	81.88
295.295	61.88
295.525	81.88
295.756	86.88
295.987	81.88
296.217	101.88
296.448	93.88
296.679	96.88
296.909	84.88
297.14	89.88
297.37	81.88
297.601	80.88
297.831	84.88
298.062	79.88
298.292	80.88
298.523	73.88
298.753	83.88
298.984	70.88
299.214	76.88
299.445	78.88
299.675	71.88
299.905	84.88
300.136	84.88
300.366	82.88
300.597	85.88
300.827	77.88
301.057	73.88
301.288	68.88
301.518	71.88
301.748	90.88
301.979	95.88
302.209	80.88
302.439	84.88
302.669	80.88
302.9	78.88
303.13	92.88
303.36	79.88
303.59	84.88
303.82	79.88
304.051	89.88
304.281	86.88
304.511	90.88
304.741	78.88
304.971	84.88
305.201	89.88
305.431	85.88
305.661	63.88
305.891	80.88
306.121	82.88
306.352	100.88
306.582	73.88
306.812	94.88
307.042	73.88
307.272	74.88
307.502	64.88
307.731	92.88
307.961	88.88
308.191	70.88
308.421	70.88
308.651	70.88
308.881	73.88
309.111	86.88
309.341	82.88
309.571	77.88
309.8	89.88
310.03	72.88
310.26	97.88
310.49	94.88
310.72	70.88
310.949	73.88
311.179	81.88
311.409	79.88
311.639	63.88
311.868	90.88
312.098	80.88
312.328	96.88
312.557	92.88
312.787	79.88
313.017	88.88
313.246	80.88
313.476	75.88
313.706	88.88
313.935	84.88
314.165	76.88
314.394	74.88
314.624	98.88
314.853	74.88
315.083	79.88
315.312	94.88
315.542	80.88
315.771	77.88
316.001	74.88
316.23	80.88
316.46	67.88
316.689	77.88
316.919	83.88
317.148	81.88
317.377	86.88
317.607	78.88
317.836	84.88
318.065	74.88
318.295	78.88
318.524	74.88
318.753	88.88
318.983	82.88
319.212	88.88
319.441	89.88
319.67	76.88
319.9	86.88
320.129	71.88
320.358	82.88
320.587	73.88
320.816	70.88
321.046	67.88
321.275	87.88
321.504	74.88
321.733	85.88
321.962	66.88
322.191	81.88
322.42	72.88
322.649	83.88
322.878	88.88
323.108	78.88
323.337	89.88
323.566	82.88
323.795	75.88
324.024	86.88
324.253	92.88
324.482	87.88
324.71	80.88
324.939	78.88
325.168	85.88
325.397	69.88
325.626	86.88
325.855	90.88
326.084	77.88
326.313	72.88
326.542	75.88
326.77	76.88
326.999	88.88
327.228	91.88
327.457	74.88
327.686	77.88
327.914	76.88
328.143	94.88
328.372	75.88
328.6	78.88
328.829	65.88
329.058	84.88
329.287	80.88
329.515	78.88
329.744	93.88
329.972	81.88
330.201	79.88
330.43	76.88
330.658	73.88
330.887	86.88
331.115	78.88
331.344	93.88
331.572	93.88
331.801	77.88
332.03	84.88
332.258	68.88
332.486	71.88
332.715	86.88
332.943	74.88
333.172	80.88
333.4	92.88
333.629	76.88
333.857	82.88
334.085	78.88
334.314	93.88
334.542	83.88
334.771	69.88
334.999	74.88
335.227	87.88
335.455	68.88
335.684	72.88
335.912	81.88
336.14	76.88
336.369	90.88
336.597	75.88
336.825	82.88
337.053	89.88
337.281	83.88
337.51	76.88
337.738	84.88
337.966	94.88
338.194	81.88
338.422	75.88
338.65	70.88
338.878	74.88
339.106	77.88
339.334	86.88
339.562	84.88
339.79	67.88
340.018	78.88
340.246	73.88
340.474	79.88
340.702	68.88
340.93	77.88
341.158	77.88
341.386	74.88
341.614	83.88
341.842	84.88
342.07	75.88
342.298	81.88
342.526	88.88
342.754	82.88
342.981	73.88
343.209	68.88
343.437	74.88
343.665	71.88
343.893	80.88
344.12	86.88
344.348	71.88
344.576	70.88
344.804	68.88
345.031	85.88
345.259	78.88
345.487	84.88
345.714	81.88
345.942	75.88
346.17	94.88
346.397	90.88
346.625	89.88
346.853	82.88
347.08	81.88
347.308	83.88
347.535	89.88
347.763	73.88
347.99	80.88
348.218	73.88
348.445	82.88
348.673	66.88
348.9	77.88
349.128	95.88
349.355	77.88
349.583	77.88
349.81	85.88
350.037	89.88
350.265	79.88
350.492	73.88
350.72	81.88
350.947	77.88
351.174	81.88
351.402	71.88
351.629	87.88
351.856	72.88
352.083	83.88
352.311	79.88
352.538	81.88
352.765	74.88
352.992	74.88
353.22	78.88
353.447	83.88
353.674	86.88
353.901	85.88
354.128	92.88
354.355	85.88
354.583	71.88
354.81	84.88
355.037	81.88
355.264	68.88
355.491	62.88
355.718	75.88
355.945	80.88
356.172	74.88
356.399	86.88
356.626	69.88
356.853	87.88
357.08	77.88
357.307	78.88
357.534	64.88
357.761	87.88
357.988	82.88
358.215	79.88
358.441	77.88
358.668	82.88
358.895	81.88
359.122	82.88
359.349	69.88
359.576	80.88
359.802	76.88
360.029	71.88
360.256	73.88
360.483	91.88
360.709	71.88
360.936	88.88
361.163	73.88
361.39	81.88
361.616	88.88
361.843	68.88
362.07	54.88
362.296	85.88
362.523	70.88
362.749	77.88
362.976	73.88
363.203	72.88
363.429	77.88
363.656	66.88
363.882	83.88
364.109	96.88
364.335	92.88
364.562	81.88
364.788	93.88
365.015	79.88
365.241	75.88
365.468	73.88
365.694	76.88
365.92	86.88
366.147	86.88
366.373	81.88
366.599	82.88
366.826	74.88
367.052	87.88
367.278	83.88
367.505	83.88
367.731	84.88
367.957	77.88
368.184	74.88
368.41	82.88
368.636	83.88
368.862	84.88
369.089	85.88
369.315	74.88
369.541	78.88
369.767	89.88
369.993	80.88
370.219	87.88
370.445	73.88
370.672	87.88
370.898	89.88
371.124	83.88
371.35	73.88
371.576	80.88
371.802	89.88
372.028	84.88
372.254	81.88
372.48	78.88
372.706	92.88
372.932	88.88
373.158	69.88
373.384	95.88
373.61	101.88
373.835	89.88
374.061	89.88
374.287	89.88
374.513	92.88
374.739	94.88
374.965	74.88
375.191	87.88
375.416	88.88
375.642	83.88
375.868	98.88
376.094	83.88
376.319	73.88
376.545	95.88
376.771	59.88
376.997	75.88
377.222	74.88
377.448	81.88
377.674	82.88
377.899	89.88
378.125	85.88
378.35	83.88
378.576	84.88
378.802	87.88
379.027	74.88
379.253	81.88
379.478	76.88
379.704	82.88
379.929	72.88
380.155	88.88
380.38	89.88
380.606	76.88
380.831	89.88
381.057	90.88
381.282	87.88
381.507	88.88
381.733	72.88
381.958	87.88
382.184	94.88
382.409	90.88
382.634	94.88
382.86	76.88
383.085	76.88
383.31	88.88
383.535	85.88
383.761	86.88
383.986	96.88
384.211	81.88
384.436	82.88
384.662	78.88
384.887	84.88
385.112	77.88
385.337	74.88
385.562	87.88
385.787	87.88
386.013	103.88
386.238	79.88
386.463	83.88
386.688	74.88
386.913	87.88
387.138	84.88
387.363	88.88
387.588	72.88
387.813	78.88
388.038	90.88
388.263	80.88
388.488	92.88
388.713	85.88
388.938	93.88
389.163	70.88
389.387	83.88
389.612	95.88
389.837	81.88
390.062	89.88
390.287	82.88
390.512	99.88
390.736	110.88
390.961	90.88
391.186	90.88
391.411	79.88
391.636	93.88
391.86	87.88
392.085	93.88
392.31	94.88
392.534	91.88
392.759	80.88
392.984	84.88
393.208	92.88
393.433	88.88
393.658	87.88
393.882	87.88
394.107	80.88
394.331	88.88
394.556	97.88
394.78	81.88
395.005	92.88
395.229	75.88
395.454	89.88
395.678	71.88
395.903	83.88
396.127	89.88
396.352	84.88
396.576	87.88
396.801	82.88
397.025	87.88
397.249	91.88
397.474	73.88
397.698	97.88
397.922	88.88
398.147	89.88
398.371	95.88
398.595	93.88
398.82	85.88
399.044	73.88
399.268	99.88
399.492	90.88
399.717	93.88
399.941	93.88
400.165	99.88
400.389	89.88
400.613	81.88
400.837	89.88
401.062	99.88
401.286	84.88
401.51	100.88
401.734	69.88
401.958	84.88
402.182	94.88
402.406	103.88
402.63	101.88
402.854	94.88
403.078	95.88
403.302	83.88
403.526	86.88
403.75	104.88
403.974	89.88
404.198	96.88
404.422	91.88
404.645	97.88
404.869	81.88
405.093	98.88
405.317	84.88
405.541	105.88
405.765	82.88
405.988	99.88
406.212	89.88
406.436	93.88
406.66	98.88
406.883	96.88
407.107	102.88
407.331	98.88
407.555	100.88
407.778	86.88
408.002	86.88
408.226	98.88
408.449	84.88
408.673	93.88
408.896	91.88
409.12	105.88
409.344	104.88
409.567	95.88
409.791	95.88
410.014	91.88
410.238	108.88
410.461	81.88
410.685	102.88
410.908	97.88
411.132	105.88
411.355	89.88
411.578	89.88
411.802	94.88
412.025	86.88
412.249	96.88
412.472	93.88
412.695	99.88
412.919	93.88
413.142	93.88
413.365	85.88
413.589	96.88
413.812	85.88
414.035	105.88
414.258	102.88
414.482	93.88
414.705	88.88
414.928	97.88
415.151	91.88
415.374	91.88
415.597	82.88
415.821	95.88
416.044	113.88
416.267	97.88
416.49	88.88
416.713	101.88
416.936	85.88
417.159	91.88
417.382	107.88
417.605	101.88
417.828	100.88
418.051	114.88
418.274	98.88
418.497	110.88
418.72	112.88
418.943	111.88
419.166	92.88
419.389	94.88
419.611	101.88
419.834	98.88
420.057	104.88
420.28	105.88
420.503	86.88
420.726	91.88
420.948	102.88
421.171	94.88
421.394	100.88
421.617	103.88
421.839	88.88
422.062	104.88
422.285	116.88
422.507	100.88
422.73	113.88
422.953	110.88
423.175	104.88
423.398	100.88
423.621	98.88
423.843	101.88
424.066	106.88
424.288	105.88
424.511	114.88
424.733	107.88
424.956	113.88
425.178	93.88
425.401	110.88
425.623	108.88
425.846	106.88
426.068	100.88
426.291	106.88
426.513	99.88
426.735	103.88
426.958	105.88
427.18	101.88
427.402	102.88
427.625	106.88
427.847	103.88
428.069	99.88
428.292	108.88
428.514	96.88
428.736	101.88
428.958	115.88
429.181	120.88
429.403	104.88
429.625	114.88
429.847	99.88
430.069	78.88
430.292	103.88
430.514	92.88
430.736	99.88
430.958	105.88
431.18	92.88
431.402	97.88
431.624	86.88
431.846	99.88
432.068	80.88
432.29	98.88
432.512	94.88
432.734	101.88
432.956	86.88
433.178	94.88
433.4	98.88
433.622	93.88
433.844	101.88
434.066	86.88
434.287	98.88
434.509	92.88
434.731	87.88
434.953	89.88
435.175	97.88
435.397	107.88
435.618	90.88
435.84	83.88
436.062	86.88
436.284	105.88
436.505	94.88
436.727	89.88
436.949	109.88
437.17	88.88
437.392	87.88
437.614	93.88
437.835	82.88
438.057	102.88
438.278	87.88
438.5	98.88
438.721	119.88
438.943	119.88
439.165	104.88
439.386	98.88
439.608	110.88
439.829	111.88
440.05	119.88
440.272	117.88
440.493	94.88
440.715	101.88
440.936	101.88
441.158	102.88
441.379	105.88
441.6	113.88
441.822	104.88
442.043	100.88
442.264	85.88
442.486	108.88
442.707	105.88
442.928	120.88
443.149	97.88
443.371	104.88
443.592	114.88
443.813	96.88
444.034	100.88
444.255	83.88
444.476	103.88
444.698	82.88
444.919	108.88
445.14	236.88
445.361	182.88
445.582	120.88
445.803	94.88
446.024	92.88
446.245	121.88
446.466	108.88
446.687	102.88
446.908	112.88
447.129	110.88
447.35	109.88
447.571	110.88
447.792	106.88
448.013	117.88
448.234	129.88
448.455	104.88
448.675	95.88
448.896	106.88
449.117	124.88
449.338	104.88
449.559	94.88
449.779	99.88
450	103.88
450.221	103.88
450.442	105.88
450.662	103.88
450.883	93.88
451.104	91.88
451.324	90.88
451.545	108.88
451.766	99.88
451.986	92.88
452.207	98.88
452.428	88.88
452.648	101.88
452.869	88.88
453.089	102.88
453.31	78.88
453.53	96.88
453.751	87.88
453.971	94.88
454.192	81.88
454.412	86.88
454.633	98.88
454.853	94.88
455.073	96.88
455.294	102.88
455.514	98.88
455.734	98.88
455.955	106.88
456.175	102.88
456.395	104.88
456.616	83.88
456.836	92.88
457.056	87.88
457.276	97.88
457.497	96.88
457.717	88.88
457.937	96.88
458.157	84.88
458.377	88.88
458.598	91.88
458.818	108.88
459.038	86.88
459.258	64.88
459.478	72.88
459.698	84.88
459.918	97.88
460.138	82.88
460.358	87.88
460.578	100.88
460.798	80.88
461.018	89.88
461.238	92.88
461.458	96.88
461.678	87.88
461.898	81.88
462.118	104.88
462.338	100.88
462.558	97.88
462.777	85.88
462.997	85.88
463.217	86.88
463.437	87.88
463.657	84.88
463.876	85.88
464.096	87.88
464.316	95.88
464.536	82.88
464.755	90.88
464.975	95.88
465.195	94.88
465.414	101.88
465.634	86.88
465.854	102.88
466.073	95.88
466.293	86.88
466.512	104.88
466.732	96.88
466.951	96.88
467.171	109.88
467.391	98.88
467.61	101.88
467.829	95.88
468.049	103.88
468.268	104.88
468.488	90.88
468.707	114.88
468.927	98.88
469.146	93.88
469.365	108.88
469.585	108.88
469.804	99.88
470.023	101.88
470.243	111.88
470.462	108.88
470.681	111.88
470.901	101.88
471.12	96.88
471.339	102.88
471.558	104.88
471.777	101.88
471.997	107.88
472.216	90.88
472.435	84.88
472.654	99.88
472.873	92.88
473.092	93.88
473.311	90.88
473.53	90.88
473.749	95.88
473.968	96.88
474.187	88.88
474.406	111.88
474.625	106.88
474.844	97.88
475.063	99.88
475.282	94.88
475.501	82.88
475.72	96.88
475.939	113.88
476.158	114.88
476.377	104.88
476.596	92.88
476.814	99.88
477.033	98.88
477.252	79.88
477.471	101.88
477.69	100.88
477.908	106.88
478.127	100.88
478.346	102.88
478.564	95.88
478.783	109.88
479.002	105.88
479.22	101.88
479.439	85.88
479.658	108.88
479.876	97.88
480.095	86.88
480.313	98.88
480.532	105.88
480.751	82.88
480.969	79.88
481.188	82.88
481.406	85.88
481.624	79.88
481.843	88.88
482.061	79.88
482.28	101.88
482.498	100.88
482.717	93.88
482.935	98.88
483.153	117.88
483.372	106.88
483.59	117.88
483.808	104.88
484.027	115.88
484.245	96.88
484.463	106.88
484.681	105.88
484.9	113.88
485.118	97.88
485.336	108.88
485.554	102.88
485.772	87.88
485.99	83.88
486.209	114.88
486.427	96.88
486.645	111.88
486.863	103.88
487.081	99.88
487.299	95.88
487.517	116.88
487.735	102.88
487.953	113.88
488.171	117.88
488.389	127.88
488.607	112.88
488.825	100.88
489.043	98.88
489.261	93.88
489.479	94.88
489.696	115.88
489.914	108.88
490.132	93.88
490.35	112.88
490.568	122.88
490.786	123.88
491.003	126.88
491.221	120.88
491.439	131.88
491.657	129.88
491.874	142.88
492.092	142.88
492.31	156.88
492.527	137.88
492.745	126.88
492.963	126.88
493.18	111.88
493.398	112.88
493.615	119.88
493.833	116.88
494.05	121.88
494.268	127.88
494.485	97.88
494.703	141.88
494.92	134.88
495.138	126.88
495.355	125.88
495.573	129.88
495.79	121.88
496.008	137.88
496.225	96.88
496.442	120.88
496.66	126.88
496.877	119.88
497.094	116.88
497.312	121.88
497.529	103.88
497.746	112.88
497.963	101.88
498.181	116.88
498.398	118.88
498.615	95.88
498.832	111.88
499.049	99.88
499.267	88.88
499.484	111.88
499.701	105.88
499.918	105.88
500.135	103.88
500.352	99.88
500.569	97.88
500.786	106.88
501.003	108.88
501.22	96.88
501.437	98.88
501.654	88.88
501.871	102.88
502.088	96.88
502.305	116.88
502.522	113.88
502.739	89.88
502.956	93.88
503.172	92.88
503.389	96.88
503.606	96.88
503.823	96.88
504.04	113.88
504.256	101.88
504.473	106.88
504.69	102.88
504.907	94.88
505.123	97.88
505.34	98.88
505.557	93.88
505.773	93.88
505.99	94.88
506.207	101.88
506.423	104.88
506.64	104.88
506.856	93.88
507.073	101.88
507.289	90.88
507.506	116.88
507.722	101.88
507.939	105.88
508.155	97.88
508.372	93.88
508.588	110.88
508.805	92.88
509.021	113.88
509.238	107.88
509.454	85.88
509.67	88.88
509.887	97.88
510.103	76.88
510.319	87.88
510.536	94.88
510.752	84.88
510.968	81.88
511.184	70.88
511.401	92.88
511.617	91.88
511.833	77.88
512.049	95.88
512.265	89.88
512.481	90.88
512.698	85.88
512.914	89.88
513.13	85.88
513.346	79.88
513.562	87.88
513.778	80.88
513.994	82.88
514.21	94.88
514.426	81.88
514.642	96.88
514.858	79.88
515.074	84.88
515.29	86.88
515.506	73.88
515.721	83.88
515.937	78.88
