Data from Zn(NO3)2Standard.Agarose3%.GreenCap.LampEnergy5.5.E.O_HRD10591_15-02-58-768.txt Node
Date: Mon Jul 22 15:02:58 EDT 2019
User: cochatt
Spectrometer: HR+D1059
Trigger mode: 1
Integration Time (sec): 1.000000E-1
Scans to average: 1
Electric dark correction enabled: true
Nonlinearity correction enabled: false
Boxcar width: 0
XAxis mode: Wavelengths
Number of Pixels in Spectrum: 2048
>>>>>Begin Spectral Data<<<<<
223.165	-23.25
223.4	-23.25
223.635	-23.25
223.869	-13.25
224.104	-18.25
224.338	-23.25
224.573	-22.25
224.808	-34.25
225.042	-0.25
225.277	7.75
225.511	2.75
225.746	1.75
225.98	9.75
226.215	17.75
226.449	-6.25
226.683	34.75
226.918	34.75
227.152	31.75
227.387	40.75
227.621	24.75
227.856	43.75
228.09	53.75
228.324	45.75
228.559	47.75
228.793	59.75
229.027	50.75
229.262	60.75
229.496	75.75
229.73	71.75
229.964	81.75
230.199	69.75
230.433	79.75
230.667	77.75
230.901	69.75
231.136	83.75
231.37	79.75
231.604	87.75
231.838	64.75
232.072	75.75
232.306	79.75
232.541	88.75
232.775	81.75
233.009	77.75
233.243	77.75
233.477	80.75
233.711	63.75
233.945	80.75
234.179	90.75
234.413	76.75
234.647	79.75
234.881	75.75
235.115	71.75
235.349	75.75
235.583	65.75
235.817	79.75
236.051	90.75
236.285	86.75
236.519	77.75
236.753	77.75
236.987	68.75
237.221	80.75
237.455	72.75
237.689	70.75
237.922	79.75
238.156	73.75
238.39	78.75
238.624	77.75
238.858	79.75
239.091	75.75
239.325	71.75
239.559	85.75
239.793	86.75
240.027	78.75
240.26	85.75
240.494	77.75
240.728	77.75
240.961	78.75
241.195	77.75
241.429	90.75
241.662	71.75
241.896	73.75
242.13	70.75
242.363	70.75
242.597	92.75
242.83	69.75
243.064	86.75
243.298	85.75
243.531	86.75
243.765	77.75
243.998	69.75
244.232	86.75
244.465	82.75
244.699	60.75
244.932	81.75
245.166	75.75
245.399	71.75
245.633	76.75
245.866	77.75
246.099	67.75
246.333	76.75
246.566	83.75
246.8	82.75
247.033	95.75
247.266	94.75
247.5	78.75
247.733	78.75
247.966	80.75
248.2	95.75
248.433	81.75
248.666	61.75
248.899	74.75
249.133	84.75
249.366	90.75
249.599	85.75
249.832	76.75
250.066	84.75
250.299	89.75
250.532	79.75
250.765	68.75
250.998	81.75
251.231	84.75
251.465	78.75
251.698	56.75
251.931	76.75
252.164	84.75
252.397	83.75
252.63	80.75
252.863	87.75
253.096	85.75
253.329	82.75
253.562	72.75
253.795	81.75
254.028	82.75
254.261	80.75
254.494	78.75
254.727	80.75
254.96	75.75
255.193	76.75
255.426	79.75
255.659	75.75
255.892	76.75
256.124	75.75
256.357	95.75
256.59	92.75
256.823	65.75
257.056	82.75
257.289	73.75
257.521	83.75
257.754	82.75
257.987	79.75
258.22	83.75
258.452	93.75
258.685	74.75
258.918	76.75
259.151	86.75
259.383	82.75
259.616	72.75
259.849	81.75
260.081	86.75
260.314	94.75
260.547	79.75
260.779	90.75
261.012	92.75
261.244	95.75
261.477	79.75
261.71	87.75
261.942	80.75
262.175	75.75
262.407	86.75
262.64	69.75
262.872	84.75
263.105	80.75
263.337	94.75
263.57	72.75
263.802	77.75
264.035	90.75
264.267	83.75
264.499	71.75
264.732	82.75
264.964	88.75
265.197	75.75
265.429	90.75
265.661	86.75
265.894	80.75
266.126	90.75
266.358	78.75
266.591	74.75
266.823	88.75
267.055	79.75
267.287	95.75
267.52	91.75
267.752	83.75
267.984	80.75
268.216	71.75
268.448	90.75
268.681	84.75
268.913	95.75
269.145	84.75
269.377	86.75
269.609	77.75
269.841	81.75
270.073	68.75
270.306	82.75
270.538	85.75
270.77	76.75
271.002	76.75
271.234	99.75
271.466	79.75
271.698	88.75
271.93	90.75
272.162	80.75
272.394	90.75
272.626	76.75
272.858	86.75
273.09	98.75
273.322	84.75
273.553	80.75
273.785	86.75
274.017	77.75
274.249	78.75
274.481	84.75
274.713	85.75
274.945	86.75
275.176	80.75
275.408	76.75
275.64	88.75
275.872	70.75
276.104	89.75
276.335	81.75
276.567	90.75
276.799	81.75
277.031	92.75
277.262	101.75
277.494	95.75
277.726	82.75
277.957	79.75
278.189	82.75
278.421	75.75
278.652	75.75
278.884	86.75
279.115	84.75
279.347	104.75
279.579	81.75
279.81	87.75
280.042	88.75
280.273	92.75
280.505	77.75
280.736	82.75
280.968	92.75
281.199	94.75
281.431	74.75
281.662	93.75
281.894	84.75
282.125	92.75
282.356	98.75
282.588	78.75
282.819	84.75
283.051	77.75
283.282	84.75
283.513	93.75
283.745	92.75
283.976	82.75
284.207	92.75
284.439	96.75
284.67	74.75
284.901	100.75
285.132	75.75
285.364	72.75
285.595	112.75
285.826	95.75
286.057	81.75
286.288	93.75
286.52	91.75
286.751	84.75
286.982	84.75
287.213	95.75
287.444	91.75
287.675	95.75
287.906	83.75
288.138	86.75
288.369	79.75
288.6	73.75
288.831	82.75
289.062	93.75
289.293	71.75
289.524	88.75
289.755	82.75
289.986	91.75
290.217	93.75
290.448	78.75
290.679	84.75
290.91	82.75
291.141	89.75
291.371	94.75
291.602	79.75
291.833	78.75
292.064	97.75
292.295	72.75
292.526	91.75
292.757	77.75
292.987	103.75
293.218	85.75
293.449	74.75
293.68	89.75
293.91	80.75
294.141	94.75
294.372	89.75
294.603	88.75
294.833	81.75
295.064	76.75
295.295	76.75
295.525	77.75
295.756	90.75
295.987	96.75
296.217	91.75
296.448	72.75
296.679	83.75
296.909	94.75
297.14	74.75
297.37	86.75
297.601	90.75
297.831	86.75
298.062	80.75
298.292	97.75
298.523	91.75
298.753	98.75
298.984	87.75
299.214	84.75
299.445	88.75
299.675	83.75
299.905	93.75
300.136	90.75
300.366	83.75
300.597	90.75
300.827	84.75
301.057	77.75
301.288	86.75
301.518	89.75
301.748	81.75
301.979	77.75
302.209	87.75
302.439	80.75
302.669	92.75
302.9	85.75
303.13	96.75
303.36	78.75
303.59	85.75
303.82	94.75
304.051	79.75
304.281	83.75
304.511	87.75
304.741	88.75
304.971	87.75
305.201	82.75
305.431	80.75
305.661	89.75
305.891	87.75
306.121	97.75
306.352	82.75
306.582	80.75
306.812	87.75
307.042	81.75
307.272	90.75
307.502	87.75
307.731	96.75
307.961	77.75
308.191	72.75
308.421	80.75
308.651	91.75
308.881	84.75
309.111	92.75
309.341	82.75
309.571	91.75
309.8	94.75
310.03	81.75
310.26	86.75
310.49	90.75
310.72	85.75
310.949	81.75
311.179	91.75
311.409	80.75
311.639	102.75
311.868	88.75
312.098	88.75
312.328	100.75
312.557	92.75
312.787	83.75
313.017	90.75
313.246	81.75
313.476	89.75
313.706	79.75
313.935	90.75
314.165	84.75
314.394	83.75
314.624	86.75
314.853	91.75
315.083	80.75
315.312	83.75
315.542	86.75
315.771	77.75
316.001	79.75
316.23	85.75
316.46	89.75
316.689	83.75
316.919	78.75
317.148	86.75
317.377	79.75
317.607	91.75
317.836	79.75
318.065	89.75
318.295	92.75
318.524	85.75
318.753	89.75
318.983	95.75
319.212	88.75
319.441	83.75
319.67	90.75
319.9	97.75
320.129	88.75
320.358	84.75
320.587	87.75
320.816	96.75
321.046	82.75
321.275	86.75
321.504	71.75
321.733	83.75
321.962	78.75
322.191	86.75
322.42	82.75
322.649	86.75
322.878	80.75
323.108	92.75
323.337	92.75
323.566	71.75
323.795	81.75
324.024	104.75
324.253	92.75
324.482	86.75
324.71	92.75
324.939	99.75
325.168	93.75
325.397	83.75
325.626	81.75
325.855	85.75
326.084	80.75
326.313	98.75
326.542	94.75
326.77	83.75
326.999	91.75
327.228	88.75
327.457	78.75
327.686	84.75
327.914	86.75
328.143	96.75
328.372	80.75
328.6	81.75
328.829	99.75
329.058	77.75
329.287	83.75
329.515	89.75
329.744	84.75
329.972	86.75
330.201	80.75
330.43	84.75
330.658	91.75
330.887	98.75
331.115	71.75
331.344	84.75
331.572	85.75
331.801	91.75
332.03	81.75
332.258	91.75
332.486	78.75
332.715	95.75
332.943	81.75
333.172	88.75
333.4	88.75
333.629	75.75
333.857	89.75
334.085	84.75
334.314	95.75
334.542	93.75
334.771	94.75
334.999	75.75
335.227	86.75
335.455	87.75
335.684	89.75
335.912	95.75
336.14	88.75
336.369	87.75
336.597	90.75
336.825	94.75
337.053	81.75
337.281	97.75
337.51	100.75
337.738	76.75
337.966	75.75
338.194	77.75
338.422	81.75
338.65	86.75
338.878	76.75
339.106	88.75
339.334	89.75
339.562	85.75
339.79	93.75
340.018	94.75
340.246	102.75
340.474	86.75
340.702	99.75
340.93	85.75
341.158	78.75
341.386	74.75
341.614	79.75
341.842	97.75
342.07	72.75
342.298	73.75
342.526	107.75
342.754	85.75
342.981	69.75
343.209	87.75
343.437	101.75
343.665	79.75
343.893	102.75
344.12	79.75
344.348	94.75
344.576	85.75
344.804	89.75
345.031	62.75
345.259	84.75
345.487	91.75
345.714	90.75
345.942	83.75
346.17	88.75
346.397	75.75
346.625	97.75
346.853	92.75
347.08	90.75
347.308	78.75
347.535	81.75
347.763	76.75
347.99	92.75
348.218	75.75
348.445	86.75
348.673	87.75
348.9	82.75
349.128	72.75
349.355	77.75
349.583	95.75
349.81	83.75
350.037	73.75
350.265	90.75
350.492	89.75
350.72	79.75
350.947	94.75
351.174	87.75
351.402	93.75
351.629	88.75
351.856	69.75
352.083	89.75
352.311	89.75
352.538	80.75
352.765	94.75
352.992	86.75
353.22	88.75
353.447	73.75
353.674	90.75
353.901	103.75
354.128	76.75
354.355	77.75
354.583	77.75
354.81	86.75
355.037	87.75
355.264	90.75
355.491	94.75
355.718	82.75
355.945	83.75
356.172	80.75
356.399	80.75
356.626	85.75
356.853	82.75
357.08	96.75
357.307	75.75
357.534	75.75
357.761	78.75
357.988	83.75
358.215	77.75
358.441	79.75
358.668	86.75
358.895	98.75
359.122	88.75
359.349	83.75
359.576	87.75
359.802	83.75
360.029	74.75
360.256	86.75
360.483	80.75
360.709	80.75
360.936	97.75
361.163	79.75
361.39	84.75
361.616	86.75
361.843	84.75
362.07	96.75
362.296	105.75
362.523	99.75
362.749	76.75
362.976	73.75
363.203	86.75
363.429	84.75
363.656	92.75
363.882	75.75
364.109	87.75
364.335	86.75
364.562	91.75
364.788	70.75
365.015	96.75
365.241	88.75
365.468	69.75
365.694	78.75
365.92	82.75
366.147	77.75
366.373	86.75
366.599	88.75
366.826	87.75
367.052	86.75
367.278	74.75
367.505	88.75
367.731	86.75
367.957	72.75
368.184	84.75
368.41	80.75
368.636	77.75
368.862	69.75
369.089	75.75
369.315	92.75
369.541	91.75
369.767	94.75
369.993	91.75
370.219	85.75
370.445	93.75
370.672	89.75
370.898	78.75
371.124	71.75
371.35	84.75
371.576	86.75
371.802	86.75
372.028	101.75
372.254	86.75
372.48	96.75
372.706	82.75
372.932	93.75
373.158	80.75
373.384	91.75
373.61	95.75
373.835	102.75
374.061	89.75
374.287	85.75
374.513	84.75
374.739	73.75
374.965	85.75
375.191	88.75
375.416	92.75
375.642	89.75
375.868	93.75
376.094	89.75
376.319	94.75
376.545	67.75
376.771	83.75
376.997	78.75
377.222	99.75
377.448	79.75
377.674	84.75
377.899	74.75
378.125	83.75
378.35	92.75
378.576	88.75
378.802	82.75
379.027	85.75
379.253	90.75
379.478	88.75
379.704	90.75
379.929	93.75
380.155	82.75
380.38	87.75
380.606	79.75
380.831	87.75
381.057	78.75
381.282	90.75
381.507	91.75
381.733	78.75
381.958	87.75
382.184	90.75
382.409	67.75
382.634	91.75
382.86	88.75
383.085	79.75
383.31	70.75
383.535	86.75
383.761	82.75
383.986	83.75
384.211	94.75
384.436	70.75
384.662	74.75
384.887	81.75
385.112	77.75
385.337	86.75
385.562	80.75
385.787	84.75
386.013	94.75
386.238	94.75
386.463	83.75
386.688	112.75
386.913	78.75
387.138	87.75
387.363	85.75
387.588	95.75
387.813	86.75
388.038	92.75
388.263	100.75
388.488	94.75
388.713	89.75
388.938	100.75
389.163	87.75
389.387	78.75
389.612	88.75
389.837	76.75
390.062	74.75
390.287	86.75
390.512	86.75
390.736	68.75
390.961	66.75
391.186	76.75
391.411	90.75
391.636	75.75
391.86	88.75
392.085	78.75
392.31	73.75
392.534	87.75
392.759	102.75
392.984	89.75
393.208	84.75
393.433	87.75
393.658	90.75
393.882	82.75
394.107	71.75
394.331	88.75
394.556	84.75
394.78	85.75
395.005	80.75
395.229	79.75
395.454	86.75
395.678	83.75
395.903	101.75
396.127	83.75
396.352	82.75
396.576	90.75
396.801	89.75
397.025	80.75
397.249	86.75
397.474	98.75
397.698	87.75
397.922	92.75
398.147	88.75
398.371	88.75
398.595	90.75
398.82	92.75
399.044	93.75
399.268	96.75
399.492	81.75
399.717	94.75
399.941	85.75
400.165	93.75
400.389	97.75
400.613	78.75
400.837	100.75
401.062	80.75
401.286	95.75
401.51	87.75
401.734	79.75
401.958	85.75
402.182	91.75
402.406	85.75
402.63	87.75
402.854	95.75
403.078	74.75
403.302	89.75
403.526	80.75
403.75	86.75
403.974	79.75
404.198	90.75
404.422	89.75
404.645	91.75
404.869	87.75
405.093	99.75
405.317	83.75
405.541	91.75
405.765	79.75
405.988	97.75
406.212	72.75
406.436	94.75
406.66	91.75
406.883	91.75
407.107	74.75
407.331	92.75
407.555	87.75
407.778	87.75
408.002	95.75
408.226	79.75
408.449	74.75
408.673	98.75
408.896	85.75
409.12	94.75
409.344	84.75
409.567	96.75
409.791	89.75
410.014	98.75
410.238	94.75
410.461	92.75
410.685	98.75
410.908	83.75
411.132	73.75
411.355	82.75
411.578	78.75
411.802	88.75
412.025	80.75
412.249	89.75
412.472	89.75
412.695	88.75
412.919	93.75
413.142	98.75
413.365	83.75
413.589	77.75
413.812	88.75
414.035	91.75
414.258	77.75
414.482	95.75
414.705	88.75
414.928	89.75
415.151	92.75
415.374	89.75
415.597	74.75
415.821	83.75
416.044	100.75
416.267	80.75
416.49	93.75
416.713	83.75
416.936	77.75
417.159	88.75
417.382	94.75
417.605	102.75
417.828	87.75
418.051	84.75
418.274	94.75
418.497	89.75
418.72	80.75
418.943	84.75
419.166	83.75
419.389	88.75
419.611	87.75
419.834	70.75
420.057	81.75
420.28	107.75
420.503	111.75
420.726	87.75
420.948	102.75
421.171	87.75
421.394	92.75
421.617	94.75
421.839	89.75
422.062	78.75
422.285	91.75
422.507	95.75
422.73	84.75
422.953	91.75
423.175	79.75
423.398	92.75
423.621	94.75
423.843	76.75
424.066	91.75
424.288	88.75
424.511	103.75
424.733	86.75
424.956	79.75
425.178	85.75
425.401	100.75
425.623	105.75
425.846	99.75
426.068	83.75
426.291	96.75
426.513	83.75
426.735	84.75
426.958	93.75
427.18	95.75
427.402	80.75
427.625	94.75
427.847	78.75
428.069	101.75
428.292	89.75
428.514	78.75
428.736	88.75
428.958	93.75
429.181	94.75
429.403	95.75
429.625	85.75
429.847	82.75
430.069	91.75
430.292	100.75
430.514	89.75
430.736	86.75
430.958	76.75
431.18	104.75
431.402	81.75
431.624	82.75
431.846	69.75
432.068	80.75
432.29	92.75
432.512	92.75
432.734	90.75
432.956	78.75
433.178	95.75
433.4	87.75
433.622	104.75
433.844	95.75
434.066	104.75
434.287	87.75
434.509	86.75
434.731	81.75
434.953	80.75
435.175	73.75
435.397	99.75
435.618	95.75
435.84	81.75
436.062	82.75
436.284	96.75
436.505	93.75
436.727	103.75
436.949	97.75
437.17	77.75
437.392	87.75
437.614	88.75
437.835	87.75
438.057	77.75
438.278	94.75
438.5	98.75
438.721	93.75
438.943	90.75
439.165	101.75
439.386	108.75
439.608	96.75
439.829	92.75
440.05	102.75
440.272	92.75
440.493	87.75
440.715	86.75
440.936	77.75
441.158	93.75
441.379	84.75
441.6	95.75
441.822	88.75
442.043	93.75
442.264	95.75
442.486	93.75
442.707	88.75
442.928	99.75
443.149	101.75
443.371	90.75
443.592	102.75
443.813	91.75
444.034	82.75
444.255	93.75
444.476	89.75
444.698	95.75
444.919	86.75
445.14	209.75
445.361	145.75
445.582	98.75
445.803	95.75
446.024	82.75
446.245	88.75
446.466	89.75
446.687	110.75
446.908	83.75
447.129	85.75
447.35	93.75
447.571	94.75
447.792	75.75
448.013	101.75
448.234	91.75
448.455	106.75
448.675	86.75
448.896	96.75
449.117	95.75
449.338	83.75
449.559	67.75
449.779	89.75
450	96.75
450.221	97.75
450.442	90.75
450.662	84.75
450.883	92.75
451.104	98.75
451.324	91.75
451.545	83.75
451.766	84.75
451.986	94.75
452.207	97.75
452.428	94.75
452.648	96.75
452.869	92.75
453.089	98.75
453.31	83.75
453.53	89.75
453.751	89.75
453.971	83.75
454.192	85.75
454.412	85.75
454.633	92.75
454.853	85.75
455.073	80.75
455.294	71.75
455.514	84.75
455.734	104.75
455.955	84.75
456.175	100.75
456.395	68.75
456.616	86.75
456.836	88.75
457.056	89.75
457.276	82.75
457.497	59.75
457.717	80.75
457.937	86.75
458.157	87.75
458.377	81.75
458.598	83.75
458.818	93.75
459.038	100.75
459.258	84.75
459.478	84.75
459.698	85.75
459.918	80.75
460.138	102.75
460.358	88.75
460.578	86.75
460.798	84.75
461.018	88.75
461.238	68.75
461.458	91.75
461.678	87.75
461.898	82.75
462.118	87.75
462.338	91.75
462.558	100.75
462.777	91.75
462.997	94.75
463.217	93.75
463.437	96.75
463.657	79.75
463.876	89.75
464.096	96.75
464.316	95.75
464.536	91.75
464.755	89.75
464.975	90.75
465.195	99.75
465.414	104.75
465.634	86.75
465.854	79.75
466.073	99.75
466.293	97.75
466.512	78.75
466.732	86.75
466.951	88.75
467.171	68.75
467.391	90.75
467.61	107.75
467.829	85.75
468.049	90.75
468.268	87.75
468.488	102.75
468.707	98.75
468.927	96.75
469.146	98.75
469.365	84.75
469.585	96.75
469.804	96.75
470.023	116.75
470.243	110.75
470.462	90.75
470.681	91.75
470.901	84.75
471.12	83.75
471.339	93.75
471.558	85.75
471.777	91.75
471.997	94.75
472.216	101.75
472.435	92.75
472.654	96.75
472.873	91.75
473.092	98.75
473.311	94.75
473.53	82.75
473.749	99.75
473.968	90.75
474.187	94.75
474.406	69.75
474.625	104.75
474.844	84.75
475.063	90.75
475.282	89.75
475.501	103.75
475.72	93.75
475.939	77.75
476.158	86.75
476.377	96.75
476.596	93.75
476.814	88.75
477.033	88.75
477.252	102.75
477.471	79.75
477.69	88.75
477.908	101.75
478.127	95.75
478.346	93.75
478.564	96.75
478.783	80.75
479.002	88.75
479.22	77.75
479.439	88.75
479.658	94.75
479.876	91.75
480.095	78.75
480.313	86.75
480.532	78.75
480.751	83.75
480.969	72.75
481.188	76.75
481.406	93.75
481.624	91.75
481.843	87.75
482.061	103.75
482.28	76.75
482.498	86.75
482.717	85.75
482.935	86.75
483.153	99.75
483.372	94.75
483.59	94.75
483.808	68.75
484.027	88.75
484.245	87.75
484.463	104.75
484.681	93.75
484.9	98.75
485.118	104.75
485.336	97.75
485.554	88.75
485.772	81.75
485.99	86.75
486.209	94.75
486.427	73.75
486.645	94.75
486.863	86.75
487.081	89.75
487.299	78.75
487.517	85.75
487.735	73.75
487.953	110.75
488.171	104.75
488.389	96.75
488.607	99.75
488.825	95.75
489.043	79.75
489.261	91.75
489.479	96.75
489.696	104.75
489.914	79.75
490.132	88.75
490.35	94.75
490.568	92.75
490.786	104.75
491.003	103.75
491.221	95.75
491.439	106.75
491.657	105.75
491.874	92.75
492.092	109.75
492.31	99.75
492.527	109.75
492.745	107.75
492.963	91.75
493.18	91.75
493.398	81.75
493.615	94.75
493.833	95.75
494.05	101.75
494.268	98.75
494.485	86.75
494.703	99.75
494.92	91.75
495.138	100.75
495.355	90.75
495.573	94.75
495.79	93.75
496.008	104.75
496.225	91.75
496.442	80.75
496.66	106.75
496.877	94.75
497.094	102.75
497.312	99.75
497.529	104.75
497.746	87.75
497.963	92.75
498.181	91.75
498.398	90.75
498.615	71.75
498.832	96.75
499.049	87.75
499.267	92.75
499.484	73.75
499.701	87.75
499.918	99.75
500.135	102.75
500.352	87.75
500.569	85.75
500.786	106.75
501.003	86.75
501.22	100.75
501.437	116.75
501.654	94.75
501.871	90.75
502.088	76.75
502.305	94.75
502.522	99.75
502.739	101.75
502.956	96.75
503.172	84.75
503.389	85.75
503.606	82.75
503.823	89.75
504.04	83.75
504.256	84.75
504.473	95.75
504.69	83.75
504.907	91.75
505.123	97.75
505.34	94.75
505.557	94.75
505.773	84.75
505.99	85.75
506.207	83.75
506.423	93.75
506.64	80.75
506.856	100.75
507.073	88.75
507.289	74.75
507.506	80.75
507.722	92.75
507.939	80.75
508.155	87.75
508.372	96.75
508.588	86.75
508.805	75.75
509.021	81.75
509.238	98.75
509.454	105.75
509.67	90.75
509.887	99.75
510.103	81.75
510.319	89.75
510.536	90.75
510.752	86.75
510.968	92.75
511.184	81.75
511.401	87.75
511.617	80.75
511.833	76.75
512.049	93.75
512.265	88.75
512.481	93.75
512.698	88.75
512.914	85.75
513.13	86.75
513.346	103.75
513.562	92.75
513.778	94.75
513.994	81.75
514.21	71.75
514.426	86.75
514.642	86.75
514.858	80.75
515.074	84.75
515.29	72.75
515.506	79.75
515.721	79.75
515.937	79.75
516.153	91.75
516.369	77.75
516.585	87.75
516.801	87.75
517.016	70.75
517.232	84.75
517.448	88.75
517.664	84.75
517.879	97.75
518.095	99.75
518.311	82.75
