Data from Zn(NO3)2Standard.Agarose3%.GreenCap.LampEnergy5.5.E.O_HRD10591_15-01-26-767.txt Node
Date: Mon Jul 22 15:01:26 EDT 2019
User: cochatt
Spectrometer: HR+D1059
Trigger mode: 1
Integration Time (sec): 1.000000E-1
Scans to average: 1
Electric dark correction enabled: true
Nonlinearity correction enabled: false
Boxcar width: 0
XAxis mode: Wavelengths
Number of Pixels in Spectrum: 2048
>>>>>Begin Spectral Data<<<<<
223.165	-10.81
223.4	-10.81
223.635	-10.81
223.869	-13.81
224.104	-20.81
224.338	-13.81
224.573	-22.81
224.808	-21.81
225.042	-8.81
225.277	-3.81
225.511	-7.81
225.746	3.19
225.98	10.19
226.215	15.19
226.449	25.19
226.683	10.19
226.918	35.19
227.152	25.19
227.387	36.19
227.621	43.19
227.856	51.19
228.09	46.19
228.324	48.19
228.559	52.19
228.793	58.19
229.027	67.19
229.262	45.19
229.496	72.19
229.73	54.19
229.964	68.19
230.199	69.19
230.433	77.19
230.667	81.19
230.901	97.19
231.136	83.19
231.37	72.19
231.604	74.19
231.838	78.19
232.072	81.19
232.306	74.19
232.541	78.19
232.775	87.19
233.009	87.19
233.243	85.19
233.477	88.19
233.711	86.19
233.945	88.19
234.179	88.19
234.413	70.19
234.647	83.19
234.881	85.19
235.115	88.19
235.349	66.19
235.583	70.19
235.817	66.19
236.051	92.19
236.285	81.19
236.519	71.19
236.753	76.19
236.987	85.19
237.221	74.19
237.455	90.19
237.689	68.19
237.922	70.19
238.156	77.19
238.39	85.19
238.624	75.19
238.858	81.19
239.091	74.19
239.325	77.19
239.559	86.19
239.793	66.19
240.027	77.19
240.26	88.19
240.494	67.19
240.728	74.19
240.961	84.19
241.195	82.19
241.429	70.19
241.662	77.19
241.896	74.19
242.13	62.19
242.363	74.19
242.597	81.19
242.83	86.19
243.064	75.19
243.298	79.19
243.531	83.19
243.765	83.19
243.998	86.19
244.232	92.19
244.465	87.19
244.699	77.19
244.932	84.19
245.166	77.19
245.399	86.19
245.633	71.19
245.866	77.19
246.099	73.19
246.333	93.19
246.566	79.19
246.8	88.19
247.033	70.19
247.266	73.19
247.5	80.19
247.733	82.19
247.966	72.19
248.2	66.19
248.433	91.19
248.666	64.19
248.899	75.19
249.133	70.19
249.366	82.19
249.599	64.19
249.832	78.19
250.066	88.19
250.299	72.19
250.532	75.19
250.765	93.19
250.998	86.19
251.231	83.19
251.465	78.19
251.698	88.19
251.931	74.19
252.164	75.19
252.397	70.19
252.63	69.19
252.863	75.19
253.096	84.19
253.329	91.19
253.562	81.19
253.795	82.19
254.028	77.19
254.261	90.19
254.494	81.19
254.727	81.19
254.96	91.19
255.193	62.19
255.426	83.19
255.659	78.19
255.892	76.19
256.124	79.19
256.357	89.19
256.59	89.19
256.823	93.19
257.056	81.19
257.289	91.19
257.521	73.19
257.754	68.19
257.987	80.19
258.22	90.19
258.452	85.19
258.685	71.19
258.918	78.19
259.151	81.19
259.383	88.19
259.616	72.19
259.849	84.19
260.081	90.19
260.314	81.19
260.547	82.19
260.779	72.19
261.012	90.19
261.244	90.19
261.477	75.19
261.71	82.19
261.942	96.19
262.175	75.19
262.407	68.19
262.64	88.19
262.872	75.19
263.105	79.19
263.337	84.19
263.57	74.19
263.802	76.19
264.035	76.19
264.267	89.19
264.499	75.19
264.732	83.19
264.964	97.19
265.197	80.19
265.429	85.19
265.661	87.19
265.894	71.19
266.126	84.19
266.358	85.19
266.591	85.19
266.823	95.19
267.055	85.19
267.287	82.19
267.52	90.19
267.752	83.19
267.984	80.19
268.216	86.19
268.448	75.19
268.681	80.19
268.913	91.19
269.145	82.19
269.377	80.19
269.609	79.19
269.841	89.19
270.073	85.19
270.306	85.19
270.538	87.19
270.77	85.19
271.002	79.19
271.234	80.19
271.466	76.19
271.698	87.19
271.93	91.19
272.162	75.19
272.394	75.19
272.626	79.19
272.858	94.19
273.09	90.19
273.322	81.19
273.553	72.19
273.785	64.19
274.017	73.19
274.249	77.19
274.481	81.19
274.713	76.19
274.945	94.19
275.176	84.19
275.408	88.19
275.64	83.19
275.872	93.19
276.104	77.19
276.335	81.19
276.567	93.19
276.799	77.19
277.031	81.19
277.262	82.19
277.494	85.19
277.726	99.19
277.957	78.19
278.189	75.19
278.421	73.19
278.652	77.19
278.884	79.19
279.115	71.19
279.347	90.19
279.579	88.19
279.81	75.19
280.042	82.19
280.273	99.19
280.505	79.19
280.736	89.19
280.968	82.19
281.199	83.19
281.431	87.19
281.662	86.19
281.894	77.19
282.125	80.19
282.356	78.19
282.588	80.19
282.819	86.19
283.051	74.19
283.282	81.19
283.513	87.19
283.745	90.19
283.976	93.19
284.207	83.19
284.439	89.19
284.67	86.19
284.901	85.19
285.132	81.19
285.364	77.19
285.595	83.19
285.826	96.19
286.057	96.19
286.288	88.19
286.52	81.19
286.751	91.19
286.982	76.19
287.213	75.19
287.444	91.19
287.675	85.19
287.906	77.19
288.138	96.19
288.369	96.19
288.6	82.19
288.831	76.19
289.062	82.19
289.293	84.19
289.524	92.19
289.755	71.19
289.986	93.19
290.217	81.19
290.448	84.19
290.679	89.19
290.91	101.19
291.141	85.19
291.371	96.19
291.602	77.19
291.833	89.19
292.064	73.19
292.295	80.19
292.526	95.19
292.757	86.19
292.987	86.19
293.218	80.19
293.449	69.19
293.68	83.19
293.91	78.19
294.141	82.19
294.372	84.19
294.603	77.19
294.833	91.19
295.064	79.19
295.295	89.19
295.525	90.19
295.756	93.19
295.987	95.19
296.217	81.19
296.448	92.19
296.679	85.19
296.909	96.19
297.14	72.19
297.37	78.19
297.601	68.19
297.831	76.19
298.062	79.19
298.292	81.19
298.523	89.19
298.753	87.19
298.984	78.19
299.214	86.19
299.445	96.19
299.675	74.19
299.905	82.19
300.136	81.19
300.366	92.19
300.597	87.19
300.827	98.19
301.057	85.19
301.288	82.19
301.518	65.19
301.748	90.19
301.979	87.19
302.209	73.19
302.439	84.19
302.669	85.19
302.9	88.19
303.13	90.19
303.36	80.19
303.59	82.19
303.82	82.19
304.051	85.19
304.281	88.19
304.511	78.19
304.741	93.19
304.971	84.19
305.201	83.19
305.431	82.19
305.661	71.19
305.891	85.19
306.121	85.19
306.352	86.19
306.582	84.19
306.812	86.19
307.042	84.19
307.272	81.19
307.502	86.19
307.731	85.19
307.961	96.19
308.191	94.19
308.421	82.19
308.651	82.19
308.881	76.19
309.111	86.19
309.341	78.19
309.571	85.19
309.8	75.19
310.03	82.19
310.26	77.19
310.49	88.19
310.72	72.19
310.949	91.19
311.179	93.19
311.409	71.19
311.639	76.19
311.868	76.19
312.098	82.19
312.328	78.19
312.557	70.19
312.787	81.19
313.017	82.19
313.246	84.19
313.476	82.19
313.706	88.19
313.935	88.19
314.165	93.19
314.394	76.19
314.624	74.19
314.853	92.19
315.083	83.19
315.312	91.19
315.542	93.19
315.771	86.19
316.001	87.19
316.23	85.19
316.46	94.19
316.689	67.19
316.919	92.19
317.148	87.19
317.377	81.19
317.607	90.19
317.836	88.19
318.065	82.19
318.295	69.19
318.524	77.19
318.753	88.19
318.983	84.19
319.212	93.19
319.441	77.19
319.67	91.19
319.9	91.19
320.129	94.19
320.358	83.19
320.587	92.19
320.816	82.19
321.046	90.19
321.275	86.19
321.504	98.19
321.733	72.19
321.962	87.19
322.191	76.19
322.42	84.19
322.649	72.19
322.878	97.19
323.108	84.19
323.337	86.19
323.566	85.19
323.795	92.19
324.024	82.19
324.253	70.19
324.482	83.19
324.71	87.19
324.939	94.19
325.168	96.19
325.397	84.19
325.626	79.19
325.855	86.19
326.084	97.19
326.313	73.19
326.542	71.19
326.77	77.19
326.999	85.19
327.228	76.19
327.457	85.19
327.686	97.19
327.914	67.19
328.143	93.19
328.372	78.19
328.6	88.19
328.829	89.19
329.058	82.19
329.287	95.19
329.515	89.19
329.744	76.19
329.972	84.19
330.201	78.19
330.43	71.19
330.658	84.19
330.887	82.19
331.115	79.19
331.344	86.19
331.572	85.19
331.801	90.19
332.03	86.19
332.258	97.19
332.486	82.19
332.715	82.19
332.943	90.19
333.172	86.19
333.4	82.19
333.629	91.19
333.857	93.19
334.085	79.19
334.314	83.19
334.542	82.19
334.771	82.19
334.999	101.19
335.227	92.19
335.455	77.19
335.684	87.19
335.912	91.19
336.14	73.19
336.369	89.19
336.597	62.19
336.825	69.19
337.053	76.19
337.281	88.19
337.51	73.19
337.738	83.19
337.966	89.19
338.194	82.19
338.422	80.19
338.65	99.19
338.878	82.19
339.106	72.19
339.334	70.19
339.562	73.19
339.79	76.19
340.018	91.19
340.246	72.19
340.474	74.19
340.702	81.19
340.93	84.19
341.158	85.19
341.386	92.19
341.614	92.19
341.842	85.19
342.07	85.19
342.298	87.19
342.526	72.19
342.754	93.19
342.981	91.19
343.209	87.19
343.437	84.19
343.665	80.19
343.893	101.19
344.12	96.19
344.348	92.19
344.576	88.19
344.804	76.19
345.031	90.19
345.259	74.19
345.487	78.19
345.714	75.19
345.942	101.19
346.17	99.19
346.397	88.19
346.625	89.19
346.853	92.19
347.08	88.19
347.308	84.19
347.535	80.19
347.763	83.19
347.99	85.19
348.218	90.19
348.445	84.19
348.673	94.19
348.9	85.19
349.128	103.19
349.355	74.19
349.583	70.19
349.81	99.19
350.037	88.19
350.265	89.19
350.492	91.19
350.72	84.19
350.947	83.19
351.174	87.19
351.402	78.19
351.629	79.19
351.856	76.19
352.083	72.19
352.311	85.19
352.538	75.19
352.765	90.19
352.992	85.19
353.22	80.19
353.447	93.19
353.674	89.19
353.901	78.19
354.128	78.19
354.355	82.19
354.583	82.19
354.81	86.19
355.037	78.19
355.264	79.19
355.491	84.19
355.718	75.19
355.945	85.19
356.172	85.19
356.399	89.19
356.626	96.19
356.853	79.19
357.08	89.19
357.307	85.19
357.534	88.19
357.761	89.19
357.988	77.19
358.215	88.19
358.441	90.19
358.668	79.19
358.895	83.19
359.122	89.19
359.349	76.19
359.576	80.19
359.802	76.19
360.029	85.19
360.256	80.19
360.483	78.19
360.709	79.19
360.936	98.19
361.163	82.19
361.39	79.19
361.616	78.19
361.843	82.19
362.07	72.19
362.296	78.19
362.523	89.19
362.749	77.19
362.976	89.19
363.203	94.19
363.429	85.19
363.656	89.19
363.882	98.19
364.109	90.19
364.335	98.19
364.562	81.19
364.788	93.19
365.015	84.19
365.241	85.19
365.468	80.19
365.694	77.19
365.92	75.19
366.147	92.19
366.373	86.19
366.599	79.19
366.826	86.19
367.052	84.19
367.278	85.19
367.505	96.19
367.731	88.19
367.957	63.19
368.184	86.19
368.41	64.19
368.636	83.19
368.862	95.19
369.089	84.19
369.315	88.19
369.541	85.19
369.767	76.19
369.993	61.19
370.219	78.19
370.445	80.19
370.672	69.19
370.898	79.19
371.124	84.19
371.35	74.19
371.576	87.19
371.802	65.19
372.028	83.19
372.254	98.19
372.48	91.19
372.706	88.19
372.932	79.19
373.158	89.19
373.384	85.19
373.61	85.19
373.835	89.19
374.061	98.19
374.287	72.19
374.513	62.19
374.739	83.19
374.965	81.19
375.191	85.19
375.416	82.19
375.642	86.19
375.868	84.19
376.094	83.19
376.319	77.19
376.545	71.19
376.771	85.19
376.997	84.19
377.222	82.19
377.448	100.19
377.674	78.19
377.899	88.19
378.125	90.19
378.35	83.19
378.576	82.19
378.802	70.19
379.027	92.19
379.253	84.19
379.478	77.19
379.704	78.19
379.929	96.19
380.155	101.19
380.38	72.19
380.606	90.19
380.831	74.19
381.057	85.19
381.282	96.19
381.507	85.19
381.733	95.19
381.958	81.19
382.184	77.19
382.409	85.19
382.634	83.19
382.86	72.19
383.085	76.19
383.31	87.19
383.535	85.19
383.761	79.19
383.986	74.19
384.211	86.19
384.436	70.19
384.662	77.19
384.887	93.19
385.112	64.19
385.337	93.19
385.562	91.19
385.787	77.19
386.013	85.19
386.238	84.19
386.463	77.19
386.688	91.19
386.913	88.19
387.138	77.19
387.363	85.19
387.588	92.19
387.813	75.19
388.038	87.19
388.263	83.19
388.488	96.19
388.713	83.19
388.938	65.19
389.163	88.19
389.387	100.19
389.612	76.19
389.837	85.19
390.062	77.19
390.287	74.19
390.512	91.19
390.736	85.19
390.961	74.19
391.186	87.19
391.411	94.19
391.636	93.19
391.86	89.19
392.085	81.19
392.31	81.19
392.534	81.19
392.759	87.19
392.984	85.19
393.208	75.19
393.433	83.19
393.658	91.19
393.882	76.19
394.107	92.19
394.331	86.19
394.556	78.19
394.78	81.19
395.005	68.19
395.229	89.19
395.454	89.19
395.678	88.19
395.903	89.19
396.127	82.19
396.352	83.19
396.576	81.19
396.801	86.19
397.025	78.19
397.249	81.19
397.474	98.19
397.698	97.19
397.922	96.19
398.147	75.19
398.371	83.19
398.595	94.19
398.82	71.19
399.044	78.19
399.268	101.19
399.492	92.19
399.717	87.19
399.941	84.19
400.165	84.19
400.389	85.19
400.613	85.19
400.837	93.19
401.062	85.19
401.286	103.19
401.51	78.19
401.734	77.19
401.958	91.19
402.182	92.19
402.406	94.19
402.63	83.19
402.854	88.19
403.078	85.19
403.302	82.19
403.526	89.19
403.75	77.19
403.974	81.19
404.198	89.19
404.422	80.19
404.645	84.19
404.869	87.19
405.093	84.19
405.317	76.19
405.541	75.19
405.765	98.19
405.988	88.19
406.212	74.19
406.436	81.19
406.66	81.19
406.883	69.19
407.107	80.19
407.331	87.19
407.555	81.19
407.778	82.19
408.002	79.19
408.226	99.19
408.449	91.19
408.673	86.19
408.896	88.19
409.12	86.19
409.344	92.19
409.567	97.19
409.791	76.19
410.014	74.19
410.238	84.19
410.461	100.19
410.685	83.19
410.908	89.19
411.132	83.19
411.355	78.19
411.578	93.19
411.802	85.19
412.025	99.19
412.249	72.19
412.472	72.19
412.695	96.19
412.919	98.19
413.142	85.19
413.365	85.19
413.589	84.19
413.812	97.19
414.035	88.19
414.258	77.19
414.482	86.19
414.705	92.19
414.928	89.19
415.151	88.19
415.374	89.19
415.597	84.19
415.821	85.19
416.044	93.19
416.267	89.19
416.49	89.19
416.713	73.19
416.936	87.19
417.159	96.19
417.382	85.19
417.605	94.19
417.828	89.19
418.051	77.19
418.274	86.19
418.497	88.19
418.72	78.19
418.943	88.19
419.166	102.19
419.389	90.19
419.611	91.19
419.834	82.19
420.057	86.19
420.28	93.19
420.503	75.19
420.726	83.19
420.948	87.19
421.171	74.19
421.394	88.19
421.617	81.19
421.839	85.19
422.062	74.19
422.285	87.19
422.507	88.19
422.73	92.19
422.953	93.19
423.175	90.19
423.398	89.19
423.621	99.19
423.843	101.19
424.066	82.19
424.288	78.19
424.511	81.19
424.733	94.19
424.956	94.19
425.178	85.19
425.401	79.19
425.623	84.19
425.846	95.19
426.068	78.19
426.291	68.19
426.513	92.19
426.735	88.19
426.958	81.19
427.18	91.19
427.402	92.19
427.625	92.19
427.847	79.19
428.069	83.19
428.292	89.19
428.514	93.19
428.736	93.19
428.958	91.19
429.181	101.19
429.403	97.19
429.625	106.19
429.847	64.19
430.069	70.19
430.292	84.19
430.514	89.19
430.736	85.19
430.958	85.19
431.18	78.19
431.402	93.19
431.624	77.19
431.846	78.19
432.068	79.19
432.29	93.19
432.512	98.19
432.734	76.19
432.956	74.19
433.178	86.19
433.4	93.19
433.622	87.19
433.844	83.19
434.066	73.19
434.287	77.19
434.509	83.19
434.731	96.19
434.953	77.19
435.175	92.19
435.397	89.19
435.618	82.19
435.84	94.19
436.062	75.19
436.284	94.19
436.505	96.19
436.727	89.19
436.949	91.19
437.17	81.19
437.392	90.19
437.614	85.19
437.835	87.19
438.057	86.19
438.278	99.19
438.5	84.19
438.721	87.19
438.943	73.19
439.165	99.19
439.386	81.19
439.608	109.19
439.829	85.19
440.05	70.19
440.272	85.19
440.493	90.19
440.715	84.19
440.936	89.19
441.158	97.19
441.379	87.19
441.6	84.19
441.822	90.19
442.043	96.19
442.264	101.19
442.486	92.19
442.707	91.19
442.928	98.19
443.149	88.19
443.371	83.19
443.592	102.19
443.813	76.19
444.034	85.19
444.255	90.19
444.476	82.19
444.698	93.19
444.919	96.19
445.14	199.19
445.361	142.19
445.582	95.19
445.803	96.19
446.024	78.19
446.245	94.19
446.466	92.19
446.687	103.19
446.908	96.19
447.129	95.19
447.35	100.19
447.571	96.19
447.792	90.19
448.013	81.19
448.234	95.19
448.455	94.19
448.675	94.19
448.896	90.19
449.117	97.19
449.338	90.19
449.559	88.19
449.779	89.19
450	87.19
450.221	103.19
450.442	94.19
450.662	97.19
450.883	89.19
451.104	90.19
451.324	101.19
451.545	88.19
451.766	89.19
451.986	102.19
452.207	91.19
452.428	94.19
452.648	97.19
452.869	84.19
453.089	93.19
453.31	77.19
453.53	84.19
453.751	106.19
453.971	77.19
454.192	70.19
454.412	85.19
454.633	85.19
454.853	89.19
455.073	96.19
455.294	76.19
455.514	75.19
455.734	86.19
455.955	80.19
456.175	99.19
456.395	92.19
456.616	82.19
456.836	76.19
457.056	74.19
457.276	85.19
457.497	75.19
457.717	94.19
457.937	92.19
458.157	85.19
458.377	86.19
458.598	85.19
458.818	86.19
459.038	74.19
459.258	73.19
459.478	64.19
459.698	77.19
459.918	86.19
460.138	104.19
460.358	67.19
460.578	92.19
460.798	86.19
461.018	94.19
461.238	81.19
461.458	81.19
461.678	83.19
461.898	78.19
462.118	76.19
462.338	77.19
462.558	83.19
462.777	76.19
462.997	91.19
463.217	94.19
463.437	78.19
463.657	87.19
463.876	89.19
464.096	82.19
464.316	99.19
464.536	86.19
464.755	92.19
464.975	80.19
465.195	90.19
465.414	81.19
465.634	77.19
465.854	88.19
466.073	78.19
466.293	97.19
466.512	86.19
466.732	85.19
466.951	87.19
467.171	94.19
467.391	88.19
467.61	91.19
467.829	94.19
468.049	91.19
468.268	84.19
468.488	92.19
468.707	87.19
468.927	91.19
469.146	88.19
469.365	86.19
469.585	96.19
469.804	90.19
470.023	101.19
470.243	95.19
470.462	101.19
470.681	84.19
470.901	102.19
471.12	98.19
471.339	92.19
471.558	101.19
471.777	100.19
471.997	94.19
472.216	105.19
472.435	96.19
472.654	73.19
472.873	84.19
473.092	82.19
473.311	89.19
473.53	93.19
473.749	92.19
473.968	99.19
474.187	92.19
474.406	92.19
474.625	94.19
474.844	88.19
475.063	80.19
475.282	91.19
475.501	96.19
475.72	91.19
475.939	86.19
476.158	92.19
476.377	90.19
476.596	90.19
476.814	100.19
477.033	95.19
477.252	85.19
477.471	92.19
477.69	87.19
477.908	91.19
478.127	90.19
478.346	88.19
478.564	82.19
478.783	79.19
479.002	77.19
479.22	102.19
479.439	80.19
479.658	94.19
479.876	73.19
480.095	86.19
480.313	82.19
480.532	106.19
480.751	102.19
480.969	73.19
481.188	92.19
481.406	83.19
481.624	100.19
481.843	88.19
482.061	82.19
482.28	90.19
482.498	103.19
482.717	84.19
482.935	94.19
483.153	90.19
483.372	88.19
483.59	79.19
483.808	99.19
484.027	95.19
484.245	84.19
484.463	84.19
484.681	84.19
484.9	95.19
485.118	86.19
485.336	90.19
485.554	99.19
485.772	99.19
485.99	85.19
486.209	84.19
486.427	80.19
486.645	94.19
486.863	86.19
487.081	104.19
487.299	101.19
487.517	88.19
487.735	108.19
487.953	114.19
488.171	94.19
488.389	77.19
488.607	79.19
488.825	99.19
489.043	85.19
489.261	89.19
489.479	98.19
489.696	97.19
489.914	90.19
490.132	93.19
490.35	95.19
490.568	94.19
490.786	91.19
491.003	99.19
491.221	99.19
491.439	101.19
491.657	91.19
491.874	99.19
492.092	109.19
492.31	119.19
492.527	112.19
492.745	106.19
492.963	102.19
493.18	92.19
493.398	117.19
493.615	105.19
493.833	107.19
494.05	97.19
494.268	102.19
494.485	95.19
494.703	101.19
494.92	97.19
495.138	93.19
495.355	97.19
495.573	104.19
495.79	106.19
496.008	94.19
496.225	101.19
496.442	90.19
496.66	93.19
496.877	89.19
497.094	101.19
497.312	92.19
497.529	98.19
497.746	91.19
497.963	101.19
498.181	89.19
498.398	86.19
498.615	92.19
498.832	94.19
499.049	84.19
499.267	84.19
499.484	92.19
499.701	101.19
499.918	95.19
500.135	88.19
500.352	91.19
500.569	86.19
500.786	93.19
501.003	96.19
501.22	105.19
501.437	83.19
501.654	89.19
501.871	90.19
502.088	84.19
502.305	91.19
502.522	92.19
502.739	98.19
502.956	83.19
503.172	98.19
503.389	97.19
503.606	92.19
503.823	78.19
504.04	90.19
504.256	92.19
504.473	78.19
504.69	92.19
504.907	91.19
505.123	97.19
505.34	86.19
505.557	89.19
505.773	87.19
505.99	87.19
506.207	87.19
506.423	77.19
506.64	82.19
506.856	81.19
507.073	90.19
507.289	92.19
507.506	89.19
507.722	96.19
507.939	89.19
508.155	83.19
508.372	89.19
508.588	87.19
508.805	80.19
509.021	103.19
509.238	92.19
509.454	95.19
509.67	93.19
509.887	81.19
510.103	90.19
510.319	84.19
510.536	78.19
510.752	78.19
510.968	81.19
511.184	78.19
511.401	94.19
511.617	67.19
511.833	80.19
512.049	79.19
512.265	82.19
512.481	91.19
512.698	74.19
512.914	91.19
513.13	82.19
513.346	84.19
513.562	84.19
513.778	77.19
513.994	84.19
514.21	84.19
514.426	84.19
514.642	96.19
514.858	84.19
515.074	86.19
515.29	84.19
515.506	78.19
515.721	86.19
515.937	80.19
516.153	79.19
516.369	81.19
516.585	79.19
516.801	80.19
517.016	100.19
517.232	81.19
517.448	88.19
517.664	81.19
517.879	75.19
518.095	78.19
518.311	78.19
518.527	76.19
