Data from Zn(NO3)2Standard.Agarose3%.GreenCap.LampEnergy10E.O_HRD10591_15-06-48-942.txt Node
Date: Mon Jul 22 15:06:48 EDT 2019
User: cochatt
Spectrometer: HR+D1059
Trigger mode: 1
Integration Time (sec): 1.000000E-1
Scans to average: 1
Electric dark correction enabled: true
Nonlinearity correction enabled: false
Boxcar width: 0
XAxis mode: Wavelengths
Number of Pixels in Spectrum: 2048
>>>>>Begin Spectral Data<<<<<
223.165	-9.38
223.4	-9.38
223.635	-9.38
223.869	-19.38
224.104	-11.38
224.338	-3.38
224.573	-2.38
224.808	-7.38
225.042	-4.38
225.277	-11.38
225.511	-10.38
225.746	-11.38
225.98	8.62
226.215	8.62
226.449	13.62
226.683	25.62
226.918	7.62
227.152	26.62
227.387	27.62
227.621	43.62
227.856	44.62
228.09	41.62
228.324	51.62
228.559	67.62
228.793	49.62
229.027	66.62
229.262	69.62
229.496	53.62
229.73	61.62
229.964	63.62
230.199	69.62
230.433	79.62
230.667	77.62
230.901	73.62
231.136	74.62
231.37	85.62
231.604	78.62
231.838	73.62
232.072	84.62
232.306	82.62
232.541	76.62
232.775	77.62
233.009	84.62
233.243	79.62
233.477	80.62
233.711	82.62
233.945	74.62
234.179	89.62
234.413	81.62
234.647	65.62
234.881	79.62
235.115	97.62
235.349	75.62
235.583	74.62
235.817	85.62
236.051	97.62
236.285	91.62
236.519	76.62
236.753	88.62
236.987	74.62
237.221	75.62
237.455	79.62
237.689	78.62
237.922	77.62
238.156	71.62
238.39	67.62
238.624	71.62
238.858	81.62
239.091	89.62
239.325	74.62
239.559	68.62
239.793	72.62
240.027	80.62
240.26	78.62
240.494	69.62
240.728	80.62
240.961	73.62
241.195	78.62
241.429	82.62
241.662	80.62
241.896	66.62
242.13	77.62
242.363	74.62
242.597	72.62
242.83	81.62
243.064	90.62
243.298	84.62
243.531	86.62
243.765	80.62
243.998	88.62
244.232	77.62
244.465	61.62
244.699	69.62
244.932	90.62
245.166	81.62
245.399	82.62
245.633	79.62
245.866	76.62
246.099	78.62
246.333	81.62
246.566	71.62
246.8	78.62
247.033	74.62
247.266	77.62
247.5	69.62
247.733	74.62
247.966	72.62
248.2	81.62
248.433	99.62
248.666	90.62
248.899	74.62
249.133	85.62
249.366	76.62
249.599	80.62
249.832	69.62
250.066	86.62
250.299	73.62
250.532	83.62
250.765	84.62
250.998	75.62
251.231	74.62
251.465	91.62
251.698	77.62
251.931	74.62
252.164	72.62
252.397	71.62
252.63	84.62
252.863	75.62
253.096	82.62
253.329	86.62
253.562	64.62
253.795	74.62
254.028	89.62
254.261	77.62
254.494	71.62
254.727	96.62
254.96	66.62
255.193	72.62
255.426	73.62
255.659	82.62
255.892	81.62
256.124	91.62
256.357	85.62
256.59	72.62
256.823	80.62
257.056	78.62
257.289	84.62
257.521	75.62
257.754	70.62
257.987	92.62
258.22	82.62
258.452	80.62
258.685	77.62
258.918	86.62
259.151	74.62
259.383	70.62
259.616	72.62
259.849	75.62
260.081	78.62
260.314	91.62
260.547	77.62
260.779	80.62
261.012	94.62
261.244	62.62
261.477	92.62
261.71	67.62
261.942	81.62
262.175	64.62
262.407	73.62
262.64	78.62
262.872	78.62
263.105	83.62
263.337	90.62
263.57	80.62
263.802	95.62
264.035	87.62
264.267	88.62
264.499	78.62
264.732	66.62
264.964	69.62
265.197	83.62
265.429	85.62
265.661	59.62
265.894	83.62
266.126	90.62
266.358	77.62
266.591	62.62
266.823	73.62
267.055	66.62
267.287	93.62
267.52	74.62
267.752	77.62
267.984	86.62
268.216	76.62
268.448	78.62
268.681	82.62
268.913	78.62
269.145	70.62
269.377	84.62
269.609	99.62
269.841	93.62
270.073	80.62
270.306	81.62
270.538	88.62
270.77	82.62
271.002	90.62
271.234	81.62
271.466	75.62
271.698	71.62
271.93	74.62
272.162	81.62
272.394	82.62
272.626	90.62
272.858	77.62
273.09	89.62
273.322	80.62
273.553	88.62
273.785	85.62
274.017	81.62
274.249	82.62
274.481	80.62
274.713	74.62
274.945	77.62
275.176	86.62
275.408	76.62
275.64	86.62
275.872	83.62
276.104	83.62
276.335	83.62
276.567	84.62
276.799	88.62
277.031	64.62
277.262	93.62
277.494	86.62
277.726	78.62
277.957	86.62
278.189	84.62
278.421	88.62
278.652	89.62
278.884	76.62
279.115	78.62
279.347	84.62
279.579	74.62
279.81	89.62
280.042	76.62
280.273	82.62
280.505	80.62
280.736	88.62
280.968	95.62
281.199	84.62
281.431	80.62
281.662	94.62
281.894	91.62
282.125	95.62
282.356	68.62
282.588	84.62
282.819	86.62
283.051	92.62
283.282	77.62
283.513	86.62
283.745	74.62
283.976	86.62
284.207	78.62
284.439	87.62
284.67	99.62
284.901	90.62
285.132	82.62
285.364	97.62
285.595	65.62
285.826	86.62
286.057	68.62
286.288	73.62
286.52	64.62
286.751	92.62
286.982	83.62
287.213	72.62
287.444	86.62
287.675	81.62
287.906	76.62
288.138	88.62
288.369	78.62
288.6	89.62
288.831	78.62
289.062	80.62
289.293	80.62
289.524	82.62
289.755	87.62
289.986	95.62
290.217	80.62
290.448	90.62
290.679	86.62
290.91	89.62
291.141	88.62
291.371	90.62
291.602	78.62
291.833	85.62
292.064	79.62
292.295	81.62
292.526	82.62
292.757	80.62
292.987	72.62
293.218	86.62
293.449	92.62
293.68	88.62
293.91	84.62
294.141	72.62
294.372	80.62
294.603	87.62
294.833	98.62
295.064	79.62
295.295	77.62
295.525	94.62
295.756	78.62
295.987	80.62
296.217	84.62
296.448	96.62
296.679	87.62
296.909	79.62
297.14	80.62
297.37	88.62
297.601	91.62
297.831	79.62
298.062	77.62
298.292	70.62
298.523	86.62
298.753	89.62
298.984	73.62
299.214	71.62
299.445	84.62
299.675	95.62
299.905	65.62
300.136	89.62
300.366	88.62
300.597	81.62
300.827	74.62
301.057	86.62
301.288	80.62
301.518	89.62
301.748	84.62
301.979	88.62
302.209	85.62
302.439	78.62
302.669	77.62
302.9	96.62
303.13	86.62
303.36	78.62
303.59	104.62
303.82	87.62
304.051	84.62
304.281	85.62
304.511	105.62
304.741	80.62
304.971	75.62
305.201	94.62
305.431	85.62
305.661	92.62
305.891	98.62
306.121	74.62
306.352	96.62
306.582	88.62
306.812	85.62
307.042	83.62
307.272	70.62
307.502	60.62
307.731	84.62
307.961	92.62
308.191	86.62
308.421	94.62
308.651	79.62
308.881	98.62
309.111	74.62
309.341	79.62
309.571	83.62
309.8	82.62
310.03	83.62
310.26	78.62
310.49	80.62
310.72	74.62
310.949	83.62
311.179	88.62
311.409	84.62
311.639	86.62
311.868	77.62
312.098	81.62
312.328	75.62
312.557	85.62
312.787	78.62
313.017	100.62
313.246	79.62
313.476	89.62
313.706	83.62
313.935	81.62
314.165	80.62
314.394	75.62
314.624	76.62
314.853	87.62
315.083	82.62
315.312	87.62
315.542	93.62
315.771	73.62
316.001	86.62
316.23	77.62
316.46	86.62
316.689	78.62
316.919	89.62
317.148	82.62
317.377	85.62
317.607	88.62
317.836	83.62
318.065	91.62
318.295	92.62
318.524	82.62
318.753	85.62
318.983	76.62
319.212	97.62
319.441	92.62
319.67	88.62
319.9	96.62
320.129	93.62
320.358	88.62
320.587	97.62
320.816	79.62
321.046	87.62
321.275	89.62
321.504	79.62
321.733	85.62
321.962	86.62
322.191	82.62
322.42	75.62
322.649	78.62
322.878	89.62
323.108	79.62
323.337	80.62
323.566	62.62
323.795	88.62
324.024	82.62
324.253	85.62
324.482	94.62
324.71	85.62
324.939	71.62
325.168	71.62
325.397	91.62
325.626	71.62
325.855	75.62
326.084	93.62
326.313	85.62
326.542	84.62
326.77	77.62
326.999	90.62
327.228	84.62
327.457	82.62
327.686	92.62
327.914	81.62
328.143	88.62
328.372	78.62
328.6	89.62
328.829	94.62
329.058	86.62
329.287	91.62
329.515	76.62
329.744	105.62
329.972	90.62
330.201	82.62
330.43	72.62
330.658	73.62
330.887	86.62
331.115	85.62
331.344	73.62
331.572	82.62
331.801	76.62
332.03	88.62
332.258	79.62
332.486	85.62
332.715	90.62
332.943	82.62
333.172	80.62
333.4	85.62
333.629	89.62
333.857	99.62
334.085	87.62
334.314	88.62
334.542	84.62
334.771	76.62
334.999	86.62
335.227	74.62
335.455	82.62
335.684	80.62
335.912	89.62
336.14	85.62
336.369	93.62
336.597	91.62
336.825	76.62
337.053	74.62
337.281	77.62
337.51	88.62
337.738	84.62
337.966	87.62
338.194	72.62
338.422	78.62
338.65	76.62
338.878	101.62
339.106	73.62
339.334	93.62
339.562	88.62
339.79	85.62
340.018	85.62
340.246	85.62
340.474	92.62
340.702	82.62
340.93	84.62
341.158	88.62
341.386	76.62
341.614	91.62
341.842	93.62
342.07	91.62
342.298	78.62
342.526	93.62
342.754	72.62
342.981	78.62
343.209	88.62
343.437	80.62
343.665	91.62
343.893	76.62
344.12	71.62
344.348	81.62
344.576	80.62
344.804	79.62
345.031	78.62
345.259	80.62
345.487	86.62
345.714	69.62
345.942	77.62
346.17	77.62
346.397	87.62
346.625	71.62
346.853	77.62
347.08	86.62
347.308	90.62
347.535	83.62
347.763	86.62
347.99	94.62
348.218	89.62
348.445	88.62
348.673	77.62
348.9	82.62
349.128	92.62
349.355	82.62
349.583	77.62
349.81	69.62
350.037	93.62
350.265	78.62
350.492	84.62
350.72	80.62
350.947	69.62
351.174	78.62
351.402	96.62
351.629	88.62
351.856	80.62
352.083	78.62
352.311	79.62
352.538	84.62
352.765	95.62
352.992	80.62
353.22	92.62
353.447	84.62
353.674	91.62
353.901	82.62
354.128	88.62
354.355	95.62
354.583	75.62
354.81	93.62
355.037	63.62
355.264	88.62
355.491	75.62
355.718	77.62
355.945	95.62
356.172	96.62
356.399	89.62
356.626	72.62
356.853	77.62
357.08	90.62
357.307	85.62
357.534	77.62
357.761	78.62
357.988	96.62
358.215	74.62
358.441	97.62
358.668	80.62
358.895	91.62
359.122	76.62
359.349	83.62
359.576	78.62
359.802	81.62
360.029	92.62
360.256	98.62
360.483	93.62
360.709	77.62
360.936	87.62
361.163	70.62
361.39	88.62
361.616	84.62
361.843	75.62
362.07	89.62
362.296	77.62
362.523	79.62
362.749	88.62
362.976	84.62
363.203	81.62
363.429	88.62
363.656	82.62
363.882	87.62
364.109	76.62
364.335	94.62
364.562	79.62
364.788	83.62
365.015	73.62
365.241	89.62
365.468	89.62
365.694	87.62
365.92	85.62
366.147	74.62
366.373	91.62
366.599	86.62
366.826	83.62
367.052	82.62
367.278	78.62
367.505	72.62
367.731	92.62
367.957	76.62
368.184	89.62
368.41	76.62
368.636	89.62
368.862	90.62
369.089	90.62
369.315	75.62
369.541	82.62
369.767	87.62
369.993	91.62
370.219	75.62
370.445	78.62
370.672	81.62
370.898	76.62
371.124	89.62
371.35	88.62
371.576	92.62
371.802	83.62
372.028	75.62
372.254	92.62
372.48	81.62
372.706	77.62
372.932	78.62
373.158	81.62
373.384	89.62
373.61	92.62
373.835	93.62
374.061	83.62
374.287	82.62
374.513	86.62
374.739	84.62
374.965	84.62
375.191	93.62
375.416	81.62
375.642	85.62
375.868	78.62
376.094	85.62
376.319	89.62
376.545	98.62
376.771	87.62
376.997	87.62
377.222	80.62
377.448	78.62
377.674	88.62
377.899	90.62
378.125	93.62
378.35	82.62
378.576	93.62
378.802	91.62
379.027	93.62
379.253	84.62
379.478	80.62
379.704	78.62
379.929	94.62
380.155	98.62
380.38	91.62
380.606	83.62
380.831	89.62
381.057	88.62
381.282	90.62
381.507	81.62
381.733	95.62
381.958	91.62
382.184	93.62
382.409	70.62
382.634	97.62
382.86	82.62
383.085	106.62
383.31	103.62
383.535	93.62
383.761	76.62
383.986	88.62
384.211	88.62
384.436	96.62
384.662	78.62
384.887	100.62
385.112	71.62
385.337	93.62
385.562	88.62
385.787	87.62
386.013	84.62
386.238	92.62
386.463	87.62
386.688	79.62
386.913	86.62
387.138	80.62
387.363	95.62
387.588	111.62
387.813	86.62
388.038	106.62
388.263	73.62
388.488	87.62
388.713	74.62
388.938	96.62
389.163	80.62
389.387	85.62
389.612	91.62
389.837	93.62
390.062	82.62
390.287	90.62
390.512	77.62
390.736	88.62
390.961	96.62
391.186	86.62
391.411	92.62
391.636	81.62
391.86	77.62
392.085	96.62
392.31	83.62
392.534	101.62
392.759	97.62
392.984	105.62
393.208	88.62
393.433	89.62
393.658	96.62
393.882	89.62
394.107	97.62
394.331	78.62
394.556	89.62
394.78	85.62
395.005	90.62
395.229	102.62
395.454	96.62
395.678	88.62
395.903	93.62
396.127	88.62
396.352	86.62
396.576	96.62
396.801	89.62
397.025	82.62
397.249	106.62
397.474	82.62
397.698	104.62
397.922	97.62
398.147	91.62
398.371	82.62
398.595	98.62
398.82	91.62
399.044	94.62
399.268	103.62
399.492	91.62
399.717	96.62
399.941	80.62
400.165	100.62
400.389	101.62
400.613	96.62
400.837	85.62
401.062	83.62
401.286	97.62
401.51	86.62
401.734	109.62
401.958	92.62
402.182	118.62
402.406	105.62
402.63	91.62
402.854	90.62
403.078	114.62
403.302	85.62
403.526	87.62
403.75	86.62
403.974	98.62
404.198	98.62
404.422	116.62
404.645	98.62
404.869	91.62
405.093	97.62
405.317	94.62
405.541	93.62
405.765	107.62
405.988	91.62
406.212	96.62
406.436	104.62
406.66	107.62
406.883	84.62
407.107	92.62
407.331	98.62
407.555	107.62
407.778	100.62
408.002	102.62
408.226	99.62
408.449	85.62
408.673	101.62
408.896	105.62
409.12	97.62
409.344	104.62
409.567	101.62
409.791	92.62
410.014	98.62
410.238	93.62
410.461	104.62
410.685	100.62
410.908	96.62
411.132	97.62
411.355	86.62
411.578	84.62
411.802	113.62
412.025	97.62
412.249	92.62
412.472	106.62
412.695	95.62
412.919	97.62
413.142	111.62
413.365	101.62
413.589	109.62
413.812	94.62
414.035	107.62
414.258	87.62
414.482	95.62
414.705	90.62
414.928	86.62
415.151	93.62
415.374	111.62
415.597	104.62
415.821	105.62
416.044	106.62
416.267	98.62
416.49	97.62
416.713	101.62
416.936	93.62
417.159	103.62
417.382	104.62
417.605	96.62
417.828	101.62
418.051	99.62
418.274	98.62
418.497	113.62
418.72	122.62
418.943	95.62
419.166	106.62
419.389	101.62
419.611	104.62
419.834	114.62
420.057	110.62
420.28	95.62
420.503	101.62
420.726	109.62
420.948	100.62
421.171	134.62
421.394	111.62
421.617	97.62
421.839	122.62
422.062	121.62
422.285	108.62
422.507	97.62
422.73	109.62
422.953	89.62
423.175	92.62
423.398	115.62
423.621	108.62
423.843	113.62
424.066	104.62
424.288	104.62
424.511	108.62
424.733	106.62
424.956	114.62
425.178	123.62
425.401	114.62
425.623	94.62
425.846	107.62
426.068	111.62
426.291	112.62
426.513	124.62
426.735	115.62
426.958	103.62
427.18	91.62
427.402	105.62
427.625	109.62
427.847	97.62
428.069	109.62
428.292	103.62
428.514	105.62
428.736	110.62
428.958	109.62
429.181	103.62
429.403	106.62
429.625	97.62
429.847	84.62
430.069	111.62
430.292	108.62
430.514	110.62
430.736	109.62
430.958	112.62
431.18	114.62
431.402	117.62
431.624	107.62
431.846	110.62
432.068	102.62
432.29	90.62
432.512	115.62
432.734	109.62
432.956	100.62
433.178	104.62
433.4	122.62
433.622	104.62
433.844	114.62
434.066	116.62
434.287	90.62
434.509	86.62
434.731	99.62
434.953	84.62
435.175	92.62
435.397	95.62
435.618	93.62
435.84	81.62
436.062	101.62
436.284	108.62
436.505	108.62
436.727	108.62
436.949	103.62
437.17	98.62
437.392	96.62
437.614	94.62
437.835	106.62
438.057	99.62
438.278	92.62
438.5	87.62
438.721	103.62
438.943	115.62
439.165	104.62
439.386	113.62
439.608	115.62
439.829	107.62
440.05	101.62
440.272	115.62
440.493	108.62
440.715	110.62
440.936	128.62
441.158	120.62
441.379	122.62
441.6	123.62
441.822	119.62
442.043	125.62
442.264	116.62
442.486	125.62
442.707	101.62
442.928	112.62
443.149	118.62
443.371	99.62
443.592	104.62
443.813	119.62
444.034	107.62
444.255	114.62
444.476	114.62
444.698	103.62
444.919	122.62
445.14	212.62
445.361	156.62
445.582	121.62
445.803	113.62
446.024	109.62
446.245	112.62
446.466	109.62
446.687	124.62
446.908	100.62
447.129	117.62
447.35	105.62
447.571	118.62
447.792	106.62
448.013	120.62
448.234	121.62
448.455	109.62
448.675	104.62
448.896	88.62
449.117	109.62
449.338	102.62
449.559	112.62
449.779	90.62
450	121.62
450.221	118.62
450.442	118.62
450.662	110.62
450.883	104.62
451.104	113.62
451.324	118.62
451.545	99.62
451.766	99.62
451.986	115.62
452.207	108.62
452.428	94.62
452.648	97.62
452.869	101.62
453.089	95.62
453.31	100.62
453.53	91.62
453.751	96.62
453.971	97.62
454.192	96.62
454.412	92.62
454.633	103.62
454.853	90.62
455.073	113.62
455.294	90.62
455.514	119.62
455.734	106.62
455.955	111.62
456.175	95.62
456.395	82.62
456.616	100.62
456.836	97.62
457.056	105.62
457.276	102.62
457.497	88.62
457.717	93.62
457.937	107.62
458.157	109.62
458.377	85.62
458.598	92.62
458.818	82.62
459.038	104.62
459.258	99.62
459.478	88.62
459.698	76.62
459.918	82.62
460.138	91.62
460.358	87.62
460.578	104.62
460.798	104.62
461.018	104.62
461.238	77.62
461.458	103.62
461.678	95.62
461.898	102.62
462.118	120.62
462.338	95.62
462.558	98.62
462.777	100.62
462.997	107.62
463.217	89.62
463.437	103.62
463.657	93.62
463.876	83.62
464.096	93.62
464.316	98.62
464.536	102.62
464.755	104.62
464.975	100.62
465.195	102.62
465.414	114.62
465.634	107.62
465.854	84.62
466.073	102.62
466.293	103.62
466.512	98.62
466.732	107.62
466.951	99.62
467.171	118.62
467.391	111.62
467.61	92.62
467.829	105.62
468.049	108.62
468.268	111.62
468.488	107.62
468.707	84.62
468.927	108.62
469.146	104.62
469.365	108.62
469.585	111.62
469.804	114.62
470.023	97.62
470.243	107.62
470.462	110.62
470.681	118.62
470.901	114.62
471.12	123.62
471.339	114.62
471.558	112.62
471.777	98.62
471.997	92.62
472.216	94.62
472.435	98.62
472.654	90.62
472.873	93.62
473.092	94.62
473.311	108.62
473.53	95.62
473.749	96.62
473.968	113.62
474.187	109.62
474.406	95.62
474.625	109.62
474.844	115.62
475.063	107.62
475.282	110.62
475.501	108.62
475.72	112.62
475.939	100.62
476.158	106.62
476.377	96.62
476.596	107.62
476.814	107.62
477.033	89.62
477.252	98.62
477.471	92.62
477.69	91.62
477.908	106.62
478.127	97.62
478.346	96.62
478.564	105.62
478.783	105.62
479.002	118.62
479.22	114.62
479.439	111.62
479.658	97.62
479.876	106.62
480.095	100.62
480.313	94.62
480.532	104.62
480.751	100.62
480.969	79.62
481.188	80.62
481.406	83.62
481.624	84.62
481.843	87.62
482.061	104.62
482.28	103.62
482.498	90.62
482.717	88.62
482.935	96.62
483.153	99.62
483.372	113.62
483.59	111.62
483.808	112.62
484.027	97.62
484.245	114.62
484.463	116.62
484.681	122.62
484.9	119.62
485.118	123.62
485.336	102.62
485.554	88.62
485.772	72.62
485.99	83.62
486.209	105.62
486.427	92.62
486.645	100.62
486.863	89.62
487.081	116.62
487.299	106.62
487.517	112.62
487.735	124.62
487.953	142.62
488.171	136.62
488.389	141.62
488.607	135.62
488.825	112.62
489.043	106.62
489.261	107.62
489.479	100.62
489.696	118.62
489.914	116.62
490.132	111.62
490.35	120.62
490.568	134.62
490.786	136.62
491.003	134.62
491.221	135.62
491.439	131.62
491.657	140.62
491.874	144.62
492.092	134.62
492.31	148.62
492.527	134.62
492.745	145.62
492.963	139.62
493.18	129.62
493.398	128.62
493.615	120.62
493.833	114.62
494.05	113.62
494.268	139.62
494.485	135.62
494.703	135.62
494.92	128.62
495.138	130.62
495.355	116.62
495.573	135.62
495.79	119.62
496.008	129.62
496.225	130.62
496.442	123.62
496.66	127.62
496.877	109.62
497.094	126.62
497.312	121.62
497.529	119.62
497.746	117.62
497.963	113.62
498.181	95.62
498.398	116.62
498.615	112.62
498.832	91.62
499.049	96.62
499.267	99.62
499.484	105.62
499.701	101.62
499.918	106.62
500.135	108.62
500.352	106.62
500.569	113.62
500.786	116.62
501.003	108.62
501.22	110.62
501.437	113.62
501.654	112.62
501.871	98.62
502.088	90.62
502.305	103.62
502.522	91.62
502.739	113.62
502.956	97.62
503.172	99.62
503.389	107.62
503.606	98.62
503.823	103.62
504.04	102.62
504.256	97.62
504.473	92.62
504.69	95.62
504.907	114.62
505.123	103.62
505.34	104.62
505.557	105.62
505.773	106.62
505.99	107.62
506.207	99.62
506.423	79.62
506.64	83.62
506.856	104.62
507.073	96.62
507.289	109.62
507.506	90.62
507.722	106.62
507.939	93.62
508.155	103.62
508.372	103.62
508.588	101.62
508.805	94.62
509.021	81.62
509.238	102.62
509.454	103.62
509.67	92.62
509.887	87.62
510.103	88.62
510.319	99.62
510.536	85.62
510.752	83.62
510.968	83.62
511.184	84.62
511.401	92.62
511.617	83.62
511.833	86.62
512.049	85.62
512.265	80.62
512.481	87.62
512.698	101.62
512.914	93.62
513.13	88.62
513.346	71.62
513.562	75.62
513.778	97.62
513.994	89.62
514.21	92.62
514.426	84.62
514.642	92.62
