Data from Zn(NO3)2Standard.Agarose3%.GreenCap.LampEnergy10E.O_HRD10591_15-07-16-944.txt Node
Date: Mon Jul 22 15:07:16 EDT 2019
User: cochatt
Spectrometer: HR+D1059
Trigger mode: 1
Integration Time (sec): 1.000000E-1
Scans to average: 1
Electric dark correction enabled: true
Nonlinearity correction enabled: false
Boxcar width: 0
XAxis mode: Wavelengths
Number of Pixels in Spectrum: 2048
>>>>>Begin Spectral Data<<<<<
223.165	6.94
223.4	6.94
223.635	6.94
223.869	-18.06
224.104	-13.06
224.338	-16.06
224.573	-15.06
224.808	-23.06
225.042	-16.06
225.277	-11.06
225.511	-19.06
225.746	1.94
225.98	17.94
226.215	13.94
226.449	7.94
226.683	17.94
226.918	30.94
227.152	33.94
227.387	45.94
227.621	32.94
227.856	43.94
228.09	49.94
228.324	67.94
228.559	50.94
228.793	67.94
229.027	54.94
229.262	69.94
229.496	68.94
229.73	70.94
229.964	71.94
230.199	68.94
230.433	77.94
230.667	78.94
230.901	81.94
231.136	66.94
231.37	70.94
231.604	85.94
231.838	82.94
232.072	86.94
232.306	87.94
232.541	74.94
232.775	90.94
233.009	98.94
233.243	96.94
233.477	89.94
233.711	77.94
233.945	85.94
234.179	89.94
234.413	94.94
234.647	91.94
234.881	92.94
235.115	77.94
235.349	76.94
235.583	83.94
235.817	88.94
236.051	75.94
236.285	82.94
236.519	76.94
236.753	86.94
236.987	69.94
237.221	83.94
237.455	90.94
237.689	93.94
237.922	81.94
238.156	79.94
238.39	91.94
238.624	89.94
238.858	72.94
239.091	84.94
239.325	82.94
239.559	86.94
239.793	86.94
240.027	90.94
240.26	87.94
240.494	82.94
240.728	82.94
240.961	78.94
241.195	90.94
241.429	73.94
241.662	92.94
241.896	71.94
242.13	77.94
242.363	88.94
242.597	81.94
242.83	82.94
243.064	92.94
243.298	85.94
243.531	69.94
243.765	83.94
243.998	87.94
244.232	90.94
244.465	89.94
244.699	81.94
244.932	89.94
245.166	85.94
245.399	98.94
245.633	81.94
245.866	97.94
246.099	81.94
246.333	58.94
246.566	80.94
246.8	87.94
247.033	81.94
247.266	81.94
247.5	91.94
247.733	65.94
247.966	84.94
248.2	84.94
248.433	80.94
248.666	88.94
248.899	97.94
249.133	76.94
249.366	77.94
249.599	72.94
249.832	85.94
250.066	89.94
250.299	80.94
250.532	89.94
250.765	78.94
250.998	77.94
251.231	71.94
251.465	80.94
251.698	81.94
251.931	85.94
252.164	99.94
252.397	80.94
252.63	88.94
252.863	76.94
253.096	94.94
253.329	96.94
253.562	78.94
253.795	87.94
254.028	76.94
254.261	80.94
254.494	91.94
254.727	84.94
254.96	97.94
255.193	95.94
255.426	90.94
255.659	86.94
255.892	98.94
256.124	74.94
256.357	87.94
256.59	92.94
256.823	81.94
257.056	91.94
257.289	80.94
257.521	77.94
257.754	75.94
257.987	83.94
258.22	87.94
258.452	89.94
258.685	82.94
258.918	93.94
259.151	92.94
259.383	95.94
259.616	86.94
259.849	87.94
260.081	88.94
260.314	87.94
260.547	86.94
260.779	92.94
261.012	90.94
261.244	83.94
261.477	105.94
261.71	84.94
261.942	79.94
262.175	84.94
262.407	90.94
262.64	88.94
262.872	89.94
263.105	86.94
263.337	81.94
263.57	92.94
263.802	69.94
264.035	95.94
264.267	91.94
264.499	89.94
264.732	83.94
264.964	80.94
265.197	84.94
265.429	92.94
265.661	83.94
265.894	90.94
266.126	94.94
266.358	93.94
266.591	87.94
266.823	92.94
267.055	97.94
267.287	93.94
267.52	94.94
267.752	87.94
267.984	83.94
268.216	84.94
268.448	82.94
268.681	90.94
268.913	95.94
269.145	97.94
269.377	87.94
269.609	94.94
269.841	97.94
270.073	78.94
270.306	91.94
270.538	90.94
270.77	84.94
271.002	90.94
271.234	91.94
271.466	83.94
271.698	87.94
271.93	86.94
272.162	94.94
272.394	97.94
272.626	83.94
272.858	79.94
273.09	96.94
273.322	98.94
273.553	86.94
273.785	86.94
274.017	93.94
274.249	88.94
274.481	93.94
274.713	81.94
274.945	86.94
275.176	96.94
275.408	86.94
275.64	81.94
275.872	88.94
276.104	95.94
276.335	81.94
276.567	90.94
276.799	82.94
277.031	91.94
277.262	94.94
277.494	96.94
277.726	85.94
277.957	86.94
278.189	91.94
278.421	92.94
278.652	78.94
278.884	82.94
279.115	85.94
279.347	81.94
279.579	83.94
279.81	91.94
280.042	77.94
280.273	94.94
280.505	96.94
280.736	89.94
280.968	86.94
281.199	89.94
281.431	102.94
281.662	94.94
281.894	98.94
282.125	83.94
282.356	88.94
282.588	73.94
282.819	94.94
283.051	90.94
283.282	86.94
283.513	94.94
283.745	97.94
283.976	82.94
284.207	97.94
284.439	109.94
284.67	85.94
284.901	82.94
285.132	96.94
285.364	99.94
285.595	86.94
285.826	99.94
286.057	87.94
286.288	85.94
286.52	97.94
286.751	102.94
286.982	77.94
287.213	82.94
287.444	88.94
287.675	87.94
287.906	117.94
288.138	86.94
288.369	95.94
288.6	96.94
288.831	93.94
289.062	88.94
289.293	83.94
289.524	87.94
289.755	88.94
289.986	83.94
290.217	79.94
290.448	89.94
290.679	91.94
290.91	89.94
291.141	87.94
291.371	82.94
291.602	83.94
291.833	90.94
292.064	76.94
292.295	94.94
292.526	85.94
292.757	76.94
292.987	88.94
293.218	98.94
293.449	95.94
293.68	97.94
293.91	86.94
294.141	80.94
294.372	76.94
294.603	81.94
294.833	91.94
295.064	92.94
295.295	87.94
295.525	99.94
295.756	89.94
295.987	95.94
296.217	87.94
296.448	105.94
296.679	87.94
296.909	82.94
297.14	85.94
297.37	95.94
297.601	91.94
297.831	98.94
298.062	101.94
298.292	100.94
298.523	93.94
298.753	97.94
298.984	93.94
299.214	91.94
299.445	92.94
299.675	96.94
299.905	106.94
300.136	90.94
300.366	75.94
300.597	90.94
300.827	80.94
301.057	93.94
301.288	91.94
301.518	84.94
301.748	81.94
301.979	93.94
302.209	112.94
302.439	83.94
302.669	99.94
302.9	85.94
303.13	93.94
303.36	103.94
303.59	85.94
303.82	94.94
304.051	98.94
304.281	89.94
304.511	101.94
304.741	90.94
304.971	89.94
305.201	73.94
305.431	96.94
305.661	82.94
305.891	79.94
306.121	97.94
306.352	76.94
306.582	86.94
306.812	83.94
307.042	84.94
307.272	84.94
307.502	95.94
307.731	85.94
307.961	87.94
308.191	91.94
308.421	100.94
308.651	102.94
308.881	96.94
309.111	92.94
309.341	82.94
309.571	90.94
309.8	89.94
310.03	98.94
310.26	75.94
310.49	89.94
310.72	97.94
310.949	88.94
311.179	94.94
311.409	90.94
311.639	103.94
311.868	93.94
312.098	87.94
312.328	98.94
312.557	94.94
312.787	94.94
313.017	94.94
313.246	97.94
313.476	83.94
313.706	94.94
313.935	96.94
314.165	86.94
314.394	98.94
314.624	92.94
314.853	103.94
315.083	84.94
315.312	80.94
315.542	95.94
315.771	89.94
316.001	93.94
316.23	81.94
316.46	103.94
316.689	82.94
316.919	95.94
317.148	98.94
317.377	87.94
317.607	98.94
317.836	86.94
318.065	85.94
318.295	95.94
318.524	81.94
318.753	87.94
318.983	96.94
319.212	92.94
319.441	96.94
319.67	84.94
319.9	99.94
320.129	81.94
320.358	74.94
320.587	86.94
320.816	88.94
321.046	92.94
321.275	82.94
321.504	67.94
321.733	86.94
321.962	84.94
322.191	81.94
322.42	87.94
322.649	89.94
322.878	78.94
323.108	92.94
323.337	90.94
323.566	86.94
323.795	89.94
324.024	100.94
324.253	95.94
324.482	89.94
324.71	85.94
324.939	102.94
325.168	87.94
325.397	92.94
325.626	90.94
325.855	83.94
326.084	90.94
326.313	93.94
326.542	93.94
326.77	88.94
326.999	87.94
327.228	86.94
327.457	98.94
327.686	82.94
327.914	79.94
328.143	93.94
328.372	95.94
328.6	90.94
328.829	89.94
329.058	94.94
329.287	96.94
329.515	86.94
329.744	86.94
329.972	68.94
330.201	81.94
330.43	98.94
330.658	73.94
330.887	100.94
331.115	83.94
331.344	97.94
331.572	102.94
331.801	95.94
332.03	87.94
332.258	89.94
332.486	90.94
332.715	87.94
332.943	94.94
333.172	90.94
333.4	98.94
333.629	96.94
333.857	87.94
334.085	100.94
334.314	90.94
334.542	82.94
334.771	87.94
334.999	97.94
335.227	102.94
335.455	98.94
335.684	92.94
335.912	91.94
336.14	109.94
336.369	96.94
336.597	92.94
336.825	86.94
337.053	103.94
337.281	96.94
337.51	94.94
337.738	88.94
337.966	88.94
338.194	83.94
338.422	91.94
338.65	91.94
338.878	89.94
339.106	100.94
339.334	97.94
339.562	75.94
339.79	88.94
340.018	87.94
340.246	83.94
340.474	82.94
340.702	112.94
340.93	86.94
341.158	99.94
341.386	85.94
341.614	97.94
341.842	95.94
342.07	98.94
342.298	90.94
342.526	83.94
342.754	93.94
342.981	83.94
343.209	83.94
343.437	110.94
343.665	79.94
343.893	97.94
344.12	93.94
344.348	78.94
344.576	85.94
344.804	92.94
345.031	70.94
345.259	74.94
345.487	92.94
345.714	98.94
345.942	79.94
346.17	93.94
346.397	101.94
346.625	89.94
346.853	81.94
347.08	83.94
347.308	86.94
347.535	98.94
347.763	87.94
347.99	83.94
348.218	89.94
348.445	83.94
348.673	91.94
348.9	84.94
349.128	85.94
349.355	110.94
349.583	82.94
349.81	84.94
350.037	85.94
350.265	83.94
350.492	85.94
350.72	89.94
350.947	91.94
351.174	85.94
351.402	94.94
351.629	91.94
351.856	99.94
352.083	86.94
352.311	83.94
352.538	99.94
352.765	86.94
352.992	81.94
353.22	69.94
353.447	86.94
353.674	90.94
353.901	97.94
354.128	96.94
354.355	99.94
354.583	89.94
354.81	92.94
355.037	87.94
355.264	89.94
355.491	103.94
355.718	90.94
355.945	99.94
356.172	78.94
356.399	92.94
356.626	87.94
356.853	87.94
357.08	93.94
357.307	81.94
357.534	83.94
357.761	94.94
357.988	91.94
358.215	84.94
358.441	92.94
358.668	86.94
358.895	90.94
359.122	81.94
359.349	88.94
359.576	73.94
359.802	87.94
360.029	83.94
360.256	96.94
360.483	95.94
360.709	89.94
360.936	100.94
361.163	93.94
361.39	82.94
361.616	86.94
361.843	90.94
362.07	93.94
362.296	87.94
362.523	102.94
362.749	79.94
362.976	93.94
363.203	99.94
363.429	89.94
363.656	90.94
363.882	91.94
364.109	97.94
364.335	89.94
364.562	80.94
364.788	87.94
365.015	94.94
365.241	92.94
365.468	98.94
365.694	87.94
365.92	77.94
366.147	79.94
366.373	89.94
366.599	93.94
366.826	90.94
367.052	89.94
367.278	98.94
367.505	85.94
367.731	94.94
367.957	91.94
368.184	105.94
368.41	96.94
368.636	95.94
368.862	93.94
369.089	95.94
369.315	91.94
369.541	90.94
369.767	90.94
369.993	94.94
370.219	87.94
370.445	82.94
370.672	89.94
370.898	87.94
371.124	79.94
371.35	93.94
371.576	105.94
371.802	104.94
372.028	102.94
372.254	95.94
372.48	89.94
372.706	98.94
372.932	88.94
373.158	94.94
373.384	81.94
373.61	95.94
373.835	79.94
374.061	95.94
374.287	88.94
374.513	93.94
374.739	93.94
374.965	80.94
375.191	94.94
375.416	88.94
375.642	97.94
375.868	92.94
376.094	81.94
376.319	95.94
376.545	79.94
376.771	74.94
376.997	95.94
377.222	88.94
377.448	99.94
377.674	93.94
377.899	82.94
378.125	86.94
378.35	88.94
378.576	102.94
378.802	99.94
379.027	74.94
379.253	101.94
379.478	70.94
379.704	97.94
379.929	103.94
380.155	77.94
380.38	108.94
380.606	87.94
380.831	94.94
381.057	100.94
381.282	101.94
381.507	96.94
381.733	104.94
381.958	89.94
382.184	88.94
382.409	97.94
382.634	91.94
382.86	82.94
383.085	103.94
383.31	106.94
383.535	85.94
383.761	90.94
383.986	85.94
384.211	91.94
384.436	102.94
384.662	92.94
384.887	104.94
385.112	89.94
385.337	96.94
385.562	99.94
385.787	98.94
386.013	110.94
386.238	86.94
386.463	100.94
386.688	99.94
386.913	99.94
387.138	97.94
387.363	94.94
387.588	111.94
387.813	94.94
388.038	90.94
388.263	96.94
388.488	97.94
388.713	93.94
388.938	90.94
389.163	108.94
389.387	97.94
389.612	104.94
389.837	87.94
390.062	90.94
390.287	87.94
390.512	91.94
390.736	95.94
390.961	104.94
391.186	104.94
391.411	92.94
391.636	114.94
391.86	95.94
392.085	98.94
392.31	109.94
392.534	96.94
392.759	100.94
392.984	97.94
393.208	90.94
393.433	107.94
393.658	87.94
393.882	112.94
394.107	99.94
394.331	94.94
394.556	91.94
394.78	81.94
395.005	119.94
395.229	101.94
395.454	102.94
395.678	97.94
395.903	95.94
396.127	98.94
396.352	89.94
396.576	96.94
396.801	96.94
397.025	103.94
397.249	90.94
397.474	94.94
397.698	103.94
397.922	110.94
398.147	86.94
398.371	101.94
398.595	107.94
398.82	106.94
399.044	107.94
399.268	102.94
399.492	94.94
399.717	103.94
399.941	96.94
400.165	95.94
400.389	109.94
400.613	98.94
400.837	103.94
401.062	106.94
401.286	108.94
401.51	107.94
401.734	88.94
401.958	93.94
402.182	83.94
402.406	95.94
402.63	93.94
402.854	97.94
403.078	105.94
403.302	110.94
403.526	106.94
403.75	104.94
403.974	103.94
404.198	114.94
404.422	121.94
404.645	93.94
404.869	100.94
405.093	104.94
405.317	105.94
405.541	109.94
405.765	113.94
405.988	105.94
406.212	102.94
406.436	97.94
406.66	113.94
406.883	107.94
407.107	103.94
407.331	98.94
407.555	98.94
407.778	110.94
408.002	119.94
408.226	108.94
408.449	102.94
408.673	102.94
408.896	108.94
409.12	103.94
409.344	120.94
409.567	93.94
409.791	101.94
410.014	101.94
410.238	118.94
410.461	108.94
410.685	101.94
410.908	106.94
411.132	100.94
411.355	115.94
411.578	103.94
411.802	108.94
412.025	101.94
412.249	105.94
412.472	101.94
412.695	106.94
412.919	99.94
413.142	102.94
413.365	101.94
413.589	105.94
413.812	92.94
414.035	123.94
414.258	110.94
414.482	113.94
414.705	107.94
414.928	102.94
415.151	95.94
415.374	95.94
415.597	117.94
415.821	109.94
416.044	102.94
416.267	115.94
416.49	95.94
416.713	127.94
416.936	110.94
417.159	110.94
417.382	106.94
417.605	111.94
417.828	107.94
418.051	113.94
418.274	119.94
418.497	117.94
418.72	98.94
418.943	100.94
419.166	131.94
419.389	96.94
419.611	110.94
419.834	100.94
420.057	103.94
420.28	117.94
420.503	97.94
420.726	103.94
420.948	114.94
421.171	113.94
421.394	109.94
421.617	109.94
421.839	130.94
422.062	117.94
422.285	115.94
422.507	107.94
422.73	107.94
422.953	99.94
423.175	110.94
423.398	117.94
423.621	116.94
423.843	110.94
424.066	90.94
424.288	116.94
424.511	93.94
424.733	129.94
424.956	111.94
425.178	119.94
425.401	121.94
425.623	125.94
425.846	114.94
426.068	122.94
426.291	100.94
426.513	95.94
426.735	105.94
426.958	125.94
427.18	108.94
427.402	105.94
427.625	92.94
427.847	119.94
428.069	101.94
428.292	117.94
428.514	96.94
428.736	110.94
428.958	98.94
429.181	109.94
429.403	112.94
429.625	101.94
429.847	103.94
430.069	101.94
430.292	103.94
430.514	119.94
430.736	106.94
430.958	105.94
431.18	126.94
431.402	112.94
431.624	99.94
431.846	94.94
432.068	100.94
432.29	89.94
432.512	103.94
432.734	118.94
432.956	109.94
433.178	125.94
433.4	107.94
433.622	99.94
433.844	120.94
434.066	102.94
434.287	111.94
434.509	97.94
434.731	89.94
434.953	109.94
435.175	117.94
435.397	105.94
435.618	90.94
435.84	85.94
436.062	105.94
436.284	101.94
436.505	102.94
436.727	112.94
436.949	114.94
437.17	104.94
437.392	107.94
437.614	108.94
437.835	110.94
438.057	93.94
438.278	99.94
438.5	106.94
438.721	113.94
438.943	107.94
439.165	111.94
439.386	97.94
439.608	106.94
439.829	123.94
440.05	116.94
440.272	109.94
440.493	112.94
440.715	126.94
440.936	130.94
441.158	115.94
441.379	132.94
441.6	110.94
441.822	121.94
442.043	125.94
442.264	116.94
442.486	125.94
442.707	116.94
442.928	107.94
443.149	123.94
443.371	121.94
443.592	111.94
443.813	103.94
444.034	121.94
444.255	123.94
444.476	117.94
444.698	125.94
444.919	126.94
445.14	232.94
445.361	159.94
445.582	119.94
445.803	123.94
446.024	106.94
446.245	108.94
446.466	129.94
446.687	126.94
446.908	94.94
447.129	127.94
447.35	129.94
447.571	123.94
447.792	109.94
448.013	93.94
448.234	128.94
448.455	122.94
448.675	117.94
448.896	115.94
449.117	117.94
449.338	127.94
449.559	102.94
449.779	98.94
450	125.94
450.221	133.94
450.442	123.94
450.662	113.94
450.883	119.94
451.104	121.94
451.324	107.94
451.545	109.94
451.766	119.94
451.986	103.94
452.207	115.94
452.428	110.94
452.648	102.94
452.869	110.94
453.089	112.94
453.31	90.94
453.53	101.94
453.751	105.94
453.971	88.94
454.192	97.94
454.412	116.94
454.633	106.94
454.853	86.94
455.073	112.94
455.294	98.94
455.514	121.94
455.734	105.94
455.955	129.94
456.175	109.94
456.395	110.94
456.616	120.94
456.836	105.94
457.056	99.94
457.276	103.94
457.497	86.94
457.717	97.94
457.937	101.94
458.157	101.94
458.377	94.94
458.598	90.94
458.818	82.94
459.038	94.94
459.258	102.94
459.478	97.94
459.698	96.94
459.918	93.94
460.138	98.94
460.358	94.94
460.578	101.94
460.798	94.94
461.018	98.94
461.238	105.94
461.458	109.94
461.678	121.94
461.898	119.94
462.118	97.94
462.338	114.94
462.558	91.94
462.777	107.94
462.997	106.94
463.217	100.94
463.437	98.94
463.657	102.94
463.876	96.94
464.096	96.94
464.316	112.94
464.536	99.94
464.755	104.94
464.975	102.94
465.195	98.94
465.414	97.94
465.634	104.94
465.854	114.94
466.073	99.94
466.293	95.94
466.512	108.94
466.732	120.94
466.951	104.94
467.171	98.94
467.391	104.94
467.61	107.94
467.829	103.94
468.049	110.94
468.268	109.94
468.488	108.94
468.707	120.94
468.927	111.94
469.146	116.94
469.365	110.94
469.585	102.94
469.804	103.94
470.023	121.94
470.243	125.94
470.462	118.94
470.681	113.94
470.901	127.94
471.12	117.94
471.339	107.94
471.558	107.94
471.777	118.94
471.997	111.94
472.216	110.94
472.435	112.94
472.654	109.94
472.873	102.94
473.092	99.94
473.311	103.94
473.53	109.94
473.749	114.94
473.968	93.94
474.187	112.94
474.406	104.94
474.625	119.94
474.844	112.94
475.063	118.94
475.282	106.94
475.501	92.94
475.72	107.94
475.939	110.94
476.158	105.94
476.377	121.94
476.596	117.94
476.814	111.94
477.033	91.94
477.252	90.94
477.471	118.94
477.69	113.94
477.908	112.94
478.127	126.94
478.346	113.94
478.564	113.94
478.783	126.94
479.002	115.94
479.22	112.94
479.439	102.94
479.658	118.94
479.876	107.94
480.095	92.94
480.313	111.94
480.532	107.94
480.751	99.94
480.969	102.94
481.188	96.94
481.406	99.94
481.624	102.94
481.843	87.94
482.061	103.94
482.28	97.94
482.498	104.94
482.717	101.94
482.935	105.94
483.153	111.94
483.372	106.94
483.59	112.94
483.808	109.94
484.027	110.94
484.245	121.94
484.463	123.94
484.681	134.94
484.9	119.94
485.118	120.94
485.336	107.94
485.554	94.94
485.772	95.94
485.99	102.94
486.209	108.94
486.427	100.94
486.645	106.94
486.863	128.94
487.081	126.94
487.299	114.94
487.517	115.94
487.735	122.94
487.953	146.94
488.171	144.94
488.389	120.94
488.607	126.94
488.825	106.94
489.043	112.94
489.261	121.94
489.479	124.94
489.696	101.94
489.914	128.94
490.132	119.94
490.35	118.94
490.568	141.94
490.786	133.94
491.003	125.94
491.221	145.94
491.439	143.94
491.657	143.94
491.874	146.94
492.092	158.94
492.31	157.94
492.527	154.94
492.745	152.94
492.963	140.94
493.18	135.94
493.398	133.94
493.615	131.94
493.833	153.94
494.05	128.94
494.268	130.94
494.485	132.94
494.703	131.94
494.92	127.94
495.138	118.94
495.355	123.94
495.573	147.94
495.79	129.94
496.008	130.94
496.225	123.94
496.442	125.94
496.66	126.94
496.877	133.94
497.094	125.94
497.312	135.94
497.529	129.94
497.746	132.94
497.963	115.94
498.181	104.94
498.398	123.94
498.615	97.94
498.832	88.94
499.049	94.94
499.267	107.94
499.484	98.94
499.701	114.94
499.918	110.94
500.135	108.94
500.352	107.94
500.569	107.94
500.786	123.94
501.003	122.94
501.22	109.94
501.437	111.94
501.654	109.94
501.871	99.94
502.088	112.94
502.305	107.94
502.522	95.94
502.739	99.94
502.956	103.94
503.172	107.94
503.389	118.94
503.606	130.94
503.823	121.94
504.04	117.94
504.256	101.94
504.473	107.94
504.69	117.94
504.907	121.94
505.123	102.94
505.34	109.94
505.557	107.94
505.773	104.94
505.99	113.94
506.207	103.94
506.423	112.94
506.64	125.94
506.856	99.94
507.073	112.94
507.289	114.94
507.506	106.94
507.722	97.94
507.939	94.94
508.155	92.94
508.372	93.94
508.588	108.94
508.805	98.94
509.021	106.94
509.238	101.94
509.454	89.94
509.67	98.94
509.887	97.94
510.103	88.94
510.319	95.94
510.536	94.94
510.752	86.94
510.968	91.94
511.184	90.94
511.401	89.94
511.617	110.94
511.833	81.94
512.049	99.94
512.265	95.94
512.481	97.94
512.698	88.94
