Data from Zn(NO3)2Standard.Agarose3%.GreenCap.LampEnergy10E.O_HRD10591_15-06-52-942.txt Node
Date: Mon Jul 22 15:06:52 EDT 2019
User: cochatt
Spectrometer: HR+D1059
Trigger mode: 1
Integration Time (sec): 1.000000E-1
Scans to average: 1
Electric dark correction enabled: true
Nonlinearity correction enabled: false
Boxcar width: 0
XAxis mode: Wavelengths
Number of Pixels in Spectrum: 2048
>>>>>Begin Spectral Data<<<<<
223.165	-13.56
223.4	-13.56
223.635	-13.56
223.869	-23.56
224.104	-17.56
224.338	-20.56
224.573	-13.56
224.808	-16.56
225.042	-17.56
225.277	-10.56
225.511	0.44
225.746	4.44
225.98	5.44
226.215	10.44
226.449	37.44
226.683	16.44
226.918	24.44
227.152	34.44
227.387	37.44
227.621	45.44
227.856	56.44
228.09	33.44
228.324	45.44
228.559	67.44
228.793	56.44
229.027	67.44
229.262	70.44
229.496	74.44
229.73	72.44
229.964	72.44
230.199	63.44
230.433	74.44
230.667	84.44
230.901	82.44
231.136	72.44
231.37	74.44
231.604	84.44
231.838	78.44
232.072	86.44
232.306	78.44
232.541	88.44
232.775	77.44
233.009	72.44
233.243	84.44
233.477	70.44
233.711	92.44
233.945	88.44
234.179	71.44
234.413	85.44
234.647	83.44
234.881	79.44
235.115	78.44
235.349	84.44
235.583	81.44
235.817	76.44
236.051	81.44
236.285	94.44
236.519	84.44
236.753	83.44
236.987	92.44
237.221	85.44
237.455	77.44
237.689	85.44
237.922	82.44
238.156	54.44
238.39	70.44
238.624	82.44
238.858	82.44
239.091	73.44
239.325	70.44
239.559	78.44
239.793	69.44
240.027	89.44
240.26	77.44
240.494	77.44
240.728	79.44
240.961	78.44
241.195	78.44
241.429	63.44
241.662	82.44
241.896	89.44
242.13	75.44
242.363	77.44
242.597	72.44
242.83	83.44
243.064	83.44
243.298	68.44
243.531	68.44
243.765	78.44
243.998	73.44
244.232	91.44
244.465	83.44
244.699	64.44
244.932	77.44
245.166	60.44
245.399	73.44
245.633	75.44
245.866	68.44
246.099	81.44
246.333	83.44
246.566	86.44
246.8	79.44
247.033	85.44
247.266	78.44
247.5	91.44
247.733	86.44
247.966	70.44
248.2	68.44
248.433	65.44
248.666	77.44
248.899	83.44
249.133	78.44
249.366	82.44
249.599	89.44
249.832	80.44
250.066	83.44
250.299	82.44
250.532	85.44
250.765	74.44
250.998	74.44
251.231	84.44
251.465	80.44
251.698	85.44
251.931	73.44
252.164	83.44
252.397	84.44
252.63	81.44
252.863	76.44
253.096	73.44
253.329	84.44
253.562	68.44
253.795	75.44
254.028	82.44
254.261	81.44
254.494	86.44
254.727	86.44
254.96	91.44
255.193	92.44
255.426	77.44
255.659	90.44
255.892	87.44
256.124	86.44
256.357	85.44
256.59	89.44
256.823	85.44
257.056	77.44
257.289	89.44
257.521	85.44
257.754	86.44
257.987	63.44
258.22	82.44
258.452	100.44
258.685	83.44
258.918	80.44
259.151	68.44
259.383	64.44
259.616	79.44
259.849	68.44
260.081	64.44
260.314	91.44
260.547	87.44
260.779	81.44
261.012	79.44
261.244	81.44
261.477	81.44
261.71	91.44
261.942	77.44
262.175	74.44
262.407	75.44
262.64	67.44
262.872	84.44
263.105	77.44
263.337	80.44
263.57	74.44
263.802	88.44
264.035	74.44
264.267	75.44
264.499	77.44
264.732	81.44
264.964	77.44
265.197	83.44
265.429	78.44
265.661	71.44
265.894	82.44
266.126	81.44
266.358	88.44
266.591	84.44
266.823	90.44
267.055	88.44
267.287	91.44
267.52	83.44
267.752	78.44
267.984	88.44
268.216	73.44
268.448	88.44
268.681	90.44
268.913	83.44
269.145	90.44
269.377	87.44
269.609	85.44
269.841	87.44
270.073	92.44
270.306	94.44
270.538	81.44
270.77	89.44
271.002	88.44
271.234	80.44
271.466	82.44
271.698	68.44
271.93	77.44
272.162	86.44
272.394	89.44
272.626	95.44
272.858	88.44
273.09	77.44
273.322	107.44
273.553	87.44
273.785	78.44
274.017	71.44
274.249	79.44
274.481	83.44
274.713	73.44
274.945	86.44
275.176	82.44
275.408	86.44
275.64	87.44
275.872	75.44
276.104	97.44
276.335	86.44
276.567	81.44
276.799	89.44
277.031	77.44
277.262	75.44
277.494	71.44
277.726	92.44
277.957	90.44
278.189	84.44
278.421	85.44
278.652	88.44
278.884	75.44
279.115	83.44
279.347	67.44
279.579	89.44
279.81	69.44
280.042	85.44
280.273	80.44
280.505	81.44
280.736	67.44
280.968	92.44
281.199	82.44
281.431	86.44
281.662	77.44
281.894	91.44
282.125	90.44
282.356	90.44
282.588	85.44
282.819	86.44
283.051	82.44
283.282	85.44
283.513	91.44
283.745	86.44
283.976	81.44
284.207	76.44
284.439	77.44
284.67	85.44
284.901	88.44
285.132	85.44
285.364	79.44
285.595	78.44
285.826	82.44
286.057	78.44
286.288	88.44
286.52	76.44
286.751	83.44
286.982	77.44
287.213	81.44
287.444	96.44
287.675	72.44
287.906	92.44
288.138	75.44
288.369	77.44
288.6	73.44
288.831	79.44
289.062	89.44
289.293	89.44
289.524	78.44
289.755	84.44
289.986	88.44
290.217	87.44
290.448	103.44
290.679	84.44
290.91	87.44
291.141	82.44
291.371	74.44
291.602	91.44
291.833	84.44
292.064	85.44
292.295	89.44
292.526	88.44
292.757	92.44
292.987	98.44
293.218	80.44
293.449	83.44
293.68	92.44
293.91	88.44
294.141	74.44
294.372	101.44
294.603	82.44
294.833	85.44
295.064	78.44
295.295	94.44
295.525	74.44
295.756	91.44
295.987	90.44
296.217	78.44
296.448	87.44
296.679	92.44
296.909	84.44
297.14	76.44
297.37	85.44
297.601	89.44
297.831	80.44
298.062	86.44
298.292	76.44
298.523	98.44
298.753	91.44
298.984	92.44
299.214	96.44
299.445	89.44
299.675	76.44
299.905	94.44
300.136	86.44
300.366	93.44
300.597	79.44
300.827	78.44
301.057	61.44
301.288	74.44
301.518	94.44
301.748	73.44
301.979	95.44
302.209	93.44
302.439	92.44
302.669	81.44
302.9	86.44
303.13	83.44
303.36	96.44
303.59	96.44
303.82	94.44
304.051	90.44
304.281	96.44
304.511	99.44
304.741	87.44
304.971	87.44
305.201	94.44
305.431	93.44
305.661	93.44
305.891	82.44
306.121	88.44
306.352	98.44
306.582	95.44
306.812	89.44
307.042	67.44
307.272	83.44
307.502	87.44
307.731	78.44
307.961	89.44
308.191	78.44
308.421	86.44
308.651	83.44
308.881	82.44
309.111	85.44
309.341	86.44
309.571	74.44
309.8	92.44
310.03	88.44
310.26	91.44
310.49	78.44
310.72	84.44
310.949	88.44
311.179	77.44
311.409	88.44
311.639	77.44
311.868	75.44
312.098	78.44
312.328	86.44
312.557	80.44
312.787	91.44
313.017	79.44
313.246	95.44
313.476	92.44
313.706	95.44
313.935	74.44
314.165	98.44
314.394	94.44
314.624	74.44
314.853	90.44
315.083	76.44
315.312	85.44
315.542	89.44
315.771	85.44
316.001	88.44
316.23	86.44
316.46	81.44
316.689	88.44
316.919	89.44
317.148	95.44
317.377	79.44
317.607	88.44
317.836	76.44
318.065	75.44
318.295	92.44
318.524	84.44
318.753	85.44
318.983	84.44
319.212	79.44
319.441	87.44
319.67	86.44
319.9	85.44
320.129	88.44
320.358	89.44
320.587	87.44
320.816	98.44
321.046	85.44
321.275	87.44
321.504	81.44
321.733	89.44
321.962	83.44
322.191	86.44
322.42	87.44
322.649	88.44
322.878	90.44
323.108	80.44
323.337	85.44
323.566	97.44
323.795	75.44
324.024	84.44
324.253	99.44
324.482	85.44
324.71	89.44
324.939	84.44
325.168	80.44
325.397	92.44
325.626	97.44
325.855	81.44
326.084	84.44
326.313	99.44
326.542	79.44
326.77	87.44
326.999	75.44
327.228	82.44
327.457	75.44
327.686	81.44
327.914	86.44
328.143	98.44
328.372	63.44
328.6	90.44
328.829	84.44
329.058	92.44
329.287	86.44
329.515	78.44
329.744	95.44
329.972	82.44
330.201	72.44
330.43	92.44
330.658	75.44
330.887	90.44
331.115	77.44
331.344	95.44
331.572	88.44
331.801	70.44
332.03	92.44
332.258	87.44
332.486	77.44
332.715	95.44
332.943	86.44
333.172	90.44
333.4	80.44
333.629	77.44
333.857	70.44
334.085	91.44
334.314	80.44
334.542	96.44
334.771	88.44
334.999	89.44
335.227	93.44
335.455	83.44
335.684	69.44
335.912	89.44
336.14	80.44
336.369	74.44
336.597	87.44
336.825	82.44
337.053	96.44
337.281	72.44
337.51	83.44
337.738	76.44
337.966	97.44
338.194	90.44
338.422	84.44
338.65	78.44
338.878	91.44
339.106	90.44
339.334	92.44
339.562	97.44
339.79	84.44
340.018	90.44
340.246	90.44
340.474	94.44
340.702	92.44
340.93	105.44
341.158	72.44
341.386	98.44
341.614	86.44
341.842	85.44
342.07	85.44
342.298	87.44
342.526	71.44
342.754	81.44
342.981	77.44
343.209	85.44
343.437	88.44
343.665	77.44
343.893	68.44
344.12	75.44
344.348	68.44
344.576	91.44
344.804	90.44
345.031	79.44
345.259	82.44
345.487	73.44
345.714	84.44
345.942	84.44
346.17	89.44
346.397	79.44
346.625	79.44
346.853	95.44
347.08	84.44
347.308	99.44
347.535	92.44
347.763	85.44
347.99	93.44
348.218	79.44
348.445	75.44
348.673	90.44
348.9	77.44
349.128	89.44
349.355	88.44
349.583	78.44
349.81	77.44
350.037	78.44
350.265	88.44
350.492	79.44
350.72	70.44
350.947	78.44
351.174	79.44
351.402	86.44
351.629	89.44
351.856	87.44
352.083	89.44
352.311	81.44
352.538	84.44
352.765	78.44
352.992	72.44
353.22	82.44
353.447	84.44
353.674	71.44
353.901	76.44
354.128	84.44
354.355	72.44
354.583	89.44
354.81	87.44
355.037	90.44
355.264	94.44
355.491	89.44
355.718	77.44
355.945	86.44
356.172	86.44
356.399	71.44
356.626	78.44
356.853	79.44
357.08	88.44
357.307	94.44
357.534	84.44
357.761	78.44
357.988	86.44
358.215	75.44
358.441	73.44
358.668	73.44
358.895	82.44
359.122	85.44
359.349	79.44
359.576	85.44
359.802	80.44
360.029	84.44
360.256	90.44
360.483	98.44
360.709	73.44
360.936	91.44
361.163	84.44
361.39	72.44
361.616	89.44
361.843	84.44
362.07	73.44
362.296	74.44
362.523	83.44
362.749	91.44
362.976	95.44
363.203	105.44
363.429	94.44
363.656	91.44
363.882	85.44
364.109	75.44
364.335	78.44
364.562	83.44
364.788	92.44
365.015	86.44
365.241	87.44
365.468	81.44
365.694	102.44
365.92	85.44
366.147	85.44
366.373	100.44
366.599	88.44
366.826	99.44
367.052	84.44
367.278	96.44
367.505	89.44
367.731	100.44
367.957	84.44
368.184	81.44
368.41	82.44
368.636	75.44
368.862	86.44
369.089	97.44
369.315	88.44
369.541	91.44
369.767	94.44
369.993	70.44
370.219	86.44
370.445	86.44
370.672	81.44
370.898	84.44
371.124	97.44
371.35	86.44
371.576	87.44
371.802	84.44
372.028	75.44
372.254	77.44
372.48	101.44
372.706	90.44
372.932	96.44
373.158	88.44
373.384	92.44
373.61	88.44
373.835	94.44
374.061	74.44
374.287	78.44
374.513	88.44
374.739	92.44
374.965	91.44
375.191	91.44
375.416	91.44
375.642	91.44
375.868	96.44
376.094	80.44
376.319	84.44
376.545	84.44
376.771	96.44
376.997	86.44
377.222	97.44
377.448	99.44
377.674	82.44
377.899	89.44
378.125	87.44
378.35	103.44
378.576	98.44
378.802	84.44
379.027	80.44
379.253	81.44
379.478	88.44
379.704	88.44
379.929	89.44
380.155	86.44
380.38	96.44
380.606	83.44
380.831	83.44
381.057	89.44
381.282	100.44
381.507	91.44
381.733	85.44
381.958	86.44
382.184	88.44
382.409	79.44
382.634	88.44
382.86	97.44
383.085	86.44
383.31	96.44
383.535	78.44
383.761	88.44
383.986	86.44
384.211	90.44
384.436	81.44
384.662	94.44
384.887	87.44
385.112	83.44
385.337	85.44
385.562	84.44
385.787	80.44
386.013	105.44
386.238	97.44
386.463	91.44
386.688	84.44
386.913	90.44
387.138	102.44
387.363	89.44
387.588	92.44
387.813	88.44
388.038	102.44
388.263	82.44
388.488	85.44
388.713	88.44
388.938	80.44
389.163	97.44
389.387	100.44
389.612	90.44
389.837	91.44
390.062	94.44
390.287	101.44
390.512	89.44
390.736	101.44
390.961	107.44
391.186	90.44
391.411	78.44
391.636	106.44
391.86	80.44
392.085	94.44
392.31	96.44
392.534	90.44
392.759	94.44
392.984	95.44
393.208	101.44
393.433	84.44
393.658	94.44
393.882	93.44
394.107	101.44
394.331	83.44
394.556	77.44
394.78	96.44
395.005	92.44
395.229	84.44
395.454	99.44
395.678	95.44
395.903	88.44
396.127	96.44
396.352	98.44
396.576	96.44
396.801	90.44
397.025	96.44
397.249	89.44
397.474	90.44
397.698	112.44
397.922	91.44
398.147	104.44
398.371	92.44
398.595	89.44
398.82	98.44
399.044	101.44
399.268	89.44
399.492	103.44
399.717	100.44
399.941	96.44
400.165	108.44
400.389	91.44
400.613	106.44
400.837	104.44
401.062	98.44
401.286	93.44
401.51	104.44
401.734	96.44
401.958	104.44
402.182	89.44
402.406	87.44
402.63	96.44
402.854	98.44
403.078	96.44
403.302	96.44
403.526	99.44
403.75	105.44
403.974	96.44
404.198	96.44
404.422	102.44
404.645	106.44
404.869	90.44
405.093	102.44
405.317	94.44
405.541	98.44
405.765	81.44
405.988	73.44
406.212	96.44
406.436	98.44
406.66	104.44
406.883	99.44
407.107	81.44
407.331	91.44
407.555	115.44
407.778	108.44
408.002	89.44
408.226	87.44
408.449	97.44
408.673	88.44
408.896	104.44
409.12	121.44
409.344	92.44
409.567	97.44
409.791	101.44
410.014	106.44
410.238	105.44
410.461	105.44
410.685	112.44
410.908	96.44
411.132	92.44
411.355	102.44
411.578	97.44
411.802	102.44
412.025	91.44
412.249	97.44
412.472	108.44
412.695	102.44
412.919	93.44
413.142	96.44
413.365	99.44
413.589	89.44
413.812	107.44
414.035	93.44
414.258	105.44
414.482	118.44
414.705	105.44
414.928	103.44
415.151	102.44
415.374	101.44
415.597	106.44
415.821	107.44
416.044	101.44
416.267	107.44
416.49	110.44
416.713	100.44
416.936	87.44
417.159	105.44
417.382	95.44
417.605	106.44
417.828	100.44
418.051	93.44
418.274	97.44
418.497	109.44
418.72	100.44
418.943	96.44
419.166	98.44
419.389	93.44
419.611	104.44
419.834	106.44
420.057	104.44
420.28	105.44
420.503	111.44
420.726	102.44
420.948	112.44
421.171	104.44
421.394	98.44
421.617	108.44
421.839	102.44
422.062	106.44
422.285	94.44
422.507	103.44
422.73	102.44
422.953	100.44
423.175	97.44
423.398	105.44
423.621	102.44
423.843	103.44
424.066	101.44
424.288	103.44
424.511	110.44
424.733	125.44
424.956	102.44
425.178	110.44
425.401	107.44
425.623	113.44
425.846	108.44
426.068	105.44
426.291	100.44
426.513	113.44
426.735	100.44
426.958	109.44
427.18	119.44
427.402	109.44
427.625	106.44
427.847	113.44
428.069	104.44
428.292	101.44
428.514	99.44
428.736	105.44
428.958	106.44
429.181	107.44
429.403	108.44
429.625	97.44
429.847	100.44
430.069	106.44
430.292	110.44
430.514	98.44
430.736	119.44
430.958	105.44
431.18	103.44
431.402	97.44
431.624	99.44
431.846	94.44
432.068	79.44
432.29	91.44
432.512	85.44
432.734	105.44
432.956	106.44
433.178	108.44
433.4	115.44
433.622	106.44
433.844	100.44
434.066	101.44
434.287	93.44
434.509	97.44
434.731	88.44
434.953	100.44
435.175	95.44
435.397	108.44
435.618	108.44
435.84	83.44
436.062	82.44
436.284	96.44
436.505	109.44
436.727	119.44
436.949	106.44
437.17	115.44
437.392	102.44
437.614	115.44
437.835	85.44
438.057	84.44
438.278	95.44
438.5	98.44
438.721	110.44
438.943	83.44
439.165	93.44
439.386	93.44
439.608	117.44
439.829	121.44
440.05	107.44
440.272	116.44
440.493	115.44
440.715	106.44
440.936	100.44
441.158	92.44
441.379	106.44
441.6	108.44
441.822	108.44
442.043	108.44
442.264	121.44
442.486	106.44
442.707	110.44
442.928	105.44
443.149	106.44
443.371	118.44
443.592	104.44
443.813	123.44
444.034	106.44
444.255	121.44
444.476	107.44
444.698	102.44
444.919	102.44
445.14	222.44
445.361	159.44
445.582	112.44
445.803	101.44
446.024	113.44
446.245	124.44
446.466	107.44
446.687	129.44
446.908	120.44
447.129	124.44
447.35	117.44
447.571	121.44
447.792	104.44
448.013	114.44
448.234	107.44
448.455	107.44
448.675	114.44
448.896	122.44
449.117	98.44
449.338	99.44
449.559	100.44
449.779	114.44
450	113.44
450.221	103.44
450.442	121.44
450.662	98.44
450.883	100.44
451.104	106.44
451.324	94.44
451.545	101.44
451.766	91.44
451.986	92.44
452.207	115.44
452.428	89.44
452.648	106.44
452.869	84.44
453.089	100.44
453.31	98.44
453.53	93.44
453.751	98.44
453.971	109.44
454.192	100.44
454.412	97.44
454.633	105.44
454.853	91.44
455.073	92.44
455.294	100.44
455.514	107.44
455.734	94.44
455.955	100.44
456.175	93.44
456.395	90.44
456.616	104.44
456.836	88.44
457.056	96.44
457.276	113.44
457.497	92.44
457.717	84.44
457.937	91.44
458.157	93.44
458.377	88.44
458.598	83.44
458.818	85.44
459.038	78.44
459.258	69.44
459.478	88.44
459.698	101.44
459.918	83.44
460.138	86.44
460.358	96.44
460.578	107.44
460.798	101.44
461.018	107.44
461.238	122.44
461.458	94.44
461.678	98.44
461.898	90.44
462.118	96.44
462.338	85.44
462.558	99.44
462.777	87.44
462.997	90.44
463.217	94.44
463.437	88.44
463.657	86.44
463.876	91.44
464.096	97.44
464.316	89.44
464.536	95.44
464.755	112.44
464.975	92.44
465.195	101.44
465.414	103.44
465.634	104.44
465.854	89.44
466.073	97.44
466.293	118.44
466.512	106.44
466.732	103.44
466.951	103.44
467.171	105.44
467.391	113.44
467.61	96.44
467.829	105.44
468.049	117.44
468.268	104.44
468.488	106.44
468.707	101.44
468.927	100.44
469.146	109.44
469.365	107.44
469.585	118.44
469.804	101.44
470.023	104.44
470.243	113.44
470.462	115.44
470.681	114.44
470.901	90.44
471.12	110.44
471.339	97.44
471.558	106.44
471.777	99.44
471.997	106.44
472.216	122.44
472.435	95.44
472.654	92.44
472.873	101.44
473.092	96.44
473.311	100.44
473.53	102.44
473.749	118.44
473.968	116.44
474.187	108.44
474.406	94.44
474.625	113.44
474.844	88.44
475.063	112.44
475.282	108.44
475.501	102.44
475.72	93.44
475.939	89.44
476.158	115.44
476.377	118.44
476.596	95.44
476.814	98.44
477.033	91.44
477.252	103.44
477.471	85.44
477.69	114.44
477.908	106.44
478.127	109.44
478.346	106.44
478.564	107.44
478.783	100.44
479.002	111.44
479.22	120.44
479.439	125.44
479.658	120.44
479.876	101.44
480.095	93.44
480.313	112.44
480.532	104.44
480.751	96.44
480.969	89.44
481.188	92.44
481.406	83.44
481.624	88.44
481.843	99.44
482.061	94.44
482.28	104.44
482.498	94.44
482.717	88.44
482.935	107.44
483.153	112.44
483.372	116.44
483.59	128.44
483.808	98.44
484.027	111.44
484.245	116.44
484.463	117.44
484.681	130.44
484.9	124.44
485.118	124.44
485.336	116.44
485.554	99.44
485.772	101.44
485.99	90.44
486.209	84.44
486.427	87.44
486.645	91.44
486.863	107.44
487.081	121.44
487.299	103.44
487.517	112.44
487.735	128.44
487.953	141.44
488.171	124.44
488.389	120.44
488.607	116.44
488.825	119.44
489.043	114.44
489.261	112.44
489.479	109.44
489.696	95.44
489.914	114.44
490.132	107.44
490.35	125.44
490.568	113.44
490.786	122.44
491.003	128.44
491.221	130.44
491.439	124.44
491.657	142.44
491.874	134.44
492.092	138.44
492.31	162.44
492.527	150.44
492.745	133.44
492.963	147.44
493.18	135.44
493.398	119.44
493.615	132.44
493.833	131.44
494.05	122.44
494.268	127.44
494.485	121.44
494.703	127.44
494.92	120.44
495.138	136.44
495.355	122.44
495.573	120.44
495.79	120.44
496.008	118.44
496.225	119.44
496.442	129.44
496.66	126.44
496.877	128.44
497.094	113.44
497.312	130.44
497.529	120.44
497.746	118.44
497.963	121.44
498.181	103.44
498.398	104.44
498.615	112.44
498.832	91.44
499.049	107.44
499.267	105.44
499.484	103.44
499.701	117.44
499.918	107.44
500.135	117.44
500.352	118.44
500.569	116.44
500.786	114.44
501.003	105.44
501.22	105.44
501.437	114.44
501.654	108.44
501.871	113.44
502.088	98.44
502.305	108.44
502.522	112.44
502.739	114.44
502.956	96.44
503.172	82.44
503.389	112.44
503.606	102.44
503.823	103.44
504.04	107.44
504.256	91.44
504.473	98.44
504.69	104.44
504.907	108.44
505.123	108.44
505.34	113.44
505.557	98.44
505.773	96.44
505.99	96.44
506.207	96.44
506.423	94.44
506.64	107.44
506.856	101.44
507.073	91.44
507.289	95.44
507.506	89.44
507.722	106.44
507.939	99.44
508.155	92.44
508.372	102.44
508.588	99.44
508.805	82.44
509.021	104.44
509.238	94.44
509.454	88.44
509.67	101.44
509.887	94.44
510.103	99.44
510.319	85.44
510.536	93.44
510.752	80.44
510.968	82.44
511.184	80.44
511.401	87.44
511.617	93.44
511.833	92.44
512.049	77.44
512.265	85.44
512.481	100.44
512.698	84.44
512.914	89.44
513.13	107.44
513.346	83.44
513.562	84.44
513.778	93.44
513.994	93.44
514.21	91.44
514.426	83.44
