Data from Zn(NO3)2Standard.Agarose3%.GreenCap.LampEnergy5.5.E.O_HRD10591_15-03-19-768.txt Node
Date: Mon Jul 22 15:03:19 EDT 2019
User: cochatt
Spectrometer: HR+D1059
Trigger mode: 1
Integration Time (sec): 1.000000E-1
Scans to average: 1
Electric dark correction enabled: true
Nonlinearity correction enabled: false
Boxcar width: 0
XAxis mode: Wavelengths
Number of Pixels in Spectrum: 2048
>>>>>Begin Spectral Data<<<<<
223.165	-21.38
223.4	-21.38
223.635	-21.38
223.869	-5.38
224.104	-24.38
224.338	-12.38
224.573	-15.38
224.808	-8.38
225.042	2.62
225.277	-13.38
225.511	-2.38
225.746	-0.38
225.98	6.62
226.215	-1.38
226.449	16.62
226.683	20.62
226.918	32.62
227.152	25.62
227.387	18.62
227.621	56.62
227.856	38.62
228.09	56.62
228.324	38.62
228.559	69.62
228.793	56.62
229.027	62.62
229.262	53.62
229.496	63.62
229.73	63.62
229.964	67.62
230.199	68.62
230.433	80.62
230.667	79.62
230.901	67.62
231.136	67.62
231.37	76.62
231.604	76.62
231.838	89.62
232.072	73.62
232.306	78.62
232.541	84.62
232.775	69.62
233.009	76.62
233.243	71.62
233.477	82.62
233.711	67.62
233.945	74.62
234.179	66.62
234.413	81.62
234.647	80.62
234.881	86.62
235.115	77.62
235.349	71.62
235.583	82.62
235.817	63.62
236.051	78.62
236.285	73.62
236.519	70.62
236.753	79.62
236.987	80.62
237.221	73.62
237.455	79.62
237.689	76.62
237.922	79.62
238.156	71.62
238.39	76.62
238.624	76.62
238.858	80.62
239.091	84.62
239.325	70.62
239.559	62.62
239.793	58.62
240.027	72.62
240.26	75.62
240.494	76.62
240.728	72.62
240.961	74.62
241.195	72.62
241.429	74.62
241.662	58.62
241.896	69.62
242.13	62.62
242.363	75.62
242.597	58.62
242.83	76.62
243.064	80.62
243.298	78.62
243.531	77.62
243.765	66.62
243.998	80.62
244.232	68.62
244.465	71.62
244.699	84.62
244.932	81.62
245.166	76.62
245.399	88.62
245.633	78.62
245.866	64.62
246.099	78.62
246.333	84.62
246.566	69.62
246.8	74.62
247.033	72.62
247.266	78.62
247.5	71.62
247.733	74.62
247.966	67.62
248.2	80.62
248.433	86.62
248.666	76.62
248.899	73.62
249.133	83.62
249.366	79.62
249.599	74.62
249.832	76.62
250.066	67.62
250.299	77.62
250.532	69.62
250.765	75.62
250.998	71.62
251.231	74.62
251.465	76.62
251.698	70.62
251.931	79.62
252.164	58.62
252.397	66.62
252.63	77.62
252.863	71.62
253.096	77.62
253.329	82.62
253.562	86.62
253.795	74.62
254.028	93.62
254.261	89.62
254.494	80.62
254.727	82.62
254.96	77.62
255.193	74.62
255.426	78.62
255.659	61.62
255.892	88.62
256.124	84.62
256.357	72.62
256.59	79.62
256.823	73.62
257.056	83.62
257.289	73.62
257.521	80.62
257.754	76.62
257.987	83.62
258.22	81.62
258.452	75.62
258.685	86.62
258.918	71.62
259.151	76.62
259.383	93.62
259.616	74.62
259.849	77.62
260.081	73.62
260.314	72.62
260.547	86.62
260.779	76.62
261.012	70.62
261.244	73.62
261.477	82.62
261.71	82.62
261.942	81.62
262.175	71.62
262.407	86.62
262.64	85.62
262.872	95.62
263.105	70.62
263.337	87.62
263.57	77.62
263.802	85.62
264.035	84.62
264.267	72.62
264.499	74.62
264.732	70.62
264.964	94.62
265.197	82.62
265.429	75.62
265.661	91.62
265.894	75.62
266.126	84.62
266.358	86.62
266.591	76.62
266.823	75.62
267.055	67.62
267.287	65.62
267.52	75.62
267.752	85.62
267.984	86.62
268.216	73.62
268.448	85.62
268.681	84.62
268.913	80.62
269.145	81.62
269.377	84.62
269.609	78.62
269.841	72.62
270.073	80.62
270.306	79.62
270.538	75.62
270.77	83.62
271.002	68.62
271.234	63.62
271.466	85.62
271.698	78.62
271.93	78.62
272.162	78.62
272.394	81.62
272.626	75.62
272.858	81.62
273.09	63.62
273.322	84.62
273.553	80.62
273.785	88.62
274.017	74.62
274.249	84.62
274.481	94.62
274.713	80.62
274.945	80.62
275.176	78.62
275.408	80.62
275.64	91.62
275.872	92.62
276.104	84.62
276.335	80.62
276.567	82.62
276.799	70.62
277.031	80.62
277.262	74.62
277.494	80.62
277.726	86.62
277.957	64.62
278.189	76.62
278.421	88.62
278.652	72.62
278.884	81.62
279.115	80.62
279.347	81.62
279.579	69.62
279.81	80.62
280.042	84.62
280.273	87.62
280.505	92.62
280.736	58.62
280.968	53.62
281.199	86.62
281.431	90.62
281.662	92.62
281.894	80.62
282.125	74.62
282.356	91.62
282.588	81.62
282.819	72.62
283.051	65.62
283.282	66.62
283.513	87.62
283.745	73.62
283.976	79.62
284.207	84.62
284.439	75.62
284.67	72.62
284.901	81.62
285.132	65.62
285.364	80.62
285.595	86.62
285.826	74.62
286.057	86.62
286.288	89.62
286.52	81.62
286.751	69.62
286.982	76.62
287.213	75.62
287.444	91.62
287.675	94.62
287.906	86.62
288.138	66.62
288.369	90.62
288.6	77.62
288.831	84.62
289.062	79.62
289.293	90.62
289.524	89.62
289.755	79.62
289.986	80.62
290.217	89.62
290.448	82.62
290.679	83.62
290.91	95.62
291.141	89.62
291.371	78.62
291.602	80.62
291.833	83.62
292.064	85.62
292.295	65.62
292.526	84.62
292.757	66.62
292.987	68.62
293.218	83.62
293.449	69.62
293.68	93.62
293.91	85.62
294.141	74.62
294.372	98.62
294.603	90.62
294.833	74.62
295.064	69.62
295.295	84.62
295.525	95.62
295.756	86.62
295.987	84.62
296.217	89.62
296.448	85.62
296.679	68.62
296.909	77.62
297.14	76.62
297.37	96.62
297.601	89.62
297.831	84.62
298.062	73.62
298.292	69.62
298.523	79.62
298.753	83.62
298.984	86.62
299.214	71.62
299.445	84.62
299.675	67.62
299.905	92.62
300.136	88.62
300.366	83.62
300.597	93.62
300.827	86.62
301.057	86.62
301.288	85.62
301.518	76.62
301.748	72.62
301.979	91.62
302.209	81.62
302.439	89.62
302.669	67.62
302.9	87.62
303.13	75.62
303.36	80.62
303.59	79.62
303.82	67.62
304.051	89.62
304.281	93.62
304.511	86.62
304.741	86.62
304.971	82.62
305.201	89.62
305.431	88.62
305.661	84.62
305.891	85.62
306.121	84.62
306.352	97.62
306.582	77.62
306.812	74.62
307.042	91.62
307.272	75.62
307.502	96.62
307.731	89.62
307.961	80.62
308.191	82.62
308.421	89.62
308.651	80.62
308.881	74.62
309.111	86.62
309.341	68.62
309.571	69.62
309.8	71.62
310.03	64.62
310.26	75.62
310.49	92.62
310.72	101.62
310.949	83.62
311.179	87.62
311.409	86.62
311.639	70.62
311.868	78.62
312.098	89.62
312.328	67.62
312.557	80.62
312.787	84.62
313.017	74.62
313.246	75.62
313.476	81.62
313.706	86.62
313.935	73.62
314.165	83.62
314.394	69.62
314.624	77.62
314.853	93.62
315.083	83.62
315.312	73.62
315.542	74.62
315.771	59.62
316.001	80.62
316.23	81.62
316.46	76.62
316.689	78.62
316.919	72.62
317.148	94.62
317.377	94.62
317.607	80.62
317.836	81.62
318.065	93.62
318.295	93.62
318.524	79.62
318.753	94.62
318.983	89.62
319.212	90.62
319.441	77.62
319.67	82.62
319.9	83.62
320.129	73.62
320.358	83.62
320.587	90.62
320.816	76.62
321.046	77.62
321.275	73.62
321.504	100.62
321.733	85.62
321.962	88.62
322.191	83.62
322.42	81.62
322.649	82.62
322.878	76.62
323.108	86.62
323.337	88.62
323.566	85.62
323.795	81.62
324.024	83.62
324.253	89.62
324.482	88.62
324.71	80.62
324.939	78.62
325.168	78.62
325.397	76.62
325.626	80.62
325.855	71.62
326.084	79.62
326.313	91.62
326.542	93.62
326.77	80.62
326.999	79.62
327.228	88.62
327.457	83.62
327.686	72.62
327.914	83.62
328.143	84.62
328.372	77.62
328.6	65.62
328.829	74.62
329.058	87.62
329.287	72.62
329.515	79.62
329.744	86.62
329.972	88.62
330.201	76.62
330.43	84.62
330.658	93.62
330.887	69.62
331.115	80.62
331.344	86.62
331.572	82.62
331.801	82.62
332.03	87.62
332.258	84.62
332.486	75.62
332.715	83.62
332.943	84.62
333.172	62.62
333.4	66.62
333.629	86.62
333.857	85.62
334.085	79.62
334.314	97.62
334.542	85.62
334.771	82.62
334.999	85.62
335.227	74.62
335.455	77.62
335.684	79.62
335.912	83.62
336.14	90.62
336.369	88.62
336.597	75.62
336.825	82.62
337.053	85.62
337.281	79.62
337.51	89.62
337.738	83.62
337.966	77.62
338.194	88.62
338.422	93.62
338.65	77.62
338.878	92.62
339.106	90.62
339.334	71.62
339.562	74.62
339.79	77.62
340.018	84.62
340.246	83.62
340.474	88.62
340.702	83.62
340.93	90.62
341.158	79.62
341.386	85.62
341.614	78.62
341.842	96.62
342.07	87.62
342.298	95.62
342.526	89.62
342.754	71.62
342.981	83.62
343.209	81.62
343.437	82.62
343.665	71.62
343.893	80.62
344.12	83.62
344.348	76.62
344.576	79.62
344.804	75.62
345.031	97.62
345.259	73.62
345.487	82.62
345.714	85.62
345.942	77.62
346.17	77.62
346.397	83.62
346.625	79.62
346.853	66.62
347.08	81.62
347.308	87.62
347.535	80.62
347.763	80.62
347.99	79.62
348.218	82.62
348.445	87.62
348.673	66.62
348.9	80.62
349.128	82.62
349.355	79.62
349.583	88.62
349.81	91.62
350.037	72.62
350.265	74.62
350.492	87.62
350.72	77.62
350.947	86.62
351.174	96.62
351.402	84.62
351.629	71.62
351.856	88.62
352.083	82.62
352.311	86.62
352.538	83.62
352.765	89.62
352.992	87.62
353.22	86.62
353.447	99.62
353.674	83.62
353.901	84.62
354.128	84.62
354.355	75.62
354.583	75.62
354.81	86.62
355.037	83.62
355.264	90.62
355.491	68.62
355.718	71.62
355.945	87.62
356.172	84.62
356.399	73.62
356.626	75.62
356.853	80.62
357.08	81.62
357.307	75.62
357.534	79.62
357.761	78.62
357.988	72.62
358.215	79.62
358.441	89.62
358.668	87.62
358.895	76.62
359.122	80.62
359.349	84.62
359.576	94.62
359.802	78.62
360.029	76.62
360.256	84.62
360.483	83.62
360.709	86.62
360.936	83.62
361.163	85.62
361.39	70.62
361.616	77.62
361.843	80.62
362.07	72.62
362.296	77.62
362.523	83.62
362.749	71.62
362.976	81.62
363.203	79.62
363.429	80.62
363.656	76.62
363.882	86.62
364.109	92.62
364.335	93.62
364.562	88.62
364.788	82.62
365.015	88.62
365.241	96.62
365.468	74.62
365.694	79.62
365.92	87.62
366.147	82.62
366.373	86.62
366.599	80.62
366.826	73.62
367.052	80.62
367.278	86.62
367.505	71.62
367.731	92.62
367.957	96.62
368.184	76.62
368.41	83.62
368.636	78.62
368.862	74.62
369.089	85.62
369.315	79.62
369.541	87.62
369.767	81.62
369.993	66.62
370.219	78.62
370.445	83.62
370.672	74.62
370.898	80.62
371.124	74.62
371.35	77.62
371.576	84.62
371.802	86.62
372.028	85.62
372.254	80.62
372.48	96.62
372.706	94.62
372.932	89.62
373.158	83.62
373.384	86.62
373.61	90.62
373.835	80.62
374.061	83.62
374.287	83.62
374.513	74.62
374.739	89.62
374.965	94.62
375.191	75.62
375.416	86.62
375.642	85.62
375.868	83.62
376.094	81.62
376.319	85.62
376.545	83.62
376.771	75.62
376.997	78.62
377.222	81.62
377.448	62.62
377.674	77.62
377.899	82.62
378.125	72.62
378.35	73.62
378.576	80.62
378.802	70.62
379.027	73.62
379.253	81.62
379.478	77.62
379.704	75.62
379.929	89.62
380.155	80.62
380.38	75.62
380.606	73.62
380.831	80.62
381.057	81.62
381.282	79.62
381.507	80.62
381.733	74.62
381.958	96.62
382.184	92.62
382.409	83.62
382.634	91.62
382.86	85.62
383.085	78.62
383.31	78.62
383.535	87.62
383.761	80.62
383.986	91.62
384.211	80.62
384.436	83.62
384.662	96.62
384.887	83.62
385.112	75.62
385.337	81.62
385.562	66.62
385.787	81.62
386.013	86.62
386.238	88.62
386.463	74.62
386.688	85.62
386.913	78.62
387.138	87.62
387.363	80.62
387.588	84.62
387.813	71.62
388.038	90.62
388.263	99.62
388.488	80.62
388.713	76.62
388.938	77.62
389.163	71.62
389.387	73.62
389.612	79.62
389.837	75.62
390.062	75.62
390.287	81.62
390.512	76.62
390.736	79.62
390.961	79.62
391.186	86.62
391.411	88.62
391.636	88.62
391.86	81.62
392.085	70.62
392.31	101.62
392.534	75.62
392.759	86.62
392.984	77.62
393.208	86.62
393.433	80.62
393.658	95.62
393.882	78.62
394.107	84.62
394.331	86.62
394.556	88.62
394.78	79.62
395.005	75.62
395.229	75.62
395.454	98.62
395.678	83.62
395.903	85.62
396.127	79.62
396.352	84.62
396.576	83.62
396.801	79.62
397.025	69.62
397.249	76.62
397.474	78.62
397.698	90.62
397.922	76.62
398.147	82.62
398.371	90.62
398.595	70.62
398.82	91.62
399.044	72.62
399.268	85.62
399.492	75.62
399.717	82.62
399.941	90.62
400.165	76.62
400.389	82.62
400.613	83.62
400.837	88.62
401.062	93.62
401.286	75.62
401.51	77.62
401.734	88.62
401.958	76.62
402.182	75.62
402.406	87.62
402.63	84.62
402.854	80.62
403.078	84.62
403.302	70.62
403.526	76.62
403.75	84.62
403.974	75.62
404.198	73.62
404.422	75.62
404.645	78.62
404.869	86.62
405.093	83.62
405.317	74.62
405.541	80.62
405.765	66.62
405.988	90.62
406.212	76.62
406.436	78.62
406.66	80.62
406.883	87.62
407.107	76.62
407.331	84.62
407.555	82.62
407.778	69.62
408.002	82.62
408.226	75.62
408.449	80.62
408.673	86.62
408.896	83.62
409.12	83.62
409.344	81.62
409.567	84.62
409.791	89.62
410.014	76.62
410.238	66.62
410.461	89.62
410.685	91.62
410.908	86.62
411.132	90.62
411.355	78.62
411.578	82.62
411.802	74.62
412.025	80.62
412.249	83.62
412.472	89.62
412.695	94.62
412.919	76.62
413.142	95.62
413.365	105.62
413.589	87.62
413.812	93.62
414.035	83.62
414.258	68.62
414.482	81.62
414.705	90.62
414.928	101.62
415.151	94.62
415.374	88.62
415.597	74.62
415.821	83.62
416.044	82.62
416.267	75.62
416.49	90.62
416.713	81.62
416.936	87.62
417.159	82.62
417.382	86.62
417.605	89.62
417.828	83.62
418.051	89.62
418.274	86.62
418.497	92.62
418.72	76.62
418.943	87.62
419.166	91.62
419.389	86.62
419.611	98.62
419.834	94.62
420.057	83.62
420.28	81.62
420.503	83.62
420.726	86.62
420.948	70.62
421.171	79.62
421.394	95.62
421.617	95.62
421.839	86.62
422.062	107.62
422.285	78.62
422.507	90.62
422.73	92.62
422.953	88.62
423.175	89.62
423.398	96.62
423.621	78.62
423.843	82.62
424.066	81.62
424.288	87.62
424.511	94.62
424.733	89.62
424.956	83.62
425.178	86.62
425.401	81.62
425.623	105.62
425.846	89.62
426.068	94.62
426.291	92.62
426.513	82.62
426.735	83.62
426.958	87.62
427.18	76.62
427.402	85.62
427.625	86.62
427.847	90.62
428.069	90.62
428.292	92.62
428.514	92.62
428.736	90.62
428.958	72.62
429.181	84.62
429.403	79.62
429.625	87.62
429.847	93.62
430.069	92.62
430.292	83.62
430.514	86.62
430.736	82.62
430.958	98.62
431.18	78.62
431.402	99.62
431.624	78.62
431.846	82.62
432.068	90.62
432.29	80.62
432.512	89.62
432.734	90.62
432.956	85.62
433.178	80.62
433.4	76.62
433.622	82.62
433.844	88.62
434.066	90.62
434.287	96.62
434.509	87.62
434.731	84.62
434.953	84.62
435.175	87.62
435.397	90.62
435.618	73.62
435.84	70.62
436.062	76.62
436.284	88.62
436.505	95.62
436.727	86.62
436.949	90.62
437.17	90.62
437.392	89.62
437.614	93.62
437.835	88.62
438.057	87.62
438.278	94.62
438.5	84.62
438.721	89.62
438.943	91.62
439.165	78.62
439.386	91.62
439.608	88.62
439.829	83.62
440.05	97.62
440.272	80.62
440.493	89.62
440.715	89.62
440.936	118.62
441.158	89.62
441.379	82.62
441.6	80.62
441.822	82.62
442.043	92.62
442.264	89.62
442.486	75.62
442.707	76.62
442.928	99.62
443.149	91.62
443.371	98.62
443.592	81.62
443.813	87.62
444.034	85.62
444.255	80.62
444.476	83.62
444.698	91.62
444.919	92.62
445.14	209.62
445.361	152.62
445.582	106.62
445.803	98.62
446.024	83.62
446.245	95.62
446.466	75.62
446.687	91.62
446.908	90.62
447.129	99.62
447.35	95.62
447.571	105.62
447.792	83.62
448.013	79.62
448.234	66.62
448.455	80.62
448.675	79.62
448.896	105.62
449.117	85.62
449.338	97.62
449.559	90.62
449.779	105.62
450	86.62
450.221	94.62
450.442	85.62
450.662	90.62
450.883	76.62
451.104	95.62
451.324	82.62
451.545	80.62
451.766	70.62
451.986	84.62
452.207	92.62
452.428	107.62
452.648	96.62
452.869	81.62
453.089	72.62
453.31	77.62
453.53	80.62
453.751	82.62
453.971	86.62
454.192	92.62
454.412	82.62
454.633	80.62
454.853	90.62
455.073	95.62
455.294	83.62
455.514	95.62
455.734	79.62
455.955	83.62
456.175	80.62
456.395	70.62
456.616	84.62
456.836	85.62
457.056	93.62
457.276	87.62
457.497	92.62
457.717	71.62
457.937	77.62
458.157	70.62
458.377	80.62
458.598	84.62
458.818	84.62
459.038	73.62
459.258	73.62
459.478	73.62
459.698	77.62
459.918	74.62
460.138	79.62
460.358	75.62
460.578	87.62
460.798	81.62
461.018	74.62
461.238	75.62
461.458	85.62
461.678	83.62
461.898	89.62
462.118	82.62
462.338	86.62
462.558	95.62
462.777	90.62
462.997	80.62
463.217	87.62
463.437	91.62
463.657	78.62
463.876	86.62
464.096	80.62
464.316	98.62
464.536	75.62
464.755	91.62
464.975	95.62
465.195	76.62
465.414	76.62
465.634	78.62
465.854	83.62
466.073	94.62
466.293	82.62
466.512	83.62
466.732	95.62
466.951	90.62
467.171	90.62
467.391	103.62
467.61	77.62
467.829	88.62
468.049	90.62
468.268	76.62
468.488	93.62
468.707	88.62
468.927	75.62
469.146	90.62
469.365	85.62
469.585	94.62
469.804	82.62
470.023	91.62
470.243	74.62
470.462	85.62
470.681	98.62
470.901	77.62
471.12	98.62
471.339	96.62
471.558	84.62
471.777	85.62
471.997	80.62
472.216	97.62
472.435	85.62
472.654	86.62
472.873	86.62
473.092	88.62
473.311	72.62
473.53	90.62
473.749	80.62
473.968	96.62
474.187	82.62
474.406	72.62
474.625	85.62
474.844	99.62
475.063	101.62
475.282	75.62
475.501	87.62
475.72	73.62
475.939	85.62
476.158	94.62
476.377	92.62
476.596	91.62
476.814	91.62
477.033	82.62
477.252	100.62
477.471	83.62
477.69	90.62
477.908	92.62
478.127	84.62
478.346	93.62
478.564	93.62
478.783	92.62
479.002	91.62
479.22	81.62
479.439	76.62
479.658	86.62
479.876	101.62
480.095	75.62
480.313	84.62
480.532	77.62
480.751	84.62
480.969	87.62
481.188	86.62
481.406	72.62
481.624	98.62
481.843	82.62
482.061	73.62
482.28	74.62
482.498	91.62
482.717	91.62
482.935	65.62
483.153	75.62
483.372	93.62
483.59	104.62
483.808	113.62
484.027	89.62
484.245	81.62
484.463	89.62
484.681	89.62
484.9	90.62
485.118	88.62
485.336	88.62
485.554	85.62
485.772	72.62
485.99	74.62
486.209	82.62
486.427	84.62
486.645	81.62
486.863	73.62
487.081	96.62
487.299	85.62
487.517	91.62
487.735	99.62
487.953	106.62
488.171	91.62
488.389	98.62
488.607	86.62
488.825	94.62
489.043	103.62
489.261	95.62
489.479	80.62
489.696	94.62
489.914	97.62
490.132	89.62
490.35	96.62
490.568	110.62
490.786	81.62
491.003	91.62
491.221	69.62
491.439	104.62
491.657	103.62
491.874	118.62
492.092	116.62
492.31	107.62
492.527	118.62
492.745	106.62
492.963	98.62
493.18	98.62
493.398	102.62
493.615	101.62
493.833	103.62
494.05	80.62
494.268	102.62
494.485	99.62
494.703	115.62
494.92	101.62
495.138	101.62
495.355	102.62
495.573	95.62
495.79	89.62
496.008	84.62
496.225	88.62
496.442	94.62
496.66	100.62
496.877	105.62
497.094	93.62
497.312	101.62
497.529	91.62
497.746	102.62
497.963	86.62
498.181	89.62
498.398	87.62
498.615	80.62
498.832	82.62
499.049	88.62
499.267	88.62
499.484	94.62
499.701	92.62
499.918	99.62
500.135	81.62
500.352	97.62
500.569	101.62
500.786	97.62
501.003	92.62
501.22	106.62
501.437	83.62
501.654	95.62
501.871	87.62
502.088	83.62
502.305	88.62
502.522	92.62
502.739	100.62
502.956	82.62
503.172	83.62
503.389	92.62
503.606	80.62
503.823	87.62
504.04	75.62
504.256	88.62
504.473	81.62
504.69	97.62
504.907	93.62
505.123	99.62
505.34	71.62
505.557	85.62
505.773	90.62
505.99	85.62
506.207	95.62
506.423	92.62
506.64	86.62
506.856	101.62
507.073	85.62
507.289	79.62
507.506	97.62
507.722	83.62
507.939	84.62
508.155	91.62
508.372	84.62
508.588	81.62
508.805	83.62
509.021	89.62
509.238	83.62
509.454	74.62
509.67	82.62
509.887	89.62
510.103	86.62
510.319	69.62
510.536	76.62
510.752	81.62
510.968	69.62
511.184	64.62
511.401	88.62
511.617	79.62
511.833	75.62
512.049	77.62
512.265	82.62
512.481	75.62
512.698	102.62
512.914	101.62
513.13	89.62
513.346	93.62
513.562	97.62
513.778	76.62
513.994	84.62
514.21	88.62
514.426	84.62
514.642	87.62
514.858	79.62
515.074	94.62
515.29	78.62
515.506	79.62
515.721	86.62
515.937	84.62
516.153	83.62
516.369	81.62
516.585	70.62
516.801	77.62
517.016	78.62
517.232	79.62
517.448	84.62
517.664	78.62
517.879	87.62
518.095	82.62
518.311	82.62
518.527	95.62
518.742	93.62
