Data from Zn(NO3)2Standard.Agarose3%.GreenCap.LampEnergy5.5.E.O_HRD10591_15-03-38-768.txt Node
Date: Mon Jul 22 15:03:38 EDT 2019
User: cochatt
Spectrometer: HR+D1059
Trigger mode: 1
Integration Time (sec): 1.000000E-1
Scans to average: 1
Electric dark correction enabled: true
Nonlinearity correction enabled: false
Boxcar width: 0
XAxis mode: Wavelengths
Number of Pixels in Spectrum: 2048
>>>>>Begin Spectral Data<<<<<
223.165	-12.81
223.4	-12.81
223.635	-12.81
223.869	-21.81
224.104	-22.81
224.338	-14.81
224.573	-17.81
224.808	-7.81
225.042	-9.81
225.277	-1.81
225.511	0.19
225.746	11.19
225.98	7.19
226.215	19.19
226.449	12.19
226.683	18.19
226.918	17.19
227.152	24.19
227.387	40.19
227.621	40.19
227.856	43.19
228.09	45.19
228.324	37.19
228.559	61.19
228.793	48.19
229.027	56.19
229.262	71.19
229.496	70.19
229.73	65.19
229.964	72.19
230.199	62.19
230.433	70.19
230.667	76.19
230.901	85.19
231.136	84.19
231.37	68.19
231.604	88.19
231.838	89.19
232.072	84.19
232.306	79.19
232.541	71.19
232.775	85.19
233.009	83.19
233.243	82.19
233.477	81.19
233.711	78.19
233.945	85.19
234.179	80.19
234.413	73.19
234.647	83.19
234.881	95.19
235.115	83.19
235.349	80.19
235.583	82.19
235.817	83.19
236.051	86.19
236.285	78.19
236.519	78.19
236.753	75.19
236.987	66.19
237.221	54.19
237.455	79.19
237.689	81.19
237.922	84.19
238.156	85.19
238.39	78.19
238.624	85.19
238.858	76.19
239.091	79.19
239.325	65.19
239.559	75.19
239.793	64.19
240.027	72.19
240.26	78.19
240.494	75.19
240.728	77.19
240.961	69.19
241.195	63.19
241.429	73.19
241.662	74.19
241.896	73.19
242.13	73.19
242.363	79.19
242.597	72.19
242.83	75.19
243.064	64.19
243.298	90.19
243.531	92.19
243.765	64.19
243.998	76.19
244.232	83.19
244.465	96.19
244.699	81.19
244.932	76.19
245.166	91.19
245.399	81.19
245.633	75.19
245.866	73.19
246.099	74.19
246.333	91.19
246.566	73.19
246.8	88.19
247.033	92.19
247.266	77.19
247.5	60.19
247.733	78.19
247.966	84.19
248.2	71.19
248.433	80.19
248.666	75.19
248.899	84.19
249.133	73.19
249.366	89.19
249.599	60.19
249.832	68.19
250.066	80.19
250.299	81.19
250.532	87.19
250.765	90.19
250.998	82.19
251.231	82.19
251.465	81.19
251.698	82.19
251.931	76.19
252.164	84.19
252.397	90.19
252.63	72.19
252.863	67.19
253.096	70.19
253.329	90.19
253.562	82.19
253.795	84.19
254.028	80.19
254.261	73.19
254.494	77.19
254.727	103.19
254.96	90.19
255.193	69.19
255.426	89.19
255.659	94.19
255.892	75.19
256.124	87.19
256.357	72.19
256.59	73.19
256.823	77.19
257.056	88.19
257.289	75.19
257.521	72.19
257.754	71.19
257.987	84.19
258.22	94.19
258.452	80.19
258.685	89.19
258.918	92.19
259.151	77.19
259.383	77.19
259.616	93.19
259.849	65.19
260.081	96.19
260.314	89.19
260.547	80.19
260.779	84.19
261.012	85.19
261.244	87.19
261.477	104.19
261.71	77.19
261.942	78.19
262.175	75.19
262.407	100.19
262.64	88.19
262.872	80.19
263.105	93.19
263.337	90.19
263.57	64.19
263.802	86.19
264.035	89.19
264.267	85.19
264.499	85.19
264.732	90.19
264.964	66.19
265.197	98.19
265.429	79.19
265.661	76.19
265.894	73.19
266.126	73.19
266.358	89.19
266.591	73.19
266.823	81.19
267.055	73.19
267.287	91.19
267.52	85.19
267.752	75.19
267.984	88.19
268.216	87.19
268.448	89.19
268.681	98.19
268.913	79.19
269.145	80.19
269.377	89.19
269.609	82.19
269.841	72.19
270.073	78.19
270.306	94.19
270.538	89.19
270.77	78.19
271.002	75.19
271.234	93.19
271.466	83.19
271.698	74.19
271.93	99.19
272.162	88.19
272.394	86.19
272.626	84.19
272.858	84.19
273.09	76.19
273.322	77.19
273.553	76.19
273.785	87.19
274.017	76.19
274.249	78.19
274.481	87.19
274.713	86.19
274.945	75.19
275.176	88.19
275.408	82.19
275.64	84.19
275.872	92.19
276.104	79.19
276.335	93.19
276.567	74.19
276.799	90.19
277.031	73.19
277.262	92.19
277.494	92.19
277.726	92.19
277.957	81.19
278.189	86.19
278.421	76.19
278.652	91.19
278.884	79.19
279.115	91.19
279.347	84.19
279.579	68.19
279.81	60.19
280.042	90.19
280.273	93.19
280.505	88.19
280.736	92.19
280.968	88.19
281.199	78.19
281.431	85.19
281.662	87.19
281.894	81.19
282.125	76.19
282.356	93.19
282.588	77.19
282.819	76.19
283.051	82.19
283.282	84.19
283.513	90.19
283.745	75.19
283.976	89.19
284.207	91.19
284.439	88.19
284.67	76.19
284.901	81.19
285.132	80.19
285.364	84.19
285.595	89.19
285.826	86.19
286.057	88.19
286.288	97.19
286.52	75.19
286.751	87.19
286.982	81.19
287.213	87.19
287.444	89.19
287.675	86.19
287.906	81.19
288.138	93.19
288.369	85.19
288.6	90.19
288.831	71.19
289.062	72.19
289.293	85.19
289.524	97.19
289.755	86.19
289.986	79.19
290.217	83.19
290.448	83.19
290.679	81.19
290.91	83.19
291.141	78.19
291.371	88.19
291.602	79.19
291.833	82.19
292.064	99.19
292.295	86.19
292.526	88.19
292.757	93.19
292.987	81.19
293.218	84.19
293.449	85.19
293.68	86.19
293.91	74.19
294.141	88.19
294.372	84.19
294.603	87.19
294.833	83.19
295.064	96.19
295.295	91.19
295.525	85.19
295.756	86.19
295.987	84.19
296.217	90.19
296.448	79.19
296.679	81.19
296.909	93.19
297.14	78.19
297.37	85.19
297.601	78.19
297.831	86.19
298.062	94.19
298.292	86.19
298.523	89.19
298.753	85.19
298.984	82.19
299.214	79.19
299.445	83.19
299.675	75.19
299.905	93.19
300.136	94.19
300.366	88.19
300.597	83.19
300.827	92.19
301.057	68.19
301.288	81.19
301.518	82.19
301.748	84.19
301.979	98.19
302.209	89.19
302.439	80.19
302.669	84.19
302.9	98.19
303.13	76.19
303.36	84.19
303.59	98.19
303.82	70.19
304.051	85.19
304.281	92.19
304.511	109.19
304.741	81.19
304.971	78.19
305.201	94.19
305.431	62.19
305.661	66.19
305.891	90.19
306.121	86.19
306.352	84.19
306.582	91.19
306.812	77.19
307.042	84.19
307.272	98.19
307.502	88.19
307.731	91.19
307.961	82.19
308.191	88.19
308.421	82.19
308.651	73.19
308.881	89.19
309.111	87.19
309.341	70.19
309.571	99.19
309.8	85.19
310.03	98.19
310.26	80.19
310.49	86.19
310.72	76.19
310.949	100.19
311.179	89.19
311.409	78.19
311.639	73.19
311.868	86.19
312.098	86.19
312.328	86.19
312.557	84.19
312.787	77.19
313.017	90.19
313.246	83.19
313.476	91.19
313.706	81.19
313.935	64.19
314.165	95.19
314.394	78.19
314.624	93.19
314.853	90.19
315.083	81.19
315.312	67.19
315.542	86.19
315.771	93.19
316.001	88.19
316.23	93.19
316.46	82.19
316.689	80.19
316.919	80.19
317.148	92.19
317.377	82.19
317.607	94.19
317.836	89.19
318.065	89.19
318.295	82.19
318.524	96.19
318.753	85.19
318.983	91.19
319.212	76.19
319.441	81.19
319.67	82.19
319.9	101.19
320.129	94.19
320.358	84.19
320.587	84.19
320.816	96.19
321.046	72.19
321.275	87.19
321.504	97.19
321.733	96.19
321.962	77.19
322.191	93.19
322.42	76.19
322.649	85.19
322.878	91.19
323.108	83.19
323.337	89.19
323.566	72.19
323.795	93.19
324.024	80.19
324.253	60.19
324.482	83.19
324.71	80.19
324.939	76.19
325.168	78.19
325.397	87.19
325.626	79.19
325.855	77.19
326.084	76.19
326.313	86.19
326.542	77.19
326.77	86.19
326.999	92.19
327.228	77.19
327.457	81.19
327.686	80.19
327.914	88.19
328.143	84.19
328.372	82.19
328.6	76.19
328.829	91.19
329.058	71.19
329.287	75.19
329.515	77.19
329.744	75.19
329.972	76.19
330.201	86.19
330.43	77.19
330.658	87.19
330.887	93.19
331.115	79.19
331.344	78.19
331.572	86.19
331.801	78.19
332.03	94.19
332.258	82.19
332.486	86.19
332.715	78.19
332.943	80.19
333.172	77.19
333.4	87.19
333.629	84.19
333.857	85.19
334.085	94.19
334.314	86.19
334.542	86.19
334.771	92.19
334.999	86.19
335.227	85.19
335.455	92.19
335.684	88.19
335.912	88.19
336.14	73.19
336.369	75.19
336.597	91.19
336.825	90.19
337.053	88.19
337.281	78.19
337.51	69.19
337.738	83.19
337.966	82.19
338.194	98.19
338.422	87.19
338.65	87.19
338.878	81.19
339.106	86.19
339.334	72.19
339.562	77.19
339.79	84.19
340.018	85.19
340.246	79.19
340.474	92.19
340.702	84.19
340.93	85.19
341.158	77.19
341.386	79.19
341.614	81.19
341.842	81.19
342.07	78.19
342.298	84.19
342.526	80.19
342.754	87.19
342.981	83.19
343.209	81.19
343.437	80.19
343.665	79.19
343.893	85.19
344.12	85.19
344.348	86.19
344.576	88.19
344.804	85.19
345.031	99.19
345.259	90.19
345.487	79.19
345.714	92.19
345.942	92.19
346.17	79.19
346.397	79.19
346.625	81.19
346.853	76.19
347.08	81.19
347.308	98.19
347.535	74.19
347.763	93.19
347.99	75.19
348.218	89.19
348.445	95.19
348.673	79.19
348.9	74.19
349.128	81.19
349.355	76.19
349.583	94.19
349.81	102.19
350.037	88.19
350.265	90.19
350.492	90.19
350.72	88.19
350.947	96.19
351.174	91.19
351.402	80.19
351.629	77.19
351.856	77.19
352.083	91.19
352.311	89.19
352.538	77.19
352.765	86.19
352.992	86.19
353.22	71.19
353.447	82.19
353.674	86.19
353.901	89.19
354.128	77.19
354.355	93.19
354.583	85.19
354.81	83.19
355.037	74.19
355.264	80.19
355.491	94.19
355.718	91.19
355.945	82.19
356.172	93.19
356.399	86.19
356.626	78.19
356.853	78.19
357.08	80.19
357.307	86.19
357.534	93.19
357.761	69.19
357.988	67.19
358.215	87.19
358.441	81.19
358.668	83.19
358.895	84.19
359.122	91.19
359.349	86.19
359.576	98.19
359.802	87.19
360.029	75.19
360.256	90.19
360.483	73.19
360.709	85.19
360.936	83.19
361.163	73.19
361.39	86.19
361.616	80.19
361.843	83.19
362.07	88.19
362.296	97.19
362.523	99.19
362.749	85.19
362.976	93.19
363.203	73.19
363.429	83.19
363.656	88.19
363.882	83.19
364.109	87.19
364.335	98.19
364.562	74.19
364.788	73.19
365.015	81.19
365.241	82.19
365.468	76.19
365.694	76.19
365.92	79.19
366.147	70.19
366.373	83.19
366.599	91.19
366.826	94.19
367.052	82.19
367.278	88.19
367.505	90.19
367.731	90.19
367.957	76.19
368.184	89.19
368.41	83.19
368.636	90.19
368.862	87.19
369.089	87.19
369.315	89.19
369.541	77.19
369.767	86.19
369.993	83.19
370.219	80.19
370.445	86.19
370.672	78.19
370.898	91.19
371.124	81.19
371.35	86.19
371.576	87.19
371.802	79.19
372.028	81.19
372.254	79.19
372.48	72.19
372.706	89.19
372.932	88.19
373.158	76.19
373.384	84.19
373.61	77.19
373.835	93.19
374.061	83.19
374.287	102.19
374.513	81.19
374.739	93.19
374.965	80.19
375.191	74.19
375.416	85.19
375.642	92.19
375.868	72.19
376.094	87.19
376.319	86.19
376.545	84.19
376.771	90.19
376.997	76.19
377.222	77.19
377.448	80.19
377.674	87.19
377.899	74.19
378.125	85.19
378.35	90.19
378.576	82.19
378.802	83.19
379.027	84.19
379.253	81.19
379.478	99.19
379.704	82.19
379.929	83.19
380.155	85.19
380.38	85.19
380.606	101.19
380.831	88.19
381.057	69.19
381.282	85.19
381.507	84.19
381.733	76.19
381.958	75.19
382.184	85.19
382.409	85.19
382.634	82.19
382.86	91.19
383.085	90.19
383.31	72.19
383.535	75.19
383.761	73.19
383.986	68.19
384.211	76.19
384.436	85.19
384.662	76.19
384.887	94.19
385.112	84.19
385.337	78.19
385.562	76.19
385.787	90.19
386.013	85.19
386.238	86.19
386.463	76.19
386.688	88.19
386.913	84.19
387.138	89.19
387.363	77.19
387.588	78.19
387.813	77.19
388.038	96.19
388.263	82.19
388.488	88.19
388.713	87.19
388.938	86.19
389.163	92.19
389.387	78.19
389.612	77.19
389.837	71.19
390.062	72.19
390.287	86.19
390.512	91.19
390.736	82.19
390.961	74.19
391.186	79.19
391.411	84.19
391.636	83.19
391.86	85.19
392.085	75.19
392.31	73.19
392.534	85.19
392.759	85.19
392.984	98.19
393.208	72.19
393.433	81.19
393.658	88.19
393.882	83.19
394.107	92.19
394.331	85.19
394.556	85.19
394.78	91.19
395.005	78.19
395.229	66.19
395.454	89.19
395.678	83.19
395.903	87.19
396.127	83.19
396.352	91.19
396.576	85.19
396.801	74.19
397.025	91.19
397.249	89.19
397.474	78.19
397.698	77.19
397.922	88.19
398.147	72.19
398.371	89.19
398.595	87.19
398.82	86.19
399.044	93.19
399.268	85.19
399.492	91.19
399.717	92.19
399.941	84.19
400.165	84.19
400.389	87.19
400.613	77.19
400.837	96.19
401.062	77.19
401.286	90.19
401.51	70.19
401.734	79.19
401.958	88.19
402.182	75.19
402.406	82.19
402.63	72.19
402.854	91.19
403.078	94.19
403.302	88.19
403.526	74.19
403.75	76.19
403.974	78.19
404.198	75.19
404.422	79.19
404.645	98.19
404.869	72.19
405.093	68.19
405.317	99.19
405.541	86.19
405.765	93.19
405.988	77.19
406.212	93.19
406.436	84.19
406.66	98.19
406.883	76.19
407.107	93.19
407.331	87.19
407.555	83.19
407.778	92.19
408.002	83.19
408.226	90.19
408.449	93.19
408.673	83.19
408.896	78.19
409.12	77.19
409.344	85.19
409.567	86.19
409.791	84.19
410.014	81.19
410.238	90.19
410.461	84.19
410.685	97.19
410.908	79.19
411.132	91.19
411.355	86.19
411.578	94.19
411.802	75.19
412.025	83.19
412.249	85.19
412.472	75.19
412.695	84.19
412.919	75.19
413.142	86.19
413.365	95.19
413.589	94.19
413.812	85.19
414.035	89.19
414.258	78.19
414.482	89.19
414.705	88.19
414.928	86.19
415.151	82.19
415.374	75.19
415.597	91.19
415.821	89.19
416.044	82.19
416.267	81.19
416.49	101.19
416.713	79.19
416.936	91.19
417.159	78.19
417.382	85.19
417.605	82.19
417.828	83.19
418.051	84.19
418.274	92.19
418.497	94.19
418.72	88.19
418.943	73.19
419.166	85.19
419.389	94.19
419.611	80.19
419.834	76.19
420.057	93.19
420.28	83.19
420.503	78.19
420.726	90.19
420.948	82.19
421.171	85.19
421.394	79.19
421.617	81.19
421.839	88.19
422.062	79.19
422.285	94.19
422.507	94.19
422.73	90.19
422.953	93.19
423.175	100.19
423.398	96.19
423.621	74.19
423.843	104.19
424.066	79.19
424.288	88.19
424.511	87.19
424.733	97.19
424.956	72.19
425.178	89.19
425.401	93.19
425.623	83.19
425.846	90.19
426.068	84.19
426.291	82.19
426.513	102.19
426.735	104.19
426.958	94.19
427.18	87.19
427.402	85.19
427.625	76.19
427.847	76.19
428.069	91.19
428.292	86.19
428.514	92.19
428.736	83.19
428.958	78.19
429.181	74.19
429.403	82.19
429.625	82.19
429.847	82.19
430.069	95.19
430.292	96.19
430.514	86.19
430.736	85.19
430.958	82.19
431.18	93.19
431.402	76.19
431.624	74.19
431.846	94.19
432.068	102.19
432.29	80.19
432.512	66.19
432.734	71.19
432.956	88.19
433.178	84.19
433.4	106.19
433.622	107.19
433.844	93.19
434.066	90.19
434.287	68.19
434.509	90.19
434.731	77.19
434.953	104.19
435.175	68.19
435.397	91.19
435.618	87.19
435.84	90.19
436.062	82.19
436.284	87.19
436.505	86.19
436.727	78.19
436.949	89.19
437.17	88.19
437.392	92.19
437.614	86.19
437.835	81.19
438.057	82.19
438.278	85.19
438.5	96.19
438.721	104.19
438.943	78.19
439.165	86.19
439.386	96.19
439.608	109.19
439.829	95.19
440.05	94.19
440.272	100.19
440.493	79.19
440.715	83.19
440.936	85.19
441.158	99.19
441.379	87.19
441.6	92.19
441.822	87.19
442.043	88.19
442.264	86.19
442.486	86.19
442.707	91.19
442.928	102.19
443.149	84.19
443.371	99.19
443.592	96.19
443.813	104.19
444.034	97.19
444.255	99.19
444.476	85.19
444.698	92.19
444.919	93.19
445.14	213.19
445.361	154.19
445.582	90.19
445.803	78.19
446.024	81.19
446.245	79.19
446.466	82.19
446.687	102.19
446.908	88.19
447.129	97.19
447.35	101.19
447.571	100.19
447.792	95.19
448.013	105.19
448.234	93.19
448.455	77.19
448.675	93.19
448.896	82.19
449.117	71.19
449.338	89.19
449.559	88.19
449.779	80.19
450	91.19
450.221	94.19
450.442	94.19
450.662	91.19
450.883	98.19
451.104	92.19
451.324	85.19
451.545	96.19
451.766	91.19
451.986	86.19
452.207	99.19
452.428	86.19
452.648	73.19
452.869	74.19
453.089	84.19
453.31	87.19
453.53	90.19
453.751	67.19
453.971	94.19
454.192	98.19
454.412	86.19
454.633	77.19
454.853	107.19
455.073	87.19
455.294	93.19
455.514	84.19
455.734	84.19
455.955	91.19
456.175	99.19
456.395	88.19
456.616	74.19
456.836	85.19
457.056	79.19
457.276	69.19
457.497	84.19
457.717	85.19
457.937	69.19
458.157	84.19
458.377	81.19
458.598	93.19
458.818	91.19
459.038	75.19
459.258	79.19
459.478	60.19
459.698	94.19
459.918	82.19
460.138	82.19
460.358	86.19
460.578	83.19
460.798	69.19
461.018	86.19
461.238	82.19
461.458	101.19
461.678	93.19
461.898	82.19
462.118	82.19
462.338	86.19
462.558	78.19
462.777	94.19
462.997	86.19
463.217	88.19
463.437	90.19
463.657	77.19
463.876	84.19
464.096	98.19
464.316	65.19
464.536	84.19
464.755	88.19
464.975	86.19
465.195	100.19
465.414	76.19
465.634	86.19
465.854	72.19
466.073	84.19
466.293	85.19
466.512	81.19
466.732	89.19
466.951	97.19
467.171	88.19
467.391	89.19
467.61	97.19
467.829	102.19
468.049	84.19
468.268	89.19
468.488	76.19
468.707	84.19
468.927	75.19
469.146	98.19
469.365	100.19
469.585	93.19
469.804	100.19
470.023	79.19
470.243	97.19
470.462	85.19
470.681	90.19
470.901	89.19
471.12	82.19
471.339	98.19
471.558	89.19
471.777	98.19
471.997	90.19
472.216	71.19
472.435	72.19
472.654	83.19
472.873	94.19
473.092	76.19
473.311	87.19
473.53	84.19
473.749	94.19
473.968	84.19
474.187	84.19
474.406	81.19
474.625	92.19
474.844	76.19
475.063	91.19
475.282	90.19
475.501	87.19
475.72	88.19
475.939	80.19
476.158	87.19
476.377	85.19
476.596	76.19
476.814	91.19
477.033	78.19
477.252	94.19
477.471	93.19
477.69	96.19
477.908	90.19
478.127	95.19
478.346	91.19
478.564	96.19
478.783	84.19
479.002	88.19
479.22	96.19
479.439	84.19
479.658	88.19
479.876	84.19
480.095	90.19
480.313	74.19
480.532	85.19
480.751	96.19
480.969	83.19
481.188	84.19
481.406	71.19
481.624	95.19
481.843	89.19
482.061	81.19
482.28	98.19
482.498	99.19
482.717	87.19
482.935	85.19
483.153	92.19
483.372	102.19
483.59	114.19
483.808	85.19
484.027	101.19
484.245	78.19
484.463	90.19
484.681	88.19
484.9	98.19
485.118	82.19
485.336	95.19
485.554	89.19
485.772	90.19
485.99	78.19
486.209	71.19
486.427	82.19
486.645	77.19
486.863	82.19
487.081	93.19
487.299	87.19
487.517	95.19
487.735	94.19
487.953	103.19
488.171	104.19
488.389	104.19
488.607	98.19
488.825	85.19
489.043	86.19
489.261	105.19
489.479	88.19
489.696	95.19
489.914	88.19
490.132	83.19
490.35	106.19
490.568	104.19
490.786	89.19
491.003	89.19
491.221	90.19
491.439	98.19
491.657	92.19
491.874	110.19
492.092	113.19
492.31	102.19
492.527	95.19
492.745	104.19
492.963	118.19
493.18	98.19
493.398	75.19
493.615	95.19
493.833	105.19
494.05	103.19
494.268	99.19
494.485	97.19
494.703	97.19
494.92	101.19
495.138	104.19
495.355	83.19
495.573	106.19
495.79	89.19
496.008	86.19
496.225	103.19
496.442	91.19
496.66	100.19
496.877	101.19
497.094	105.19
497.312	99.19
497.529	95.19
497.746	90.19
497.963	88.19
498.181	98.19
498.398	91.19
498.615	94.19
498.832	86.19
499.049	86.19
499.267	105.19
499.484	95.19
499.701	86.19
499.918	93.19
500.135	86.19
500.352	115.19
500.569	87.19
500.786	97.19
501.003	113.19
501.22	85.19
501.437	81.19
501.654	85.19
501.871	95.19
502.088	94.19
502.305	86.19
502.522	100.19
502.739	87.19
502.956	101.19
503.172	86.19
503.389	81.19
503.606	86.19
503.823	81.19
504.04	79.19
504.256	95.19
504.473	87.19
504.69	96.19
504.907	88.19
505.123	88.19
505.34	77.19
505.557	98.19
505.773	87.19
505.99	88.19
506.207	88.19
506.423	101.19
506.64	88.19
506.856	89.19
507.073	106.19
507.289	78.19
507.506	80.19
507.722	94.19
507.939	84.19
508.155	95.19
508.372	98.19
508.588	72.19
508.805	89.19
509.021	85.19
509.238	80.19
509.454	98.19
509.67	83.19
509.887	85.19
510.103	77.19
510.319	83.19
510.536	81.19
510.752	92.19
510.968	81.19
511.184	92.19
511.401	85.19
511.617	96.19
511.833	83.19
512.049	74.19
512.265	90.19
512.481	93.19
512.698	87.19
512.914	80.19
513.13	76.19
513.346	88.19
513.562	73.19
513.778	76.19
513.994	83.19
514.21	98.19
514.426	94.19
514.642	91.19
514.858	80.19
515.074	73.19
515.29	78.19
515.506	104.19
515.721	93.19
515.937	80.19
516.153	81.19
516.369	83.19
516.585	83.19
516.801	92.19
517.016	91.19
517.232	83.19
517.448	80.19
517.664	63.19
517.879	78.19
518.095	78.19
518.311	86.19
518.527	88.19
