Data from Zn(NO3)2Standard.Agarose3%.GreenCap.LampEnergy5.5.E.O_HRD10591_15-03-24-768.txt Node
Date: Mon Jul 22 15:03:24 EDT 2019
User: cochatt
Spectrometer: HR+D1059
Trigger mode: 1
Integration Time (sec): 1.000000E-1
Scans to average: 1
Electric dark correction enabled: true
Nonlinearity correction enabled: false
Boxcar width: 0
XAxis mode: Wavelengths
Number of Pixels in Spectrum: 2048
>>>>>Begin Spectral Data<<<<<
223.165	-12.56
223.4	-12.56
223.635	-12.56
223.869	-11.56
224.104	-5.56
224.338	-17.56
224.573	-22.56
224.808	-21.56
225.042	-8.56
225.277	-13.56
225.511	-3.56
225.746	16.44
225.98	4.44
226.215	4.44
226.449	19.44
226.683	18.44
226.918	27.44
227.152	26.44
227.387	32.44
227.621	32.44
227.856	43.44
228.09	40.44
228.324	35.44
228.559	48.44
228.793	46.44
229.027	50.44
229.262	54.44
229.496	68.44
229.73	82.44
229.964	78.44
230.199	66.44
230.433	91.44
230.667	71.44
230.901	72.44
231.136	69.44
231.37	84.44
231.604	79.44
231.838	66.44
232.072	95.44
232.306	73.44
232.541	82.44
232.775	89.44
233.009	74.44
233.243	87.44
233.477	81.44
233.711	81.44
233.945	80.44
234.179	77.44
234.413	78.44
234.647	73.44
234.881	80.44
235.115	92.44
235.349	85.44
235.583	70.44
235.817	72.44
236.051	76.44
236.285	86.44
236.519	66.44
236.753	70.44
236.987	82.44
237.221	60.44
237.455	76.44
237.689	79.44
237.922	64.44
238.156	66.44
238.39	73.44
238.624	76.44
238.858	84.44
239.091	73.44
239.325	82.44
239.559	71.44
239.793	82.44
240.027	78.44
240.26	74.44
240.494	75.44
240.728	82.44
240.961	62.44
241.195	83.44
241.429	74.44
241.662	80.44
241.896	74.44
242.13	76.44
242.363	84.44
242.597	82.44
242.83	75.44
243.064	68.44
243.298	68.44
243.531	76.44
243.765	68.44
243.998	82.44
244.232	81.44
244.465	69.44
244.699	87.44
244.932	70.44
245.166	60.44
245.399	69.44
245.633	76.44
245.866	73.44
246.099	82.44
246.333	83.44
246.566	72.44
246.8	72.44
247.033	75.44
247.266	58.44
247.5	64.44
247.733	76.44
247.966	72.44
248.2	77.44
248.433	70.44
248.666	77.44
248.899	80.44
249.133	77.44
249.366	88.44
249.599	91.44
249.832	80.44
250.066	68.44
250.299	87.44
250.532	86.44
250.765	91.44
250.998	81.44
251.231	94.44
251.465	80.44
251.698	68.44
251.931	67.44
252.164	76.44
252.397	90.44
252.63	75.44
252.863	83.44
253.096	87.44
253.329	92.44
253.562	76.44
253.795	73.44
254.028	76.44
254.261	67.44
254.494	83.44
254.727	67.44
254.96	78.44
255.193	69.44
255.426	68.44
255.659	82.44
255.892	76.44
256.124	83.44
256.357	103.44
256.59	72.44
256.823	88.44
257.056	61.44
257.289	66.44
257.521	81.44
257.754	67.44
257.987	84.44
258.22	88.44
258.452	72.44
258.685	68.44
258.918	69.44
259.151	82.44
259.383	72.44
259.616	87.44
259.849	74.44
260.081	82.44
260.314	73.44
260.547	78.44
260.779	72.44
261.012	87.44
261.244	75.44
261.477	84.44
261.71	83.44
261.942	77.44
262.175	77.44
262.407	81.44
262.64	77.44
262.872	74.44
263.105	85.44
263.337	102.44
263.57	76.44
263.802	78.44
264.035	80.44
264.267	90.44
264.499	80.44
264.732	76.44
264.964	79.44
265.197	89.44
265.429	81.44
265.661	68.44
265.894	77.44
266.126	78.44
266.358	72.44
266.591	86.44
266.823	68.44
267.055	76.44
267.287	80.44
267.52	88.44
267.752	85.44
267.984	81.44
268.216	85.44
268.448	71.44
268.681	85.44
268.913	82.44
269.145	86.44
269.377	88.44
269.609	84.44
269.841	68.44
270.073	72.44
270.306	95.44
270.538	68.44
270.77	75.44
271.002	81.44
271.234	96.44
271.466	82.44
271.698	90.44
271.93	94.44
272.162	72.44
272.394	94.44
272.626	76.44
272.858	79.44
273.09	82.44
273.322	79.44
273.553	97.44
273.785	78.44
274.017	73.44
274.249	90.44
274.481	97.44
274.713	69.44
274.945	86.44
275.176	89.44
275.408	73.44
275.64	81.44
275.872	81.44
276.104	76.44
276.335	69.44
276.567	74.44
276.799	84.44
277.031	86.44
277.262	88.44
277.494	91.44
277.726	72.44
277.957	74.44
278.189	79.44
278.421	64.44
278.652	82.44
278.884	87.44
279.115	80.44
279.347	74.44
279.579	78.44
279.81	78.44
280.042	71.44
280.273	83.44
280.505	67.44
280.736	91.44
280.968	84.44
281.199	94.44
281.431	75.44
281.662	72.44
281.894	91.44
282.125	83.44
282.356	78.44
282.588	83.44
282.819	88.44
283.051	67.44
283.282	70.44
283.513	88.44
283.745	96.44
283.976	76.44
284.207	72.44
284.439	83.44
284.67	83.44
284.901	82.44
285.132	75.44
285.364	105.44
285.595	69.44
285.826	77.44
286.057	91.44
286.288	99.44
286.52	67.44
286.751	86.44
286.982	94.44
287.213	81.44
287.444	83.44
287.675	81.44
287.906	70.44
288.138	85.44
288.369	76.44
288.6	91.44
288.831	84.44
289.062	93.44
289.293	70.44
289.524	77.44
289.755	77.44
289.986	74.44
290.217	81.44
290.448	92.44
290.679	73.44
290.91	78.44
291.141	91.44
291.371	89.44
291.602	98.44
291.833	80.44
292.064	92.44
292.295	98.44
292.526	86.44
292.757	83.44
292.987	88.44
293.218	85.44
293.449	87.44
293.68	98.44
293.91	91.44
294.141	81.44
294.372	69.44
294.603	82.44
294.833	86.44
295.064	77.44
295.295	88.44
295.525	91.44
295.756	90.44
295.987	85.44
296.217	85.44
296.448	79.44
296.679	88.44
296.909	76.44
297.14	88.44
297.37	83.44
297.601	69.44
297.831	91.44
298.062	92.44
298.292	85.44
298.523	83.44
298.753	80.44
298.984	75.44
299.214	92.44
299.445	87.44
299.675	82.44
299.905	87.44
300.136	88.44
300.366	87.44
300.597	79.44
300.827	83.44
301.057	79.44
301.288	93.44
301.518	90.44
301.748	84.44
301.979	74.44
302.209	78.44
302.439	72.44
302.669	74.44
302.9	86.44
303.13	87.44
303.36	87.44
303.59	76.44
303.82	88.44
304.051	89.44
304.281	92.44
304.511	76.44
304.741	73.44
304.971	85.44
305.201	80.44
305.431	85.44
305.661	77.44
305.891	101.44
306.121	79.44
306.352	75.44
306.582	94.44
306.812	86.44
307.042	86.44
307.272	75.44
307.502	78.44
307.731	84.44
307.961	77.44
308.191	86.44
308.421	87.44
308.651	75.44
308.881	105.44
309.111	83.44
309.341	75.44
309.571	78.44
309.8	95.44
310.03	82.44
310.26	76.44
310.49	80.44
310.72	77.44
310.949	88.44
311.179	71.44
311.409	75.44
311.639	71.44
311.868	78.44
312.098	80.44
312.328	80.44
312.557	98.44
312.787	81.44
313.017	82.44
313.246	89.44
313.476	90.44
313.706	73.44
313.935	87.44
314.165	94.44
314.394	78.44
314.624	88.44
314.853	77.44
315.083	91.44
315.312	89.44
315.542	92.44
315.771	86.44
316.001	96.44
316.23	75.44
316.46	83.44
316.689	92.44
316.919	89.44
317.148	86.44
317.377	80.44
317.607	83.44
317.836	77.44
318.065	77.44
318.295	91.44
318.524	77.44
318.753	75.44
318.983	74.44
319.212	67.44
319.441	75.44
319.67	86.44
319.9	81.44
320.129	71.44
320.358	66.44
320.587	90.44
320.816	85.44
321.046	70.44
321.275	86.44
321.504	81.44
321.733	98.44
321.962	89.44
322.191	87.44
322.42	80.44
322.649	87.44
322.878	91.44
323.108	77.44
323.337	75.44
323.566	83.44
323.795	83.44
324.024	79.44
324.253	80.44
324.482	94.44
324.71	97.44
324.939	82.44
325.168	80.44
325.397	72.44
325.626	86.44
325.855	81.44
326.084	75.44
326.313	82.44
326.542	93.44
326.77	93.44
326.999	82.44
327.228	84.44
327.457	85.44
327.686	87.44
327.914	76.44
328.143	88.44
328.372	82.44
328.6	85.44
328.829	90.44
329.058	79.44
329.287	89.44
329.515	80.44
329.744	88.44
329.972	87.44
330.201	90.44
330.43	83.44
330.658	91.44
330.887	83.44
331.115	83.44
331.344	91.44
331.572	72.44
331.801	74.44
332.03	81.44
332.258	72.44
332.486	77.44
332.715	86.44
332.943	95.44
333.172	71.44
333.4	78.44
333.629	89.44
333.857	87.44
334.085	94.44
334.314	80.44
334.542	69.44
334.771	84.44
334.999	80.44
335.227	85.44
335.455	91.44
335.684	88.44
335.912	75.44
336.14	78.44
336.369	85.44
336.597	74.44
336.825	92.44
337.053	81.44
337.281	85.44
337.51	72.44
337.738	99.44
337.966	88.44
338.194	85.44
338.422	79.44
338.65	90.44
338.878	74.44
339.106	75.44
339.334	76.44
339.562	84.44
339.79	83.44
340.018	81.44
340.246	78.44
340.474	62.44
340.702	80.44
340.93	92.44
341.158	89.44
341.386	83.44
341.614	85.44
341.842	75.44
342.07	69.44
342.298	79.44
342.526	70.44
342.754	88.44
342.981	76.44
343.209	77.44
343.437	85.44
343.665	80.44
343.893	66.44
344.12	71.44
344.348	87.44
344.576	84.44
344.804	73.44
345.031	83.44
345.259	85.44
345.487	80.44
345.714	78.44
345.942	66.44
346.17	75.44
346.397	86.44
346.625	72.44
346.853	72.44
347.08	90.44
347.308	77.44
347.535	94.44
347.763	75.44
347.99	72.44
348.218	79.44
348.445	78.44
348.673	88.44
348.9	89.44
349.128	79.44
349.355	75.44
349.583	76.44
349.81	89.44
350.037	75.44
350.265	86.44
350.492	78.44
350.72	91.44
350.947	71.44
351.174	70.44
351.402	79.44
351.629	63.44
351.856	80.44
352.083	76.44
352.311	80.44
352.538	70.44
352.765	76.44
352.992	69.44
353.22	73.44
353.447	87.44
353.674	68.44
353.901	94.44
354.128	87.44
354.355	74.44
354.583	99.44
354.81	92.44
355.037	80.44
355.264	87.44
355.491	74.44
355.718	84.44
355.945	87.44
356.172	100.44
356.399	76.44
356.626	75.44
356.853	85.44
357.08	75.44
357.307	101.44
357.534	68.44
357.761	86.44
357.988	72.44
358.215	74.44
358.441	75.44
358.668	84.44
358.895	73.44
359.122	79.44
359.349	82.44
359.576	83.44
359.802	72.44
360.029	86.44
360.256	73.44
360.483	75.44
360.709	84.44
360.936	86.44
361.163	102.44
361.39	78.44
361.616	81.44
361.843	81.44
362.07	79.44
362.296	73.44
362.523	75.44
362.749	88.44
362.976	91.44
363.203	95.44
363.429	77.44
363.656	98.44
363.882	58.44
364.109	80.44
364.335	89.44
364.562	87.44
364.788	73.44
365.015	62.44
365.241	78.44
365.468	97.44
365.694	86.44
365.92	87.44
366.147	84.44
366.373	63.44
366.599	76.44
366.826	83.44
367.052	85.44
367.278	81.44
367.505	74.44
367.731	88.44
367.957	66.44
368.184	78.44
368.41	73.44
368.636	79.44
368.862	93.44
369.089	85.44
369.315	72.44
369.541	74.44
369.767	72.44
369.993	76.44
370.219	80.44
370.445	94.44
370.672	82.44
370.898	58.44
371.124	81.44
371.35	88.44
371.576	82.44
371.802	87.44
372.028	83.44
372.254	69.44
372.48	91.44
372.706	87.44
372.932	82.44
373.158	89.44
373.384	70.44
373.61	80.44
373.835	88.44
374.061	101.44
374.287	86.44
374.513	94.44
374.739	76.44
374.965	83.44
375.191	93.44
375.416	79.44
375.642	74.44
375.868	84.44
376.094	81.44
376.319	75.44
376.545	83.44
376.771	85.44
376.997	90.44
377.222	98.44
377.448	95.44
377.674	67.44
377.899	88.44
378.125	78.44
378.35	85.44
378.576	79.44
378.802	83.44
379.027	74.44
379.253	68.44
379.478	73.44
379.704	82.44
379.929	87.44
380.155	74.44
380.38	73.44
380.606	87.44
380.831	72.44
381.057	89.44
381.282	84.44
381.507	82.44
381.733	81.44
381.958	83.44
382.184	66.44
382.409	83.44
382.634	80.44
382.86	77.44
383.085	78.44
383.31	91.44
383.535	97.44
383.761	80.44
383.986	70.44
384.211	68.44
384.436	82.44
384.662	80.44
384.887	73.44
385.112	69.44
385.337	66.44
385.562	83.44
385.787	77.44
386.013	90.44
386.238	80.44
386.463	76.44
386.688	75.44
386.913	76.44
387.138	83.44
387.363	81.44
387.588	101.44
387.813	78.44
388.038	68.44
388.263	88.44
388.488	79.44
388.713	81.44
388.938	79.44
389.163	75.44
389.387	90.44
389.612	75.44
389.837	76.44
390.062	81.44
390.287	81.44
390.512	74.44
390.736	82.44
390.961	80.44
391.186	73.44
391.411	77.44
391.636	81.44
391.86	81.44
392.085	87.44
392.31	86.44
392.534	76.44
392.759	83.44
392.984	82.44
393.208	71.44
393.433	75.44
393.658	63.44
393.882	83.44
394.107	84.44
394.331	68.44
394.556	78.44
394.78	82.44
395.005	91.44
395.229	77.44
395.454	80.44
395.678	80.44
395.903	89.44
396.127	79.44
396.352	98.44
396.576	94.44
396.801	90.44
397.025	92.44
397.249	99.44
397.474	82.44
397.698	79.44
397.922	75.44
398.147	78.44
398.371	86.44
398.595	84.44
398.82	74.44
399.044	90.44
399.268	77.44
399.492	80.44
399.717	78.44
399.941	75.44
400.165	74.44
400.389	76.44
400.613	85.44
400.837	85.44
401.062	90.44
401.286	87.44
401.51	90.44
401.734	83.44
401.958	79.44
402.182	60.44
402.406	81.44
402.63	85.44
402.854	87.44
403.078	77.44
403.302	77.44
403.526	82.44
403.75	90.44
403.974	78.44
404.198	73.44
404.422	81.44
404.645	95.44
404.869	76.44
405.093	82.44
405.317	88.44
405.541	94.44
405.765	78.44
405.988	87.44
406.212	77.44
406.436	89.44
406.66	79.44
406.883	92.44
407.107	83.44
407.331	77.44
407.555	86.44
407.778	87.44
408.002	81.44
408.226	84.44
408.449	82.44
408.673	93.44
408.896	75.44
409.12	82.44
409.344	72.44
409.567	83.44
409.791	78.44
410.014	70.44
410.238	97.44
410.461	85.44
410.685	92.44
410.908	86.44
411.132	99.44
411.355	73.44
411.578	79.44
411.802	99.44
412.025	79.44
412.249	78.44
412.472	89.44
412.695	88.44
412.919	82.44
413.142	104.44
413.365	83.44
413.589	98.44
413.812	80.44
414.035	76.44
414.258	82.44
414.482	94.44
414.705	74.44
414.928	86.44
415.151	83.44
415.374	73.44
415.597	73.44
415.821	73.44
416.044	80.44
416.267	87.44
416.49	95.44
416.713	90.44
416.936	78.44
417.159	83.44
417.382	87.44
417.605	89.44
417.828	74.44
418.051	70.44
418.274	87.44
418.497	86.44
418.72	78.44
418.943	88.44
419.166	100.44
419.389	79.44
419.611	83.44
419.834	88.44
420.057	83.44
420.28	72.44
420.503	93.44
420.726	75.44
420.948	87.44
421.171	98.44
421.394	92.44
421.617	76.44
421.839	70.44
422.062	87.44
422.285	94.44
422.507	87.44
422.73	85.44
422.953	77.44
423.175	84.44
423.398	76.44
423.621	68.44
423.843	80.44
424.066	83.44
424.288	82.44
424.511	74.44
424.733	91.44
424.956	88.44
425.178	92.44
425.401	80.44
425.623	91.44
425.846	85.44
426.068	87.44
426.291	88.44
426.513	95.44
426.735	89.44
426.958	79.44
427.18	90.44
427.402	81.44
427.625	73.44
427.847	86.44
428.069	88.44
428.292	94.44
428.514	84.44
428.736	74.44
428.958	86.44
429.181	84.44
429.403	83.44
429.625	85.44
429.847	98.44
430.069	99.44
430.292	78.44
430.514	91.44
430.736	89.44
430.958	96.44
431.18	88.44
431.402	81.44
431.624	94.44
431.846	84.44
432.068	86.44
432.29	71.44
432.512	94.44
432.734	74.44
432.956	82.44
433.178	80.44
433.4	81.44
433.622	87.44
433.844	82.44
434.066	89.44
434.287	83.44
434.509	83.44
434.731	87.44
434.953	80.44
435.175	89.44
435.397	93.44
435.618	73.44
435.84	74.44
436.062	62.44
436.284	79.44
436.505	84.44
436.727	83.44
436.949	71.44
437.17	80.44
437.392	85.44
437.614	82.44
437.835	77.44
438.057	72.44
438.278	82.44
438.5	73.44
438.721	73.44
438.943	84.44
439.165	88.44
439.386	91.44
439.608	91.44
439.829	82.44
440.05	90.44
440.272	91.44
440.493	82.44
440.715	77.44
440.936	97.44
441.158	77.44
441.379	88.44
441.6	81.44
441.822	89.44
442.043	88.44
442.264	84.44
442.486	84.44
442.707	93.44
442.928	99.44
443.149	79.44
443.371	90.44
443.592	83.44
443.813	90.44
444.034	92.44
444.255	86.44
444.476	91.44
444.698	79.44
444.919	91.44
445.14	228.44
445.361	154.44
445.582	104.44
445.803	93.44
446.024	80.44
446.245	79.44
446.466	84.44
446.687	109.44
446.908	86.44
447.129	90.44
447.35	91.44
447.571	98.44
447.792	112.44
448.013	79.44
448.234	86.44
448.455	102.44
448.675	77.44
448.896	78.44
449.117	98.44
449.338	89.44
449.559	95.44
449.779	72.44
450	75.44
450.221	84.44
450.442	83.44
450.662	102.44
450.883	82.44
451.104	89.44
451.324	94.44
451.545	95.44
451.766	88.44
451.986	86.44
452.207	87.44
452.428	98.44
452.648	73.44
452.869	82.44
453.089	91.44
453.31	80.44
453.53	85.44
453.751	80.44
453.971	78.44
454.192	78.44
454.412	75.44
454.633	76.44
454.853	87.44
455.073	90.44
455.294	83.44
455.514	85.44
455.734	89.44
455.955	86.44
456.175	85.44
456.395	103.44
456.616	79.44
456.836	83.44
457.056	74.44
457.276	86.44
457.497	94.44
457.717	94.44
457.937	92.44
458.157	84.44
458.377	86.44
458.598	105.44
458.818	88.44
459.038	66.44
459.258	82.44
459.478	75.44
459.698	76.44
459.918	78.44
460.138	70.44
460.358	83.44
460.578	80.44
460.798	83.44
461.018	79.44
461.238	68.44
461.458	82.44
461.678	87.44
461.898	87.44
462.118	80.44
462.338	86.44
462.558	87.44
462.777	77.44
462.997	81.44
463.217	76.44
463.437	76.44
463.657	85.44
463.876	90.44
464.096	101.44
464.316	85.44
464.536	89.44
464.755	80.44
464.975	82.44
465.195	77.44
465.414	95.44
465.634	90.44
465.854	77.44
466.073	77.44
466.293	84.44
466.512	83.44
466.732	81.44
466.951	74.44
467.171	82.44
467.391	86.44
467.61	87.44
467.829	101.44
468.049	89.44
468.268	84.44
468.488	88.44
468.707	94.44
468.927	69.44
469.146	93.44
469.365	86.44
469.585	102.44
469.804	88.44
470.023	90.44
470.243	84.44
470.462	99.44
470.681	98.44
470.901	86.44
471.12	74.44
471.339	86.44
471.558	82.44
471.777	81.44
471.997	87.44
472.216	88.44
472.435	74.44
472.654	73.44
472.873	80.44
473.092	80.44
473.311	85.44
473.53	92.44
473.749	87.44
473.968	94.44
474.187	82.44
474.406	94.44
474.625	94.44
474.844	87.44
475.063	94.44
475.282	86.44
475.501	78.44
475.72	89.44
475.939	81.44
476.158	87.44
476.377	77.44
476.596	81.44
476.814	82.44
477.033	79.44
477.252	85.44
477.471	81.44
477.69	91.44
477.908	83.44
478.127	94.44
478.346	93.44
478.564	100.44
478.783	92.44
479.002	86.44
479.22	98.44
479.439	101.44
479.658	94.44
479.876	84.44
480.095	78.44
480.313	82.44
480.532	91.44
480.751	82.44
480.969	82.44
481.188	87.44
481.406	75.44
481.624	68.44
481.843	83.44
482.061	77.44
482.28	85.44
482.498	78.44
482.717	75.44
482.935	78.44
483.153	86.44
483.372	84.44
483.59	79.44
483.808	105.44
484.027	98.44
484.245	90.44
484.463	86.44
484.681	93.44
484.9	88.44
485.118	94.44
485.336	91.44
485.554	83.44
485.772	83.44
485.99	92.44
486.209	76.44
486.427	80.44
486.645	89.44
486.863	89.44
487.081	92.44
487.299	91.44
487.517	90.44
487.735	90.44
487.953	90.44
488.171	101.44
488.389	88.44
488.607	92.44
488.825	94.44
489.043	84.44
489.261	88.44
489.479	90.44
489.696	79.44
489.914	86.44
490.132	98.44
490.35	95.44
490.568	100.44
490.786	91.44
491.003	100.44
491.221	107.44
491.439	102.44
491.657	106.44
491.874	114.44
492.092	100.44
492.31	104.44
492.527	116.44
492.745	100.44
492.963	95.44
493.18	97.44
493.398	82.44
493.615	92.44
493.833	92.44
494.05	87.44
494.268	86.44
494.485	100.44
494.703	95.44
494.92	102.44
495.138	102.44
495.355	87.44
495.573	83.44
495.79	78.44
496.008	96.44
496.225	92.44
496.442	95.44
496.66	106.44
496.877	96.44
497.094	94.44
497.312	92.44
497.529	108.44
497.746	94.44
497.963	90.44
498.181	78.44
498.398	95.44
498.615	75.44
498.832	88.44
499.049	91.44
499.267	83.44
499.484	92.44
499.701	94.44
499.918	90.44
500.135	91.44
500.352	95.44
500.569	75.44
500.786	103.44
501.003	95.44
501.22	98.44
501.437	94.44
501.654	80.44
501.871	76.44
502.088	85.44
502.305	88.44
502.522	94.44
502.739	90.44
502.956	76.44
503.172	74.44
503.389	96.44
503.606	91.44
503.823	79.44
504.04	87.44
504.256	98.44
504.473	90.44
504.69	76.44
504.907	98.44
505.123	95.44
505.34	86.44
505.557	92.44
505.773	81.44
505.99	80.44
506.207	90.44
506.423	87.44
506.64	82.44
506.856	88.44
507.073	77.44
507.289	74.44
507.506	79.44
507.722	91.44
507.939	80.44
508.155	78.44
508.372	79.44
508.588	84.44
508.805	95.44
509.021	73.44
509.238	84.44
509.454	86.44
509.67	75.44
509.887	94.44
510.103	68.44
510.319	87.44
510.536	89.44
510.752	75.44
510.968	81.44
511.184	66.44
511.401	78.44
511.617	91.44
511.833	88.44
512.049	78.44
512.265	96.44
512.481	76.44
512.698	80.44
512.914	80.44
513.13	91.44
513.346	89.44
513.562	82.44
513.778	72.44
513.994	78.44
514.21	87.44
514.426	89.44
514.642	73.44
514.858	82.44
515.074	85.44
515.29	81.44
515.506	78.44
515.721	80.44
515.937	95.44
516.153	78.44
516.369	64.44
516.585	91.44
516.801	81.44
517.016	80.44
517.232	84.44
517.448	96.44
517.664	70.44
517.879	86.44
518.095	80.44
518.311	75.44
518.527	72.44
518.742	88.44
518.958	76.44
