Data from Zn(NO3)2Standard.Agarose3%.GreenCap.LampEnergy10E.O_HRD10591_15-05-58-941.txt Node
Date: Mon Jul 22 15:05:58 EDT 2019
User: cochatt
Spectrometer: HR+D1059
Trigger mode: 1
Integration Time (sec): 1.000000E-1
Scans to average: 1
Electric dark correction enabled: true
Nonlinearity correction enabled: false
Boxcar width: 0
XAxis mode: Wavelengths
Number of Pixels in Spectrum: 2048
>>>>>Begin Spectral Data<<<<<
223.165	-15.69
223.4	-15.69
223.635	-15.69
223.869	-15.69
224.104	-32.69
224.338	-12.69
224.573	-17.69
224.808	-2.69
225.042	-4.69
225.277	-4.69
225.511	0.31
225.746	16.31
225.98	-12.69
226.215	16.31
226.449	16.31
226.683	13.31
226.918	29.31
227.152	27.31
227.387	37.31
227.621	39.31
227.856	41.31
228.09	43.31
228.324	42.31
228.559	59.31
228.793	60.31
229.027	63.31
229.262	53.31
229.496	73.31
229.73	70.31
229.964	76.31
230.199	70.31
230.433	66.31
230.667	78.31
230.901	76.31
231.136	77.31
231.37	80.31
231.604	74.31
231.838	84.31
232.072	68.31
232.306	70.31
232.541	74.31
232.775	83.31
233.009	83.31
233.243	85.31
233.477	59.31
233.711	80.31
233.945	83.31
234.179	73.31
234.413	73.31
234.647	70.31
234.881	69.31
235.115	77.31
235.349	78.31
235.583	83.31
235.817	86.31
236.051	84.31
236.285	73.31
236.519	75.31
236.753	72.31
236.987	71.31
237.221	88.31
237.455	69.31
237.689	80.31
237.922	68.31
238.156	75.31
238.39	69.31
238.624	85.31
238.858	86.31
239.091	81.31
239.325	69.31
239.559	89.31
239.793	75.31
240.027	75.31
240.26	82.31
240.494	77.31
240.728	72.31
240.961	78.31
241.195	74.31
241.429	81.31
241.662	77.31
241.896	79.31
242.13	85.31
242.363	85.31
242.597	75.31
242.83	87.31
243.064	67.31
243.298	75.31
243.531	79.31
243.765	68.31
243.998	76.31
244.232	83.31
244.465	76.31
244.699	77.31
244.932	77.31
245.166	78.31
245.399	75.31
245.633	64.31
245.866	74.31
246.099	73.31
246.333	80.31
246.566	68.31
246.8	75.31
247.033	85.31
247.266	78.31
247.5	80.31
247.733	74.31
247.966	74.31
248.2	80.31
248.433	85.31
248.666	86.31
248.899	81.31
249.133	83.31
249.366	90.31
249.599	80.31
249.832	73.31
250.066	73.31
250.299	76.31
250.532	86.31
250.765	73.31
250.998	86.31
251.231	78.31
251.465	84.31
251.698	72.31
251.931	82.31
252.164	91.31
252.397	78.31
252.63	87.31
252.863	76.31
253.096	80.31
253.329	55.31
253.562	71.31
253.795	83.31
254.028	74.31
254.261	80.31
254.494	68.31
254.727	79.31
254.96	82.31
255.193	95.31
255.426	76.31
255.659	65.31
255.892	81.31
256.124	71.31
256.357	87.31
256.59	84.31
256.823	85.31
257.056	78.31
257.289	73.31
257.521	73.31
257.754	77.31
257.987	79.31
258.22	70.31
258.452	87.31
258.685	84.31
258.918	84.31
259.151	69.31
259.383	81.31
259.616	79.31
259.849	73.31
260.081	70.31
260.314	76.31
260.547	82.31
260.779	86.31
261.012	76.31
261.244	75.31
261.477	91.31
261.71	69.31
261.942	77.31
262.175	78.31
262.407	83.31
262.64	100.31
262.872	83.31
263.105	92.31
263.337	79.31
263.57	81.31
263.802	75.31
264.035	70.31
264.267	79.31
264.499	77.31
264.732	94.31
264.964	90.31
265.197	81.31
265.429	84.31
265.661	77.31
265.894	80.31
266.126	82.31
266.358	88.31
266.591	89.31
266.823	75.31
267.055	64.31
267.287	68.31
267.52	72.31
267.752	83.31
267.984	57.31
268.216	59.31
268.448	78.31
268.681	73.31
268.913	77.31
269.145	76.31
269.377	85.31
269.609	77.31
269.841	78.31
270.073	74.31
270.306	84.31
270.538	90.31
270.77	96.31
271.002	76.31
271.234	90.31
271.466	88.31
271.698	81.31
271.93	86.31
272.162	81.31
272.394	74.31
272.626	84.31
272.858	77.31
273.09	99.31
273.322	83.31
273.553	96.31
273.785	87.31
274.017	82.31
274.249	82.31
274.481	83.31
274.713	92.31
274.945	84.31
275.176	77.31
275.408	87.31
275.64	81.31
275.872	84.31
276.104	78.31
276.335	78.31
276.567	62.31
276.799	74.31
277.031	73.31
277.262	74.31
277.494	81.31
277.726	85.31
277.957	86.31
278.189	81.31
278.421	91.31
278.652	93.31
278.884	96.31
279.115	83.31
279.347	77.31
279.579	87.31
279.81	90.31
280.042	80.31
280.273	87.31
280.505	84.31
280.736	80.31
280.968	73.31
281.199	91.31
281.431	75.31
281.662	96.31
281.894	100.31
282.125	84.31
282.356	83.31
282.588	86.31
282.819	82.31
283.051	75.31
283.282	85.31
283.513	86.31
283.745	86.31
283.976	77.31
284.207	82.31
284.439	89.31
284.67	79.31
284.901	92.31
285.132	93.31
285.364	84.31
285.595	89.31
285.826	87.31
286.057	73.31
286.288	80.31
286.52	78.31
286.751	72.31
286.982	85.31
287.213	92.31
287.444	92.31
287.675	82.31
287.906	86.31
288.138	90.31
288.369	89.31
288.6	92.31
288.831	88.31
289.062	97.31
289.293	88.31
289.524	82.31
289.755	85.31
289.986	76.31
290.217	73.31
290.448	76.31
290.679	90.31
290.91	81.31
291.141	90.31
291.371	74.31
291.602	68.31
291.833	65.31
292.064	89.31
292.295	75.31
292.526	81.31
292.757	93.31
292.987	87.31
293.218	86.31
293.449	86.31
293.68	92.31
293.91	83.31
294.141	87.31
294.372	82.31
294.603	88.31
294.833	83.31
295.064	85.31
295.295	74.31
295.525	82.31
295.756	88.31
295.987	81.31
296.217	92.31
296.448	76.31
296.679	99.31
296.909	84.31
297.14	85.31
297.37	83.31
297.601	96.31
297.831	91.31
298.062	80.31
298.292	85.31
298.523	84.31
298.753	77.31
298.984	81.31
299.214	78.31
299.445	92.31
299.675	90.31
299.905	77.31
300.136	85.31
300.366	97.31
300.597	87.31
300.827	89.31
301.057	84.31
301.288	92.31
301.518	89.31
301.748	77.31
301.979	88.31
302.209	85.31
302.439	98.31
302.669	80.31
302.9	82.31
303.13	84.31
303.36	91.31
303.59	88.31
303.82	89.31
304.051	75.31
304.281	84.31
304.511	90.31
304.741	74.31
304.971	88.31
305.201	99.31
305.431	86.31
305.661	76.31
305.891	85.31
306.121	102.31
306.352	92.31
306.582	72.31
306.812	93.31
307.042	83.31
307.272	85.31
307.502	78.31
307.731	81.31
307.961	78.31
308.191	80.31
308.421	75.31
308.651	88.31
308.881	85.31
309.111	102.31
309.341	83.31
309.571	89.31
309.8	84.31
310.03	72.31
310.26	100.31
310.49	65.31
310.72	68.31
310.949	77.31
311.179	84.31
311.409	82.31
311.639	89.31
311.868	72.31
312.098	74.31
312.328	80.31
312.557	92.31
312.787	75.31
313.017	94.31
313.246	81.31
313.476	91.31
313.706	89.31
313.935	85.31
314.165	79.31
314.394	81.31
314.624	80.31
314.853	77.31
315.083	85.31
315.312	73.31
315.542	70.31
315.771	83.31
316.001	88.31
316.23	82.31
316.46	76.31
316.689	95.31
316.919	93.31
317.148	97.31
317.377	90.31
317.607	88.31
317.836	90.31
318.065	89.31
318.295	79.31
318.524	91.31
318.753	88.31
318.983	91.31
319.212	94.31
319.441	74.31
319.67	93.31
319.9	93.31
320.129	80.31
320.358	73.31
320.587	92.31
320.816	86.31
321.046	63.31
321.275	90.31
321.504	85.31
321.733	101.31
321.962	79.31
322.191	108.31
322.42	85.31
322.649	89.31
322.878	86.31
323.108	86.31
323.337	82.31
323.566	93.31
323.795	75.31
324.024	93.31
324.253	85.31
324.482	91.31
324.71	84.31
324.939	93.31
325.168	87.31
325.397	89.31
325.626	97.31
325.855	79.31
326.084	84.31
326.313	86.31
326.542	81.31
326.77	99.31
326.999	76.31
327.228	82.31
327.457	103.31
327.686	85.31
327.914	95.31
328.143	88.31
328.372	92.31
328.6	80.31
328.829	87.31
329.058	84.31
329.287	89.31
329.515	95.31
329.744	98.31
329.972	84.31
330.201	79.31
330.43	86.31
330.658	84.31
330.887	79.31
331.115	74.31
331.344	88.31
331.572	104.31
331.801	95.31
332.03	89.31
332.258	94.31
332.486	87.31
332.715	89.31
332.943	76.31
333.172	91.31
333.4	75.31
333.629	77.31
333.857	79.31
334.085	82.31
334.314	84.31
334.542	80.31
334.771	78.31
334.999	82.31
335.227	89.31
335.455	75.31
335.684	87.31
335.912	84.31
336.14	74.31
336.369	88.31
336.597	94.31
336.825	89.31
337.053	80.31
337.281	89.31
337.51	77.31
337.738	82.31
337.966	88.31
338.194	78.31
338.422	97.31
338.65	88.31
338.878	81.31
339.106	84.31
339.334	96.31
339.562	94.31
339.79	80.31
340.018	88.31
340.246	86.31
340.474	91.31
340.702	86.31
340.93	81.31
341.158	88.31
341.386	77.31
341.614	78.31
341.842	75.31
342.07	88.31
342.298	102.31
342.526	95.31
342.754	92.31
342.981	83.31
343.209	100.31
343.437	89.31
343.665	80.31
343.893	102.31
344.12	93.31
344.348	94.31
344.576	95.31
344.804	97.31
345.031	70.31
345.259	82.31
345.487	86.31
345.714	81.31
345.942	77.31
346.17	87.31
346.397	83.31
346.625	84.31
346.853	94.31
347.08	79.31
347.308	88.31
347.535	81.31
347.763	88.31
347.99	74.31
348.218	97.31
348.445	85.31
348.673	76.31
348.9	78.31
349.128	73.31
349.355	80.31
349.583	89.31
349.81	89.31
350.037	63.31
350.265	76.31
350.492	86.31
350.72	90.31
350.947	88.31
351.174	79.31
351.402	85.31
351.629	83.31
351.856	91.31
352.083	96.31
352.311	91.31
352.538	86.31
352.765	83.31
352.992	75.31
353.22	85.31
353.447	91.31
353.674	92.31
353.901	78.31
354.128	87.31
354.355	91.31
354.583	95.31
354.81	87.31
355.037	70.31
355.264	75.31
355.491	65.31
355.718	86.31
355.945	101.31
356.172	73.31
356.399	71.31
356.626	67.31
356.853	96.31
357.08	78.31
357.307	89.31
357.534	92.31
357.761	97.31
357.988	89.31
358.215	78.31
358.441	84.31
358.668	74.31
358.895	95.31
359.122	93.31
359.349	75.31
359.576	83.31
359.802	86.31
360.029	72.31
360.256	77.31
360.483	86.31
360.709	91.31
360.936	67.31
361.163	89.31
361.39	80.31
361.616	100.31
361.843	91.31
362.07	86.31
362.296	70.31
362.523	94.31
362.749	77.31
362.976	77.31
363.203	100.31
363.429	70.31
363.656	72.31
363.882	97.31
364.109	80.31
364.335	94.31
364.562	73.31
364.788	86.31
365.015	82.31
365.241	82.31
365.468	94.31
365.694	84.31
365.92	81.31
366.147	88.31
366.373	81.31
366.599	88.31
366.826	96.31
367.052	68.31
367.278	77.31
367.505	90.31
367.731	101.31
367.957	84.31
368.184	84.31
368.41	93.31
368.636	109.31
368.862	91.31
369.089	87.31
369.315	78.31
369.541	84.31
369.767	86.31
369.993	94.31
370.219	87.31
370.445	90.31
370.672	84.31
370.898	81.31
371.124	90.31
371.35	78.31
371.576	90.31
371.802	78.31
372.028	89.31
372.254	100.31
372.48	85.31
372.706	87.31
372.932	93.31
373.158	85.31
373.384	78.31
373.61	87.31
373.835	74.31
374.061	77.31
374.287	87.31
374.513	81.31
374.739	85.31
374.965	88.31
375.191	82.31
375.416	84.31
375.642	86.31
375.868	81.31
376.094	74.31
376.319	82.31
376.545	84.31
376.771	102.31
376.997	90.31
377.222	85.31
377.448	87.31
377.674	90.31
377.899	83.31
378.125	93.31
378.35	95.31
378.576	75.31
378.802	95.31
379.027	105.31
379.253	95.31
379.478	97.31
379.704	81.31
379.929	75.31
380.155	90.31
380.38	85.31
380.606	80.31
380.831	89.31
381.057	102.31
381.282	97.31
381.507	88.31
381.733	86.31
381.958	87.31
382.184	90.31
382.409	90.31
382.634	93.31
382.86	84.31
383.085	106.31
383.31	93.31
383.535	92.31
383.761	88.31
383.986	91.31
384.211	100.31
384.436	86.31
384.662	89.31
384.887	79.31
385.112	95.31
385.337	87.31
385.562	85.31
385.787	84.31
386.013	80.31
386.238	83.31
386.463	101.31
386.688	86.31
386.913	88.31
387.138	97.31
387.363	97.31
387.588	89.31
387.813	92.31
388.038	82.31
388.263	81.31
388.488	80.31
388.713	91.31
388.938	88.31
389.163	80.31
389.387	89.31
389.612	92.31
389.837	96.31
390.062	86.31
390.287	86.31
390.512	92.31
390.736	83.31
390.961	94.31
391.186	84.31
391.411	97.31
391.636	91.31
391.86	85.31
392.085	79.31
392.31	88.31
392.534	94.31
392.759	98.31
392.984	93.31
393.208	101.31
393.433	95.31
393.658	80.31
393.882	98.31
394.107	82.31
394.331	92.31
394.556	101.31
394.78	97.31
395.005	88.31
395.229	82.31
395.454	88.31
395.678	102.31
395.903	85.31
396.127	103.31
396.352	94.31
396.576	105.31
396.801	106.31
397.025	90.31
397.249	97.31
397.474	98.31
397.698	76.31
397.922	85.31
398.147	106.31
398.371	91.31
398.595	100.31
398.82	78.31
399.044	94.31
399.268	94.31
399.492	88.31
399.717	98.31
399.941	96.31
400.165	101.31
400.389	91.31
400.613	101.31
400.837	86.31
401.062	108.31
401.286	96.31
401.51	81.31
401.734	88.31
401.958	96.31
402.182	111.31
402.406	100.31
402.63	88.31
402.854	107.31
403.078	106.31
403.302	86.31
403.526	94.31
403.75	87.31
403.974	97.31
404.198	98.31
404.422	92.31
404.645	99.31
404.869	106.31
405.093	100.31
405.317	95.31
405.541	96.31
405.765	108.31
405.988	94.31
406.212	90.31
406.436	106.31
406.66	100.31
406.883	90.31
407.107	101.31
407.331	107.31
407.555	96.31
407.778	94.31
408.002	93.31
408.226	104.31
408.449	96.31
408.673	109.31
408.896	106.31
409.12	102.31
409.344	110.31
409.567	90.31
409.791	99.31
410.014	99.31
410.238	94.31
410.461	86.31
410.685	104.31
410.908	97.31
411.132	98.31
411.355	106.31
411.578	105.31
411.802	84.31
412.025	103.31
412.249	102.31
412.472	99.31
412.695	94.31
412.919	104.31
413.142	97.31
413.365	96.31
413.589	95.31
413.812	101.31
414.035	97.31
414.258	97.31
414.482	96.31
414.705	98.31
414.928	96.31
415.151	112.31
415.374	98.31
415.597	101.31
415.821	93.31
416.044	110.31
416.267	103.31
416.49	105.31
416.713	98.31
416.936	100.31
417.159	116.31
417.382	99.31
417.605	95.31
417.828	103.31
418.051	100.31
418.274	101.31
418.497	106.31
418.72	122.31
418.943	108.31
419.166	95.31
419.389	92.31
419.611	97.31
419.834	100.31
420.057	117.31
420.28	102.31
420.503	104.31
420.726	114.31
420.948	99.31
421.171	113.31
421.394	112.31
421.617	114.31
421.839	99.31
422.062	96.31
422.285	113.31
422.507	104.31
422.73	120.31
422.953	121.31
423.175	102.31
423.398	109.31
423.621	120.31
423.843	118.31
424.066	94.31
424.288	116.31
424.511	106.31
424.733	98.31
424.956	110.31
425.178	115.31
425.401	96.31
425.623	123.31
425.846	101.31
426.068	99.31
426.291	110.31
426.513	93.31
426.735	120.31
426.958	108.31
427.18	117.31
427.402	98.31
427.625	103.31
427.847	100.31
428.069	99.31
428.292	100.31
428.514	108.31
428.736	103.31
428.958	118.31
429.181	93.31
429.403	107.31
429.625	90.31
429.847	99.31
430.069	97.31
430.292	101.31
430.514	101.31
430.736	109.31
430.958	110.31
431.18	107.31
431.402	85.31
431.624	100.31
431.846	84.31
432.068	93.31
432.29	92.31
432.512	95.31
432.734	112.31
432.956	91.31
433.178	105.31
433.4	106.31
433.622	109.31
433.844	92.31
434.066	112.31
434.287	85.31
434.509	99.31
434.731	106.31
434.953	89.31
435.175	95.31
435.397	96.31
435.618	101.31
435.84	83.31
436.062	93.31
436.284	84.31
436.505	96.31
436.727	100.31
436.949	109.31
437.17	103.31
437.392	96.31
437.614	85.31
437.835	86.31
438.057	83.31
438.278	90.31
438.5	107.31
438.721	115.31
438.943	114.31
439.165	101.31
439.386	100.31
439.608	102.31
439.829	101.31
440.05	108.31
440.272	112.31
440.493	116.31
440.715	124.31
440.936	123.31
441.158	109.31
441.379	116.31
441.6	118.31
441.822	113.31
442.043	110.31
442.264	109.31
442.486	104.31
442.707	101.31
442.928	111.31
443.149	101.31
443.371	109.31
443.592	105.31
443.813	106.31
444.034	102.31
444.255	127.31
444.476	114.31
444.698	116.31
444.919	105.31
445.14	248.31
445.361	162.31
445.582	108.31
445.803	115.31
446.024	104.31
446.245	111.31
446.466	119.31
446.687	135.31
446.908	125.31
447.129	109.31
447.35	122.31
447.571	112.31
447.792	108.31
448.013	84.31
448.234	99.31
448.455	119.31
448.675	110.31
448.896	106.31
449.117	108.31
449.338	125.31
449.559	101.31
449.779	114.31
450	104.31
450.221	106.31
450.442	108.31
450.662	97.31
450.883	96.31
451.104	100.31
451.324	97.31
451.545	97.31
451.766	100.31
451.986	91.31
452.207	109.31
452.428	96.31
452.648	105.31
452.869	90.31
453.089	100.31
453.31	102.31
453.53	92.31
453.751	109.31
453.971	92.31
454.192	83.31
454.412	104.31
454.633	102.31
454.853	105.31
455.073	100.31
455.294	106.31
455.514	92.31
455.734	103.31
455.955	102.31
456.175	114.31
456.395	85.31
456.616	102.31
456.836	89.31
457.056	89.31
457.276	107.31
457.497	92.31
457.717	93.31
457.937	91.31
458.157	87.31
458.377	98.31
458.598	85.31
458.818	88.31
459.038	76.31
459.258	84.31
459.478	82.31
459.698	89.31
459.918	100.31
460.138	94.31
460.358	107.31
460.578	102.31
460.798	93.31
461.018	98.31
461.238	106.31
461.458	110.31
461.678	110.31
461.898	103.31
462.118	100.31
462.338	87.31
462.558	90.31
462.777	107.31
462.997	104.31
463.217	110.31
463.437	103.31
463.657	82.31
463.876	90.31
464.096	93.31
464.316	94.31
464.536	106.31
464.755	92.31
464.975	101.31
465.195	105.31
465.414	91.31
465.634	103.31
465.854	105.31
466.073	97.31
466.293	99.31
466.512	107.31
466.732	98.31
466.951	94.31
467.171	101.31
467.391	114.31
467.61	108.31
467.829	124.31
468.049	102.31
468.268	92.31
468.488	106.31
468.707	116.31
468.927	103.31
469.146	99.31
469.365	101.31
469.585	112.31
469.804	114.31
470.023	108.31
470.243	117.31
470.462	115.31
470.681	102.31
470.901	121.31
471.12	110.31
471.339	101.31
471.558	107.31
471.777	105.31
471.997	107.31
472.216	101.31
472.435	93.31
472.654	95.31
472.873	90.31
473.092	93.31
473.311	100.31
473.53	107.31
473.749	103.31
473.968	117.31
474.187	107.31
474.406	98.31
474.625	98.31
474.844	104.31
475.063	107.31
475.282	116.31
475.501	97.31
475.72	103.31
475.939	104.31
476.158	97.31
476.377	104.31
476.596	106.31
476.814	97.31
477.033	93.31
477.252	112.31
477.471	106.31
477.69	96.31
477.908	107.31
478.127	97.31
478.346	101.31
478.564	107.31
478.783	94.31
479.002	113.31
479.22	110.31
479.439	94.31
479.658	99.31
479.876	96.31
480.095	99.31
480.313	107.31
480.532	93.31
480.751	108.31
480.969	90.31
481.188	96.31
481.406	76.31
481.624	90.31
481.843	103.31
482.061	100.31
482.28	99.31
482.498	99.31
482.717	101.31
482.935	117.31
483.153	118.31
483.372	112.31
483.59	117.31
483.808	106.31
484.027	119.31
484.245	115.31
484.463	124.31
484.681	114.31
484.9	112.31
485.118	106.31
485.336	109.31
485.554	108.31
485.772	89.31
485.99	80.31
486.209	97.31
486.427	87.31
486.645	105.31
486.863	102.31
487.081	114.31
487.299	108.31
487.517	109.31
487.735	128.31
487.953	132.31
488.171	126.31
488.389	117.31
488.607	121.31
488.825	122.31
489.043	109.31
489.261	107.31
489.479	120.31
489.696	113.31
489.914	86.31
490.132	98.31
490.35	113.31
490.568	102.31
490.786	127.31
491.003	121.31
491.221	130.31
491.439	134.31
491.657	140.31
491.874	125.31
492.092	154.31
492.31	158.31
492.527	172.31
492.745	152.31
492.963	149.31
493.18	137.31
493.398	126.31
493.615	128.31
493.833	144.31
494.05	127.31
494.268	130.31
494.485	132.31
494.703	136.31
494.92	137.31
495.138	112.31
495.355	118.31
495.573	137.31
495.79	136.31
496.008	117.31
496.225	133.31
496.442	135.31
496.66	130.31
496.877	130.31
497.094	130.31
497.312	125.31
497.529	120.31
497.746	92.31
497.963	115.31
498.181	120.31
498.398	117.31
498.615	108.31
498.832	96.31
499.049	98.31
499.267	123.31
499.484	100.31
499.701	104.31
499.918	109.31
500.135	113.31
500.352	94.31
500.569	108.31
500.786	114.31
501.003	125.31
501.22	115.31
501.437	116.31
501.654	99.31
501.871	110.31
502.088	114.31
502.305	114.31
502.522	99.31
502.739	105.31
502.956	97.31
503.172	95.31
503.389	109.31
503.606	104.31
503.823	107.31
504.04	109.31
504.256	99.31
504.473	97.31
504.69	105.31
504.907	97.31
505.123	101.31
505.34	106.31
505.557	104.31
505.773	114.31
505.99	122.31
506.207	108.31
506.423	112.31
506.64	102.31
506.856	92.31
507.073	86.31
507.289	107.31
507.506	97.31
507.722	88.31
507.939	102.31
508.155	100.31
508.372	100.31
508.588	106.31
508.805	91.31
509.021	97.31
509.238	98.31
509.454	92.31
509.67	89.31
509.887	91.31
510.103	85.31
510.319	84.31
510.536	94.31
510.752	89.31
510.968	78.31
511.184	76.31
511.401	84.31
511.617	97.31
511.833	84.31
512.049	94.31
512.265	78.31
512.481	89.31
512.698	87.31
512.914	91.31
513.13	90.31
513.346	91.31
513.562	91.31
513.778	85.31
513.994	97.31
514.21	84.31
514.426	107.31
