Data from Zn(NO3)2Standard.Agarose3%.GreenCap.LampEnergy10E.O_HRD10591_15-07-26-944.txt Node
Date: Mon Jul 22 15:07:26 EDT 2019
User: cochatt
Spectrometer: HR+D1059
Trigger mode: 1
Integration Time (sec): 1.000000E-1
Scans to average: 1
Electric dark correction enabled: true
Nonlinearity correction enabled: false
Boxcar width: 0
XAxis mode: Wavelengths
Number of Pixels in Spectrum: 2048
>>>>>Begin Spectral Data<<<<<
223.165	-13.88
223.4	-13.88
223.635	-13.88
223.869	-12.88
224.104	-25.88
224.338	-19.88
224.573	-14.88
224.808	-24.88
225.042	1.12
225.277	-9.88
225.511	5.12
225.746	-5.88
225.98	3.12
226.215	7.12
226.449	20.12
226.683	23.12
226.918	33.12
227.152	35.12
227.387	30.12
227.621	33.12
227.856	49.12
228.09	55.12
228.324	57.12
228.559	55.12
228.793	60.12
229.027	60.12
229.262	61.12
229.496	56.12
229.73	65.12
229.964	94.12
230.199	81.12
230.433	75.12
230.667	82.12
230.901	70.12
231.136	88.12
231.37	81.12
231.604	82.12
231.838	79.12
232.072	83.12
232.306	75.12
232.541	78.12
232.775	100.12
233.009	88.12
233.243	87.12
233.477	93.12
233.711	85.12
233.945	86.12
234.179	94.12
234.413	85.12
234.647	90.12
234.881	86.12
235.115	90.12
235.349	78.12
235.583	86.12
235.817	82.12
236.051	70.12
236.285	85.12
236.519	89.12
236.753	84.12
236.987	86.12
237.221	82.12
237.455	74.12
237.689	76.12
237.922	80.12
238.156	74.12
238.39	75.12
238.624	78.12
238.858	84.12
239.091	86.12
239.325	79.12
239.559	57.12
239.793	73.12
240.027	74.12
240.26	77.12
240.494	89.12
240.728	70.12
240.961	71.12
241.195	70.12
241.429	77.12
241.662	67.12
241.896	79.12
242.13	76.12
242.363	79.12
242.597	83.12
242.83	87.12
243.064	69.12
243.298	76.12
243.531	87.12
243.765	81.12
243.998	88.12
244.232	78.12
244.465	87.12
244.699	86.12
244.932	96.12
245.166	83.12
245.399	73.12
245.633	80.12
245.866	72.12
246.099	75.12
246.333	68.12
246.566	75.12
246.8	76.12
247.033	73.12
247.266	73.12
247.5	86.12
247.733	85.12
247.966	85.12
248.2	87.12
248.433	85.12
248.666	83.12
248.899	86.12
249.133	80.12
249.366	77.12
249.599	92.12
249.832	80.12
250.066	58.12
250.299	91.12
250.532	90.12
250.765	74.12
250.998	77.12
251.231	76.12
251.465	98.12
251.698	83.12
251.931	67.12
252.164	82.12
252.397	83.12
252.63	95.12
252.863	87.12
253.096	95.12
253.329	74.12
253.562	79.12
253.795	79.12
254.028	97.12
254.261	69.12
254.494	83.12
254.727	92.12
254.96	85.12
255.193	79.12
255.426	97.12
255.659	73.12
255.892	78.12
256.124	95.12
256.357	66.12
256.59	87.12
256.823	96.12
257.056	84.12
257.289	87.12
257.521	74.12
257.754	75.12
257.987	92.12
258.22	93.12
258.452	80.12
258.685	86.12
258.918	80.12
259.151	68.12
259.383	84.12
259.616	78.12
259.849	68.12
260.081	92.12
260.314	84.12
260.547	82.12
260.779	77.12
261.012	76.12
261.244	91.12
261.477	103.12
261.71	78.12
261.942	73.12
262.175	79.12
262.407	87.12
262.64	92.12
262.872	85.12
263.105	76.12
263.337	93.12
263.57	89.12
263.802	80.12
264.035	89.12
264.267	93.12
264.499	94.12
264.732	87.12
264.964	78.12
265.197	83.12
265.429	93.12
265.661	82.12
265.894	83.12
266.126	86.12
266.358	93.12
266.591	87.12
266.823	78.12
267.055	87.12
267.287	76.12
267.52	83.12
267.752	78.12
267.984	93.12
268.216	82.12
268.448	96.12
268.681	87.12
268.913	92.12
269.145	97.12
269.377	87.12
269.609	77.12
269.841	86.12
270.073	89.12
270.306	77.12
270.538	74.12
270.77	92.12
271.002	86.12
271.234	92.12
271.466	82.12
271.698	76.12
271.93	70.12
272.162	84.12
272.394	77.12
272.626	83.12
272.858	86.12
273.09	79.12
273.322	84.12
273.553	89.12
273.785	92.12
274.017	91.12
274.249	86.12
274.481	90.12
274.713	91.12
274.945	86.12
275.176	82.12
275.408	93.12
275.64	107.12
275.872	82.12
276.104	95.12
276.335	94.12
276.567	94.12
276.799	70.12
277.031	76.12
277.262	84.12
277.494	94.12
277.726	86.12
277.957	82.12
278.189	82.12
278.421	93.12
278.652	82.12
278.884	82.12
279.115	86.12
279.347	86.12
279.579	79.12
279.81	103.12
280.042	88.12
280.273	91.12
280.505	78.12
280.736	96.12
280.968	90.12
281.199	90.12
281.431	77.12
281.662	83.12
281.894	97.12
282.125	85.12
282.356	84.12
282.588	72.12
282.819	89.12
283.051	82.12
283.282	80.12
283.513	104.12
283.745	101.12
283.976	69.12
284.207	97.12
284.439	90.12
284.67	85.12
284.901	89.12
285.132	64.12
285.364	82.12
285.595	85.12
285.826	98.12
286.057	79.12
286.288	87.12
286.52	89.12
286.751	89.12
286.982	97.12
287.213	91.12
287.444	85.12
287.675	99.12
287.906	89.12
288.138	85.12
288.369	107.12
288.6	93.12
288.831	99.12
289.062	93.12
289.293	97.12
289.524	79.12
289.755	75.12
289.986	90.12
290.217	91.12
290.448	77.12
290.679	86.12
290.91	87.12
291.141	88.12
291.371	90.12
291.602	92.12
291.833	94.12
292.064	79.12
292.295	77.12
292.526	79.12
292.757	100.12
292.987	83.12
293.218	70.12
293.449	76.12
293.68	77.12
293.91	82.12
294.141	75.12
294.372	78.12
294.603	91.12
294.833	86.12
295.064	80.12
295.295	72.12
295.525	72.12
295.756	86.12
295.987	75.12
296.217	85.12
296.448	84.12
296.679	95.12
296.909	101.12
297.14	97.12
297.37	97.12
297.601	78.12
297.831	85.12
298.062	87.12
298.292	74.12
298.523	80.12
298.753	94.12
298.984	81.12
299.214	81.12
299.445	92.12
299.675	86.12
299.905	78.12
300.136	85.12
300.366	78.12
300.597	95.12
300.827	79.12
301.057	93.12
301.288	89.12
301.518	92.12
301.748	80.12
301.979	85.12
302.209	89.12
302.439	78.12
302.669	86.12
302.9	79.12
303.13	92.12
303.36	64.12
303.59	91.12
303.82	89.12
304.051	79.12
304.281	89.12
304.511	82.12
304.741	78.12
304.971	89.12
305.201	71.12
305.431	75.12
305.661	91.12
305.891	78.12
306.121	90.12
306.352	85.12
306.582	93.12
306.812	91.12
307.042	93.12
307.272	73.12
307.502	88.12
307.731	98.12
307.961	87.12
308.191	84.12
308.421	85.12
308.651	89.12
308.881	94.12
309.111	97.12
309.341	121.12
309.571	92.12
309.8	91.12
310.03	84.12
310.26	93.12
310.49	92.12
310.72	85.12
310.949	93.12
311.179	92.12
311.409	79.12
311.639	72.12
311.868	88.12
312.098	82.12
312.328	82.12
312.557	109.12
312.787	85.12
313.017	74.12
313.246	87.12
313.476	85.12
313.706	74.12
313.935	84.12
314.165	88.12
314.394	83.12
314.624	93.12
314.853	85.12
315.083	92.12
315.312	84.12
315.542	87.12
315.771	85.12
316.001	85.12
316.23	92.12
316.46	84.12
316.689	93.12
316.919	78.12
317.148	82.12
317.377	86.12
317.607	83.12
317.836	90.12
318.065	95.12
318.295	80.12
318.524	93.12
318.753	78.12
318.983	89.12
319.212	85.12
319.441	83.12
319.67	91.12
319.9	74.12
320.129	78.12
320.358	82.12
320.587	81.12
320.816	81.12
321.046	91.12
321.275	83.12
321.504	77.12
321.733	89.12
321.962	79.12
322.191	93.12
322.42	87.12
322.649	82.12
322.878	93.12
323.108	92.12
323.337	99.12
323.566	86.12
323.795	85.12
324.024	81.12
324.253	77.12
324.482	87.12
324.71	77.12
324.939	88.12
325.168	84.12
325.397	90.12
325.626	87.12
325.855	96.12
326.084	81.12
326.313	106.12
326.542	80.12
326.77	80.12
326.999	82.12
327.228	85.12
327.457	93.12
327.686	76.12
327.914	83.12
328.143	76.12
328.372	88.12
328.6	99.12
328.829	90.12
329.058	90.12
329.287	103.12
329.515	84.12
329.744	82.12
329.972	85.12
330.201	94.12
330.43	81.12
330.658	83.12
330.887	81.12
331.115	70.12
331.344	89.12
331.572	93.12
331.801	93.12
332.03	100.12
332.258	92.12
332.486	80.12
332.715	83.12
332.943	95.12
333.172	88.12
333.4	95.12
333.629	89.12
333.857	85.12
334.085	85.12
334.314	83.12
334.542	83.12
334.771	89.12
334.999	77.12
335.227	94.12
335.455	97.12
335.684	93.12
335.912	97.12
336.14	101.12
336.369	89.12
336.597	81.12
336.825	76.12
337.053	81.12
337.281	79.12
337.51	81.12
337.738	99.12
337.966	83.12
338.194	89.12
338.422	83.12
338.65	94.12
338.878	87.12
339.106	79.12
339.334	71.12
339.562	94.12
339.79	79.12
340.018	90.12
340.246	89.12
340.474	82.12
340.702	87.12
340.93	90.12
341.158	73.12
341.386	83.12
341.614	99.12
341.842	89.12
342.07	80.12
342.298	88.12
342.526	87.12
342.754	82.12
342.981	87.12
343.209	102.12
343.437	79.12
343.665	89.12
343.893	83.12
344.12	95.12
344.348	84.12
344.576	86.12
344.804	78.12
345.031	89.12
345.259	75.12
345.487	89.12
345.714	86.12
345.942	87.12
346.17	74.12
346.397	99.12
346.625	78.12
346.853	89.12
347.08	68.12
347.308	86.12
347.535	89.12
347.763	80.12
347.99	75.12
348.218	87.12
348.445	97.12
348.673	73.12
348.9	86.12
349.128	83.12
349.355	94.12
349.583	71.12
349.81	78.12
350.037	97.12
350.265	85.12
350.492	88.12
350.72	84.12
350.947	93.12
351.174	83.12
351.402	106.12
351.629	103.12
351.856	81.12
352.083	82.12
352.311	81.12
352.538	83.12
352.765	84.12
352.992	69.12
353.22	77.12
353.447	89.12
353.674	99.12
353.901	81.12
354.128	91.12
354.355	80.12
354.583	72.12
354.81	88.12
355.037	87.12
355.264	93.12
355.491	79.12
355.718	87.12
355.945	77.12
356.172	101.12
356.399	88.12
356.626	76.12
356.853	87.12
357.08	97.12
357.307	86.12
357.534	93.12
357.761	91.12
357.988	90.12
358.215	82.12
358.441	71.12
358.668	87.12
358.895	87.12
359.122	84.12
359.349	77.12
359.576	85.12
359.802	91.12
360.029	69.12
360.256	79.12
360.483	80.12
360.709	93.12
360.936	98.12
361.163	81.12
361.39	86.12
361.616	88.12
361.843	83.12
362.07	90.12
362.296	93.12
362.523	84.12
362.749	78.12
362.976	76.12
363.203	92.12
363.429	83.12
363.656	84.12
363.882	85.12
364.109	95.12
364.335	73.12
364.562	91.12
364.788	92.12
365.015	80.12
365.241	92.12
365.468	77.12
365.694	89.12
365.92	84.12
366.147	82.12
366.373	81.12
366.599	88.12
366.826	82.12
367.052	86.12
367.278	99.12
367.505	85.12
367.731	91.12
367.957	94.12
368.184	86.12
368.41	87.12
368.636	78.12
368.862	89.12
369.089	80.12
369.315	83.12
369.541	91.12
369.767	85.12
369.993	92.12
370.219	82.12
370.445	95.12
370.672	88.12
370.898	78.12
371.124	80.12
371.35	96.12
371.576	82.12
371.802	88.12
372.028	76.12
372.254	78.12
372.48	84.12
372.706	91.12
372.932	100.12
373.158	89.12
373.384	86.12
373.61	97.12
373.835	102.12
374.061	89.12
374.287	73.12
374.513	75.12
374.739	98.12
374.965	93.12
375.191	87.12
375.416	85.12
375.642	92.12
375.868	98.12
376.094	87.12
376.319	78.12
376.545	88.12
376.771	96.12
376.997	93.12
377.222	89.12
377.448	91.12
377.674	107.12
377.899	98.12
378.125	82.12
378.35	88.12
378.576	85.12
378.802	78.12
379.027	114.12
379.253	106.12
379.478	79.12
379.704	101.12
379.929	109.12
380.155	84.12
380.38	89.12
380.606	98.12
380.831	86.12
381.057	104.12
381.282	107.12
381.507	100.12
381.733	86.12
381.958	99.12
382.184	87.12
382.409	106.12
382.634	98.12
382.86	106.12
383.085	89.12
383.31	85.12
383.535	85.12
383.761	90.12
383.986	92.12
384.211	91.12
384.436	70.12
384.662	81.12
384.887	83.12
385.112	99.12
385.337	86.12
385.562	84.12
385.787	90.12
386.013	86.12
386.238	86.12
386.463	72.12
386.688	87.12
386.913	83.12
387.138	84.12
387.363	114.12
387.588	96.12
387.813	93.12
388.038	91.12
388.263	98.12
388.488	82.12
388.713	98.12
388.938	88.12
389.163	89.12
389.387	92.12
389.612	75.12
389.837	84.12
390.062	101.12
390.287	81.12
390.512	90.12
390.736	94.12
390.961	95.12
391.186	101.12
391.411	95.12
391.636	94.12
391.86	102.12
392.085	86.12
392.31	89.12
392.534	84.12
392.759	87.12
392.984	93.12
393.208	90.12
393.433	90.12
393.658	102.12
393.882	103.12
394.107	99.12
394.331	96.12
394.556	95.12
394.78	111.12
395.005	99.12
395.229	91.12
395.454	96.12
395.678	102.12
395.903	103.12
396.127	103.12
396.352	91.12
396.576	95.12
396.801	82.12
397.025	101.12
397.249	100.12
397.474	100.12
397.698	117.12
397.922	101.12
398.147	87.12
398.371	99.12
398.595	105.12
398.82	106.12
399.044	95.12
399.268	91.12
399.492	82.12
399.717	98.12
399.941	89.12
400.165	90.12
400.389	87.12
400.613	84.12
400.837	92.12
401.062	95.12
401.286	100.12
401.51	99.12
401.734	107.12
401.958	91.12
402.182	102.12
402.406	99.12
402.63	87.12
402.854	92.12
403.078	105.12
403.302	102.12
403.526	98.12
403.75	88.12
403.974	123.12
404.198	95.12
404.422	95.12
404.645	88.12
404.869	91.12
405.093	102.12
405.317	99.12
405.541	100.12
405.765	102.12
405.988	106.12
406.212	97.12
406.436	84.12
406.66	104.12
406.883	93.12
407.107	97.12
407.331	102.12
407.555	98.12
407.778	99.12
408.002	91.12
408.226	104.12
408.449	111.12
408.673	76.12
408.896	98.12
409.12	108.12
409.344	108.12
409.567	105.12
409.791	102.12
410.014	86.12
410.238	112.12
410.461	94.12
410.685	101.12
410.908	101.12
411.132	113.12
411.355	90.12
411.578	103.12
411.802	100.12
412.025	103.12
412.249	106.12
412.472	99.12
412.695	99.12
412.919	87.12
413.142	125.12
413.365	104.12
413.589	110.12
413.812	107.12
414.035	99.12
414.258	94.12
414.482	103.12
414.705	96.12
414.928	98.12
415.151	90.12
415.374	98.12
415.597	110.12
415.821	118.12
416.044	110.12
416.267	101.12
416.49	99.12
416.713	103.12
416.936	97.12
417.159	109.12
417.382	96.12
417.605	128.12
417.828	113.12
418.051	105.12
418.274	110.12
418.497	103.12
418.72	130.12
418.943	94.12
419.166	116.12
419.389	115.12
419.611	105.12
419.834	105.12
420.057	110.12
420.28	93.12
420.503	110.12
420.726	97.12
420.948	106.12
421.171	108.12
421.394	110.12
421.617	111.12
421.839	108.12
422.062	114.12
422.285	112.12
422.507	97.12
422.73	119.12
422.953	94.12
423.175	101.12
423.398	109.12
423.621	125.12
423.843	111.12
424.066	98.12
424.288	105.12
424.511	108.12
424.733	117.12
424.956	99.12
425.178	105.12
425.401	115.12
425.623	86.12
425.846	107.12
426.068	116.12
426.291	86.12
426.513	103.12
426.735	101.12
426.958	101.12
427.18	108.12
427.402	106.12
427.625	108.12
427.847	101.12
428.069	106.12
428.292	99.12
428.514	105.12
428.736	100.12
428.958	90.12
429.181	108.12
429.403	98.12
429.625	89.12
429.847	113.12
430.069	99.12
430.292	85.12
430.514	110.12
430.736	100.12
430.958	114.12
431.18	117.12
431.402	99.12
431.624	99.12
431.846	101.12
432.068	91.12
432.29	78.12
432.512	92.12
432.734	111.12
432.956	103.12
433.178	117.12
433.4	107.12
433.622	104.12
433.844	102.12
434.066	97.12
434.287	96.12
434.509	93.12
434.731	99.12
434.953	107.12
435.175	106.12
435.397	106.12
435.618	98.12
435.84	102.12
436.062	95.12
436.284	107.12
436.505	107.12
436.727	106.12
436.949	108.12
437.17	109.12
437.392	104.12
437.614	98.12
437.835	103.12
438.057	97.12
438.278	96.12
438.5	106.12
438.721	106.12
438.943	100.12
439.165	126.12
439.386	113.12
439.608	119.12
439.829	111.12
440.05	124.12
440.272	109.12
440.493	110.12
440.715	110.12
440.936	120.12
441.158	121.12
441.379	109.12
441.6	119.12
441.822	115.12
442.043	104.12
442.264	103.12
442.486	94.12
442.707	113.12
442.928	121.12
443.149	109.12
443.371	123.12
443.592	108.12
443.813	105.12
444.034	89.12
444.255	106.12
444.476	109.12
444.698	118.12
444.919	112.12
445.14	227.12
445.361	178.12
445.582	126.12
445.803	122.12
446.024	128.12
446.245	120.12
446.466	109.12
446.687	120.12
446.908	121.12
447.129	113.12
447.35	106.12
447.571	126.12
447.792	106.12
448.013	129.12
448.234	104.12
448.455	97.12
448.675	100.12
448.896	117.12
449.117	100.12
449.338	110.12
449.559	108.12
449.779	106.12
450	104.12
450.221	119.12
450.442	120.12
450.662	103.12
450.883	111.12
451.104	108.12
451.324	109.12
451.545	102.12
451.766	107.12
451.986	92.12
452.207	110.12
452.428	96.12
452.648	103.12
452.869	104.12
453.089	79.12
453.31	106.12
453.53	109.12
453.751	92.12
453.971	112.12
454.192	99.12
454.412	90.12
454.633	110.12
454.853	101.12
455.073	104.12
455.294	105.12
455.514	101.12
455.734	102.12
455.955	117.12
456.175	105.12
456.395	108.12
456.616	108.12
456.836	100.12
457.056	82.12
457.276	89.12
457.497	100.12
457.717	106.12
457.937	104.12
458.157	99.12
458.377	105.12
458.598	108.12
458.818	109.12
459.038	101.12
459.258	93.12
459.478	81.12
459.698	81.12
459.918	91.12
460.138	103.12
460.358	110.12
460.578	95.12
460.798	96.12
461.018	100.12
461.238	111.12
461.458	93.12
461.678	90.12
461.898	113.12
462.118	98.12
462.338	98.12
462.558	97.12
462.777	92.12
462.997	107.12
463.217	113.12
463.437	114.12
463.657	90.12
463.876	102.12
464.096	92.12
464.316	105.12
464.536	115.12
464.755	106.12
464.975	108.12
465.195	102.12
465.414	104.12
465.634	114.12
465.854	97.12
466.073	101.12
466.293	109.12
466.512	102.12
466.732	117.12
466.951	117.12
467.171	115.12
467.391	109.12
467.61	103.12
467.829	113.12
468.049	98.12
468.268	113.12
468.488	121.12
468.707	116.12
468.927	101.12
469.146	118.12
469.365	107.12
469.585	119.12
469.804	111.12
470.023	124.12
470.243	125.12
470.462	119.12
470.681	122.12
470.901	100.12
471.12	113.12
471.339	124.12
471.558	111.12
471.777	91.12
471.997	107.12
472.216	106.12
472.435	99.12
472.654	106.12
472.873	103.12
473.092	102.12
473.311	103.12
473.53	100.12
473.749	103.12
473.968	102.12
474.187	91.12
474.406	93.12
474.625	101.12
474.844	109.12
475.063	110.12
475.282	97.12
475.501	105.12
475.72	97.12
475.939	114.12
476.158	100.12
476.377	114.12
476.596	106.12
476.814	112.12
477.033	101.12
477.252	104.12
477.471	112.12
477.69	110.12
477.908	116.12
478.127	114.12
478.346	115.12
478.564	111.12
478.783	113.12
479.002	111.12
479.22	123.12
479.439	98.12
479.658	121.12
479.876	100.12
480.095	108.12
480.313	102.12
480.532	96.12
480.751	92.12
480.969	81.12
481.188	91.12
481.406	83.12
481.624	102.12
481.843	87.12
482.061	90.12
482.28	105.12
482.498	101.12
482.717	106.12
482.935	93.12
483.153	132.12
483.372	117.12
483.59	116.12
483.808	114.12
484.027	119.12
484.245	122.12
484.463	110.12
484.681	137.12
484.9	127.12
485.118	115.12
485.336	105.12
485.554	97.12
485.772	94.12
485.99	92.12
486.209	97.12
486.427	111.12
486.645	123.12
486.863	103.12
487.081	116.12
487.299	110.12
487.517	115.12
487.735	131.12
487.953	136.12
488.171	141.12
488.389	131.12
488.607	112.12
488.825	98.12
489.043	115.12
489.261	90.12
489.479	110.12
489.696	122.12
489.914	112.12
490.132	116.12
490.35	115.12
490.568	117.12
490.786	122.12
491.003	125.12
491.221	124.12
491.439	133.12
491.657	141.12
491.874	140.12
492.092	151.12
492.31	166.12
492.527	149.12
492.745	142.12
492.963	131.12
493.18	144.12
493.398	140.12
493.615	126.12
493.833	128.12
494.05	124.12
494.268	131.12
494.485	119.12
494.703	124.12
494.92	122.12
495.138	127.12
495.355	132.12
495.573	123.12
495.79	123.12
496.008	117.12
496.225	128.12
496.442	122.12
496.66	124.12
496.877	127.12
497.094	127.12
497.312	125.12
497.529	118.12
497.746	111.12
497.963	104.12
498.181	114.12
498.398	109.12
498.615	113.12
498.832	104.12
499.049	113.12
499.267	85.12
499.484	105.12
499.701	110.12
499.918	101.12
500.135	117.12
500.352	122.12
500.569	120.12
500.786	107.12
501.003	110.12
501.22	123.12
501.437	112.12
501.654	123.12
501.871	112.12
502.088	125.12
502.305	124.12
502.522	115.12
502.739	94.12
502.956	117.12
503.172	107.12
503.389	100.12
503.606	100.12
503.823	94.12
504.04	89.12
504.256	104.12
504.473	89.12
504.69	106.12
504.907	123.12
505.123	116.12
505.34	102.12
505.557	101.12
505.773	106.12
505.99	103.12
506.207	101.12
506.423	108.12
506.64	104.12
506.856	114.12
507.073	90.12
507.289	103.12
507.506	102.12
507.722	94.12
507.939	97.12
508.155	97.12
508.372	108.12
508.588	108.12
508.805	105.12
509.021	101.12
509.238	98.12
509.454	101.12
509.67	93.12
509.887	105.12
510.103	83.12
510.319	96.12
510.536	98.12
510.752	98.12
510.968	90.12
511.184	78.12
511.401	79.12
511.617	94.12
511.833	84.12
512.049	80.12
512.265	85.12
512.481	89.12
512.698	100.12
512.914	97.12
513.13	104.12
513.346	94.12
513.562	96.12
