Data from Zn(NO3)2Standard.Agarose3%.GreenCap.LampEnergy5.5.E.O_HRD10591_15-01-43-768.txt Node
Date: Mon Jul 22 15:01:43 EDT 2019
User: cochatt
Spectrometer: HR+D1059
Trigger mode: 1
Integration Time (sec): 1.000000E-1
Scans to average: 1
Electric dark correction enabled: true
Nonlinearity correction enabled: false
Boxcar width: 0
XAxis mode: Wavelengths
Number of Pixels in Spectrum: 2048
>>>>>Begin Spectral Data<<<<<
223.165	-12.88
223.4	-12.88
223.635	-12.88
223.869	-7.88
224.104	-19.88
224.338	-13.88
224.573	0.12
224.808	-11.88
225.042	-11.88
225.277	-16.88
225.511	-4.88
225.746	-4.88
225.98	14.12
226.215	11.12
226.449	7.12
226.683	26.12
226.918	18.12
227.152	28.12
227.387	31.12
227.621	37.12
227.856	39.12
228.09	42.12
228.324	54.12
228.559	51.12
228.793	59.12
229.027	57.12
229.262	51.12
229.496	69.12
229.73	72.12
229.964	59.12
230.199	64.12
230.433	79.12
230.667	68.12
230.901	75.12
231.136	75.12
231.37	73.12
231.604	71.12
231.838	77.12
232.072	75.12
232.306	75.12
232.541	76.12
232.775	69.12
233.009	65.12
233.243	77.12
233.477	83.12
233.711	82.12
233.945	69.12
234.179	84.12
234.413	82.12
234.647	90.12
234.881	70.12
235.115	84.12
235.349	66.12
235.583	80.12
235.817	77.12
236.051	85.12
236.285	71.12
236.519	57.12
236.753	75.12
236.987	68.12
237.221	68.12
237.455	75.12
237.689	79.12
237.922	75.12
238.156	86.12
238.39	72.12
238.624	77.12
238.858	70.12
239.091	76.12
239.325	71.12
239.559	75.12
239.793	85.12
240.027	83.12
240.26	83.12
240.494	77.12
240.728	71.12
240.961	61.12
241.195	78.12
241.429	74.12
241.662	83.12
241.896	77.12
242.13	72.12
242.363	63.12
242.597	77.12
242.83	68.12
243.064	59.12
243.298	89.12
243.531	73.12
243.765	80.12
243.998	77.12
244.232	80.12
244.465	80.12
244.699	77.12
244.932	69.12
245.166	80.12
245.399	77.12
245.633	65.12
245.866	76.12
246.099	69.12
246.333	74.12
246.566	64.12
246.8	68.12
247.033	72.12
247.266	64.12
247.5	87.12
247.733	65.12
247.966	69.12
248.2	70.12
248.433	71.12
248.666	60.12
248.899	72.12
249.133	67.12
249.366	80.12
249.599	71.12
249.832	80.12
250.066	89.12
250.299	66.12
250.532	75.12
250.765	72.12
250.998	67.12
251.231	76.12
251.465	92.12
251.698	73.12
251.931	73.12
252.164	82.12
252.397	78.12
252.63	86.12
252.863	78.12
253.096	87.12
253.329	62.12
253.562	84.12
253.795	68.12
254.028	73.12
254.261	81.12
254.494	69.12
254.727	77.12
254.96	84.12
255.193	87.12
255.426	77.12
255.659	87.12
255.892	73.12
256.124	70.12
256.357	70.12
256.59	77.12
256.823	83.12
257.056	75.12
257.289	90.12
257.521	83.12
257.754	92.12
257.987	80.12
258.22	84.12
258.452	75.12
258.685	88.12
258.918	83.12
259.151	80.12
259.383	81.12
259.616	76.12
259.849	86.12
260.081	77.12
260.314	69.12
260.547	74.12
260.779	73.12
261.012	86.12
261.244	80.12
261.477	89.12
261.71	81.12
261.942	80.12
262.175	84.12
262.407	76.12
262.64	71.12
262.872	82.12
263.105	72.12
263.337	82.12
263.57	73.12
263.802	70.12
264.035	85.12
264.267	93.12
264.499	68.12
264.732	88.12
264.964	85.12
265.197	86.12
265.429	91.12
265.661	86.12
265.894	85.12
266.126	79.12
266.358	67.12
266.591	76.12
266.823	69.12
267.055	76.12
267.287	83.12
267.52	70.12
267.752	83.12
267.984	83.12
268.216	80.12
268.448	83.12
268.681	86.12
268.913	65.12
269.145	73.12
269.377	86.12
269.609	77.12
269.841	79.12
270.073	77.12
270.306	77.12
270.538	81.12
270.77	77.12
271.002	88.12
271.234	73.12
271.466	66.12
271.698	88.12
271.93	83.12
272.162	70.12
272.394	80.12
272.626	79.12
272.858	72.12
273.09	76.12
273.322	85.12
273.553	71.12
273.785	76.12
274.017	96.12
274.249	81.12
274.481	68.12
274.713	78.12
274.945	88.12
275.176	84.12
275.408	73.12
275.64	86.12
275.872	82.12
276.104	88.12
276.335	77.12
276.567	79.12
276.799	64.12
277.031	84.12
277.262	86.12
277.494	76.12
277.726	85.12
277.957	84.12
278.189	72.12
278.421	86.12
278.652	81.12
278.884	87.12
279.115	82.12
279.347	74.12
279.579	77.12
279.81	84.12
280.042	78.12
280.273	68.12
280.505	76.12
280.736	88.12
280.968	83.12
281.199	98.12
281.431	86.12
281.662	75.12
281.894	84.12
282.125	79.12
282.356	75.12
282.588	81.12
282.819	77.12
283.051	82.12
283.282	86.12
283.513	89.12
283.745	85.12
283.976	86.12
284.207	79.12
284.439	87.12
284.67	82.12
284.901	73.12
285.132	82.12
285.364	87.12
285.595	91.12
285.826	82.12
286.057	83.12
286.288	84.12
286.52	67.12
286.751	83.12
286.982	99.12
287.213	84.12
287.444	79.12
287.675	80.12
287.906	94.12
288.138	76.12
288.369	74.12
288.6	97.12
288.831	88.12
289.062	84.12
289.293	89.12
289.524	72.12
289.755	83.12
289.986	71.12
290.217	83.12
290.448	84.12
290.679	100.12
290.91	74.12
291.141	83.12
291.371	76.12
291.602	93.12
291.833	96.12
292.064	89.12
292.295	94.12
292.526	93.12
292.757	82.12
292.987	93.12
293.218	83.12
293.449	92.12
293.68	64.12
293.91	78.12
294.141	81.12
294.372	79.12
294.603	87.12
294.833	79.12
295.064	81.12
295.295	74.12
295.525	63.12
295.756	78.12
295.987	95.12
296.217	69.12
296.448	76.12
296.679	80.12
296.909	90.12
297.14	82.12
297.37	79.12
297.601	84.12
297.831	78.12
298.062	93.12
298.292	88.12
298.523	82.12
298.753	75.12
298.984	86.12
299.214	104.12
299.445	84.12
299.675	101.12
299.905	83.12
300.136	75.12
300.366	92.12
300.597	87.12
300.827	75.12
301.057	80.12
301.288	79.12
301.518	87.12
301.748	82.12
301.979	85.12
302.209	81.12
302.439	90.12
302.669	95.12
302.9	84.12
303.13	72.12
303.36	83.12
303.59	93.12
303.82	88.12
304.051	95.12
304.281	83.12
304.511	99.12
304.741	72.12
304.971	74.12
305.201	87.12
305.431	80.12
305.661	74.12
305.891	85.12
306.121	96.12
306.352	97.12
306.582	83.12
306.812	73.12
307.042	71.12
307.272	79.12
307.502	93.12
307.731	80.12
307.961	87.12
308.191	79.12
308.421	63.12
308.651	86.12
308.881	92.12
309.111	81.12
309.341	86.12
309.571	85.12
309.8	79.12
310.03	73.12
310.26	80.12
310.49	88.12
310.72	92.12
310.949	88.12
311.179	92.12
311.409	95.12
311.639	71.12
311.868	73.12
312.098	88.12
312.328	85.12
312.557	93.12
312.787	91.12
313.017	84.12
313.246	83.12
313.476	68.12
313.706	76.12
313.935	83.12
314.165	95.12
314.394	89.12
314.624	101.12
314.853	91.12
315.083	76.12
315.312	82.12
315.542	85.12
315.771	78.12
316.001	87.12
316.23	106.12
316.46	83.12
316.689	87.12
316.919	88.12
317.148	91.12
317.377	71.12
317.607	80.12
317.836	87.12
318.065	90.12
318.295	75.12
318.524	85.12
318.753	76.12
318.983	79.12
319.212	92.12
319.441	73.12
319.67	97.12
319.9	86.12
320.129	83.12
320.358	83.12
320.587	84.12
320.816	93.12
321.046	85.12
321.275	94.12
321.504	76.12
321.733	92.12
321.962	81.12
322.191	94.12
322.42	88.12
322.649	88.12
322.878	81.12
323.108	76.12
323.337	89.12
323.566	79.12
323.795	77.12
324.024	80.12
324.253	77.12
324.482	77.12
324.71	85.12
324.939	72.12
325.168	76.12
325.397	83.12
325.626	88.12
325.855	71.12
326.084	80.12
326.313	83.12
326.542	81.12
326.77	87.12
326.999	88.12
327.228	84.12
327.457	92.12
327.686	80.12
327.914	77.12
328.143	82.12
328.372	80.12
328.6	72.12
328.829	79.12
329.058	89.12
329.287	81.12
329.515	90.12
329.744	84.12
329.972	58.12
330.201	64.12
330.43	85.12
330.658	99.12
330.887	92.12
331.115	83.12
331.344	93.12
331.572	89.12
331.801	77.12
332.03	88.12
332.258	85.12
332.486	77.12
332.715	91.12
332.943	83.12
333.172	82.12
333.4	81.12
333.629	85.12
333.857	87.12
334.085	74.12
334.314	86.12
334.542	90.12
334.771	85.12
334.999	85.12
335.227	82.12
335.455	76.12
335.684	81.12
335.912	79.12
336.14	75.12
336.369	85.12
336.597	78.12
336.825	88.12
337.053	94.12
337.281	95.12
337.51	86.12
337.738	85.12
337.966	87.12
338.194	87.12
338.422	81.12
338.65	98.12
338.878	75.12
339.106	84.12
339.334	88.12
339.562	72.12
339.79	74.12
340.018	78.12
340.246	76.12
340.474	85.12
340.702	84.12
340.93	89.12
341.158	88.12
341.386	94.12
341.614	83.12
341.842	70.12
342.07	83.12
342.298	83.12
342.526	75.12
342.754	94.12
342.981	77.12
343.209	78.12
343.437	97.12
343.665	81.12
343.893	61.12
344.12	86.12
344.348	82.12
344.576	73.12
344.804	85.12
345.031	85.12
345.259	86.12
345.487	78.12
345.714	79.12
345.942	78.12
346.17	87.12
346.397	80.12
346.625	86.12
346.853	82.12
347.08	81.12
347.308	73.12
347.535	89.12
347.763	76.12
347.99	77.12
348.218	83.12
348.445	90.12
348.673	76.12
348.9	73.12
349.128	91.12
349.355	76.12
349.583	76.12
349.81	87.12
350.037	86.12
350.265	88.12
350.492	85.12
350.72	76.12
350.947	83.12
351.174	83.12
351.402	84.12
351.629	80.12
351.856	81.12
352.083	90.12
352.311	87.12
352.538	72.12
352.765	83.12
352.992	94.12
353.22	88.12
353.447	95.12
353.674	73.12
353.901	77.12
354.128	77.12
354.355	80.12
354.583	84.12
354.81	81.12
355.037	86.12
355.264	81.12
355.491	81.12
355.718	76.12
355.945	84.12
356.172	85.12
356.399	97.12
356.626	89.12
356.853	87.12
357.08	81.12
357.307	93.12
357.534	77.12
357.761	91.12
357.988	82.12
358.215	83.12
358.441	67.12
358.668	73.12
358.895	80.12
359.122	98.12
359.349	84.12
359.576	82.12
359.802	93.12
360.029	81.12
360.256	95.12
360.483	77.12
360.709	84.12
360.936	83.12
361.163	86.12
361.39	77.12
361.616	103.12
361.843	83.12
362.07	77.12
362.296	83.12
362.523	84.12
362.749	83.12
362.976	88.12
363.203	104.12
363.429	81.12
363.656	95.12
363.882	92.12
364.109	85.12
364.335	80.12
364.562	77.12
364.788	83.12
365.015	92.12
365.241	85.12
365.468	93.12
365.694	84.12
365.92	90.12
366.147	83.12
366.373	87.12
366.599	85.12
366.826	65.12
367.052	80.12
367.278	82.12
367.505	85.12
367.731	89.12
367.957	81.12
368.184	73.12
368.41	74.12
368.636	71.12
368.862	96.12
369.089	88.12
369.315	90.12
369.541	81.12
369.767	86.12
369.993	75.12
370.219	76.12
370.445	73.12
370.672	81.12
370.898	76.12
371.124	73.12
371.35	90.12
371.576	95.12
371.802	83.12
372.028	87.12
372.254	74.12
372.48	74.12
372.706	72.12
372.932	86.12
373.158	73.12
373.384	79.12
373.61	90.12
373.835	68.12
374.061	79.12
374.287	77.12
374.513	83.12
374.739	93.12
374.965	83.12
375.191	79.12
375.416	83.12
375.642	81.12
375.868	92.12
376.094	81.12
376.319	73.12
376.545	84.12
376.771	74.12
376.997	80.12
377.222	97.12
377.448	89.12
377.674	76.12
377.899	66.12
378.125	75.12
378.35	69.12
378.576	78.12
378.802	88.12
379.027	85.12
379.253	76.12
379.478	77.12
379.704	97.12
379.929	71.12
380.155	85.12
380.38	76.12
380.606	89.12
380.831	80.12
381.057	88.12
381.282	81.12
381.507	87.12
381.733	83.12
381.958	83.12
382.184	67.12
382.409	97.12
382.634	71.12
382.86	77.12
383.085	85.12
383.31	75.12
383.535	77.12
383.761	81.12
383.986	80.12
384.211	72.12
384.436	84.12
384.662	79.12
384.887	80.12
385.112	86.12
385.337	72.12
385.562	87.12
385.787	74.12
386.013	79.12
386.238	75.12
386.463	80.12
386.688	72.12
386.913	83.12
387.138	69.12
387.363	87.12
387.588	83.12
387.813	87.12
388.038	95.12
388.263	83.12
388.488	66.12
388.713	71.12
388.938	84.12
389.163	86.12
389.387	79.12
389.612	101.12
389.837	93.12
390.062	85.12
390.287	74.12
390.512	83.12
390.736	75.12
390.961	82.12
391.186	112.12
391.411	69.12
391.636	70.12
391.86	80.12
392.085	90.12
392.31	79.12
392.534	92.12
392.759	83.12
392.984	85.12
393.208	87.12
393.433	77.12
393.658	87.12
393.882	86.12
394.107	90.12
394.331	84.12
394.556	82.12
394.78	91.12
395.005	85.12
395.229	87.12
395.454	87.12
395.678	75.12
395.903	83.12
396.127	80.12
396.352	81.12
396.576	75.12
396.801	75.12
397.025	74.12
397.249	87.12
397.474	74.12
397.698	89.12
397.922	83.12
398.147	82.12
398.371	78.12
398.595	84.12
398.82	81.12
399.044	85.12
399.268	91.12
399.492	88.12
399.717	84.12
399.941	73.12
400.165	82.12
400.389	69.12
400.613	80.12
400.837	87.12
401.062	80.12
401.286	79.12
401.51	83.12
401.734	83.12
401.958	84.12
402.182	83.12
402.406	84.12
402.63	77.12
402.854	81.12
403.078	92.12
403.302	64.12
403.526	83.12
403.75	90.12
403.974	88.12
404.198	95.12
404.422	92.12
404.645	89.12
404.869	83.12
405.093	89.12
405.317	83.12
405.541	76.12
405.765	91.12
405.988	107.12
406.212	76.12
406.436	78.12
406.66	89.12
406.883	79.12
407.107	72.12
407.331	92.12
407.555	76.12
407.778	71.12
408.002	72.12
408.226	75.12
408.449	87.12
408.673	81.12
408.896	86.12
409.12	75.12
409.344	92.12
409.567	83.12
409.791	80.12
410.014	81.12
410.238	85.12
410.461	67.12
410.685	81.12
410.908	99.12
411.132	99.12
411.355	88.12
411.578	98.12
411.802	99.12
412.025	82.12
412.249	82.12
412.472	91.12
412.695	90.12
412.919	80.12
413.142	84.12
413.365	88.12
413.589	83.12
413.812	89.12
414.035	83.12
414.258	91.12
414.482	90.12
414.705	82.12
414.928	91.12
415.151	77.12
415.374	81.12
415.597	93.12
415.821	82.12
416.044	94.12
416.267	82.12
416.49	91.12
416.713	88.12
416.936	80.12
417.159	86.12
417.382	81.12
417.605	88.12
417.828	102.12
418.051	90.12
418.274	87.12
418.497	82.12
418.72	88.12
418.943	89.12
419.166	89.12
419.389	81.12
419.611	93.12
419.834	98.12
420.057	69.12
420.28	85.12
420.503	91.12
420.726	92.12
420.948	92.12
421.171	84.12
421.394	87.12
421.617	81.12
421.839	91.12
422.062	89.12
422.285	91.12
422.507	77.12
422.73	86.12
422.953	84.12
423.175	82.12
423.398	82.12
423.621	96.12
423.843	95.12
424.066	96.12
424.288	83.12
424.511	83.12
424.733	112.12
424.956	77.12
425.178	98.12
425.401	97.12
425.623	83.12
425.846	89.12
426.068	86.12
426.291	93.12
426.513	81.12
426.735	88.12
426.958	94.12
427.18	87.12
427.402	81.12
427.625	97.12
427.847	73.12
428.069	75.12
428.292	87.12
428.514	82.12
428.736	86.12
428.958	106.12
429.181	85.12
429.403	88.12
429.625	91.12
429.847	83.12
430.069	77.12
430.292	98.12
430.514	103.12
430.736	73.12
430.958	87.12
431.18	96.12
431.402	93.12
431.624	105.12
431.846	77.12
432.068	81.12
432.29	82.12
432.512	84.12
432.734	89.12
432.956	85.12
433.178	96.12
433.4	90.12
433.622	106.12
433.844	89.12
434.066	76.12
434.287	87.12
434.509	83.12
434.731	76.12
434.953	87.12
435.175	87.12
435.397	79.12
435.618	90.12
435.84	82.12
436.062	64.12
436.284	82.12
436.505	86.12
436.727	81.12
436.949	80.12
437.17	88.12
437.392	86.12
437.614	74.12
437.835	96.12
438.057	75.12
438.278	95.12
438.5	84.12
438.721	93.12
438.943	84.12
439.165	90.12
439.386	90.12
439.608	88.12
439.829	99.12
440.05	102.12
440.272	82.12
440.493	75.12
440.715	97.12
440.936	76.12
441.158	97.12
441.379	97.12
441.6	96.12
441.822	94.12
442.043	78.12
442.264	90.12
442.486	82.12
442.707	74.12
442.928	86.12
443.149	84.12
443.371	94.12
443.592	101.12
443.813	92.12
444.034	89.12
444.255	79.12
444.476	86.12
444.698	95.12
444.919	88.12
445.14	181.12
445.361	136.12
445.582	91.12
445.803	83.12
446.024	95.12
446.245	80.12
446.466	92.12
446.687	91.12
446.908	82.12
447.129	93.12
447.35	99.12
447.571	95.12
447.792	91.12
448.013	93.12
448.234	85.12
448.455	93.12
448.675	97.12
448.896	81.12
449.117	97.12
449.338	80.12
449.559	96.12
449.779	81.12
450	89.12
450.221	89.12
450.442	83.12
450.662	83.12
450.883	73.12
451.104	100.12
451.324	83.12
451.545	81.12
451.766	102.12
451.986	105.12
452.207	91.12
452.428	85.12
452.648	94.12
452.869	97.12
453.089	98.12
453.31	82.12
453.53	88.12
453.751	88.12
453.971	81.12
454.192	75.12
454.412	84.12
454.633	85.12
454.853	93.12
455.073	84.12
455.294	91.12
455.514	89.12
455.734	96.12
455.955	90.12
456.175	84.12
456.395	69.12
456.616	76.12
456.836	89.12
457.056	77.12
457.276	76.12
457.497	83.12
457.717	77.12
457.937	91.12
458.157	77.12
458.377	87.12
458.598	84.12
458.818	84.12
459.038	90.12
459.258	75.12
459.478	72.12
459.698	84.12
459.918	76.12
460.138	93.12
460.358	85.12
460.578	84.12
460.798	77.12
461.018	99.12
461.238	72.12
461.458	73.12
461.678	75.12
461.898	95.12
462.118	79.12
462.338	82.12
462.558	99.12
462.777	92.12
462.997	88.12
463.217	87.12
463.437	79.12
463.657	82.12
463.876	90.12
464.096	79.12
464.316	84.12
464.536	85.12
464.755	88.12
464.975	91.12
465.195	90.12
465.414	74.12
465.634	88.12
465.854	73.12
466.073	90.12
466.293	91.12
466.512	85.12
466.732	80.12
466.951	103.12
467.171	87.12
467.391	81.12
467.61	76.12
467.829	97.12
468.049	79.12
468.268	85.12
468.488	94.12
468.707	86.12
468.927	91.12
469.146	86.12
469.365	76.12
469.585	89.12
469.804	99.12
470.023	82.12
470.243	97.12
470.462	102.12
470.681	84.12
470.901	88.12
471.12	92.12
471.339	88.12
471.558	93.12
471.777	92.12
471.997	87.12
472.216	79.12
472.435	100.12
472.654	80.12
472.873	84.12
473.092	103.12
473.311	94.12
473.53	82.12
473.749	99.12
473.968	88.12
474.187	85.12
474.406	77.12
474.625	81.12
474.844	85.12
475.063	95.12
475.282	76.12
475.501	87.12
475.72	78.12
475.939	85.12
476.158	75.12
476.377	77.12
476.596	71.12
476.814	88.12
477.033	84.12
477.252	84.12
477.471	90.12
477.69	69.12
477.908	110.12
478.127	103.12
478.346	87.12
478.564	83.12
478.783	82.12
479.002	94.12
479.22	77.12
479.439	79.12
479.658	93.12
479.876	79.12
480.095	86.12
480.313	92.12
480.532	85.12
480.751	80.12
480.969	83.12
481.188	92.12
481.406	77.12
481.624	77.12
481.843	92.12
482.061	96.12
482.28	107.12
482.498	81.12
482.717	75.12
482.935	96.12
483.153	89.12
483.372	82.12
483.59	79.12
483.808	80.12
484.027	87.12
484.245	91.12
484.463	96.12
484.681	104.12
484.9	84.12
485.118	85.12
485.336	82.12
485.554	90.12
485.772	88.12
485.99	82.12
486.209	79.12
486.427	84.12
486.645	85.12
486.863	77.12
487.081	79.12
487.299	100.12
487.517	103.12
487.735	115.12
487.953	87.12
488.171	114.12
488.389	79.12
488.607	84.12
488.825	85.12
489.043	89.12
489.261	64.12
489.479	93.12
489.696	97.12
489.914	92.12
490.132	90.12
490.35	96.12
490.568	78.12
490.786	98.12
491.003	100.12
491.221	111.12
491.439	117.12
491.657	86.12
491.874	111.12
492.092	101.12
492.31	111.12
492.527	96.12
492.745	114.12
492.963	99.12
493.18	94.12
493.398	89.12
493.615	72.12
493.833	108.12
494.05	94.12
494.268	104.12
494.485	87.12
494.703	79.12
494.92	78.12
495.138	104.12
495.355	90.12
495.573	91.12
495.79	97.12
496.008	97.12
496.225	93.12
496.442	103.12
496.66	90.12
496.877	100.12
497.094	99.12
497.312	93.12
497.529	86.12
497.746	84.12
497.963	88.12
498.181	82.12
498.398	82.12
498.615	85.12
498.832	77.12
499.049	76.12
499.267	81.12
499.484	88.12
499.701	98.12
499.918	100.12
500.135	93.12
500.352	95.12
500.569	95.12
500.786	101.12
501.003	90.12
501.22	86.12
501.437	96.12
501.654	90.12
501.871	99.12
502.088	95.12
502.305	89.12
502.522	85.12
502.739	73.12
502.956	87.12
503.172	76.12
503.389	91.12
503.606	84.12
503.823	96.12
504.04	86.12
504.256	86.12
504.473	93.12
504.69	89.12
504.907	91.12
505.123	89.12
505.34	100.12
505.557	87.12
505.773	85.12
505.99	100.12
506.207	79.12
506.423	84.12
506.64	71.12
506.856	91.12
507.073	87.12
507.289	78.12
507.506	80.12
507.722	74.12
507.939	74.12
508.155	106.12
508.372	86.12
508.588	85.12
508.805	74.12
509.021	90.12
509.238	79.12
509.454	85.12
509.67	80.12
509.887	75.12
510.103	85.12
510.319	67.12
510.536	82.12
510.752	90.12
510.968	73.12
511.184	79.12
511.401	71.12
511.617	87.12
511.833	87.12
512.049	87.12
512.265	77.12
512.481	80.12
512.698	86.12
512.914	76.12
513.13	90.12
513.346	79.12
513.562	67.12
513.778	87.12
513.994	85.12
514.21	84.12
514.426	84.12
514.642	85.12
514.858	90.12
515.074	89.12
515.29	80.12
515.506	95.12
515.721	76.12
515.937	85.12
516.153	78.12
516.369	87.12
516.585	71.12
516.801	73.12
517.016	82.12
517.232	77.12
517.448	76.12
517.664	80.12
517.879	93.12
518.095	79.12
518.311	107.12
518.527	116.12
518.742	91.12
