Data from Zn(NO3)2Standard.Agarose3%.GreenCap.LampEnergy10E.O_HRD10591_15-07-08-943.txt Node
Date: Mon Jul 22 15:07:08 EDT 2019
User: cochatt
Spectrometer: HR+D1059
Trigger mode: 1
Integration Time (sec): 1.000000E-1
Scans to average: 1
Electric dark correction enabled: true
Nonlinearity correction enabled: false
Boxcar width: 0
XAxis mode: Wavelengths
Number of Pixels in Spectrum: 2048
>>>>>Begin Spectral Data<<<<<
223.165	-28.69
223.4	-28.69
223.635	-28.69
223.869	-19.69
224.104	-2.69
224.338	-3.69
224.573	-7.69
224.808	-11.69
225.042	-15.69
225.277	-11.69
225.511	4.31
225.746	6.31
225.98	4.31
226.215	13.31
226.449	13.31
226.683	14.31
226.918	30.31
227.152	15.31
227.387	31.31
227.621	51.31
227.856	50.31
228.09	57.31
228.324	66.31
228.559	56.31
228.793	56.31
229.027	71.31
229.262	73.31
229.496	67.31
229.73	77.31
229.964	59.31
230.199	76.31
230.433	90.31
230.667	71.31
230.901	68.31
231.136	72.31
231.37	79.31
231.604	90.31
231.838	96.31
232.072	85.31
232.306	72.31
232.541	81.31
232.775	72.31
233.009	89.31
233.243	76.31
233.477	86.31
233.711	84.31
233.945	78.31
234.179	80.31
234.413	83.31
234.647	85.31
234.881	86.31
235.115	85.31
235.349	77.31
235.583	70.31
235.817	87.31
236.051	82.31
236.285	92.31
236.519	83.31
236.753	92.31
236.987	81.31
237.221	78.31
237.455	83.31
237.689	88.31
237.922	74.31
238.156	86.31
238.39	75.31
238.624	86.31
238.858	80.31
239.091	68.31
239.325	68.31
239.559	80.31
239.793	78.31
240.027	87.31
240.26	88.31
240.494	89.31
240.728	79.31
240.961	80.31
241.195	74.31
241.429	69.31
241.662	68.31
241.896	73.31
242.13	96.31
242.363	91.31
242.597	80.31
242.83	74.31
243.064	71.31
243.298	77.31
243.531	77.31
243.765	77.31
243.998	80.31
244.232	73.31
244.465	87.31
244.699	77.31
244.932	79.31
245.166	80.31
245.399	63.31
245.633	77.31
245.866	80.31
246.099	77.31
246.333	94.31
246.566	81.31
246.8	75.31
247.033	82.31
247.266	92.31
247.5	78.31
247.733	90.31
247.966	80.31
248.2	63.31
248.433	99.31
248.666	95.31
248.899	86.31
249.133	87.31
249.366	77.31
249.599	77.31
249.832	76.31
250.066	95.31
250.299	96.31
250.532	80.31
250.765	84.31
250.998	74.31
251.231	79.31
251.465	79.31
251.698	81.31
251.931	84.31
252.164	76.31
252.397	64.31
252.63	71.31
252.863	83.31
253.096	84.31
253.329	77.31
253.562	80.31
253.795	86.31
254.028	72.31
254.261	95.31
254.494	67.31
254.727	91.31
254.96	88.31
255.193	78.31
255.426	102.31
255.659	83.31
255.892	101.31
256.124	81.31
256.357	90.31
256.59	78.31
256.823	74.31
257.056	80.31
257.289	71.31
257.521	76.31
257.754	83.31
257.987	86.31
258.22	75.31
258.452	76.31
258.685	88.31
258.918	78.31
259.151	84.31
259.383	84.31
259.616	101.31
259.849	87.31
260.081	86.31
260.314	85.31
260.547	92.31
260.779	79.31
261.012	85.31
261.244	87.31
261.477	97.31
261.71	92.31
261.942	87.31
262.175	84.31
262.407	73.31
262.64	85.31
262.872	89.31
263.105	84.31
263.337	103.31
263.57	104.31
263.802	97.31
264.035	101.31
264.267	86.31
264.499	84.31
264.732	96.31
264.964	79.31
265.197	61.31
265.429	85.31
265.661	94.31
265.894	77.31
266.126	94.31
266.358	98.31
266.591	86.31
266.823	89.31
267.055	85.31
267.287	78.31
267.52	76.31
267.752	79.31
267.984	81.31
268.216	68.31
268.448	74.31
268.681	83.31
268.913	82.31
269.145	98.31
269.377	79.31
269.609	84.31
269.841	83.31
270.073	73.31
270.306	88.31
270.538	95.31
270.77	80.31
271.002	76.31
271.234	102.31
271.466	81.31
271.698	101.31
271.93	91.31
272.162	86.31
272.394	82.31
272.626	91.31
272.858	94.31
273.09	94.31
273.322	93.31
273.553	77.31
273.785	85.31
274.017	81.31
274.249	85.31
274.481	103.31
274.713	87.31
274.945	87.31
275.176	102.31
275.408	77.31
275.64	90.31
275.872	86.31
276.104	95.31
276.335	86.31
276.567	79.31
276.799	86.31
277.031	71.31
277.262	79.31
277.494	91.31
277.726	97.31
277.957	80.31
278.189	73.31
278.421	82.31
278.652	90.31
278.884	76.31
279.115	80.31
279.347	84.31
279.579	89.31
279.81	99.31
280.042	66.31
280.273	84.31
280.505	84.31
280.736	89.31
280.968	92.31
281.199	100.31
281.431	87.31
281.662	95.31
281.894	77.31
282.125	96.31
282.356	87.31
282.588	74.31
282.819	86.31
283.051	83.31
283.282	94.31
283.513	83.31
283.745	75.31
283.976	86.31
284.207	69.31
284.439	84.31
284.67	87.31
284.901	89.31
285.132	85.31
285.364	80.31
285.595	95.31
285.826	96.31
286.057	106.31
286.288	95.31
286.52	93.31
286.751	100.31
286.982	87.31
287.213	85.31
287.444	90.31
287.675	91.31
287.906	81.31
288.138	85.31
288.369	93.31
288.6	84.31
288.831	84.31
289.062	87.31
289.293	77.31
289.524	98.31
289.755	70.31
289.986	95.31
290.217	86.31
290.448	77.31
290.679	88.31
290.91	91.31
291.141	88.31
291.371	91.31
291.602	78.31
291.833	86.31
292.064	77.31
292.295	89.31
292.526	96.31
292.757	95.31
292.987	82.31
293.218	83.31
293.449	92.31
293.68	87.31
293.91	74.31
294.141	85.31
294.372	74.31
294.603	87.31
294.833	83.31
295.064	89.31
295.295	80.31
295.525	88.31
295.756	74.31
295.987	79.31
296.217	74.31
296.448	85.31
296.679	91.31
296.909	101.31
297.14	83.31
297.37	92.31
297.601	95.31
297.831	93.31
298.062	95.31
298.292	83.31
298.523	80.31
298.753	90.31
298.984	86.31
299.214	96.31
299.445	92.31
299.675	104.31
299.905	83.31
300.136	79.31
300.366	88.31
300.597	88.31
300.827	92.31
301.057	88.31
301.288	99.31
301.518	90.31
301.748	101.31
301.979	77.31
302.209	98.31
302.439	91.31
302.669	80.31
302.9	90.31
303.13	80.31
303.36	86.31
303.59	99.31
303.82	92.31
304.051	100.31
304.281	89.31
304.511	105.31
304.741	81.31
304.971	85.31
305.201	97.31
305.431	76.31
305.661	79.31
305.891	85.31
306.121	81.31
306.352	83.31
306.582	75.31
306.812	92.31
307.042	82.31
307.272	84.31
307.502	87.31
307.731	87.31
307.961	81.31
308.191	87.31
308.421	81.31
308.651	83.31
308.881	83.31
309.111	93.31
309.341	89.31
309.571	93.31
309.8	76.31
310.03	86.31
310.26	102.31
310.49	87.31
310.72	84.31
310.949	95.31
311.179	85.31
311.409	79.31
311.639	90.31
311.868	89.31
312.098	86.31
312.328	92.31
312.557	85.31
312.787	76.31
313.017	84.31
313.246	95.31
313.476	85.31
313.706	91.31
313.935	88.31
314.165	86.31
314.394	84.31
314.624	100.31
314.853	75.31
315.083	82.31
315.312	95.31
315.542	76.31
315.771	86.31
316.001	84.31
316.23	87.31
316.46	88.31
316.689	80.31
316.919	90.31
317.148	90.31
317.377	90.31
317.607	84.31
317.836	80.31
318.065	82.31
318.295	92.31
318.524	99.31
318.753	77.31
318.983	94.31
319.212	82.31
319.441	115.31
319.67	86.31
319.9	102.31
320.129	78.31
320.358	88.31
320.587	88.31
320.816	94.31
321.046	91.31
321.275	90.31
321.504	84.31
321.733	86.31
321.962	83.31
322.191	106.31
322.42	91.31
322.649	96.31
322.878	90.31
323.108	87.31
323.337	83.31
323.566	85.31
323.795	77.31
324.024	76.31
324.253	84.31
324.482	92.31
324.71	74.31
324.939	79.31
325.168	83.31
325.397	86.31
325.626	99.31
325.855	84.31
326.084	88.31
326.313	93.31
326.542	74.31
326.77	92.31
326.999	84.31
327.228	76.31
327.457	76.31
327.686	94.31
327.914	85.31
328.143	91.31
328.372	84.31
328.6	88.31
328.829	75.31
329.058	91.31
329.287	79.31
329.515	63.31
329.744	71.31
329.972	85.31
330.201	80.31
330.43	90.31
330.658	90.31
330.887	83.31
331.115	74.31
331.344	77.31
331.572	85.31
331.801	78.31
332.03	72.31
332.258	85.31
332.486	87.31
332.715	81.31
332.943	80.31
333.172	86.31
333.4	88.31
333.629	89.31
333.857	99.31
334.085	98.31
334.314	85.31
334.542	79.31
334.771	92.31
334.999	86.31
335.227	100.31
335.455	105.31
335.684	88.31
335.912	84.31
336.14	87.31
336.369	102.31
336.597	81.31
336.825	81.31
337.053	83.31
337.281	101.31
337.51	94.31
337.738	82.31
337.966	87.31
338.194	84.31
338.422	76.31
338.65	90.31
338.878	86.31
339.106	64.31
339.334	83.31
339.562	82.31
339.79	94.31
340.018	82.31
340.246	80.31
340.474	103.31
340.702	90.31
340.93	102.31
341.158	84.31
341.386	74.31
341.614	88.31
341.842	88.31
342.07	79.31
342.298	90.31
342.526	80.31
342.754	91.31
342.981	70.31
343.209	79.31
343.437	79.31
343.665	86.31
343.893	98.31
344.12	96.31
344.348	87.31
344.576	67.31
344.804	86.31
345.031	70.31
345.259	99.31
345.487	68.31
345.714	78.31
345.942	81.31
346.17	91.31
346.397	86.31
346.625	88.31
346.853	87.31
347.08	67.31
347.308	70.31
347.535	86.31
347.763	91.31
347.99	100.31
348.218	89.31
348.445	73.31
348.673	77.31
348.9	85.31
349.128	94.31
349.355	91.31
349.583	93.31
349.81	83.31
350.037	76.31
350.265	80.31
350.492	98.31
350.72	86.31
350.947	80.31
351.174	80.31
351.402	89.31
351.629	82.31
351.856	79.31
352.083	79.31
352.311	92.31
352.538	75.31
352.765	91.31
352.992	90.31
353.22	91.31
353.447	95.31
353.674	90.31
353.901	73.31
354.128	66.31
354.355	78.31
354.583	89.31
354.81	98.31
355.037	95.31
355.264	87.31
355.491	95.31
355.718	81.31
355.945	75.31
356.172	88.31
356.399	79.31
356.626	86.31
356.853	82.31
357.08	89.31
357.307	87.31
357.534	84.31
357.761	81.31
357.988	80.31
358.215	86.31
358.441	92.31
358.668	93.31
358.895	84.31
359.122	88.31
359.349	79.31
359.576	81.31
359.802	88.31
360.029	79.31
360.256	100.31
360.483	90.31
360.709	84.31
360.936	80.31
361.163	86.31
361.39	79.31
361.616	79.31
361.843	88.31
362.07	74.31
362.296	83.31
362.523	86.31
362.749	80.31
362.976	82.31
363.203	88.31
363.429	86.31
363.656	84.31
363.882	75.31
364.109	84.31
364.335	90.31
364.562	89.31
364.788	90.31
365.015	79.31
365.241	82.31
365.468	108.31
365.694	82.31
365.92	91.31
366.147	77.31
366.373	80.31
366.599	76.31
366.826	87.31
367.052	82.31
367.278	93.31
367.505	93.31
367.731	94.31
367.957	90.31
368.184	91.31
368.41	95.31
368.636	81.31
368.862	90.31
369.089	86.31
369.315	72.31
369.541	94.31
369.767	83.31
369.993	88.31
370.219	79.31
370.445	91.31
370.672	88.31
370.898	77.31
371.124	85.31
371.35	84.31
371.576	83.31
371.802	89.31
372.028	95.31
372.254	81.31
372.48	83.31
372.706	89.31
372.932	73.31
373.158	80.31
373.384	83.31
373.61	98.31
373.835	71.31
374.061	80.31
374.287	89.31
374.513	82.31
374.739	88.31
374.965	96.31
375.191	87.31
375.416	85.31
375.642	104.31
375.868	86.31
376.094	87.31
376.319	87.31
376.545	90.31
376.771	88.31
376.997	89.31
377.222	82.31
377.448	95.31
377.674	91.31
377.899	98.31
378.125	89.31
378.35	83.31
378.576	75.31
378.802	96.31
379.027	90.31
379.253	88.31
379.478	86.31
379.704	90.31
379.929	79.31
380.155	92.31
380.38	93.31
380.606	84.31
380.831	77.31
381.057	88.31
381.282	100.31
381.507	86.31
381.733	90.31
381.958	88.31
382.184	86.31
382.409	104.31
382.634	80.31
382.86	101.31
383.085	91.31
383.31	103.31
383.535	87.31
383.761	100.31
383.986	102.31
384.211	93.31
384.436	93.31
384.662	95.31
384.887	92.31
385.112	91.31
385.337	90.31
385.562	83.31
385.787	90.31
386.013	109.31
386.238	104.31
386.463	88.31
386.688	87.31
386.913	104.31
387.138	94.31
387.363	87.31
387.588	96.31
387.813	93.31
388.038	80.31
388.263	83.31
388.488	114.31
388.713	99.31
388.938	83.31
389.163	89.31
389.387	89.31
389.612	99.31
389.837	103.31
390.062	98.31
390.287	95.31
390.512	88.31
390.736	85.31
390.961	96.31
391.186	95.31
391.411	83.31
391.636	84.31
391.86	108.31
392.085	92.31
392.31	87.31
392.534	102.31
392.759	87.31
392.984	107.31
393.208	102.31
393.433	106.31
393.658	96.31
393.882	92.31
394.107	86.31
394.331	95.31
394.556	98.31
394.78	86.31
395.005	85.31
395.229	87.31
395.454	94.31
395.678	91.31
395.903	103.31
396.127	99.31
396.352	76.31
396.576	102.31
396.801	93.31
397.025	102.31
397.249	105.31
397.474	86.31
397.698	88.31
397.922	86.31
398.147	95.31
398.371	93.31
398.595	89.31
398.82	80.31
399.044	81.31
399.268	102.31
399.492	97.31
399.717	100.31
399.941	101.31
400.165	87.31
400.389	100.31
400.613	99.31
400.837	103.31
401.062	90.31
401.286	94.31
401.51	96.31
401.734	96.31
401.958	81.31
402.182	90.31
402.406	100.31
402.63	92.31
402.854	105.31
403.078	96.31
403.302	92.31
403.526	91.31
403.75	101.31
403.974	101.31
404.198	98.31
404.422	102.31
404.645	105.31
404.869	104.31
405.093	103.31
405.317	108.31
405.541	106.31
405.765	106.31
405.988	91.31
406.212	103.31
406.436	102.31
406.66	118.31
406.883	108.31
407.107	104.31
407.331	104.31
407.555	99.31
407.778	109.31
408.002	106.31
408.226	102.31
408.449	100.31
408.673	102.31
408.896	104.31
409.12	87.31
409.344	103.31
409.567	116.31
409.791	100.31
410.014	104.31
410.238	110.31
410.461	107.31
410.685	109.31
410.908	99.31
411.132	88.31
411.355	96.31
411.578	114.31
411.802	99.31
412.025	112.31
412.249	115.31
412.472	84.31
412.695	107.31
412.919	101.31
413.142	96.31
413.365	98.31
413.589	83.31
413.812	110.31
414.035	125.31
414.258	102.31
414.482	105.31
414.705	120.31
414.928	99.31
415.151	102.31
415.374	100.31
415.597	99.31
415.821	108.31
416.044	98.31
416.267	101.31
416.49	108.31
416.713	106.31
416.936	102.31
417.159	98.31
417.382	90.31
417.605	99.31
417.828	99.31
418.051	107.31
418.274	105.31
418.497	126.31
418.72	112.31
418.943	114.31
419.166	106.31
419.389	103.31
419.611	105.31
419.834	120.31
420.057	111.31
420.28	93.31
420.503	104.31
420.726	110.31
420.948	116.31
421.171	101.31
421.394	104.31
421.617	98.31
421.839	110.31
422.062	110.31
422.285	104.31
422.507	104.31
422.73	98.31
422.953	111.31
423.175	99.31
423.398	98.31
423.621	89.31
423.843	105.31
424.066	113.31
424.288	97.31
424.511	121.31
424.733	114.31
424.956	106.31
425.178	103.31
425.401	104.31
425.623	112.31
425.846	105.31
426.068	113.31
426.291	102.31
426.513	116.31
426.735	106.31
426.958	108.31
427.18	110.31
427.402	103.31
427.625	100.31
427.847	108.31
428.069	108.31
428.292	98.31
428.514	95.31
428.736	96.31
428.958	112.31
429.181	102.31
429.403	115.31
429.625	97.31
429.847	94.31
430.069	116.31
430.292	122.31
430.514	118.31
430.736	94.31
430.958	112.31
431.18	108.31
431.402	98.31
431.624	94.31
431.846	106.31
432.068	101.31
432.29	95.31
432.512	95.31
432.734	97.31
432.956	111.31
433.178	114.31
433.4	108.31
433.622	116.31
433.844	95.31
434.066	106.31
434.287	107.31
434.509	88.31
434.731	92.31
434.953	104.31
435.175	103.31
435.397	117.31
435.618	110.31
435.84	102.31
436.062	89.31
436.284	107.31
436.505	105.31
436.727	132.31
436.949	119.31
437.17	110.31
437.392	122.31
437.614	110.31
437.835	108.31
438.057	83.31
438.278	104.31
438.5	112.31
438.721	110.31
438.943	110.31
439.165	103.31
439.386	109.31
439.608	112.31
439.829	105.31
440.05	115.31
440.272	124.31
440.493	120.31
440.715	110.31
440.936	125.31
441.158	110.31
441.379	103.31
441.6	105.31
441.822	116.31
442.043	128.31
442.264	118.31
442.486	117.31
442.707	103.31
442.928	120.31
443.149	114.31
443.371	105.31
443.592	105.31
443.813	104.31
444.034	119.31
444.255	105.31
444.476	104.31
444.698	103.31
444.919	102.31
445.14	213.31
445.361	151.31
445.582	119.31
445.803	111.31
446.024	121.31
446.245	114.31
446.466	113.31
446.687	112.31
446.908	125.31
447.129	119.31
447.35	125.31
447.571	120.31
447.792	124.31
448.013	109.31
448.234	116.31
448.455	114.31
448.675	107.31
448.896	94.31
449.117	104.31
449.338	112.31
449.559	109.31
449.779	109.31
450	107.31
450.221	114.31
450.442	109.31
450.662	116.31
450.883	116.31
451.104	104.31
451.324	100.31
451.545	112.31
451.766	105.31
451.986	116.31
452.207	98.31
452.428	89.31
452.648	102.31
452.869	108.31
453.089	94.31
453.31	96.31
453.53	106.31
453.751	95.31
453.971	97.31
454.192	90.31
454.412	86.31
454.633	95.31
454.853	103.31
455.073	111.31
455.294	95.31
455.514	110.31
455.734	90.31
455.955	104.31
456.175	102.31
456.395	97.31
456.616	84.31
456.836	86.31
457.056	106.31
457.276	86.31
457.497	101.31
457.717	96.31
457.937	85.31
458.157	101.31
458.377	105.31
458.598	90.31
458.818	95.31
459.038	85.31
459.258	88.31
459.478	96.31
459.698	77.31
459.918	89.31
460.138	100.31
460.358	110.31
460.578	103.31
460.798	108.31
461.018	89.31
461.238	93.31
461.458	105.31
461.678	98.31
461.898	98.31
462.118	90.31
462.338	91.31
462.558	111.31
462.777	100.31
462.997	98.31
463.217	100.31
463.437	94.31
463.657	90.31
463.876	110.31
464.096	102.31
464.316	105.31
464.536	106.31
464.755	102.31
464.975	101.31
465.195	102.31
465.414	108.31
465.634	109.31
465.854	108.31
466.073	104.31
466.293	114.31
466.512	108.31
466.732	102.31
466.951	111.31
467.171	118.31
467.391	103.31
467.61	104.31
467.829	109.31
468.049	110.31
468.268	124.31
468.488	114.31
468.707	116.31
468.927	111.31
469.146	112.31
469.365	103.31
469.585	117.31
469.804	111.31
470.023	102.31
470.243	108.31
470.462	116.31
470.681	98.31
470.901	107.31
471.12	118.31
471.339	100.31
471.558	106.31
471.777	108.31
471.997	102.31
472.216	101.31
472.435	107.31
472.654	88.31
472.873	97.31
473.092	99.31
473.311	95.31
473.53	108.31
473.749	109.31
473.968	99.31
474.187	120.31
474.406	88.31
474.625	102.31
474.844	102.31
475.063	117.31
475.282	130.31
475.501	106.31
475.72	114.31
475.939	105.31
476.158	120.31
476.377	117.31
476.596	107.31
476.814	92.31
477.033	90.31
477.252	96.31
477.471	122.31
477.69	100.31
477.908	100.31
478.127	114.31
478.346	93.31
478.564	99.31
478.783	110.31
479.002	119.31
479.22	101.31
479.439	117.31
479.658	104.31
479.876	107.31
480.095	102.31
480.313	97.31
480.532	106.31
480.751	103.31
480.969	86.31
481.188	85.31
481.406	99.31
481.624	92.31
481.843	78.31
482.061	78.31
482.28	111.31
482.498	99.31
482.717	95.31
482.935	102.31
483.153	120.31
483.372	110.31
483.59	128.31
483.808	114.31
484.027	92.31
484.245	119.31
484.463	99.31
484.681	130.31
484.9	118.31
485.118	120.31
485.336	109.31
485.554	97.31
485.772	97.31
485.99	92.31
486.209	100.31
486.427	107.31
486.645	111.31
486.863	104.31
487.081	122.31
487.299	98.31
487.517	106.31
487.735	126.31
487.953	124.31
488.171	134.31
488.389	119.31
488.607	126.31
488.825	116.31
489.043	105.31
489.261	119.31
489.479	111.31
489.696	96.31
489.914	108.31
490.132	101.31
490.35	129.31
490.568	137.31
490.786	113.31
491.003	139.31
491.221	125.31
491.439	143.31
491.657	130.31
491.874	130.31
492.092	135.31
492.31	165.31
492.527	156.31
492.745	150.31
492.963	127.31
493.18	136.31
493.398	124.31
493.615	118.31
493.833	132.31
494.05	125.31
494.268	141.31
494.485	139.31
494.703	135.31
494.92	127.31
495.138	139.31
495.355	131.31
495.573	127.31
495.79	115.31
496.008	124.31
496.225	120.31
496.442	124.31
496.66	132.31
496.877	110.31
497.094	110.31
497.312	125.31
497.529	119.31
497.746	104.31
497.963	118.31
498.181	116.31
498.398	115.31
498.615	98.31
498.832	106.31
499.049	120.31
499.267	118.31
499.484	105.31
499.701	116.31
499.918	114.31
500.135	119.31
500.352	120.31
500.569	117.31
500.786	116.31
501.003	118.31
501.22	122.31
501.437	109.31
501.654	104.31
501.871	121.31
502.088	113.31
502.305	118.31
502.522	113.31
502.739	111.31
502.956	106.31
503.172	99.31
503.389	96.31
503.606	106.31
503.823	106.31
504.04	104.31
504.256	108.31
504.473	105.31
504.69	101.31
504.907	94.31
505.123	93.31
505.34	108.31
505.557	101.31
505.773	111.31
505.99	105.31
506.207	94.31
506.423	110.31
506.64	101.31
506.856	99.31
507.073	92.31
507.289	95.31
507.506	104.31
507.722	115.31
507.939	107.31
508.155	101.31
508.372	104.31
508.588	95.31
508.805	103.31
509.021	104.31
509.238	87.31
509.454	89.31
509.67	87.31
509.887	88.31
510.103	86.31
510.319	92.31
510.536	91.31
510.752	77.31
510.968	77.31
511.184	79.31
511.401	95.31
511.617	103.31
511.833	75.31
512.049	100.31
512.265	99.31
512.481	80.31
512.698	90.31
512.914	99.31
513.13	91.31
513.346	82.31
