Data from Zn(NO3)2Standard.Agarose3%.GreenCap.LampEnergy10E.O_HRD10591_15-06-42-942.txt Node
Date: Mon Jul 22 15:06:42 EDT 2019
User: cochatt
Spectrometer: HR+D1059
Trigger mode: 1
Integration Time (sec): 1.000000E-1
Scans to average: 1
Electric dark correction enabled: true
Nonlinearity correction enabled: false
Boxcar width: 0
XAxis mode: Wavelengths
Number of Pixels in Spectrum: 2048
>>>>>Begin Spectral Data<<<<<
223.165	-21.62
223.4	-21.62
223.635	-21.62
223.869	0.38
224.104	-21.62
224.338	-22.62
224.573	-9.62
224.808	-4.62
225.042	-12.62
225.277	-10.62
225.511	5.38
225.746	-8.62
225.98	12.38
226.215	7.38
226.449	16.38
226.683	26.38
226.918	20.38
227.152	23.38
227.387	37.38
227.621	33.38
227.856	36.38
228.09	49.38
228.324	59.38
228.559	73.38
228.793	56.38
229.027	57.38
229.262	48.38
229.496	55.38
229.73	80.38
229.964	58.38
230.199	69.38
230.433	63.38
230.667	69.38
230.901	85.38
231.136	84.38
231.37	68.38
231.604	85.38
231.838	94.38
232.072	79.38
232.306	92.38
232.541	77.38
232.775	85.38
233.009	77.38
233.243	86.38
233.477	92.38
233.711	94.38
233.945	83.38
234.179	79.38
234.413	89.38
234.647	92.38
234.881	87.38
235.115	89.38
235.349	73.38
235.583	86.38
235.817	85.38
236.051	87.38
236.285	88.38
236.519	78.38
236.753	82.38
236.987	72.38
237.221	91.38
237.455	87.38
237.689	75.38
237.922	68.38
238.156	71.38
238.39	65.38
238.624	73.38
238.858	80.38
239.091	58.38
239.325	85.38
239.559	69.38
239.793	71.38
240.027	78.38
240.26	72.38
240.494	75.38
240.728	68.38
240.961	76.38
241.195	70.38
241.429	81.38
241.662	66.38
241.896	72.38
242.13	93.38
242.363	93.38
242.597	76.38
242.83	65.38
243.064	65.38
243.298	74.38
243.531	81.38
243.765	63.38
243.998	67.38
244.232	72.38
244.465	77.38
244.699	76.38
244.932	68.38
245.166	82.38
245.399	75.38
245.633	76.38
245.866	84.38
246.099	79.38
246.333	80.38
246.566	88.38
246.8	80.38
247.033	72.38
247.266	77.38
247.5	87.38
247.733	85.38
247.966	91.38
248.2	74.38
248.433	83.38
248.666	80.38
248.899	74.38
249.133	81.38
249.366	102.38
249.599	86.38
249.832	79.38
250.066	97.38
250.299	86.38
250.532	68.38
250.765	91.38
250.998	88.38
251.231	71.38
251.465	81.38
251.698	85.38
251.931	66.38
252.164	89.38
252.397	95.38
252.63	86.38
252.863	75.38
253.096	81.38
253.329	79.38
253.562	76.38
253.795	79.38
254.028	85.38
254.261	70.38
254.494	98.38
254.727	90.38
254.96	87.38
255.193	89.38
255.426	75.38
255.659	79.38
255.892	80.38
256.124	81.38
256.357	86.38
256.59	78.38
256.823	79.38
257.056	76.38
257.289	80.38
257.521	74.38
257.754	77.38
257.987	83.38
258.22	86.38
258.452	97.38
258.685	90.38
258.918	73.38
259.151	81.38
259.383	72.38
259.616	76.38
259.849	65.38
260.081	88.38
260.314	81.38
260.547	79.38
260.779	86.38
261.012	75.38
261.244	77.38
261.477	81.38
261.71	81.38
261.942	85.38
262.175	92.38
262.407	85.38
262.64	70.38
262.872	89.38
263.105	85.38
263.337	74.38
263.57	77.38
263.802	80.38
264.035	83.38
264.267	85.38
264.499	75.38
264.732	87.38
264.964	83.38
265.197	89.38
265.429	89.38
265.661	81.38
265.894	79.38
266.126	86.38
266.358	84.38
266.591	79.38
266.823	81.38
267.055	82.38
267.287	87.38
267.52	77.38
267.752	92.38
267.984	88.38
268.216	76.38
268.448	96.38
268.681	72.38
268.913	83.38
269.145	85.38
269.377	85.38
269.609	84.38
269.841	80.38
270.073	78.38
270.306	79.38
270.538	91.38
270.77	68.38
271.002	74.38
271.234	73.38
271.466	90.38
271.698	85.38
271.93	78.38
272.162	92.38
272.394	87.38
272.626	90.38
272.858	86.38
273.09	91.38
273.322	82.38
273.553	90.38
273.785	90.38
274.017	79.38
274.249	91.38
274.481	86.38
274.713	91.38
274.945	78.38
275.176	93.38
275.408	84.38
275.64	78.38
275.872	81.38
276.104	90.38
276.335	83.38
276.567	82.38
276.799	75.38
277.031	80.38
277.262	89.38
277.494	82.38
277.726	78.38
277.957	85.38
278.189	74.38
278.421	91.38
278.652	83.38
278.884	81.38
279.115	74.38
279.347	92.38
279.579	74.38
279.81	84.38
280.042	84.38
280.273	85.38
280.505	89.38
280.736	81.38
280.968	90.38
281.199	86.38
281.431	81.38
281.662	85.38
281.894	93.38
282.125	79.38
282.356	82.38
282.588	75.38
282.819	89.38
283.051	89.38
283.282	76.38
283.513	87.38
283.745	101.38
283.976	93.38
284.207	78.38
284.439	80.38
284.67	90.38
284.901	77.38
285.132	83.38
285.364	86.38
285.595	98.38
285.826	84.38
286.057	78.38
286.288	88.38
286.52	86.38
286.751	86.38
286.982	79.38
287.213	94.38
287.444	92.38
287.675	88.38
287.906	87.38
288.138	89.38
288.369	88.38
288.6	80.38
288.831	89.38
289.062	87.38
289.293	83.38
289.524	78.38
289.755	84.38
289.986	83.38
290.217	95.38
290.448	84.38
290.679	81.38
290.91	88.38
291.141	84.38
291.371	86.38
291.602	85.38
291.833	96.38
292.064	79.38
292.295	87.38
292.526	75.38
292.757	94.38
292.987	83.38
293.218	80.38
293.449	87.38
293.68	83.38
293.91	89.38
294.141	81.38
294.372	82.38
294.603	74.38
294.833	82.38
295.064	75.38
295.295	95.38
295.525	79.38
295.756	87.38
295.987	95.38
296.217	80.38
296.448	90.38
296.679	87.38
296.909	108.38
297.14	101.38
297.37	89.38
297.601	87.38
297.831	82.38
298.062	93.38
298.292	87.38
298.523	93.38
298.753	87.38
298.984	81.38
299.214	79.38
299.445	92.38
299.675	94.38
299.905	87.38
300.136	89.38
300.366	88.38
300.597	75.38
300.827	87.38
301.057	73.38
301.288	90.38
301.518	87.38
301.748	82.38
301.979	70.38
302.209	79.38
302.439	80.38
302.669	85.38
302.9	92.38
303.13	83.38
303.36	99.38
303.59	87.38
303.82	92.38
304.051	86.38
304.281	78.38
304.511	95.38
304.741	89.38
304.971	86.38
305.201	107.38
305.431	94.38
305.661	93.38
305.891	96.38
306.121	88.38
306.352	85.38
306.582	92.38
306.812	80.38
307.042	84.38
307.272	79.38
307.502	69.38
307.731	88.38
307.961	99.38
308.191	81.38
308.421	87.38
308.651	84.38
308.881	71.38
309.111	81.38
309.341	77.38
309.571	81.38
309.8	85.38
310.03	77.38
310.26	84.38
310.49	89.38
310.72	96.38
310.949	79.38
311.179	88.38
311.409	82.38
311.639	93.38
311.868	87.38
312.098	77.38
312.328	89.38
312.557	83.38
312.787	82.38
313.017	87.38
313.246	88.38
313.476	95.38
313.706	95.38
313.935	101.38
314.165	92.38
314.394	81.38
314.624	77.38
314.853	80.38
315.083	96.38
315.312	89.38
315.542	81.38
315.771	83.38
316.001	88.38
316.23	88.38
316.46	95.38
316.689	77.38
316.919	71.38
317.148	81.38
317.377	88.38
317.607	108.38
317.836	95.38
318.065	89.38
318.295	81.38
318.524	71.38
318.753	79.38
318.983	74.38
319.212	91.38
319.441	104.38
319.67	85.38
319.9	70.38
320.129	77.38
320.358	89.38
320.587	77.38
320.816	79.38
321.046	83.38
321.275	86.38
321.504	100.38
321.733	91.38
321.962	81.38
322.191	84.38
322.42	74.38
322.649	86.38
322.878	84.38
323.108	97.38
323.337	91.38
323.566	85.38
323.795	80.38
324.024	92.38
324.253	87.38
324.482	97.38
324.71	89.38
324.939	76.38
325.168	97.38
325.397	93.38
325.626	92.38
325.855	88.38
326.084	100.38
326.313	79.38
326.542	95.38
326.77	79.38
326.999	88.38
327.228	74.38
327.457	87.38
327.686	90.38
327.914	87.38
328.143	98.38
328.372	72.38
328.6	95.38
328.829	80.38
329.058	91.38
329.287	86.38
329.515	72.38
329.744	87.38
329.972	87.38
330.201	82.38
330.43	87.38
330.658	90.38
330.887	93.38
331.115	84.38
331.344	77.38
331.572	86.38
331.801	86.38
332.03	88.38
332.258	91.38
332.486	83.38
332.715	88.38
332.943	78.38
333.172	83.38
333.4	77.38
333.629	92.38
333.857	96.38
334.085	73.38
334.314	94.38
334.542	86.38
334.771	96.38
334.999	91.38
335.227	89.38
335.455	83.38
335.684	100.38
335.912	83.38
336.14	82.38
336.369	98.38
336.597	105.38
336.825	89.38
337.053	84.38
337.281	83.38
337.51	93.38
337.738	77.38
337.966	80.38
338.194	90.38
338.422	91.38
338.65	95.38
338.878	85.38
339.106	86.38
339.334	93.38
339.562	77.38
339.79	83.38
340.018	87.38
340.246	97.38
340.474	80.38
340.702	82.38
340.93	80.38
341.158	98.38
341.386	90.38
341.614	79.38
341.842	86.38
342.07	97.38
342.298	77.38
342.526	85.38
342.754	90.38
342.981	72.38
343.209	89.38
343.437	95.38
343.665	94.38
343.893	94.38
344.12	89.38
344.348	93.38
344.576	91.38
344.804	80.38
345.031	77.38
345.259	86.38
345.487	91.38
345.714	73.38
345.942	77.38
346.17	70.38
346.397	86.38
346.625	82.38
346.853	92.38
347.08	62.38
347.308	74.38
347.535	67.38
347.763	86.38
347.99	89.38
348.218	82.38
348.445	79.38
348.673	94.38
348.9	96.38
349.128	97.38
349.355	80.38
349.583	93.38
349.81	87.38
350.037	78.38
350.265	93.38
350.492	84.38
350.72	85.38
350.947	93.38
351.174	77.38
351.402	84.38
351.629	81.38
351.856	91.38
352.083	85.38
352.311	79.38
352.538	90.38
352.765	80.38
352.992	79.38
353.22	91.38
353.447	95.38
353.674	90.38
353.901	82.38
354.128	93.38
354.355	89.38
354.583	80.38
354.81	92.38
355.037	73.38
355.264	84.38
355.491	85.38
355.718	86.38
355.945	80.38
356.172	79.38
356.399	93.38
356.626	88.38
356.853	98.38
357.08	85.38
357.307	86.38
357.534	89.38
357.761	73.38
357.988	73.38
358.215	86.38
358.441	94.38
358.668	86.38
358.895	80.38
359.122	87.38
359.349	84.38
359.576	85.38
359.802	102.38
360.029	73.38
360.256	94.38
360.483	93.38
360.709	91.38
360.936	89.38
361.163	86.38
361.39	93.38
361.616	81.38
361.843	76.38
362.07	84.38
362.296	81.38
362.523	67.38
362.749	104.38
362.976	88.38
363.203	84.38
363.429	92.38
363.656	81.38
363.882	91.38
364.109	103.38
364.335	92.38
364.562	79.38
364.788	83.38
365.015	85.38
365.241	79.38
365.468	88.38
365.694	82.38
365.92	92.38
366.147	74.38
366.373	83.38
366.599	79.38
366.826	98.38
367.052	87.38
367.278	92.38
367.505	85.38
367.731	71.38
367.957	86.38
368.184	84.38
368.41	93.38
368.636	94.38
368.862	92.38
369.089	100.38
369.315	91.38
369.541	90.38
369.767	89.38
369.993	95.38
370.219	95.38
370.445	79.38
370.672	85.38
370.898	90.38
371.124	89.38
371.35	90.38
371.576	97.38
371.802	85.38
372.028	76.38
372.254	96.38
372.48	86.38
372.706	76.38
372.932	93.38
373.158	98.38
373.384	86.38
373.61	87.38
373.835	87.38
374.061	100.38
374.287	89.38
374.513	91.38
374.739	90.38
374.965	89.38
375.191	92.38
375.416	92.38
375.642	100.38
375.868	94.38
376.094	88.38
376.319	92.38
376.545	100.38
376.771	93.38
376.997	83.38
377.222	93.38
377.448	82.38
377.674	79.38
377.899	88.38
378.125	96.38
378.35	100.38
378.576	78.38
378.802	86.38
379.027	90.38
379.253	81.38
379.478	89.38
379.704	84.38
379.929	94.38
380.155	96.38
380.38	89.38
380.606	88.38
380.831	91.38
381.057	89.38
381.282	85.38
381.507	95.38
381.733	88.38
381.958	87.38
382.184	97.38
382.409	80.38
382.634	89.38
382.86	99.38
383.085	94.38
383.31	99.38
383.535	92.38
383.761	97.38
383.986	92.38
384.211	93.38
384.436	85.38
384.662	94.38
384.887	101.38
385.112	86.38
385.337	106.38
385.562	84.38
385.787	76.38
386.013	107.38
386.238	103.38
386.463	90.38
386.688	82.38
386.913	87.38
387.138	92.38
387.363	99.38
387.588	98.38
387.813	88.38
388.038	107.38
388.263	90.38
388.488	103.38
388.713	97.38
388.938	90.38
389.163	84.38
389.387	90.38
389.612	94.38
389.837	90.38
390.062	86.38
390.287	88.38
390.512	92.38
390.736	97.38
390.961	82.38
391.186	103.38
391.411	80.38
391.636	76.38
391.86	87.38
392.085	90.38
392.31	87.38
392.534	95.38
392.759	105.38
392.984	101.38
393.208	93.38
393.433	91.38
393.658	92.38
393.882	92.38
394.107	99.38
394.331	94.38
394.556	88.38
394.78	104.38
395.005	73.38
395.229	90.38
395.454	88.38
395.678	100.38
395.903	106.38
396.127	108.38
396.352	93.38
396.576	104.38
396.801	115.38
397.025	83.38
397.249	102.38
397.474	94.38
397.698	92.38
397.922	96.38
398.147	93.38
398.371	93.38
398.595	101.38
398.82	96.38
399.044	95.38
399.268	84.38
399.492	105.38
399.717	103.38
399.941	89.38
400.165	92.38
400.389	101.38
400.613	97.38
400.837	99.38
401.062	93.38
401.286	109.38
401.51	101.38
401.734	84.38
401.958	99.38
402.182	100.38
402.406	94.38
402.63	94.38
402.854	93.38
403.078	91.38
403.302	81.38
403.526	97.38
403.75	101.38
403.974	89.38
404.198	96.38
404.422	102.38
404.645	99.38
404.869	99.38
405.093	108.38
405.317	104.38
405.541	104.38
405.765	103.38
405.988	98.38
406.212	122.38
406.436	97.38
406.66	103.38
406.883	113.38
407.107	108.38
407.331	109.38
407.555	100.38
407.778	91.38
408.002	103.38
408.226	107.38
408.449	103.38
408.673	114.38
408.896	105.38
409.12	100.38
409.344	104.38
409.567	105.38
409.791	108.38
410.014	84.38
410.238	105.38
410.461	107.38
410.685	109.38
410.908	93.38
411.132	99.38
411.355	111.38
411.578	106.38
411.802	99.38
412.025	99.38
412.249	97.38
412.472	106.38
412.695	97.38
412.919	121.38
413.142	89.38
413.365	111.38
413.589	100.38
413.812	115.38
414.035	97.38
414.258	87.38
414.482	113.38
414.705	97.38
414.928	101.38
415.151	96.38
415.374	92.38
415.597	107.38
415.821	104.38
416.044	101.38
416.267	102.38
416.49	104.38
416.713	96.38
416.936	115.38
417.159	109.38
417.382	96.38
417.605	107.38
417.828	103.38
418.051	106.38
418.274	106.38
418.497	104.38
418.72	107.38
418.943	100.38
419.166	104.38
419.389	95.38
419.611	103.38
419.834	110.38
420.057	122.38
420.28	110.38
420.503	107.38
420.726	103.38
420.948	95.38
421.171	118.38
421.394	112.38
421.617	116.38
421.839	96.38
422.062	111.38
422.285	103.38
422.507	110.38
422.73	117.38
422.953	104.38
423.175	110.38
423.398	95.38
423.621	115.38
423.843	101.38
424.066	115.38
424.288	96.38
424.511	111.38
424.733	122.38
424.956	118.38
425.178	102.38
425.401	118.38
425.623	102.38
425.846	112.38
426.068	104.38
426.291	112.38
426.513	87.38
426.735	109.38
426.958	111.38
427.18	99.38
427.402	98.38
427.625	114.38
427.847	96.38
428.069	103.38
428.292	102.38
428.514	105.38
428.736	112.38
428.958	103.38
429.181	95.38
429.403	101.38
429.625	106.38
429.847	107.38
430.069	120.38
430.292	114.38
430.514	116.38
430.736	107.38
430.958	97.38
431.18	114.38
431.402	118.38
431.624	103.38
431.846	95.38
432.068	94.38
432.29	79.38
432.512	104.38
432.734	109.38
432.956	109.38
433.178	104.38
433.4	112.38
433.622	110.38
433.844	108.38
434.066	113.38
434.287	112.38
434.509	102.38
434.731	103.38
434.953	97.38
435.175	107.38
435.397	104.38
435.618	108.38
435.84	92.38
436.062	94.38
436.284	102.38
436.505	109.38
436.727	123.38
436.949	109.38
437.17	100.38
437.392	108.38
437.614	108.38
437.835	111.38
438.057	100.38
438.278	92.38
438.5	119.38
438.721	106.38
438.943	117.38
439.165	111.38
439.386	99.38
439.608	106.38
439.829	108.38
440.05	101.38
440.272	118.38
440.493	119.38
440.715	110.38
440.936	126.38
441.158	127.38
441.379	109.38
441.6	121.38
441.822	108.38
442.043	123.38
442.264	104.38
442.486	119.38
442.707	104.38
442.928	107.38
443.149	115.38
443.371	101.38
443.592	107.38
443.813	118.38
444.034	115.38
444.255	115.38
444.476	112.38
444.698	96.38
444.919	106.38
445.14	238.38
445.361	163.38
445.582	121.38
445.803	115.38
446.024	104.38
446.245	108.38
446.466	118.38
446.687	108.38
446.908	133.38
447.129	115.38
447.35	119.38
447.571	113.38
447.792	124.38
448.013	117.38
448.234	116.38
448.455	104.38
448.675	110.38
448.896	106.38
449.117	117.38
449.338	101.38
449.559	116.38
449.779	105.38
450	106.38
450.221	110.38
450.442	112.38
450.662	123.38
450.883	107.38
451.104	96.38
451.324	96.38
451.545	112.38
451.766	118.38
451.986	121.38
452.207	100.38
452.428	101.38
452.648	111.38
452.869	106.38
453.089	104.38
453.31	98.38
453.53	98.38
453.751	96.38
453.971	95.38
454.192	93.38
454.412	101.38
454.633	92.38
454.853	101.38
455.073	101.38
455.294	97.38
455.514	95.38
455.734	102.38
455.955	108.38
456.175	104.38
456.395	94.38
456.616	96.38
456.836	92.38
457.056	107.38
457.276	100.38
457.497	108.38
457.717	93.38
457.937	96.38
458.157	99.38
458.377	92.38
458.598	81.38
458.818	87.38
459.038	93.38
459.258	84.38
459.478	79.38
459.698	95.38
459.918	87.38
460.138	91.38
460.358	104.38
460.578	107.38
460.798	107.38
461.018	108.38
461.238	91.38
461.458	107.38
461.678	95.38
461.898	115.38
462.118	109.38
462.338	113.38
462.558	97.38
462.777	96.38
462.997	99.38
463.217	99.38
463.437	105.38
463.657	112.38
463.876	105.38
464.096	95.38
464.316	94.38
464.536	111.38
464.755	111.38
464.975	106.38
465.195	99.38
465.414	115.38
465.634	100.38
465.854	95.38
466.073	107.38
466.293	100.38
466.512	92.38
466.732	102.38
466.951	113.38
467.171	115.38
467.391	101.38
467.61	109.38
467.829	109.38
468.049	103.38
468.268	122.38
468.488	119.38
468.707	99.38
468.927	113.38
469.146	89.38
469.365	114.38
469.585	100.38
469.804	108.38
470.023	121.38
470.243	113.38
470.462	117.38
470.681	107.38
470.901	106.38
471.12	118.38
471.339	124.38
471.558	102.38
471.777	95.38
471.997	95.38
472.216	95.38
472.435	117.38
472.654	103.38
472.873	107.38
473.092	110.38
473.311	100.38
473.53	109.38
473.749	99.38
473.968	111.38
474.187	108.38
474.406	105.38
474.625	104.38
474.844	98.38
475.063	106.38
475.282	95.38
475.501	86.38
475.72	121.38
475.939	100.38
476.158	96.38
476.377	107.38
476.596	107.38
476.814	104.38
477.033	115.38
477.252	91.38
477.471	113.38
477.69	117.38
477.908	107.38
478.127	116.38
478.346	110.38
478.564	117.38
478.783	105.38
479.002	95.38
479.22	106.38
479.439	123.38
479.658	108.38
479.876	108.38
480.095	84.38
480.313	101.38
480.532	110.38
480.751	93.38
480.969	95.38
481.188	90.38
481.406	93.38
481.624	88.38
481.843	90.38
482.061	89.38
482.28	97.38
482.498	106.38
482.717	98.38
482.935	101.38
483.153	106.38
483.372	121.38
483.59	115.38
483.808	108.38
484.027	95.38
484.245	102.38
484.463	108.38
484.681	113.38
484.9	108.38
485.118	111.38
485.336	124.38
485.554	110.38
485.772	99.38
485.99	90.38
486.209	110.38
486.427	100.38
486.645	97.38
486.863	117.38
487.081	113.38
487.299	102.38
487.517	121.38
487.735	139.38
487.953	135.38
488.171	137.38
488.389	134.38
488.607	118.38
488.825	119.38
489.043	106.38
489.261	129.38
489.479	107.38
489.696	117.38
489.914	116.38
490.132	118.38
490.35	119.38
490.568	118.38
490.786	135.38
491.003	128.38
491.221	147.38
491.439	137.38
491.657	137.38
491.874	151.38
492.092	150.38
492.31	166.38
492.527	156.38
492.745	154.38
492.963	145.38
493.18	127.38
493.398	142.38
493.615	146.38
493.833	133.38
494.05	130.38
494.268	125.38
494.485	125.38
494.703	138.38
494.92	115.38
495.138	133.38
495.355	142.38
495.573	133.38
495.79	126.38
496.008	142.38
496.225	134.38
496.442	117.38
496.66	130.38
496.877	129.38
497.094	127.38
497.312	101.38
497.529	119.38
497.746	111.38
497.963	110.38
498.181	107.38
498.398	108.38
498.615	117.38
498.832	110.38
499.049	97.38
499.267	95.38
499.484	113.38
499.701	96.38
499.918	121.38
500.135	124.38
500.352	118.38
500.569	111.38
500.786	115.38
501.003	116.38
501.22	123.38
501.437	119.38
501.654	100.38
501.871	115.38
502.088	111.38
502.305	112.38
502.522	114.38
502.739	107.38
502.956	111.38
503.172	103.38
503.389	105.38
503.606	105.38
503.823	109.38
504.04	104.38
504.256	102.38
504.473	110.38
504.69	117.38
504.907	101.38
505.123	98.38
505.34	114.38
505.557	107.38
505.773	109.38
505.99	115.38
506.207	104.38
506.423	97.38
506.64	106.38
506.856	109.38
507.073	114.38
507.289	103.38
507.506	104.38
507.722	81.38
507.939	102.38
508.155	109.38
508.372	124.38
508.588	100.38
508.805	104.38
509.021	104.38
509.238	123.38
509.454	84.38
509.67	85.38
509.887	88.38
510.103	91.38
510.319	95.38
510.536	105.38
510.752	99.38
510.968	90.38
511.184	73.38
511.401	80.38
511.617	93.38
511.833	80.38
512.049	99.38
512.265	106.38
512.481	76.38
512.698	84.38
512.914	88.38
513.13	92.38
513.346	94.38
513.562	80.38
