Data from Zn(NO3)2Standard.Agarose3%.GreenCap.LampEnergy10E.O_HRD10591_15-08-31-949.txt Node
Date: Mon Jul 22 15:08:31 EDT 2019
User: cochatt
Spectrometer: HR+D1059
Trigger mode: 1
Integration Time (sec): 1.000000E-1
Scans to average: 1
Electric dark correction enabled: true
Nonlinearity correction enabled: false
Boxcar width: 0
XAxis mode: Wavelengths
Number of Pixels in Spectrum: 2048
>>>>>Begin Spectral Data<<<<<
223.165	-17.38
223.4	-17.38
223.635	-17.38
223.869	-14.38
224.104	-17.38
224.338	-11.38
224.573	-13.38
224.808	-33.38
225.042	-1.38
225.277	15.62
225.511	1.62
225.746	-1.38
225.98	9.62
226.215	13.62
226.449	5.62
226.683	17.62
226.918	17.62
227.152	28.62
227.387	30.62
227.621	39.62
227.856	34.62
228.09	55.62
228.324	46.62
228.559	62.62
228.793	65.62
229.027	59.62
229.262	67.62
229.496	56.62
229.73	71.62
229.964	78.62
230.199	77.62
230.433	67.62
230.667	73.62
230.901	70.62
231.136	76.62
231.37	80.62
231.604	89.62
231.838	65.62
232.072	74.62
232.306	78.62
232.541	80.62
232.775	89.62
233.009	84.62
233.243	71.62
233.477	90.62
233.711	85.62
233.945	72.62
234.179	74.62
234.413	74.62
234.647	90.62
234.881	84.62
235.115	77.62
235.349	62.62
235.583	86.62
235.817	69.62
236.051	89.62
236.285	83.62
236.519	85.62
236.753	72.62
236.987	77.62
237.221	74.62
237.455	81.62
237.689	75.62
237.922	77.62
238.156	82.62
238.39	74.62
238.624	78.62
238.858	95.62
239.091	97.62
239.325	71.62
239.559	81.62
239.793	75.62
240.027	82.62
240.26	74.62
240.494	76.62
240.728	71.62
240.961	80.62
241.195	83.62
241.429	79.62
241.662	83.62
241.896	78.62
242.13	71.62
242.363	74.62
242.597	77.62
242.83	70.62
243.064	82.62
243.298	74.62
243.531	80.62
243.765	85.62
243.998	84.62
244.232	77.62
244.465	79.62
244.699	74.62
244.932	92.62
245.166	65.62
245.399	83.62
245.633	81.62
245.866	78.62
246.099	68.62
246.333	81.62
246.566	83.62
246.8	77.62
247.033	94.62
247.266	81.62
247.5	63.62
247.733	76.62
247.966	82.62
248.2	86.62
248.433	85.62
248.666	83.62
248.899	97.62
249.133	87.62
249.366	82.62
249.599	85.62
249.832	79.62
250.066	85.62
250.299	86.62
250.532	76.62
250.765	74.62
250.998	79.62
251.231	97.62
251.465	69.62
251.698	70.62
251.931	81.62
252.164	83.62
252.397	77.62
252.63	88.62
252.863	75.62
253.096	70.62
253.329	81.62
253.562	87.62
253.795	84.62
254.028	88.62
254.261	92.62
254.494	75.62
254.727	97.62
254.96	81.62
255.193	86.62
255.426	81.62
255.659	90.62
255.892	79.62
256.124	77.62
256.357	93.62
256.59	79.62
256.823	77.62
257.056	80.62
257.289	69.62
257.521	76.62
257.754	82.62
257.987	100.62
258.22	78.62
258.452	81.62
258.685	86.62
258.918	86.62
259.151	78.62
259.383	72.62
259.616	80.62
259.849	82.62
260.081	84.62
260.314	81.62
260.547	88.62
260.779	97.62
261.012	96.62
261.244	89.62
261.477	91.62
261.71	78.62
261.942	70.62
262.175	93.62
262.407	96.62
262.64	87.62
262.872	84.62
263.105	83.62
263.337	76.62
263.57	74.62
263.802	76.62
264.035	77.62
264.267	68.62
264.499	77.62
264.732	99.62
264.964	87.62
265.197	88.62
265.429	85.62
265.661	66.62
265.894	74.62
266.126	71.62
266.358	91.62
266.591	93.62
266.823	75.62
267.055	74.62
267.287	81.62
267.52	83.62
267.752	89.62
267.984	102.62
268.216	82.62
268.448	87.62
268.681	84.62
268.913	95.62
269.145	90.62
269.377	83.62
269.609	78.62
269.841	72.62
270.073	75.62
270.306	79.62
270.538	79.62
270.77	78.62
271.002	94.62
271.234	77.62
271.466	84.62
271.698	92.62
271.93	78.62
272.162	81.62
272.394	87.62
272.626	80.62
272.858	91.62
273.09	90.62
273.322	79.62
273.553	83.62
273.785	103.62
274.017	78.62
274.249	80.62
274.481	89.62
274.713	84.62
274.945	77.62
275.176	90.62
275.408	81.62
275.64	90.62
275.872	87.62
276.104	72.62
276.335	71.62
276.567	78.62
276.799	86.62
277.031	85.62
277.262	87.62
277.494	79.62
277.726	86.62
277.957	69.62
278.189	80.62
278.421	90.62
278.652	84.62
278.884	84.62
279.115	83.62
279.347	84.62
279.579	87.62
279.81	85.62
280.042	82.62
280.273	77.62
280.505	85.62
280.736	80.62
280.968	85.62
281.199	92.62
281.431	88.62
281.662	88.62
281.894	92.62
282.125	94.62
282.356	81.62
282.588	75.62
282.819	76.62
283.051	84.62
283.282	86.62
283.513	81.62
283.745	83.62
283.976	78.62
284.207	85.62
284.439	63.62
284.67	87.62
284.901	88.62
285.132	79.62
285.364	65.62
285.595	96.62
285.826	71.62
286.057	73.62
286.288	84.62
286.52	80.62
286.751	75.62
286.982	88.62
287.213	86.62
287.444	80.62
287.675	97.62
287.906	97.62
288.138	74.62
288.369	75.62
288.6	82.62
288.831	90.62
289.062	82.62
289.293	83.62
289.524	78.62
289.755	87.62
289.986	84.62
290.217	90.62
290.448	85.62
290.679	79.62
290.91	88.62
291.141	77.62
291.371	91.62
291.602	102.62
291.833	87.62
292.064	95.62
292.295	66.62
292.526	81.62
292.757	93.62
292.987	91.62
293.218	95.62
293.449	80.62
293.68	86.62
293.91	98.62
294.141	93.62
294.372	81.62
294.603	86.62
294.833	85.62
295.064	92.62
295.295	79.62
295.525	96.62
295.756	81.62
295.987	85.62
296.217	95.62
296.448	79.62
296.679	77.62
296.909	90.62
297.14	72.62
297.37	98.62
297.601	97.62
297.831	83.62
298.062	86.62
298.292	97.62
298.523	84.62
298.753	83.62
298.984	83.62
299.214	83.62
299.445	90.62
299.675	84.62
299.905	85.62
300.136	94.62
300.366	87.62
300.597	67.62
300.827	100.62
301.057	76.62
301.288	87.62
301.518	79.62
301.748	84.62
301.979	77.62
302.209	93.62
302.439	78.62
302.669	87.62
302.9	79.62
303.13	96.62
303.36	85.62
303.59	95.62
303.82	93.62
304.051	79.62
304.281	101.62
304.511	77.62
304.741	84.62
304.971	89.62
305.201	70.62
305.431	92.62
305.661	85.62
305.891	81.62
306.121	93.62
306.352	102.62
306.582	88.62
306.812	86.62
307.042	76.62
307.272	75.62
307.502	86.62
307.731	94.62
307.961	78.62
308.191	102.62
308.421	84.62
308.651	85.62
308.881	73.62
309.111	83.62
309.341	79.62
309.571	82.62
309.8	85.62
310.03	91.62
310.26	98.62
310.49	85.62
310.72	79.62
310.949	84.62
311.179	90.62
311.409	99.62
311.639	84.62
311.868	84.62
312.098	83.62
312.328	83.62
312.557	77.62
312.787	86.62
313.017	77.62
313.246	87.62
313.476	94.62
313.706	86.62
313.935	92.62
314.165	77.62
314.394	90.62
314.624	100.62
314.853	91.62
315.083	89.62
315.312	88.62
315.542	99.62
315.771	97.62
316.001	92.62
316.23	89.62
316.46	76.62
316.689	91.62
316.919	88.62
317.148	77.62
317.377	87.62
317.607	97.62
317.836	87.62
318.065	89.62
318.295	92.62
318.524	84.62
318.753	89.62
318.983	71.62
319.212	88.62
319.441	99.62
319.67	84.62
319.9	96.62
320.129	70.62
320.358	92.62
320.587	89.62
320.816	89.62
321.046	90.62
321.275	91.62
321.504	80.62
321.733	80.62
321.962	88.62
322.191	94.62
322.42	92.62
322.649	79.62
322.878	90.62
323.108	94.62
323.337	83.62
323.566	84.62
323.795	94.62
324.024	87.62
324.253	113.62
324.482	85.62
324.71	78.62
324.939	87.62
325.168	77.62
325.397	84.62
325.626	83.62
325.855	89.62
326.084	89.62
326.313	96.62
326.542	83.62
326.77	79.62
326.999	82.62
327.228	90.62
327.457	84.62
327.686	89.62
327.914	79.62
328.143	88.62
328.372	69.62
328.6	84.62
328.829	82.62
329.058	80.62
329.287	84.62
329.515	88.62
329.744	84.62
329.972	86.62
330.201	96.62
330.43	97.62
330.658	101.62
330.887	97.62
331.115	92.62
331.344	88.62
331.572	78.62
331.801	81.62
332.03	78.62
332.258	77.62
332.486	84.62
332.715	97.62
332.943	82.62
333.172	84.62
333.4	84.62
333.629	93.62
333.857	94.62
334.085	93.62
334.314	93.62
334.542	85.62
334.771	81.62
334.999	95.62
335.227	89.62
335.455	89.62
335.684	94.62
335.912	100.62
336.14	92.62
336.369	91.62
336.597	88.62
336.825	98.62
337.053	93.62
337.281	80.62
337.51	81.62
337.738	83.62
337.966	88.62
338.194	89.62
338.422	80.62
338.65	87.62
338.878	84.62
339.106	93.62
339.334	90.62
339.562	94.62
339.79	82.62
340.018	94.62
340.246	86.62
340.474	73.62
340.702	78.62
340.93	97.62
341.158	83.62
341.386	102.62
341.614	84.62
341.842	98.62
342.07	86.62
342.298	91.62
342.526	72.62
342.754	97.62
342.981	93.62
343.209	97.62
343.437	70.62
343.665	77.62
343.893	89.62
344.12	77.62
344.348	87.62
344.576	73.62
344.804	91.62
345.031	83.62
345.259	74.62
345.487	90.62
345.714	76.62
345.942	95.62
346.17	79.62
346.397	88.62
346.625	85.62
346.853	95.62
347.08	83.62
347.308	76.62
347.535	87.62
347.763	98.62
347.99	94.62
348.218	84.62
348.445	94.62
348.673	81.62
348.9	84.62
349.128	95.62
349.355	91.62
349.583	77.62
349.81	81.62
350.037	81.62
350.265	81.62
350.492	85.62
350.72	73.62
350.947	85.62
351.174	79.62
351.402	81.62
351.629	84.62
351.856	83.62
352.083	89.62
352.311	103.62
352.538	87.62
352.765	89.62
352.992	74.62
353.22	83.62
353.447	82.62
353.674	93.62
353.901	84.62
354.128	93.62
354.355	88.62
354.583	95.62
354.81	99.62
355.037	99.62
355.264	90.62
355.491	85.62
355.718	83.62
355.945	98.62
356.172	79.62
356.399	85.62
356.626	81.62
356.853	79.62
357.08	87.62
357.307	77.62
357.534	83.62
357.761	86.62
357.988	85.62
358.215	86.62
358.441	86.62
358.668	99.62
358.895	91.62
359.122	84.62
359.349	81.62
359.576	94.62
359.802	84.62
360.029	79.62
360.256	92.62
360.483	87.62
360.709	83.62
360.936	83.62
361.163	90.62
361.39	82.62
361.616	82.62
361.843	84.62
362.07	87.62
362.296	87.62
362.523	94.62
362.749	77.62
362.976	98.62
363.203	107.62
363.429	86.62
363.656	87.62
363.882	78.62
364.109	74.62
364.335	75.62
364.562	84.62
364.788	80.62
365.015	82.62
365.241	70.62
365.468	92.62
365.694	83.62
365.92	84.62
366.147	76.62
366.373	78.62
366.599	84.62
366.826	95.62
367.052	91.62
367.278	89.62
367.505	81.62
367.731	82.62
367.957	83.62
368.184	93.62
368.41	86.62
368.636	86.62
368.862	98.62
369.089	83.62
369.315	78.62
369.541	74.62
369.767	83.62
369.993	85.62
370.219	80.62
370.445	94.62
370.672	89.62
370.898	86.62
371.124	89.62
371.35	86.62
371.576	88.62
371.802	75.62
372.028	89.62
372.254	96.62
372.48	104.62
372.706	102.62
372.932	87.62
373.158	83.62
373.384	91.62
373.61	93.62
373.835	65.62
374.061	89.62
374.287	102.62
374.513	88.62
374.739	94.62
374.965	74.62
375.191	70.62
375.416	68.62
375.642	85.62
375.868	83.62
376.094	98.62
376.319	84.62
376.545	82.62
376.771	81.62
376.997	83.62
377.222	80.62
377.448	83.62
377.674	73.62
377.899	95.62
378.125	101.62
378.35	81.62
378.576	72.62
378.802	100.62
379.027	88.62
379.253	81.62
379.478	93.62
379.704	85.62
379.929	90.62
380.155	70.62
380.38	89.62
380.606	78.62
380.831	85.62
381.057	97.62
381.282	98.62
381.507	91.62
381.733	90.62
381.958	85.62
382.184	90.62
382.409	88.62
382.634	89.62
382.86	85.62
383.085	74.62
383.31	92.62
383.535	91.62
383.761	98.62
383.986	95.62
384.211	93.62
384.436	97.62
384.662	84.62
384.887	99.62
385.112	102.62
385.337	98.62
385.562	91.62
385.787	110.62
386.013	93.62
386.238	87.62
386.463	86.62
386.688	86.62
386.913	108.62
387.138	97.62
387.363	93.62
387.588	95.62
387.813	86.62
388.038	92.62
388.263	78.62
388.488	83.62
388.713	80.62
388.938	90.62
389.163	91.62
389.387	101.62
389.612	87.62
389.837	78.62
390.062	88.62
390.287	92.62
390.512	92.62
390.736	83.62
390.961	76.62
391.186	91.62
391.411	89.62
391.636	87.62
391.86	94.62
392.085	88.62
392.31	75.62
392.534	93.62
392.759	90.62
392.984	99.62
393.208	95.62
393.433	85.62
393.658	74.62
393.882	91.62
394.107	89.62
394.331	79.62
394.556	101.62
394.78	97.62
395.005	107.62
395.229	85.62
395.454	71.62
395.678	89.62
395.903	75.62
396.127	100.62
396.352	89.62
396.576	83.62
396.801	96.62
397.025	104.62
397.249	100.62
397.474	93.62
397.698	101.62
397.922	81.62
398.147	94.62
398.371	79.62
398.595	113.62
398.82	94.62
399.044	99.62
399.268	103.62
399.492	94.62
399.717	91.62
399.941	97.62
400.165	75.62
400.389	103.62
400.613	83.62
400.837	97.62
401.062	101.62
401.286	102.62
401.51	103.62
401.734	102.62
401.958	102.62
402.182	94.62
402.406	93.62
402.63	88.62
402.854	101.62
403.078	101.62
403.302	86.62
403.526	93.62
403.75	79.62
403.974	100.62
404.198	94.62
404.422	97.62
404.645	113.62
404.869	101.62
405.093	102.62
405.317	105.62
405.541	93.62
405.765	93.62
405.988	87.62
406.212	97.62
406.436	98.62
406.66	95.62
406.883	123.62
407.107	86.62
407.331	101.62
407.555	76.62
407.778	105.62
408.002	97.62
408.226	92.62
408.449	107.62
408.673	103.62
408.896	97.62
409.12	95.62
409.344	94.62
409.567	97.62
409.791	103.62
410.014	107.62
410.238	104.62
410.461	113.62
410.685	99.62
410.908	95.62
411.132	107.62
411.355	100.62
411.578	98.62
411.802	94.62
412.025	103.62
412.249	109.62
412.472	101.62
412.695	98.62
412.919	96.62
413.142	94.62
413.365	94.62
413.589	92.62
413.812	94.62
414.035	98.62
414.258	92.62
414.482	100.62
414.705	102.62
414.928	91.62
415.151	103.62
415.374	109.62
415.597	95.62
415.821	99.62
416.044	109.62
416.267	85.62
416.49	104.62
416.713	101.62
416.936	107.62
417.159	103.62
417.382	90.62
417.605	93.62
417.828	105.62
418.051	106.62
418.274	108.62
418.497	112.62
418.72	105.62
418.943	106.62
419.166	87.62
419.389	118.62
419.611	109.62
419.834	98.62
420.057	111.62
420.28	107.62
420.503	109.62
420.726	96.62
420.948	110.62
421.171	106.62
421.394	98.62
421.617	102.62
421.839	106.62
422.062	121.62
422.285	107.62
422.507	98.62
422.73	110.62
422.953	104.62
423.175	101.62
423.398	104.62
423.621	98.62
423.843	88.62
424.066	97.62
424.288	104.62
424.511	106.62
424.733	113.62
424.956	103.62
425.178	119.62
425.401	103.62
425.623	118.62
425.846	103.62
426.068	110.62
426.291	108.62
426.513	106.62
426.735	98.62
426.958	105.62
427.18	104.62
427.402	103.62
427.625	109.62
427.847	107.62
428.069	105.62
428.292	105.62
428.514	111.62
428.736	109.62
428.958	100.62
429.181	94.62
429.403	101.62
429.625	89.62
429.847	91.62
430.069	99.62
430.292	109.62
430.514	88.62
430.736	125.62
430.958	104.62
431.18	95.62
431.402	119.62
431.624	104.62
431.846	93.62
432.068	103.62
432.29	77.62
432.512	106.62
432.734	114.62
432.956	111.62
433.178	111.62
433.4	111.62
433.622	96.62
433.844	92.62
434.066	104.62
434.287	98.62
434.509	76.62
434.731	91.62
434.953	92.62
435.175	97.62
435.397	95.62
435.618	99.62
435.84	103.62
436.062	108.62
436.284	106.62
436.505	103.62
436.727	117.62
436.949	97.62
437.17	99.62
437.392	124.62
437.614	105.62
437.835	92.62
438.057	100.62
438.278	95.62
438.5	99.62
438.721	97.62
438.943	102.62
439.165	113.62
439.386	109.62
439.608	113.62
439.829	115.62
440.05	124.62
440.272	117.62
440.493	123.62
440.715	108.62
440.936	102.62
441.158	109.62
441.379	124.62
441.6	121.62
441.822	109.62
442.043	107.62
442.264	120.62
442.486	105.62
442.707	100.62
442.928	94.62
443.149	103.62
443.371	113.62
443.592	95.62
443.813	108.62
444.034	119.62
444.255	104.62
444.476	107.62
444.698	105.62
444.919	121.62
445.14	233.62
445.361	179.62
445.582	117.62
445.803	121.62
446.024	99.62
446.245	117.62
446.466	122.62
446.687	102.62
446.908	125.62
447.129	107.62
447.35	116.62
447.571	121.62
447.792	122.62
448.013	95.62
448.234	123.62
448.455	106.62
448.675	94.62
448.896	100.62
449.117	100.62
449.338	110.62
449.559	123.62
449.779	101.62
450	121.62
450.221	112.62
450.442	110.62
450.662	108.62
450.883	110.62
451.104	111.62
451.324	89.62
451.545	102.62
451.766	115.62
451.986	96.62
452.207	105.62
452.428	118.62
452.648	113.62
452.869	105.62
453.089	105.62
453.31	105.62
453.53	93.62
453.751	88.62
453.971	98.62
454.192	90.62
454.412	99.62
454.633	89.62
454.853	108.62
455.073	89.62
455.294	117.62
455.514	116.62
455.734	100.62
455.955	97.62
456.175	104.62
456.395	100.62
456.616	98.62
456.836	97.62
457.056	93.62
457.276	98.62
457.497	94.62
457.717	100.62
457.937	105.62
458.157	101.62
458.377	90.62
458.598	95.62
458.818	98.62
459.038	94.62
459.258	78.62
459.478	102.62
459.698	92.62
459.918	105.62
460.138	89.62
460.358	105.62
460.578	104.62
460.798	92.62
461.018	94.62
461.238	102.62
461.458	97.62
461.678	97.62
461.898	117.62
462.118	96.62
462.338	104.62
462.558	93.62
462.777	97.62
462.997	90.62
463.217	96.62
463.437	94.62
463.657	80.62
463.876	101.62
464.096	102.62
464.316	96.62
464.536	97.62
464.755	94.62
464.975	98.62
465.195	83.62
465.414	107.62
465.634	101.62
465.854	89.62
466.073	95.62
466.293	94.62
466.512	108.62
466.732	125.62
466.951	111.62
467.171	115.62
467.391	113.62
467.61	109.62
467.829	113.62
468.049	105.62
468.268	110.62
468.488	106.62
468.707	110.62
468.927	113.62
469.146	109.62
469.365	102.62
469.585	105.62
469.804	106.62
470.023	114.62
470.243	102.62
470.462	119.62
470.681	119.62
470.901	121.62
471.12	112.62
471.339	102.62
471.558	121.62
471.777	113.62
471.997	114.62
472.216	109.62
472.435	97.62
472.654	89.62
472.873	90.62
473.092	123.62
473.311	107.62
473.53	99.62
473.749	103.62
473.968	109.62
474.187	95.62
474.406	93.62
474.625	97.62
474.844	105.62
475.063	110.62
475.282	112.62
475.501	92.62
475.72	110.62
475.939	92.62
476.158	103.62
476.377	107.62
476.596	97.62
476.814	90.62
477.033	99.62
477.252	94.62
477.471	103.62
477.69	114.62
477.908	114.62
478.127	100.62
478.346	91.62
478.564	103.62
478.783	98.62
479.002	123.62
479.22	115.62
479.439	111.62
479.658	104.62
479.876	98.62
480.095	88.62
480.313	102.62
480.532	108.62
480.751	98.62
480.969	89.62
481.188	98.62
481.406	89.62
481.624	84.62
481.843	81.62
482.061	88.62
482.28	95.62
482.498	107.62
482.717	96.62
482.935	91.62
483.153	117.62
483.372	103.62
483.59	110.62
483.808	105.62
484.027	111.62
484.245	113.62
484.463	103.62
484.681	123.62
484.9	106.62
485.118	120.62
485.336	109.62
485.554	105.62
485.772	93.62
485.99	102.62
486.209	94.62
486.427	98.62
486.645	108.62
486.863	119.62
487.081	123.62
487.299	114.62
487.517	121.62
487.735	117.62
487.953	131.62
488.171	110.62
488.389	117.62
488.607	119.62
488.825	102.62
489.043	103.62
489.261	90.62
489.479	121.62
489.696	120.62
489.914	131.62
490.132	111.62
490.35	121.62
490.568	106.62
490.786	113.62
491.003	119.62
491.221	134.62
491.439	135.62
491.657	126.62
491.874	137.62
492.092	141.62
492.31	159.62
492.527	151.62
492.745	149.62
492.963	144.62
493.18	135.62
493.398	127.62
493.615	124.62
493.833	122.62
494.05	121.62
494.268	116.62
494.485	130.62
494.703	127.62
494.92	135.62
495.138	122.62
495.355	119.62
495.573	130.62
495.79	128.62
496.008	115.62
496.225	127.62
496.442	110.62
496.66	100.62
496.877	113.62
497.094	131.62
497.312	120.62
497.529	121.62
497.746	121.62
497.963	105.62
498.181	120.62
498.398	96.62
498.615	90.62
498.832	106.62
499.049	102.62
499.267	109.62
499.484	102.62
499.701	100.62
499.918	113.62
500.135	114.62
500.352	126.62
500.569	117.62
500.786	106.62
501.003	109.62
501.22	118.62
501.437	101.62
501.654	111.62
501.871	110.62
502.088	124.62
502.305	118.62
502.522	113.62
502.739	123.62
502.956	110.62
503.172	114.62
503.389	115.62
503.606	89.62
503.823	92.62
504.04	107.62
504.256	108.62
504.473	101.62
504.69	91.62
504.907	102.62
505.123	102.62
505.34	101.62
505.557	119.62
505.773	120.62
505.99	111.62
506.207	111.62
506.423	114.62
506.64	99.62
506.856	92.62
507.073	106.62
507.289	103.62
507.506	108.62
507.722	106.62
507.939	111.62
508.155	124.62
508.372	95.62
508.588	100.62
508.805	99.62
509.021	95.62
509.238	98.62
509.454	89.62
509.67	98.62
509.887	102.62
510.103	94.62
510.319	94.62
510.536	101.62
510.752	79.62
510.968	91.62
511.184	77.62
511.401	91.62
511.617	101.62
511.833	85.62
512.049	94.62
512.265	110.62
512.481	91.62
512.698	91.62
512.914	80.62
513.13	78.62
513.346	84.62
513.562	87.62
513.778	96.62
513.994	82.62
514.21	100.62
