Data from Zn(NO3)2Standard.Agarose3%.GreenCap.LampEnergy5.5.E.O_HRD10591_15-03-25-768.txt Node
Date: Mon Jul 22 15:03:25 EDT 2019
User: cochatt
Spectrometer: HR+D1059
Trigger mode: 1
Integration Time (sec): 1.000000E-1
Scans to average: 1
Electric dark correction enabled: true
Nonlinearity correction enabled: false
Boxcar width: 0
XAxis mode: Wavelengths
Number of Pixels in Spectrum: 2048
>>>>>Begin Spectral Data<<<<<
223.165	2.56
223.4	2.56
223.635	2.56
223.869	-22.44
224.104	-28.44
224.338	-29.44
224.573	-29.44
224.808	-19.44
225.042	-12.44
225.277	5.56
225.511	-3.44
225.746	4.56
225.98	4.56
226.215	11.56
226.449	22.56
226.683	32.56
226.918	29.56
227.152	31.56
227.387	30.56
227.621	30.56
227.856	44.56
228.09	55.56
228.324	46.56
228.559	53.56
228.793	52.56
229.027	56.56
229.262	68.56
229.496	77.56
229.73	76.56
229.964	70.56
230.199	75.56
230.433	89.56
230.667	70.56
230.901	70.56
231.136	87.56
231.37	85.56
231.604	84.56
231.838	89.56
232.072	79.56
232.306	95.56
232.541	75.56
232.775	75.56
233.009	78.56
233.243	93.56
233.477	87.56
233.711	78.56
233.945	84.56
234.179	69.56
234.413	85.56
234.647	82.56
234.881	88.56
235.115	77.56
235.349	67.56
235.583	84.56
235.817	88.56
236.051	85.56
236.285	90.56
236.519	83.56
236.753	80.56
236.987	79.56
237.221	76.56
237.455	70.56
237.689	76.56
237.922	75.56
238.156	72.56
238.39	75.56
238.624	72.56
238.858	87.56
239.091	73.56
239.325	77.56
239.559	71.56
239.793	81.56
240.027	80.56
240.26	93.56
240.494	95.56
240.728	90.56
240.961	90.56
241.195	72.56
241.429	77.56
241.662	73.56
241.896	78.56
242.13	88.56
242.363	87.56
242.597	78.56
242.83	84.56
243.064	84.56
243.298	87.56
243.531	80.56
243.765	70.56
243.998	102.56
244.232	80.56
244.465	83.56
244.699	74.56
244.932	69.56
245.166	91.56
245.399	72.56
245.633	97.56
245.866	76.56
246.099	78.56
246.333	96.56
246.566	77.56
246.8	95.56
247.033	80.56
247.266	77.56
247.5	87.56
247.733	80.56
247.966	79.56
248.2	85.56
248.433	84.56
248.666	67.56
248.899	86.56
249.133	78.56
249.366	72.56
249.599	75.56
249.832	71.56
250.066	74.56
250.299	97.56
250.532	91.56
250.765	78.56
250.998	84.56
251.231	79.56
251.465	91.56
251.698	71.56
251.931	79.56
252.164	70.56
252.397	75.56
252.63	84.56
252.863	51.56
253.096	68.56
253.329	74.56
253.562	78.56
253.795	79.56
254.028	92.56
254.261	72.56
254.494	85.56
254.727	86.56
254.96	89.56
255.193	89.56
255.426	76.56
255.659	66.56
255.892	94.56
256.124	91.56
256.357	93.56
256.59	88.56
256.823	89.56
257.056	82.56
257.289	83.56
257.521	73.56
257.754	75.56
257.987	77.56
258.22	90.56
258.452	90.56
258.685	98.56
258.918	86.56
259.151	86.56
259.383	85.56
259.616	85.56
259.849	85.56
260.081	87.56
260.314	83.56
260.547	75.56
260.779	81.56
261.012	76.56
261.244	80.56
261.477	77.56
261.71	81.56
261.942	82.56
262.175	89.56
262.407	83.56
262.64	80.56
262.872	84.56
263.105	90.56
263.337	93.56
263.57	89.56
263.802	88.56
264.035	86.56
264.267	84.56
264.499	79.56
264.732	84.56
264.964	93.56
265.197	83.56
265.429	75.56
265.661	104.56
265.894	87.56
266.126	69.56
266.358	88.56
266.591	91.56
266.823	67.56
267.055	90.56
267.287	87.56
267.52	70.56
267.752	79.56
267.984	90.56
268.216	83.56
268.448	90.56
268.681	85.56
268.913	91.56
269.145	92.56
269.377	87.56
269.609	94.56
269.841	87.56
270.073	84.56
270.306	94.56
270.538	85.56
270.77	83.56
271.002	90.56
271.234	95.56
271.466	90.56
271.698	78.56
271.93	89.56
272.162	89.56
272.394	87.56
272.626	74.56
272.858	84.56
273.09	87.56
273.322	92.56
273.553	80.56
273.785	77.56
274.017	85.56
274.249	77.56
274.481	75.56
274.713	74.56
274.945	78.56
275.176	96.56
275.408	81.56
275.64	77.56
275.872	83.56
276.104	89.56
276.335	92.56
276.567	96.56
276.799	76.56
277.031	89.56
277.262	100.56
277.494	87.56
277.726	85.56
277.957	87.56
278.189	88.56
278.421	88.56
278.652	86.56
278.884	95.56
279.115	91.56
279.347	80.56
279.579	82.56
279.81	84.56
280.042	88.56
280.273	94.56
280.505	94.56
280.736	96.56
280.968	84.56
281.199	80.56
281.431	86.56
281.662	93.56
281.894	86.56
282.125	109.56
282.356	94.56
282.588	90.56
282.819	85.56
283.051	89.56
283.282	87.56
283.513	88.56
283.745	71.56
283.976	72.56
284.207	92.56
284.439	102.56
284.67	75.56
284.901	91.56
285.132	75.56
285.364	79.56
285.595	87.56
285.826	76.56
286.057	102.56
286.288	76.56
286.52	88.56
286.751	92.56
286.982	94.56
287.213	79.56
287.444	86.56
287.675	88.56
287.906	71.56
288.138	85.56
288.369	71.56
288.6	80.56
288.831	71.56
289.062	90.56
289.293	96.56
289.524	80.56
289.755	82.56
289.986	98.56
290.217	80.56
290.448	90.56
290.679	92.56
290.91	80.56
291.141	90.56
291.371	100.56
291.602	91.56
291.833	81.56
292.064	101.56
292.295	91.56
292.526	86.56
292.757	76.56
292.987	83.56
293.218	80.56
293.449	79.56
293.68	91.56
293.91	89.56
294.141	83.56
294.372	79.56
294.603	84.56
294.833	80.56
295.064	77.56
295.295	91.56
295.525	90.56
295.756	90.56
295.987	88.56
296.217	87.56
296.448	91.56
296.679	97.56
296.909	98.56
297.14	79.56
297.37	86.56
297.601	89.56
297.831	98.56
298.062	84.56
298.292	81.56
298.523	74.56
298.753	70.56
298.984	90.56
299.214	107.56
299.445	88.56
299.675	78.56
299.905	82.56
300.136	74.56
300.366	89.56
300.597	87.56
300.827	94.56
301.057	93.56
301.288	92.56
301.518	93.56
301.748	84.56
301.979	76.56
302.209	93.56
302.439	80.56
302.669	97.56
302.9	83.56
303.13	74.56
303.36	80.56
303.59	90.56
303.82	80.56
304.051	80.56
304.281	82.56
304.511	79.56
304.741	90.56
304.971	83.56
305.201	86.56
305.431	95.56
305.661	78.56
305.891	70.56
306.121	73.56
306.352	79.56
306.582	83.56
306.812	77.56
307.042	86.56
307.272	66.56
307.502	86.56
307.731	90.56
307.961	100.56
308.191	82.56
308.421	94.56
308.651	90.56
308.881	88.56
309.111	77.56
309.341	89.56
309.571	80.56
309.8	79.56
310.03	84.56
310.26	92.56
310.49	93.56
310.72	75.56
310.949	88.56
311.179	90.56
311.409	75.56
311.639	96.56
311.868	98.56
312.098	78.56
312.328	90.56
312.557	85.56
312.787	93.56
313.017	74.56
313.246	75.56
313.476	84.56
313.706	80.56
313.935	79.56
314.165	80.56
314.394	78.56
314.624	87.56
314.853	92.56
315.083	75.56
315.312	87.56
315.542	96.56
315.771	86.56
316.001	103.56
316.23	76.56
316.46	85.56
316.689	85.56
316.919	88.56
317.148	79.56
317.377	88.56
317.607	88.56
317.836	95.56
318.065	90.56
318.295	94.56
318.524	67.56
318.753	92.56
318.983	87.56
319.212	85.56
319.441	92.56
319.67	92.56
319.9	72.56
320.129	90.56
320.358	81.56
320.587	86.56
320.816	82.56
321.046	92.56
321.275	87.56
321.504	91.56
321.733	86.56
321.962	78.56
322.191	87.56
322.42	93.56
322.649	73.56
322.878	87.56
323.108	101.56
323.337	85.56
323.566	83.56
323.795	86.56
324.024	89.56
324.253	77.56
324.482	88.56
324.71	86.56
324.939	84.56
325.168	83.56
325.397	80.56
325.626	86.56
325.855	81.56
326.084	83.56
326.313	95.56
326.542	78.56
326.77	93.56
326.999	91.56
327.228	81.56
327.457	96.56
327.686	89.56
327.914	92.56
328.143	78.56
328.372	85.56
328.6	95.56
328.829	80.56
329.058	86.56
329.287	90.56
329.515	89.56
329.744	80.56
329.972	88.56
330.201	93.56
330.43	86.56
330.658	88.56
330.887	89.56
331.115	79.56
331.344	74.56
331.572	101.56
331.801	80.56
332.03	71.56
332.258	89.56
332.486	95.56
332.715	94.56
332.943	92.56
333.172	96.56
333.4	87.56
333.629	80.56
333.857	102.56
334.085	86.56
334.314	94.56
334.542	91.56
334.771	81.56
334.999	79.56
335.227	91.56
335.455	84.56
335.684	86.56
335.912	92.56
336.14	85.56
336.369	84.56
336.597	84.56
336.825	79.56
337.053	85.56
337.281	96.56
337.51	87.56
337.738	79.56
337.966	79.56
338.194	93.56
338.422	94.56
338.65	81.56
338.878	81.56
339.106	90.56
339.334	81.56
339.562	98.56
339.79	98.56
340.018	92.56
340.246	94.56
340.474	90.56
340.702	93.56
340.93	92.56
341.158	80.56
341.386	87.56
341.614	81.56
341.842	96.56
342.07	79.56
342.298	94.56
342.526	86.56
342.754	85.56
342.981	85.56
343.209	86.56
343.437	92.56
343.665	92.56
343.893	84.56
344.12	93.56
344.348	88.56
344.576	89.56
344.804	86.56
345.031	89.56
345.259	80.56
345.487	76.56
345.714	99.56
345.942	94.56
346.17	70.56
346.397	79.56
346.625	86.56
346.853	89.56
347.08	91.56
347.308	80.56
347.535	81.56
347.763	99.56
347.99	99.56
348.218	94.56
348.445	89.56
348.673	89.56
348.9	83.56
349.128	79.56
349.355	84.56
349.583	82.56
349.81	94.56
350.037	82.56
350.265	91.56
350.492	82.56
350.72	89.56
350.947	87.56
351.174	71.56
351.402	94.56
351.629	85.56
351.856	93.56
352.083	76.56
352.311	89.56
352.538	76.56
352.765	83.56
352.992	89.56
353.22	88.56
353.447	80.56
353.674	91.56
353.901	85.56
354.128	86.56
354.355	72.56
354.583	90.56
354.81	81.56
355.037	89.56
355.264	87.56
355.491	86.56
355.718	86.56
355.945	92.56
356.172	85.56
356.399	85.56
356.626	94.56
356.853	99.56
357.08	70.56
357.307	74.56
357.534	90.56
357.761	74.56
357.988	91.56
358.215	93.56
358.441	86.56
358.668	79.56
358.895	98.56
359.122	87.56
359.349	83.56
359.576	79.56
359.802	75.56
360.029	72.56
360.256	72.56
360.483	76.56
360.709	82.56
360.936	103.56
361.163	76.56
361.39	89.56
361.616	85.56
361.843	74.56
362.07	89.56
362.296	93.56
362.523	64.56
362.749	91.56
362.976	73.56
363.203	95.56
363.429	100.56
363.656	74.56
363.882	86.56
364.109	82.56
364.335	85.56
364.562	91.56
364.788	89.56
365.015	69.56
365.241	93.56
365.468	92.56
365.694	86.56
365.92	73.56
366.147	80.56
366.373	85.56
366.599	100.56
366.826	76.56
367.052	94.56
367.278	88.56
367.505	82.56
367.731	87.56
367.957	98.56
368.184	88.56
368.41	77.56
368.636	84.56
368.862	80.56
369.089	68.56
369.315	82.56
369.541	81.56
369.767	84.56
369.993	84.56
370.219	80.56
370.445	80.56
370.672	78.56
370.898	86.56
371.124	87.56
371.35	79.56
371.576	84.56
371.802	84.56
372.028	88.56
372.254	87.56
372.48	78.56
372.706	79.56
372.932	101.56
373.158	85.56
373.384	85.56
373.61	83.56
373.835	86.56
374.061	94.56
374.287	79.56
374.513	87.56
374.739	90.56
374.965	75.56
375.191	91.56
375.416	76.56
375.642	100.56
375.868	91.56
376.094	102.56
376.319	88.56
376.545	89.56
376.771	74.56
376.997	84.56
377.222	77.56
377.448	77.56
377.674	79.56
377.899	79.56
378.125	101.56
378.35	69.56
378.576	87.56
378.802	78.56
379.027	87.56
379.253	75.56
379.478	90.56
379.704	72.56
379.929	89.56
380.155	82.56
380.38	87.56
380.606	98.56
380.831	99.56
381.057	92.56
381.282	101.56
381.507	73.56
381.733	89.56
381.958	83.56
382.184	75.56
382.409	82.56
382.634	74.56
382.86	87.56
383.085	85.56
383.31	97.56
383.535	86.56
383.761	95.56
383.986	95.56
384.211	83.56
384.436	79.56
384.662	86.56
384.887	90.56
385.112	96.56
385.337	92.56
385.562	88.56
385.787	89.56
386.013	89.56
386.238	88.56
386.463	96.56
386.688	85.56
386.913	78.56
387.138	69.56
387.363	94.56
387.588	92.56
387.813	97.56
388.038	98.56
388.263	97.56
388.488	96.56
388.713	97.56
388.938	84.56
389.163	82.56
389.387	78.56
389.612	90.56
389.837	75.56
390.062	79.56
390.287	80.56
390.512	83.56
390.736	82.56
390.961	92.56
391.186	78.56
391.411	86.56
391.636	92.56
391.86	85.56
392.085	83.56
392.31	97.56
392.534	83.56
392.759	89.56
392.984	86.56
393.208	92.56
393.433	80.56
393.658	84.56
393.882	90.56
394.107	84.56
394.331	83.56
394.556	82.56
394.78	72.56
395.005	88.56
395.229	80.56
395.454	81.56
395.678	92.56
395.903	83.56
396.127	94.56
396.352	96.56
396.576	86.56
396.801	82.56
397.025	79.56
397.249	71.56
397.474	93.56
397.698	83.56
397.922	101.56
398.147	90.56
398.371	79.56
398.595	101.56
398.82	91.56
399.044	80.56
399.268	74.56
399.492	73.56
399.717	88.56
399.941	92.56
400.165	89.56
400.389	69.56
400.613	89.56
400.837	92.56
401.062	93.56
401.286	89.56
401.51	99.56
401.734	81.56
401.958	104.56
402.182	74.56
402.406	85.56
402.63	89.56
402.854	80.56
403.078	90.56
403.302	80.56
403.526	99.56
403.75	86.56
403.974	92.56
404.198	81.56
404.422	98.56
404.645	86.56
404.869	78.56
405.093	78.56
405.317	78.56
405.541	90.56
405.765	86.56
405.988	99.56
406.212	84.56
406.436	88.56
406.66	91.56
406.883	80.56
407.107	85.56
407.331	79.56
407.555	75.56
407.778	80.56
408.002	84.56
408.226	78.56
408.449	82.56
408.673	71.56
408.896	78.56
409.12	90.56
409.344	99.56
409.567	86.56
409.791	93.56
410.014	91.56
410.238	86.56
410.461	102.56
410.685	77.56
410.908	82.56
411.132	72.56
411.355	72.56
411.578	85.56
411.802	84.56
412.025	91.56
412.249	98.56
412.472	95.56
412.695	88.56
412.919	90.56
413.142	80.56
413.365	82.56
413.589	76.56
413.812	87.56
414.035	91.56
414.258	100.56
414.482	90.56
414.705	84.56
414.928	88.56
415.151	89.56
415.374	91.56
415.597	92.56
415.821	91.56
416.044	76.56
416.267	101.56
416.49	99.56
416.713	89.56
416.936	90.56
417.159	102.56
417.382	94.56
417.605	72.56
417.828	95.56
418.051	95.56
418.274	88.56
418.497	91.56
418.72	95.56
418.943	90.56
419.166	93.56
419.389	84.56
419.611	95.56
419.834	76.56
420.057	100.56
420.28	89.56
420.503	82.56
420.726	100.56
420.948	97.56
421.171	89.56
421.394	77.56
421.617	106.56
421.839	104.56
422.062	86.56
422.285	86.56
422.507	76.56
422.73	85.56
422.953	79.56
423.175	100.56
423.398	99.56
423.621	104.56
423.843	87.56
424.066	83.56
424.288	81.56
424.511	107.56
424.733	78.56
424.956	82.56
425.178	85.56
425.401	93.56
425.623	97.56
425.846	88.56
426.068	92.56
426.291	96.56
426.513	79.56
426.735	91.56
426.958	85.56
427.18	83.56
427.402	75.56
427.625	95.56
427.847	81.56
428.069	102.56
428.292	95.56
428.514	84.56
428.736	101.56
428.958	70.56
429.181	96.56
429.403	92.56
429.625	88.56
429.847	90.56
430.069	93.56
430.292	80.56
430.514	83.56
430.736	87.56
430.958	91.56
431.18	83.56
431.402	76.56
431.624	90.56
431.846	78.56
432.068	94.56
432.29	89.56
432.512	91.56
432.734	98.56
432.956	95.56
433.178	86.56
433.4	85.56
433.622	77.56
433.844	104.56
434.066	90.56
434.287	99.56
434.509	89.56
434.731	75.56
434.953	92.56
435.175	79.56
435.397	82.56
435.618	77.56
435.84	70.56
436.062	93.56
436.284	91.56
436.505	94.56
436.727	100.56
436.949	91.56
437.17	82.56
437.392	82.56
437.614	87.56
437.835	85.56
438.057	88.56
438.278	88.56
438.5	90.56
438.721	92.56
438.943	99.56
439.165	98.56
439.386	92.56
439.608	96.56
439.829	84.56
440.05	102.56
440.272	99.56
440.493	94.56
440.715	108.56
440.936	93.56
441.158	89.56
441.379	103.56
441.6	81.56
441.822	88.56
442.043	89.56
442.264	88.56
442.486	94.56
442.707	90.56
442.928	91.56
443.149	93.56
443.371	94.56
443.592	84.56
443.813	95.56
444.034	88.56
444.255	88.56
444.476	94.56
444.698	92.56
444.919	96.56
445.14	228.56
445.361	143.56
445.582	94.56
445.803	102.56
446.024	86.56
446.245	91.56
446.466	86.56
446.687	86.56
446.908	92.56
447.129	116.56
447.35	102.56
447.571	90.56
447.792	67.56
448.013	89.56
448.234	94.56
448.455	89.56
448.675	103.56
448.896	92.56
449.117	95.56
449.338	98.56
449.559	96.56
449.779	107.56
450	90.56
450.221	87.56
450.442	87.56
450.662	106.56
450.883	75.56
451.104	92.56
451.324	93.56
451.545	89.56
451.766	88.56
451.986	97.56
452.207	103.56
452.428	87.56
452.648	84.56
452.869	80.56
453.089	91.56
453.31	97.56
453.53	84.56
453.751	85.56
453.971	78.56
454.192	86.56
454.412	88.56
454.633	73.56
454.853	84.56
455.073	97.56
455.294	101.56
455.514	108.56
455.734	90.56
455.955	92.56
456.175	88.56
456.395	90.56
456.616	91.56
456.836	92.56
457.056	90.56
457.276	80.56
457.497	76.56
457.717	83.56
457.937	84.56
458.157	88.56
458.377	79.56
458.598	86.56
458.818	78.56
459.038	90.56
459.258	79.56
459.478	96.56
459.698	88.56
459.918	93.56
460.138	84.56
460.358	96.56
460.578	78.56
460.798	85.56
461.018	87.56
461.238	90.56
461.458	89.56
461.678	87.56
461.898	80.56
462.118	85.56
462.338	86.56
462.558	82.56
462.777	83.56
462.997	92.56
463.217	91.56
463.437	91.56
463.657	84.56
463.876	91.56
464.096	86.56
464.316	89.56
464.536	92.56
464.755	90.56
464.975	90.56
465.195	75.56
465.414	85.56
465.634	92.56
465.854	111.56
466.073	88.56
466.293	87.56
466.512	84.56
466.732	87.56
466.951	87.56
467.171	101.56
467.391	98.56
467.61	82.56
467.829	81.56
468.049	89.56
468.268	97.56
468.488	95.56
468.707	90.56
468.927	89.56
469.146	79.56
469.365	80.56
469.585	105.56
469.804	107.56
470.023	99.56
470.243	81.56
470.462	88.56
470.681	105.56
470.901	110.56
471.12	87.56
471.339	113.56
471.558	87.56
471.777	88.56
471.997	84.56
472.216	90.56
472.435	85.56
472.654	93.56
472.873	93.56
473.092	95.56
473.311	101.56
473.53	107.56
473.749	92.56
473.968	97.56
474.187	94.56
474.406	90.56
474.625	92.56
474.844	101.56
475.063	98.56
475.282	93.56
475.501	86.56
475.72	99.56
475.939	101.56
476.158	89.56
476.377	84.56
476.596	84.56
476.814	91.56
477.033	92.56
477.252	96.56
477.471	79.56
477.69	88.56
477.908	99.56
478.127	87.56
478.346	89.56
478.564	87.56
478.783	86.56
479.002	100.56
479.22	100.56
479.439	99.56
479.658	87.56
479.876	84.56
480.095	80.56
480.313	80.56
480.532	91.56
480.751	91.56
480.969	90.56
481.188	82.56
481.406	87.56
481.624	86.56
481.843	84.56
482.061	88.56
482.28	93.56
482.498	90.56
482.717	97.56
482.935	95.56
483.153	86.56
483.372	96.56
483.59	97.56
483.808	91.56
484.027	97.56
484.245	103.56
484.463	89.56
484.681	102.56
484.9	96.56
485.118	94.56
485.336	106.56
485.554	77.56
485.772	88.56
485.99	86.56
486.209	82.56
486.427	108.56
486.645	104.56
486.863	95.56
487.081	98.56
487.299	99.56
487.517	95.56
487.735	103.56
487.953	100.56
488.171	99.56
488.389	90.56
488.607	86.56
488.825	93.56
489.043	89.56
489.261	105.56
489.479	84.56
489.696	93.56
489.914	86.56
490.132	99.56
490.35	82.56
490.568	107.56
490.786	107.56
491.003	88.56
491.221	100.56
491.439	95.56
491.657	100.56
491.874	109.56
492.092	97.56
492.31	104.56
492.527	111.56
492.745	115.56
492.963	109.56
493.18	109.56
493.398	99.56
493.615	99.56
493.833	98.56
494.05	94.56
494.268	104.56
494.485	95.56
494.703	100.56
494.92	96.56
495.138	108.56
495.355	90.56
495.573	99.56
495.79	95.56
496.008	94.56
496.225	91.56
496.442	107.56
496.66	100.56
496.877	92.56
497.094	105.56
497.312	102.56
497.529	102.56
497.746	97.56
497.963	97.56
498.181	86.56
498.398	102.56
498.615	84.56
498.832	95.56
499.049	79.56
499.267	90.56
499.484	100.56
499.701	94.56
499.918	103.56
500.135	104.56
500.352	93.56
500.569	89.56
500.786	104.56
501.003	102.56
501.22	90.56
501.437	84.56
501.654	91.56
501.871	97.56
502.088	82.56
502.305	106.56
502.522	100.56
502.739	90.56
502.956	106.56
503.172	83.56
503.389	107.56
503.606	83.56
503.823	89.56
504.04	99.56
504.256	89.56
504.473	81.56
504.69	93.56
504.907	94.56
505.123	95.56
505.34	98.56
505.557	85.56
505.773	89.56
505.99	94.56
506.207	88.56
506.423	88.56
506.64	87.56
506.856	83.56
507.073	87.56
507.289	99.56
507.506	89.56
507.722	86.56
507.939	98.56
508.155	92.56
508.372	86.56
508.588	96.56
508.805	105.56
509.021	97.56
509.238	88.56
509.454	85.56
509.67	76.56
509.887	72.56
510.103	96.56
510.319	99.56
510.536	77.56
510.752	83.56
510.968	79.56
511.184	92.56
511.401	87.56
511.617	79.56
511.833	82.56
512.049	90.56
512.265	86.56
512.481	95.56
512.698	92.56
512.914	76.56
513.13	95.56
513.346	81.56
513.562	82.56
513.778	90.56
513.994	99.56
514.21	105.56
514.426	74.56
514.642	83.56
514.858	85.56
515.074	95.56
515.29	89.56
515.506	87.56
515.721	87.56
515.937	83.56
516.153	88.56
516.369	75.56
516.585	101.56
516.801	84.56
517.016	87.56
517.232	82.56
517.448	78.56
517.664	98.56
517.879	80.56
518.095	77.56
