Data from Zn(NO3)2Standard.Agarose3%.GreenCap.LampEnergy10E.O_HRD10591_15-06-08-942.txt Node
Date: Mon Jul 22 15:06:08 EDT 2019
User: cochatt
Spectrometer: HR+D1059
Trigger mode: 1
Integration Time (sec): 1.000000E-1
Scans to average: 1
Electric dark correction enabled: true
Nonlinearity correction enabled: false
Boxcar width: 0
XAxis mode: Wavelengths
Number of Pixels in Spectrum: 2048
>>>>>Begin Spectral Data<<<<<
223.165	-16.56
223.4	-16.56
223.635	-16.56
223.869	-14.56
224.104	-30.56
224.338	-13.56
224.573	-18.56
224.808	-18.56
225.042	-8.56
225.277	-0.56
225.511	-2.56
225.746	9.44
225.98	-1.56
226.215	18.44
226.449	20.44
226.683	14.44
226.918	32.44
227.152	30.44
227.387	28.44
227.621	47.44
227.856	44.44
228.09	47.44
228.324	30.44
228.559	67.44
228.793	51.44
229.027	55.44
229.262	52.44
229.496	58.44
229.73	55.44
229.964	77.44
230.199	68.44
230.433	79.44
230.667	75.44
230.901	72.44
231.136	82.44
231.37	81.44
231.604	78.44
231.838	75.44
232.072	75.44
232.306	89.44
232.541	74.44
232.775	71.44
233.009	72.44
233.243	95.44
233.477	88.44
233.711	73.44
233.945	71.44
234.179	85.44
234.413	87.44
234.647	89.44
234.881	85.44
235.115	91.44
235.349	98.44
235.583	82.44
235.817	86.44
236.051	88.44
236.285	73.44
236.519	91.44
236.753	79.44
236.987	70.44
237.221	75.44
237.455	67.44
237.689	73.44
237.922	87.44
238.156	67.44
238.39	83.44
238.624	65.44
238.858	76.44
239.091	62.44
239.325	83.44
239.559	78.44
239.793	75.44
240.027	78.44
240.26	76.44
240.494	91.44
240.728	65.44
240.961	73.44
241.195	78.44
241.429	84.44
241.662	79.44
241.896	75.44
242.13	72.44
242.363	78.44
242.597	93.44
242.83	70.44
243.064	86.44
243.298	74.44
243.531	77.44
243.765	78.44
243.998	84.44
244.232	87.44
244.465	73.44
244.699	86.44
244.932	75.44
245.166	94.44
245.399	63.44
245.633	90.44
245.866	76.44
246.099	91.44
246.333	78.44
246.566	89.44
246.8	77.44
247.033	77.44
247.266	83.44
247.5	76.44
247.733	77.44
247.966	77.44
248.2	85.44
248.433	86.44
248.666	93.44
248.899	70.44
249.133	83.44
249.366	87.44
249.599	77.44
249.832	74.44
250.066	88.44
250.299	98.44
250.532	77.44
250.765	75.44
250.998	72.44
251.231	82.44
251.465	79.44
251.698	78.44
251.931	68.44
252.164	80.44
252.397	75.44
252.63	70.44
252.863	66.44
253.096	73.44
253.329	83.44
253.562	74.44
253.795	86.44
254.028	100.44
254.261	77.44
254.494	75.44
254.727	69.44
254.96	71.44
255.193	83.44
255.426	87.44
255.659	76.44
255.892	87.44
256.124	91.44
256.357	78.44
256.59	78.44
256.823	82.44
257.056	61.44
257.289	75.44
257.521	76.44
257.754	91.44
257.987	79.44
258.22	77.44
258.452	78.44
258.685	76.44
258.918	80.44
259.151	73.44
259.383	86.44
259.616	73.44
259.849	85.44
260.081	78.44
260.314	91.44
260.547	70.44
260.779	92.44
261.012	90.44
261.244	71.44
261.477	92.44
261.71	78.44
261.942	89.44
262.175	80.44
262.407	94.44
262.64	86.44
262.872	89.44
263.105	77.44
263.337	78.44
263.57	78.44
263.802	91.44
264.035	90.44
264.267	82.44
264.499	75.44
264.732	81.44
264.964	86.44
265.197	81.44
265.429	87.44
265.661	92.44
265.894	82.44
266.126	89.44
266.358	90.44
266.591	82.44
266.823	76.44
267.055	85.44
267.287	85.44
267.52	90.44
267.752	80.44
267.984	91.44
268.216	85.44
268.448	85.44
268.681	74.44
268.913	92.44
269.145	79.44
269.377	80.44
269.609	85.44
269.841	97.44
270.073	92.44
270.306	83.44
270.538	78.44
270.77	91.44
271.002	75.44
271.234	76.44
271.466	84.44
271.698	83.44
271.93	88.44
272.162	97.44
272.394	90.44
272.626	67.44
272.858	98.44
273.09	87.44
273.322	79.44
273.553	72.44
273.785	89.44
274.017	71.44
274.249	78.44
274.481	92.44
274.713	93.44
274.945	82.44
275.176	78.44
275.408	84.44
275.64	84.44
275.872	83.44
276.104	77.44
276.335	62.44
276.567	74.44
276.799	85.44
277.031	89.44
277.262	80.44
277.494	78.44
277.726	68.44
277.957	79.44
278.189	78.44
278.421	79.44
278.652	85.44
278.884	81.44
279.115	78.44
279.347	89.44
279.579	91.44
279.81	88.44
280.042	77.44
280.273	73.44
280.505	90.44
280.736	86.44
280.968	81.44
281.199	89.44
281.431	90.44
281.662	88.44
281.894	87.44
282.125	82.44
282.356	94.44
282.588	78.44
282.819	88.44
283.051	82.44
283.282	84.44
283.513	76.44
283.745	63.44
283.976	69.44
284.207	66.44
284.439	81.44
284.67	93.44
284.901	86.44
285.132	80.44
285.364	76.44
285.595	72.44
285.826	88.44
286.057	85.44
286.288	87.44
286.52	83.44
286.751	79.44
286.982	89.44
287.213	79.44
287.444	85.44
287.675	82.44
287.906	83.44
288.138	82.44
288.369	75.44
288.6	87.44
288.831	100.44
289.062	91.44
289.293	75.44
289.524	92.44
289.755	83.44
289.986	74.44
290.217	85.44
290.448	93.44
290.679	84.44
290.91	90.44
291.141	71.44
291.371	87.44
291.602	92.44
291.833	78.44
292.064	94.44
292.295	81.44
292.526	78.44
292.757	96.44
292.987	73.44
293.218	83.44
293.449	88.44
293.68	90.44
293.91	81.44
294.141	90.44
294.372	80.44
294.603	83.44
294.833	88.44
295.064	90.44
295.295	86.44
295.525	84.44
295.756	93.44
295.987	89.44
296.217	75.44
296.448	87.44
296.679	94.44
296.909	77.44
297.14	81.44
297.37	93.44
297.601	79.44
297.831	83.44
298.062	98.44
298.292	87.44
298.523	79.44
298.753	89.44
298.984	81.44
299.214	83.44
299.445	78.44
299.675	85.44
299.905	85.44
300.136	87.44
300.366	87.44
300.597	89.44
300.827	101.44
301.057	94.44
301.288	84.44
301.518	87.44
301.748	87.44
301.979	81.44
302.209	94.44
302.439	79.44
302.669	92.44
302.9	93.44
303.13	73.44
303.36	91.44
303.59	89.44
303.82	101.44
304.051	90.44
304.281	84.44
304.511	89.44
304.741	78.44
304.971	81.44
305.201	92.44
305.431	93.44
305.661	86.44
305.891	89.44
306.121	83.44
306.352	94.44
306.582	93.44
306.812	87.44
307.042	94.44
307.272	92.44
307.502	82.44
307.731	81.44
307.961	97.44
308.191	88.44
308.421	103.44
308.651	85.44
308.881	70.44
309.111	78.44
309.341	82.44
309.571	84.44
309.8	83.44
310.03	76.44
310.26	73.44
310.49	88.44
310.72	81.44
310.949	91.44
311.179	100.44
311.409	89.44
311.639	90.44
311.868	82.44
312.098	83.44
312.328	86.44
312.557	73.44
312.787	67.44
313.017	86.44
313.246	108.44
313.476	96.44
313.706	96.44
313.935	82.44
314.165	94.44
314.394	84.44
314.624	90.44
314.853	72.44
315.083	90.44
315.312	86.44
315.542	83.44
315.771	80.44
316.001	86.44
316.23	87.44
316.46	84.44
316.689	95.44
316.919	75.44
317.148	83.44
317.377	102.44
317.607	85.44
317.836	82.44
318.065	95.44
318.295	88.44
318.524	75.44
318.753	79.44
318.983	91.44
319.212	91.44
319.441	90.44
319.67	86.44
319.9	88.44
320.129	86.44
320.358	87.44
320.587	86.44
320.816	80.44
321.046	89.44
321.275	85.44
321.504	76.44
321.733	76.44
321.962	89.44
322.191	90.44
322.42	93.44
322.649	89.44
322.878	93.44
323.108	69.44
323.337	84.44
323.566	79.44
323.795	87.44
324.024	88.44
324.253	95.44
324.482	95.44
324.71	75.44
324.939	89.44
325.168	93.44
325.397	90.44
325.626	73.44
325.855	81.44
326.084	78.44
326.313	89.44
326.542	98.44
326.77	92.44
326.999	86.44
327.228	78.44
327.457	94.44
327.686	77.44
327.914	85.44
328.143	86.44
328.372	96.44
328.6	97.44
328.829	76.44
329.058	76.44
329.287	82.44
329.515	80.44
329.744	100.44
329.972	91.44
330.201	84.44
330.43	88.44
330.658	87.44
330.887	87.44
331.115	89.44
331.344	83.44
331.572	89.44
331.801	92.44
332.03	92.44
332.258	94.44
332.486	91.44
332.715	93.44
332.943	78.44
333.172	83.44
333.4	86.44
333.629	81.44
333.857	91.44
334.085	92.44
334.314	93.44
334.542	96.44
334.771	82.44
334.999	89.44
335.227	89.44
335.455	84.44
335.684	86.44
335.912	82.44
336.14	85.44
336.369	82.44
336.597	85.44
336.825	95.44
337.053	86.44
337.281	82.44
337.51	88.44
337.738	92.44
337.966	85.44
338.194	83.44
338.422	82.44
338.65	96.44
338.878	83.44
339.106	69.44
339.334	72.44
339.562	83.44
339.79	75.44
340.018	90.44
340.246	84.44
340.474	80.44
340.702	101.44
340.93	94.44
341.158	76.44
341.386	81.44
341.614	89.44
341.842	85.44
342.07	78.44
342.298	76.44
342.526	90.44
342.754	85.44
342.981	83.44
343.209	76.44
343.437	94.44
343.665	74.44
343.893	85.44
344.12	82.44
344.348	87.44
344.576	85.44
344.804	81.44
345.031	74.44
345.259	90.44
345.487	86.44
345.714	84.44
345.942	77.44
346.17	92.44
346.397	95.44
346.625	102.44
346.853	90.44
347.08	74.44
347.308	90.44
347.535	66.44
347.763	91.44
347.99	94.44
348.218	91.44
348.445	119.44
348.673	87.44
348.9	84.44
349.128	86.44
349.355	84.44
349.583	84.44
349.81	93.44
350.037	90.44
350.265	78.44
350.492	77.44
350.72	80.44
350.947	73.44
351.174	86.44
351.402	75.44
351.629	82.44
351.856	72.44
352.083	94.44
352.311	88.44
352.538	78.44
352.765	85.44
352.992	78.44
353.22	84.44
353.447	72.44
353.674	96.44
353.901	76.44
354.128	80.44
354.355	86.44
354.583	89.44
354.81	90.44
355.037	95.44
355.264	88.44
355.491	83.44
355.718	74.44
355.945	94.44
356.172	87.44
356.399	86.44
356.626	92.44
356.853	88.44
357.08	72.44
357.307	80.44
357.534	100.44
357.761	81.44
357.988	80.44
358.215	84.44
358.441	90.44
358.668	90.44
358.895	92.44
359.122	79.44
359.349	78.44
359.576	86.44
359.802	88.44
360.029	84.44
360.256	84.44
360.483	90.44
360.709	88.44
360.936	90.44
361.163	88.44
361.39	96.44
361.616	89.44
361.843	73.44
362.07	91.44
362.296	75.44
362.523	84.44
362.749	85.44
362.976	93.44
363.203	70.44
363.429	78.44
363.656	91.44
363.882	74.44
364.109	86.44
364.335	81.44
364.562	92.44
364.788	92.44
365.015	85.44
365.241	87.44
365.468	83.44
365.694	78.44
365.92	84.44
366.147	91.44
366.373	73.44
366.599	90.44
366.826	90.44
367.052	87.44
367.278	76.44
367.505	81.44
367.731	84.44
367.957	81.44
368.184	98.44
368.41	78.44
368.636	77.44
368.862	87.44
369.089	89.44
369.315	79.44
369.541	99.44
369.767	83.44
369.993	104.44
370.219	77.44
370.445	93.44
370.672	85.44
370.898	81.44
371.124	91.44
371.35	94.44
371.576	93.44
371.802	91.44
372.028	95.44
372.254	101.44
372.48	88.44
372.706	81.44
372.932	91.44
373.158	83.44
373.384	68.44
373.61	84.44
373.835	86.44
374.061	89.44
374.287	89.44
374.513	78.44
374.739	81.44
374.965	74.44
375.191	89.44
375.416	80.44
375.642	89.44
375.868	91.44
376.094	82.44
376.319	89.44
376.545	89.44
376.771	88.44
376.997	87.44
377.222	102.44
377.448	85.44
377.674	88.44
377.899	82.44
378.125	84.44
378.35	90.44
378.576	91.44
378.802	86.44
379.027	94.44
379.253	92.44
379.478	108.44
379.704	78.44
379.929	77.44
380.155	86.44
380.38	79.44
380.606	85.44
380.831	83.44
381.057	91.44
381.282	94.44
381.507	82.44
381.733	102.44
381.958	83.44
382.184	75.44
382.409	96.44
382.634	93.44
382.86	102.44
383.085	95.44
383.31	77.44
383.535	81.44
383.761	93.44
383.986	89.44
384.211	87.44
384.436	78.44
384.662	92.44
384.887	89.44
385.112	82.44
385.337	78.44
385.562	102.44
385.787	105.44
386.013	88.44
386.238	97.44
386.463	93.44
386.688	84.44
386.913	81.44
387.138	89.44
387.363	79.44
387.588	95.44
387.813	90.44
388.038	104.44
388.263	94.44
388.488	93.44
388.713	102.44
388.938	105.44
389.163	89.44
389.387	97.44
389.612	83.44
389.837	77.44
390.062	83.44
390.287	94.44
390.512	94.44
390.736	82.44
390.961	103.44
391.186	90.44
391.411	99.44
391.636	103.44
391.86	82.44
392.085	103.44
392.31	84.44
392.534	85.44
392.759	90.44
392.984	96.44
393.208	88.44
393.433	96.44
393.658	100.44
393.882	87.44
394.107	91.44
394.331	98.44
394.556	93.44
394.78	102.44
395.005	105.44
395.229	103.44
395.454	88.44
395.678	77.44
395.903	107.44
396.127	96.44
396.352	87.44
396.576	80.44
396.801	82.44
397.025	105.44
397.249	85.44
397.474	100.44
397.698	99.44
397.922	102.44
398.147	85.44
398.371	89.44
398.595	100.44
398.82	103.44
399.044	91.44
399.268	80.44
399.492	110.44
399.717	86.44
399.941	89.44
400.165	94.44
400.389	100.44
400.613	94.44
400.837	93.44
401.062	100.44
401.286	78.44
401.51	87.44
401.734	93.44
401.958	91.44
402.182	82.44
402.406	93.44
402.63	96.44
402.854	80.44
403.078	96.44
403.302	91.44
403.526	90.44
403.75	88.44
403.974	99.44
404.198	104.44
404.422	97.44
404.645	89.44
404.869	102.44
405.093	110.44
405.317	100.44
405.541	99.44
405.765	97.44
405.988	97.44
406.212	102.44
406.436	102.44
406.66	100.44
406.883	104.44
407.107	95.44
407.331	90.44
407.555	108.44
407.778	90.44
408.002	90.44
408.226	102.44
408.449	94.44
408.673	97.44
408.896	94.44
409.12	90.44
409.344	104.44
409.567	78.44
409.791	113.44
410.014	93.44
410.238	100.44
410.461	97.44
410.685	97.44
410.908	107.44
411.132	97.44
411.355	97.44
411.578	100.44
411.802	105.44
412.025	101.44
412.249	103.44
412.472	89.44
412.695	99.44
412.919	89.44
413.142	95.44
413.365	104.44
413.589	101.44
413.812	103.44
414.035	94.44
414.258	98.44
414.482	91.44
414.705	91.44
414.928	94.44
415.151	107.44
415.374	101.44
415.597	104.44
415.821	102.44
416.044	113.44
416.267	107.44
416.49	106.44
416.713	99.44
416.936	98.44
417.159	102.44
417.382	103.44
417.605	94.44
417.828	109.44
418.051	99.44
418.274	93.44
418.497	102.44
418.72	109.44
418.943	103.44
419.166	99.44
419.389	92.44
419.611	101.44
419.834	102.44
420.057	105.44
420.28	97.44
420.503	121.44
420.726	98.44
420.948	106.44
421.171	91.44
421.394	97.44
421.617	90.44
421.839	109.44
422.062	107.44
422.285	117.44
422.507	115.44
422.73	105.44
422.953	95.44
423.175	101.44
423.398	99.44
423.621	100.44
423.843	95.44
424.066	111.44
424.288	119.44
424.511	117.44
424.733	97.44
424.956	119.44
425.178	98.44
425.401	102.44
425.623	107.44
425.846	101.44
426.068	105.44
426.291	85.44
426.513	110.44
426.735	118.44
426.958	101.44
427.18	109.44
427.402	117.44
427.625	106.44
427.847	104.44
428.069	99.44
428.292	110.44
428.514	102.44
428.736	97.44
428.958	102.44
429.181	91.44
429.403	104.44
429.625	115.44
429.847	99.44
430.069	103.44
430.292	92.44
430.514	113.44
430.736	99.44
430.958	111.44
431.18	102.44
431.402	110.44
431.624	97.44
431.846	100.44
432.068	86.44
432.29	90.44
432.512	98.44
432.734	99.44
432.956	99.44
433.178	105.44
433.4	100.44
433.622	111.44
433.844	118.44
434.066	103.44
434.287	92.44
434.509	76.44
434.731	102.44
434.953	93.44
435.175	110.44
435.397	99.44
435.618	100.44
435.84	100.44
436.062	102.44
436.284	106.44
436.505	101.44
436.727	100.44
436.949	94.44
437.17	105.44
437.392	108.44
437.614	102.44
437.835	86.44
438.057	93.44
438.278	91.44
438.5	103.44
438.721	112.44
438.943	107.44
439.165	115.44
439.386	119.44
439.608	110.44
439.829	118.44
440.05	117.44
440.272	105.44
440.493	92.44
440.715	113.44
440.936	120.44
441.158	108.44
441.379	111.44
441.6	122.44
441.822	105.44
442.043	125.44
442.264	97.44
442.486	100.44
442.707	101.44
442.928	93.44
443.149	105.44
443.371	118.44
443.592	114.44
443.813	115.44
444.034	115.44
444.255	107.44
444.476	97.44
444.698	107.44
444.919	103.44
445.14	227.44
445.361	165.44
445.582	113.44
445.803	114.44
446.024	126.44
446.245	105.44
446.466	126.44
446.687	125.44
446.908	126.44
447.129	122.44
447.35	115.44
447.571	99.44
447.792	109.44
448.013	113.44
448.234	115.44
448.455	98.44
448.675	120.44
448.896	122.44
449.117	107.44
449.338	107.44
449.559	101.44
449.779	96.44
450	98.44
450.221	105.44
450.442	118.44
450.662	109.44
450.883	108.44
451.104	103.44
451.324	94.44
451.545	94.44
451.766	102.44
451.986	114.44
452.207	107.44
452.428	102.44
452.648	100.44
452.869	108.44
453.089	104.44
453.31	95.44
453.53	90.44
453.751	107.44
453.971	117.44
454.192	89.44
454.412	103.44
454.633	100.44
454.853	103.44
455.073	97.44
455.294	110.44
455.514	111.44
455.734	95.44
455.955	105.44
456.175	89.44
456.395	98.44
456.616	99.44
456.836	95.44
457.056	107.44
457.276	95.44
457.497	90.44
457.717	84.44
457.937	83.44
458.157	91.44
458.377	83.44
458.598	81.44
458.818	79.44
459.038	99.44
459.258	97.44
459.478	97.44
459.698	89.44
459.918	91.44
460.138	91.44
460.358	85.44
460.578	94.44
460.798	83.44
461.018	78.44
461.238	100.44
461.458	102.44
461.678	85.44
461.898	101.44
462.118	108.44
462.338	96.44
462.558	100.44
462.777	88.44
462.997	91.44
463.217	87.44
463.437	92.44
463.657	86.44
463.876	98.44
464.096	88.44
464.316	86.44
464.536	85.44
464.755	90.44
464.975	106.44
465.195	97.44
465.414	103.44
465.634	99.44
465.854	105.44
466.073	96.44
466.293	108.44
466.512	101.44
466.732	101.44
466.951	109.44
467.171	104.44
467.391	104.44
467.61	96.44
467.829	118.44
468.049	106.44
468.268	92.44
468.488	108.44
468.707	104.44
468.927	124.44
469.146	110.44
469.365	115.44
469.585	118.44
469.804	107.44
470.023	107.44
470.243	109.44
470.462	101.44
470.681	110.44
470.901	117.44
471.12	119.44
471.339	106.44
471.558	95.44
471.777	110.44
471.997	110.44
472.216	92.44
472.435	102.44
472.654	94.44
472.873	95.44
473.092	97.44
473.311	115.44
473.53	108.44
473.749	108.44
473.968	109.44
474.187	86.44
474.406	99.44
474.625	104.44
474.844	113.44
475.063	112.44
475.282	103.44
475.501	98.44
475.72	126.44
475.939	89.44
476.158	117.44
476.377	106.44
476.596	90.44
476.814	104.44
477.033	109.44
477.252	89.44
477.471	90.44
477.69	106.44
477.908	106.44
478.127	105.44
478.346	93.44
478.564	126.44
478.783	117.44
479.002	119.44
479.22	108.44
479.439	110.44
479.658	88.44
479.876	93.44
480.095	105.44
480.313	91.44
480.532	99.44
480.751	100.44
480.969	97.44
481.188	87.44
481.406	83.44
481.624	86.44
481.843	93.44
482.061	77.44
482.28	94.44
482.498	102.44
482.717	96.44
482.935	101.44
483.153	103.44
483.372	117.44
483.59	130.44
483.808	118.44
484.027	112.44
484.245	98.44
484.463	102.44
484.681	117.44
484.9	115.44
485.118	110.44
485.336	115.44
485.554	95.44
485.772	105.44
485.99	90.44
486.209	90.44
486.427	90.44
486.645	118.44
486.863	115.44
487.081	118.44
487.299	106.44
487.517	117.44
487.735	121.44
487.953	127.44
488.171	124.44
488.389	128.44
488.607	121.44
488.825	119.44
489.043	114.44
489.261	114.44
489.479	109.44
489.696	115.44
489.914	126.44
490.132	121.44
490.35	121.44
490.568	124.44
490.786	137.44
491.003	142.44
491.221	141.44
491.439	131.44
491.657	147.44
491.874	139.44
492.092	147.44
492.31	168.44
492.527	151.44
492.745	144.44
492.963	145.44
493.18	135.44
493.398	124.44
493.615	129.44
493.833	106.44
494.05	135.44
494.268	126.44
494.485	110.44
494.703	130.44
494.92	124.44
495.138	119.44
495.355	132.44
495.573	121.44
495.79	105.44
496.008	119.44
496.225	120.44
496.442	125.44
496.66	147.44
496.877	118.44
497.094	123.44
497.312	122.44
497.529	141.44
497.746	114.44
497.963	108.44
498.181	102.44
498.398	102.44
498.615	111.44
498.832	114.44
499.049	106.44
499.267	90.44
499.484	97.44
499.701	103.44
499.918	109.44
500.135	124.44
500.352	124.44
500.569	115.44
500.786	117.44
501.003	116.44
501.22	103.44
501.437	120.44
501.654	103.44
501.871	102.44
502.088	93.44
502.305	107.44
502.522	91.44
502.739	112.44
502.956	100.44
503.172	104.44
503.389	97.44
503.606	99.44
503.823	105.44
504.04	100.44
504.256	93.44
504.473	105.44
504.69	101.44
504.907	93.44
505.123	108.44
505.34	116.44
505.557	113.44
505.773	94.44
505.99	109.44
506.207	100.44
506.423	97.44
506.64	101.44
506.856	109.44
507.073	102.44
507.289	107.44
507.506	108.44
507.722	105.44
507.939	104.44
508.155	101.44
508.372	99.44
508.588	95.44
508.805	81.44
509.021	101.44
509.238	102.44
509.454	85.44
509.67	105.44
509.887	93.44
510.103	87.44
510.319	91.44
510.536	101.44
510.752	94.44
510.968	75.44
511.184	83.44
511.401	97.44
511.617	95.44
511.833	96.44
512.049	103.44
512.265	87.44
512.481	103.44
512.698	79.44
512.914	88.44
513.13	104.44
513.346	75.44
513.562	88.44
513.778	72.44
513.994	84.44
514.21	94.44
