Data from Zn(NO3)2Standard.Agarose3%.GreenCap.LampEnergy5.5.E.O_HRD10591_15-00-13-768.txt Node
Date: Mon Jul 22 15:00:13 EDT 2019
User: cochatt
Spectrometer: HR+D1059
Trigger mode: 1
Integration Time (sec): 1.000000E-1
Scans to average: 1
Electric dark correction enabled: true
Nonlinearity correction enabled: false
Boxcar width: 0
XAxis mode: Wavelengths
Number of Pixels in Spectrum: 2048
>>>>>Begin Spectral Data<<<<<
223.165	-11.88
223.4	-11.88
223.635	-11.88
223.869	-19.88
224.104	-15.88
224.338	-0.88
224.573	-25.88
224.808	-20.88
225.042	-14.88
225.277	-8.88
225.511	-8.88
225.746	-2.88
225.98	1.12
226.215	10.12
226.449	25.12
226.683	20.12
226.918	36.12
227.152	38.12
227.387	38.12
227.621	33.12
227.856	42.12
228.09	36.12
228.324	45.12
228.559	68.12
228.793	65.12
229.027	58.12
229.262	64.12
229.496	67.12
229.73	70.12
229.964	70.12
230.199	76.12
230.433	72.12
230.667	75.12
230.901	84.12
231.136	74.12
231.37	85.12
231.604	94.12
231.838	83.12
232.072	76.12
232.306	87.12
232.541	78.12
232.775	83.12
233.009	88.12
233.243	70.12
233.477	89.12
233.711	75.12
233.945	77.12
234.179	78.12
234.413	97.12
234.647	71.12
234.881	89.12
235.115	80.12
235.349	80.12
235.583	85.12
235.817	82.12
236.051	79.12
236.285	73.12
236.519	84.12
236.753	75.12
236.987	94.12
237.221	82.12
237.455	73.12
237.689	71.12
237.922	81.12
238.156	76.12
238.39	83.12
238.624	79.12
238.858	67.12
239.091	82.12
239.325	86.12
239.559	78.12
239.793	74.12
240.027	71.12
240.26	66.12
240.494	78.12
240.728	81.12
240.961	69.12
241.195	85.12
241.429	75.12
241.662	79.12
241.896	68.12
242.13	81.12
242.363	77.12
242.597	70.12
242.83	89.12
243.064	87.12
243.298	93.12
243.531	70.12
243.765	78.12
243.998	79.12
244.232	82.12
244.465	75.12
244.699	79.12
244.932	62.12
245.166	78.12
245.399	74.12
245.633	84.12
245.866	75.12
246.099	68.12
246.333	72.12
246.566	77.12
246.8	74.12
247.033	71.12
247.266	65.12
247.5	73.12
247.733	75.12
247.966	67.12
248.2	76.12
248.433	91.12
248.666	66.12
248.899	75.12
249.133	65.12
249.366	90.12
249.599	75.12
249.832	88.12
250.066	74.12
250.299	71.12
250.532	86.12
250.765	74.12
250.998	68.12
251.231	85.12
251.465	85.12
251.698	75.12
251.931	71.12
252.164	81.12
252.397	86.12
252.63	93.12
252.863	84.12
253.096	87.12
253.329	85.12
253.562	87.12
253.795	82.12
254.028	87.12
254.261	68.12
254.494	85.12
254.727	75.12
254.96	71.12
255.193	77.12
255.426	78.12
255.659	74.12
255.892	75.12
256.124	78.12
256.357	86.12
256.59	89.12
256.823	88.12
257.056	93.12
257.289	74.12
257.521	75.12
257.754	85.12
257.987	83.12
258.22	79.12
258.452	76.12
258.685	92.12
258.918	83.12
259.151	88.12
259.383	82.12
259.616	75.12
259.849	78.12
260.081	73.12
260.314	89.12
260.547	76.12
260.779	78.12
261.012	85.12
261.244	79.12
261.477	81.12
261.71	91.12
261.942	79.12
262.175	88.12
262.407	99.12
262.64	73.12
262.872	83.12
263.105	78.12
263.337	90.12
263.57	77.12
263.802	87.12
264.035	77.12
264.267	87.12
264.499	87.12
264.732	75.12
264.964	85.12
265.197	87.12
265.429	82.12
265.661	71.12
265.894	89.12
266.126	80.12
266.358	85.12
266.591	83.12
266.823	88.12
267.055	82.12
267.287	85.12
267.52	85.12
267.752	87.12
267.984	97.12
268.216	82.12
268.448	83.12
268.681	90.12
268.913	98.12
269.145	87.12
269.377	82.12
269.609	83.12
269.841	92.12
270.073	74.12
270.306	90.12
270.538	79.12
270.77	78.12
271.002	76.12
271.234	91.12
271.466	75.12
271.698	86.12
271.93	90.12
272.162	86.12
272.394	85.12
272.626	75.12
272.858	81.12
273.09	81.12
273.322	87.12
273.553	92.12
273.785	82.12
274.017	84.12
274.249	91.12
274.481	78.12
274.713	86.12
274.945	93.12
275.176	87.12
275.408	81.12
275.64	77.12
275.872	86.12
276.104	87.12
276.335	85.12
276.567	86.12
276.799	75.12
277.031	79.12
277.262	89.12
277.494	89.12
277.726	86.12
277.957	78.12
278.189	77.12
278.421	85.12
278.652	92.12
278.884	73.12
279.115	95.12
279.347	83.12
279.579	67.12
279.81	78.12
280.042	79.12
280.273	94.12
280.505	74.12
280.736	71.12
280.968	78.12
281.199	88.12
281.431	68.12
281.662	83.12
281.894	81.12
282.125	91.12
282.356	75.12
282.588	77.12
282.819	83.12
283.051	85.12
283.282	74.12
283.513	89.12
283.745	96.12
283.976	81.12
284.207	76.12
284.439	91.12
284.67	92.12
284.901	86.12
285.132	90.12
285.364	72.12
285.595	89.12
285.826	97.12
286.057	86.12
286.288	94.12
286.52	87.12
286.751	70.12
286.982	87.12
287.213	85.12
287.444	68.12
287.675	77.12
287.906	91.12
288.138	90.12
288.369	76.12
288.6	76.12
288.831	80.12
289.062	106.12
289.293	89.12
289.524	78.12
289.755	82.12
289.986	83.12
290.217	85.12
290.448	83.12
290.679	81.12
290.91	79.12
291.141	92.12
291.371	92.12
291.602	81.12
291.833	100.12
292.064	92.12
292.295	103.12
292.526	82.12
292.757	81.12
292.987	89.12
293.218	77.12
293.449	84.12
293.68	82.12
293.91	93.12
294.141	81.12
294.372	74.12
294.603	71.12
294.833	72.12
295.064	81.12
295.295	93.12
295.525	86.12
295.756	89.12
295.987	82.12
296.217	94.12
296.448	71.12
296.679	89.12
296.909	86.12
297.14	93.12
297.37	99.12
297.601	79.12
297.831	84.12
298.062	80.12
298.292	77.12
298.523	77.12
298.753	94.12
298.984	77.12
299.214	90.12
299.445	91.12
299.675	69.12
299.905	81.12
300.136	95.12
300.366	77.12
300.597	74.12
300.827	74.12
301.057	74.12
301.288	86.12
301.518	94.12
301.748	85.12
301.979	73.12
302.209	79.12
302.439	89.12
302.669	82.12
302.9	81.12
303.13	78.12
303.36	82.12
303.59	79.12
303.82	77.12
304.051	80.12
304.281	95.12
304.511	86.12
304.741	91.12
304.971	92.12
305.201	74.12
305.431	95.12
305.661	97.12
305.891	82.12
306.121	69.12
306.352	91.12
306.582	89.12
306.812	93.12
307.042	87.12
307.272	77.12
307.502	74.12
307.731	99.12
307.961	97.12
308.191	77.12
308.421	88.12
308.651	89.12
308.881	83.12
309.111	96.12
309.341	82.12
309.571	83.12
309.8	90.12
310.03	75.12
310.26	82.12
310.49	85.12
310.72	74.12
310.949	86.12
311.179	89.12
311.409	87.12
311.639	94.12
311.868	84.12
312.098	79.12
312.328	93.12
312.557	83.12
312.787	86.12
313.017	91.12
313.246	92.12
313.476	89.12
313.706	86.12
313.935	79.12
314.165	87.12
314.394	82.12
314.624	85.12
314.853	88.12
315.083	88.12
315.312	89.12
315.542	99.12
315.771	86.12
316.001	83.12
316.23	76.12
316.46	85.12
316.689	88.12
316.919	86.12
317.148	87.12
317.377	81.12
317.607	93.12
317.836	74.12
318.065	89.12
318.295	82.12
318.524	79.12
318.753	85.12
318.983	85.12
319.212	88.12
319.441	78.12
319.67	74.12
319.9	78.12
320.129	93.12
320.358	90.12
320.587	87.12
320.816	90.12
321.046	74.12
321.275	81.12
321.504	82.12
321.733	86.12
321.962	76.12
322.191	89.12
322.42	96.12
322.649	75.12
322.878	93.12
323.108	95.12
323.337	84.12
323.566	93.12
323.795	94.12
324.024	78.12
324.253	81.12
324.482	93.12
324.71	79.12
324.939	72.12
325.168	80.12
325.397	91.12
325.626	77.12
325.855	77.12
326.084	89.12
326.313	90.12
326.542	83.12
326.77	78.12
326.999	85.12
327.228	90.12
327.457	76.12
327.686	76.12
327.914	87.12
328.143	88.12
328.372	71.12
328.6	80.12
328.829	89.12
329.058	76.12
329.287	93.12
329.515	76.12
329.744	79.12
329.972	89.12
330.201	91.12
330.43	82.12
330.658	86.12
330.887	88.12
331.115	100.12
331.344	68.12
331.572	88.12
331.801	83.12
332.03	84.12
332.258	84.12
332.486	83.12
332.715	87.12
332.943	73.12
333.172	68.12
333.4	97.12
333.629	85.12
333.857	81.12
334.085	91.12
334.314	92.12
334.542	86.12
334.771	94.12
334.999	79.12
335.227	80.12
335.455	85.12
335.684	80.12
335.912	93.12
336.14	95.12
336.369	80.12
336.597	75.12
336.825	79.12
337.053	86.12
337.281	82.12
337.51	79.12
337.738	86.12
337.966	71.12
338.194	88.12
338.422	75.12
338.65	75.12
338.878	72.12
339.106	79.12
339.334	93.12
339.562	85.12
339.79	83.12
340.018	92.12
340.246	86.12
340.474	94.12
340.702	67.12
340.93	77.12
341.158	87.12
341.386	94.12
341.614	94.12
341.842	81.12
342.07	81.12
342.298	94.12
342.526	83.12
342.754	90.12
342.981	90.12
343.209	87.12
343.437	77.12
343.665	87.12
343.893	83.12
344.12	90.12
344.348	99.12
344.576	83.12
344.804	75.12
345.031	85.12
345.259	82.12
345.487	92.12
345.714	79.12
345.942	74.12
346.17	92.12
346.397	83.12
346.625	90.12
346.853	97.12
347.08	76.12
347.308	76.12
347.535	93.12
347.763	81.12
347.99	74.12
348.218	78.12
348.445	86.12
348.673	69.12
348.9	67.12
349.128	88.12
349.355	78.12
349.583	89.12
349.81	80.12
350.037	94.12
350.265	78.12
350.492	75.12
350.72	85.12
350.947	68.12
351.174	70.12
351.402	89.12
351.629	88.12
351.856	86.12
352.083	86.12
352.311	97.12
352.538	73.12
352.765	94.12
352.992	97.12
353.22	94.12
353.447	77.12
353.674	85.12
353.901	92.12
354.128	76.12
354.355	70.12
354.583	77.12
354.81	84.12
355.037	78.12
355.264	93.12
355.491	83.12
355.718	75.12
355.945	88.12
356.172	84.12
356.399	70.12
356.626	80.12
356.853	78.12
357.08	85.12
357.307	87.12
357.534	72.12
357.761	105.12
357.988	98.12
358.215	83.12
358.441	95.12
358.668	92.12
358.895	90.12
359.122	93.12
359.349	86.12
359.576	74.12
359.802	77.12
360.029	77.12
360.256	68.12
360.483	95.12
360.709	84.12
360.936	102.12
361.163	91.12
361.39	80.12
361.616	86.12
361.843	78.12
362.07	88.12
362.296	78.12
362.523	85.12
362.749	87.12
362.976	92.12
363.203	94.12
363.429	67.12
363.656	85.12
363.882	85.12
364.109	83.12
364.335	83.12
364.562	93.12
364.788	79.12
365.015	84.12
365.241	77.12
365.468	85.12
365.694	70.12
365.92	88.12
366.147	80.12
366.373	94.12
366.599	98.12
366.826	71.12
367.052	70.12
367.278	83.12
367.505	89.12
367.731	97.12
367.957	92.12
368.184	73.12
368.41	82.12
368.636	88.12
368.862	81.12
369.089	94.12
369.315	73.12
369.541	93.12
369.767	82.12
369.993	81.12
370.219	71.12
370.445	75.12
370.672	87.12
370.898	72.12
371.124	74.12
371.35	81.12
371.576	90.12
371.802	86.12
372.028	98.12
372.254	81.12
372.48	90.12
372.706	90.12
372.932	94.12
373.158	83.12
373.384	82.12
373.61	86.12
373.835	84.12
374.061	82.12
374.287	79.12
374.513	104.12
374.739	83.12
374.965	84.12
375.191	77.12
375.416	86.12
375.642	91.12
375.868	85.12
376.094	97.12
376.319	70.12
376.545	78.12
376.771	83.12
376.997	85.12
377.222	76.12
377.448	76.12
377.674	70.12
377.899	95.12
378.125	94.12
378.35	77.12
378.576	92.12
378.802	90.12
379.027	93.12
379.253	98.12
379.478	89.12
379.704	72.12
379.929	90.12
380.155	97.12
380.38	73.12
380.606	70.12
380.831	81.12
381.057	78.12
381.282	90.12
381.507	90.12
381.733	95.12
381.958	94.12
382.184	93.12
382.409	83.12
382.634	86.12
382.86	82.12
383.085	87.12
383.31	82.12
383.535	87.12
383.761	70.12
383.986	85.12
384.211	90.12
384.436	79.12
384.662	96.12
384.887	74.12
385.112	79.12
385.337	96.12
385.562	99.12
385.787	101.12
386.013	80.12
386.238	100.12
386.463	78.12
386.688	84.12
386.913	83.12
387.138	77.12
387.363	83.12
387.588	79.12
387.813	85.12
388.038	92.12
388.263	85.12
388.488	91.12
388.713	72.12
388.938	91.12
389.163	86.12
389.387	87.12
389.612	89.12
389.837	80.12
390.062	86.12
390.287	84.12
390.512	81.12
390.736	77.12
390.961	84.12
391.186	79.12
391.411	79.12
391.636	85.12
391.86	98.12
392.085	83.12
392.31	83.12
392.534	85.12
392.759	93.12
392.984	86.12
393.208	97.12
393.433	77.12
393.658	91.12
393.882	79.12
394.107	72.12
394.331	83.12
394.556	82.12
394.78	94.12
395.005	76.12
395.229	75.12
395.454	83.12
395.678	87.12
395.903	86.12
396.127	82.12
396.352	85.12
396.576	91.12
396.801	83.12
397.025	92.12
397.249	68.12
397.474	86.12
397.698	97.12
397.922	94.12
398.147	88.12
398.371	85.12
398.595	86.12
398.82	72.12
399.044	87.12
399.268	95.12
399.492	85.12
399.717	97.12
399.941	94.12
400.165	87.12
400.389	78.12
400.613	85.12
400.837	74.12
401.062	95.12
401.286	88.12
401.51	91.12
401.734	77.12
401.958	81.12
402.182	84.12
402.406	89.12
402.63	87.12
402.854	87.12
403.078	89.12
403.302	77.12
403.526	78.12
403.75	89.12
403.974	81.12
404.198	91.12
404.422	91.12
404.645	98.12
404.869	83.12
405.093	87.12
405.317	78.12
405.541	90.12
405.765	87.12
405.988	81.12
406.212	84.12
406.436	85.12
406.66	91.12
406.883	99.12
407.107	97.12
407.331	77.12
407.555	94.12
407.778	72.12
408.002	91.12
408.226	79.12
408.449	87.12
408.673	81.12
408.896	79.12
409.12	86.12
409.344	85.12
409.567	73.12
409.791	81.12
410.014	95.12
410.238	75.12
410.461	92.12
410.685	100.12
410.908	89.12
411.132	100.12
411.355	99.12
411.578	91.12
411.802	72.12
412.025	82.12
412.249	80.12
412.472	87.12
412.695	89.12
412.919	91.12
413.142	81.12
413.365	92.12
413.589	84.12
413.812	89.12
414.035	104.12
414.258	90.12
414.482	79.12
414.705	99.12
414.928	91.12
415.151	89.12
415.374	78.12
415.597	87.12
415.821	88.12
416.044	91.12
416.267	65.12
416.49	101.12
416.713	88.12
416.936	84.12
417.159	89.12
417.382	87.12
417.605	97.12
417.828	90.12
418.051	83.12
418.274	93.12
418.497	85.12
418.72	75.12
418.943	77.12
419.166	97.12
419.389	94.12
419.611	89.12
419.834	79.12
420.057	75.12
420.28	87.12
420.503	80.12
420.726	86.12
420.948	88.12
421.171	106.12
421.394	77.12
421.617	74.12
421.839	98.12
422.062	93.12
422.285	95.12
422.507	88.12
422.73	98.12
422.953	89.12
423.175	90.12
423.398	95.12
423.621	91.12
423.843	84.12
424.066	90.12
424.288	90.12
424.511	87.12
424.733	80.12
424.956	97.12
425.178	81.12
425.401	88.12
425.623	95.12
425.846	80.12
426.068	97.12
426.291	94.12
426.513	95.12
426.735	88.12
426.958	94.12
427.18	94.12
427.402	96.12
427.625	98.12
427.847	78.12
428.069	80.12
428.292	88.12
428.514	87.12
428.736	89.12
428.958	76.12
429.181	92.12
429.403	105.12
429.625	85.12
429.847	89.12
430.069	87.12
430.292	85.12
430.514	64.12
430.736	80.12
430.958	86.12
431.18	78.12
431.402	86.12
431.624	76.12
431.846	93.12
432.068	99.12
432.29	96.12
432.512	77.12
432.734	89.12
432.956	92.12
433.178	85.12
433.4	95.12
433.622	92.12
433.844	99.12
434.066	78.12
434.287	86.12
434.509	77.12
434.731	76.12
434.953	83.12
435.175	69.12
435.397	101.12
435.618	85.12
435.84	93.12
436.062	97.12
436.284	93.12
436.505	89.12
436.727	82.12
436.949	84.12
437.17	79.12
437.392	79.12
437.614	85.12
437.835	86.12
438.057	81.12
438.278	81.12
438.5	87.12
438.721	83.12
438.943	100.12
439.165	82.12
439.386	111.12
439.608	94.12
439.829	93.12
440.05	87.12
440.272	93.12
440.493	101.12
440.715	90.12
440.936	107.12
441.158	94.12
441.379	92.12
441.6	84.12
441.822	84.12
442.043	93.12
442.264	91.12
442.486	94.12
442.707	83.12
442.928	92.12
443.149	85.12
443.371	98.12
443.592	75.12
443.813	85.12
444.034	83.12
444.255	100.12
444.476	72.12
444.698	95.12
444.919	90.12
445.14	186.12
445.361	124.12
445.582	95.12
445.803	98.12
446.024	100.12
446.245	90.12
446.466	95.12
446.687	91.12
446.908	95.12
447.129	93.12
447.35	98.12
447.571	92.12
447.792	88.12
448.013	87.12
448.234	106.12
448.455	90.12
448.675	90.12
448.896	80.12
449.117	79.12
449.338	85.12
449.559	99.12
449.779	91.12
450	71.12
450.221	87.12
450.442	82.12
450.662	88.12
450.883	85.12
451.104	90.12
451.324	82.12
451.545	84.12
451.766	92.12
451.986	88.12
452.207	104.12
452.428	86.12
452.648	88.12
452.869	70.12
453.089	100.12
453.31	84.12
453.53	102.12
453.751	84.12
453.971	77.12
454.192	82.12
454.412	83.12
454.633	88.12
454.853	88.12
455.073	89.12
455.294	90.12
455.514	89.12
455.734	79.12
455.955	103.12
456.175	84.12
456.395	83.12
456.616	84.12
456.836	82.12
457.056	89.12
457.276	91.12
457.497	91.12
457.717	79.12
457.937	84.12
458.157	80.12
458.377	90.12
458.598	73.12
458.818	80.12
459.038	67.12
459.258	83.12
459.478	87.12
459.698	93.12
459.918	79.12
460.138	88.12
460.358	84.12
460.578	82.12
460.798	85.12
461.018	89.12
461.238	97.12
461.458	92.12
461.678	93.12
461.898	89.12
462.118	74.12
462.338	71.12
462.558	82.12
462.777	81.12
462.997	99.12
463.217	80.12
463.437	84.12
463.657	95.12
463.876	72.12
464.096	68.12
464.316	78.12
464.536	95.12
464.755	93.12
464.975	89.12
465.195	93.12
465.414	85.12
465.634	89.12
465.854	81.12
466.073	74.12
466.293	87.12
466.512	81.12
466.732	97.12
466.951	91.12
467.171	82.12
467.391	87.12
467.61	91.12
467.829	77.12
468.049	97.12
468.268	98.12
468.488	77.12
468.707	88.12
468.927	82.12
469.146	76.12
469.365	84.12
469.585	86.12
469.804	93.12
470.023	93.12
470.243	92.12
470.462	98.12
470.681	95.12
470.901	93.12
471.12	85.12
471.339	92.12
471.558	90.12
471.777	90.12
471.997	82.12
472.216	90.12
472.435	96.12
472.654	77.12
472.873	84.12
473.092	101.12
473.311	90.12
473.53	91.12
473.749	84.12
473.968	92.12
474.187	89.12
474.406	87.12
474.625	98.12
474.844	87.12
475.063	72.12
475.282	83.12
475.501	88.12
475.72	72.12
475.939	105.12
476.158	91.12
476.377	83.12
476.596	76.12
476.814	81.12
477.033	92.12
477.252	86.12
477.471	90.12
477.69	92.12
477.908	84.12
478.127	83.12
478.346	107.12
478.564	85.12
478.783	86.12
479.002	86.12
479.22	97.12
479.439	98.12
479.658	93.12
479.876	87.12
480.095	89.12
480.313	84.12
480.532	93.12
480.751	99.12
480.969	83.12
481.188	84.12
481.406	93.12
481.624	75.12
481.843	83.12
482.061	84.12
482.28	92.12
482.498	88.12
482.717	72.12
482.935	93.12
483.153	87.12
483.372	90.12
483.59	102.12
483.808	74.12
484.027	102.12
484.245	97.12
484.463	95.12
484.681	74.12
484.9	86.12
485.118	90.12
485.336	88.12
485.554	86.12
485.772	90.12
485.99	87.12
486.209	88.12
486.427	83.12
486.645	97.12
486.863	80.12
487.081	90.12
487.299	97.12
487.517	85.12
487.735	95.12
487.953	95.12
488.171	100.12
488.389	96.12
488.607	79.12
488.825	85.12
489.043	67.12
489.261	88.12
489.479	77.12
489.696	93.12
489.914	94.12
490.132	81.12
490.35	107.12
490.568	90.12
490.786	102.12
491.003	105.12
491.221	109.12
491.439	117.12
491.657	90.12
491.874	123.12
492.092	119.12
492.31	99.12
492.527	109.12
492.745	95.12
492.963	87.12
493.18	105.12
493.398	93.12
493.615	104.12
493.833	104.12
494.05	114.12
494.268	102.12
494.485	91.12
494.703	96.12
494.92	94.12
495.138	107.12
495.355	94.12
495.573	95.12
495.79	98.12
496.008	102.12
496.225	95.12
496.442	99.12
496.66	102.12
496.877	94.12
497.094	85.12
497.312	90.12
497.529	97.12
497.746	91.12
497.963	93.12
498.181	88.12
498.398	85.12
498.615	84.12
498.832	88.12
499.049	91.12
499.267	85.12
499.484	92.12
499.701	76.12
499.918	86.12
500.135	101.12
500.352	95.12
500.569	95.12
500.786	83.12
501.003	90.12
501.22	83.12
501.437	99.12
501.654	90.12
501.871	87.12
502.088	82.12
502.305	99.12
502.522	109.12
502.739	94.12
502.956	108.12
503.172	103.12
503.389	75.12
503.606	85.12
503.823	99.12
504.04	88.12
504.256	93.12
504.473	90.12
504.69	81.12
504.907	88.12
505.123	78.12
505.34	91.12
505.557	87.12
505.773	106.12
505.99	94.12
506.207	91.12
506.423	90.12
506.64	89.12
506.856	102.12
507.073	105.12
507.289	98.12
507.506	87.12
507.722	76.12
507.939	94.12
508.155	97.12
508.372	88.12
508.588	93.12
508.805	92.12
509.021	86.12
509.238	90.12
509.454	84.12
509.67	79.12
509.887	103.12
510.103	83.12
510.319	85.12
510.536	85.12
510.752	75.12
510.968	83.12
511.184	91.12
511.401	76.12
511.617	84.12
511.833	79.12
512.049	92.12
512.265	97.12
512.481	104.12
512.698	94.12
512.914	79.12
513.13	94.12
513.346	93.12
513.562	89.12
513.778	94.12
513.994	97.12
514.21	86.12
514.426	86.12
514.642	86.12
514.858	75.12
515.074	87.12
515.29	92.12
515.506	82.12
515.721	96.12
515.937	87.12
516.153	86.12
516.369	64.12
516.585	78.12
516.801	70.12
517.016	90.12
517.232	100.12
517.448	93.12
517.664	92.12
517.879	84.12
518.095	85.12
518.311	99.12
518.527	75.12
