Data from Zn(NO3)2Standard.Agarose3%.GreenCap.LampEnergy5.5.E.O_HRD10591_15-01-52-768.txt Node
Date: Mon Jul 22 15:01:52 EDT 2019
User: cochatt
Spectrometer: HR+D1059
Trigger mode: 1
Integration Time (sec): 1.000000E-1
Scans to average: 1
Electric dark correction enabled: true
Nonlinearity correction enabled: false
Boxcar width: 0
XAxis mode: Wavelengths
Number of Pixels in Spectrum: 2048
>>>>>Begin Spectral Data<<<<<
223.165	-13.19
223.4	-13.19
223.635	-13.19
223.869	-7.19
224.104	-18.19
224.338	-20.19
224.573	-18.19
224.808	-17.19
225.042	-4.19
225.277	-5.19
225.511	4.81
225.746	-12.19
225.98	5.81
226.215	21.81
226.449	9.81
226.683	12.81
226.918	24.81
227.152	35.81
227.387	37.81
227.621	34.81
227.856	38.81
228.09	50.81
228.324	46.81
228.559	61.81
228.793	72.81
229.027	68.81
229.262	61.81
229.496	51.81
229.73	80.81
229.964	79.81
230.199	76.81
230.433	69.81
230.667	79.81
230.901	78.81
231.136	87.81
231.37	78.81
231.604	78.81
231.838	77.81
232.072	86.81
232.306	76.81
232.541	82.81
232.775	90.81
233.009	93.81
233.243	90.81
233.477	74.81
233.711	76.81
233.945	85.81
234.179	84.81
234.413	86.81
234.647	86.81
234.881	73.81
235.115	80.81
235.349	87.81
235.583	78.81
235.817	76.81
236.051	85.81
236.285	77.81
236.519	88.81
236.753	80.81
236.987	82.81
237.221	78.81
237.455	74.81
237.689	79.81
237.922	68.81
238.156	61.81
238.39	82.81
238.624	65.81
238.858	74.81
239.091	84.81
239.325	71.81
239.559	84.81
239.793	63.81
240.027	77.81
240.26	84.81
240.494	87.81
240.728	79.81
240.961	81.81
241.195	84.81
241.429	70.81
241.662	72.81
241.896	84.81
242.13	83.81
242.363	69.81
242.597	77.81
242.83	88.81
243.064	82.81
243.298	91.81
243.531	84.81
243.765	98.81
243.998	79.81
244.232	68.81
244.465	87.81
244.699	80.81
244.932	78.81
245.166	92.81
245.399	72.81
245.633	84.81
245.866	83.81
246.099	84.81
246.333	71.81
246.566	76.81
246.8	78.81
247.033	82.81
247.266	85.81
247.5	76.81
247.733	72.81
247.966	89.81
248.2	89.81
248.433	85.81
248.666	76.81
248.899	78.81
249.133	90.81
249.366	71.81
249.599	86.81
249.832	86.81
250.066	84.81
250.299	86.81
250.532	63.81
250.765	78.81
250.998	70.81
251.231	79.81
251.465	81.81
251.698	70.81
251.931	88.81
252.164	81.81
252.397	82.81
252.63	80.81
252.863	92.81
253.096	88.81
253.329	78.81
253.562	75.81
253.795	83.81
254.028	77.81
254.261	83.81
254.494	75.81
254.727	83.81
254.96	78.81
255.193	82.81
255.426	85.81
255.659	68.81
255.892	72.81
256.124	87.81
256.357	87.81
256.59	88.81
256.823	78.81
257.056	73.81
257.289	82.81
257.521	91.81
257.754	87.81
257.987	83.81
258.22	92.81
258.452	76.81
258.685	76.81
258.918	77.81
259.151	82.81
259.383	78.81
259.616	81.81
259.849	70.81
260.081	84.81
260.314	86.81
260.547	80.81
260.779	84.81
261.012	77.81
261.244	87.81
261.477	86.81
261.71	63.81
261.942	80.81
262.175	80.81
262.407	82.81
262.64	92.81
262.872	78.81
263.105	75.81
263.337	76.81
263.57	83.81
263.802	77.81
264.035	82.81
264.267	90.81
264.499	87.81
264.732	102.81
264.964	78.81
265.197	80.81
265.429	78.81
265.661	91.81
265.894	96.81
266.126	86.81
266.358	101.81
266.591	92.81
266.823	84.81
267.055	88.81
267.287	84.81
267.52	78.81
267.752	79.81
267.984	79.81
268.216	88.81
268.448	94.81
268.681	99.81
268.913	86.81
269.145	88.81
269.377	88.81
269.609	84.81
269.841	83.81
270.073	88.81
270.306	93.81
270.538	74.81
270.77	74.81
271.002	72.81
271.234	98.81
271.466	83.81
271.698	77.81
271.93	90.81
272.162	84.81
272.394	85.81
272.626	83.81
272.858	95.81
273.09	84.81
273.322	90.81
273.553	89.81
273.785	79.81
274.017	76.81
274.249	84.81
274.481	91.81
274.713	91.81
274.945	74.81
275.176	76.81
275.408	86.81
275.64	81.81
275.872	81.81
276.104	76.81
276.335	82.81
276.567	78.81
276.799	71.81
277.031	92.81
277.262	75.81
277.494	90.81
277.726	75.81
277.957	77.81
278.189	84.81
278.421	89.81
278.652	94.81
278.884	81.81
279.115	80.81
279.347	78.81
279.579	86.81
279.81	76.81
280.042	83.81
280.273	93.81
280.505	72.81
280.736	88.81
280.968	82.81
281.199	73.81
281.431	102.81
281.662	81.81
281.894	80.81
282.125	85.81
282.356	88.81
282.588	84.81
282.819	89.81
283.051	95.81
283.282	84.81
283.513	74.81
283.745	82.81
283.976	80.81
284.207	94.81
284.439	85.81
284.67	85.81
284.901	75.81
285.132	79.81
285.364	78.81
285.595	84.81
285.826	90.81
286.057	85.81
286.288	83.81
286.52	85.81
286.751	78.81
286.982	84.81
287.213	86.81
287.444	82.81
287.675	65.81
287.906	90.81
288.138	81.81
288.369	78.81
288.6	71.81
288.831	77.81
289.062	88.81
289.293	87.81
289.524	87.81
289.755	74.81
289.986	85.81
290.217	81.81
290.448	83.81
290.679	93.81
290.91	89.81
291.141	94.81
291.371	87.81
291.602	77.81
291.833	86.81
292.064	91.81
292.295	90.81
292.526	95.81
292.757	85.81
292.987	90.81
293.218	90.81
293.449	95.81
293.68	91.81
293.91	84.81
294.141	91.81
294.372	81.81
294.603	97.81
294.833	83.81
295.064	98.81
295.295	93.81
295.525	73.81
295.756	82.81
295.987	72.81
296.217	86.81
296.448	83.81
296.679	90.81
296.909	81.81
297.14	84.81
297.37	103.81
297.601	89.81
297.831	92.81
298.062	80.81
298.292	89.81
298.523	76.81
298.753	70.81
298.984	87.81
299.214	83.81
299.445	82.81
299.675	84.81
299.905	97.81
300.136	84.81
300.366	99.81
300.597	94.81
300.827	72.81
301.057	84.81
301.288	88.81
301.518	89.81
301.748	85.81
301.979	82.81
302.209	73.81
302.439	88.81
302.669	88.81
302.9	86.81
303.13	88.81
303.36	91.81
303.59	82.81
303.82	99.81
304.051	73.81
304.281	78.81
304.511	83.81
304.741	95.81
304.971	84.81
305.201	77.81
305.431	66.81
305.661	82.81
305.891	90.81
306.121	74.81
306.352	80.81
306.582	75.81
306.812	90.81
307.042	94.81
307.272	80.81
307.502	96.81
307.731	109.81
307.961	86.81
308.191	95.81
308.421	67.81
308.651	90.81
308.881	91.81
309.111	81.81
309.341	92.81
309.571	84.81
309.8	96.81
310.03	88.81
310.26	83.81
310.49	86.81
310.72	90.81
310.949	78.81
311.179	98.81
311.409	80.81
311.639	103.81
311.868	92.81
312.098	93.81
312.328	86.81
312.557	85.81
312.787	91.81
313.017	78.81
313.246	84.81
313.476	100.81
313.706	84.81
313.935	80.81
314.165	99.81
314.394	95.81
314.624	69.81
314.853	104.81
315.083	97.81
315.312	92.81
315.542	94.81
315.771	98.81
316.001	92.81
316.23	101.81
316.46	94.81
316.689	99.81
316.919	87.81
317.148	90.81
317.377	90.81
317.607	84.81
317.836	90.81
318.065	97.81
318.295	90.81
318.524	89.81
318.753	93.81
318.983	90.81
319.212	76.81
319.441	81.81
319.67	102.81
319.9	90.81
320.129	92.81
320.358	77.81
320.587	103.81
320.816	77.81
321.046	85.81
321.275	92.81
321.504	82.81
321.733	91.81
321.962	85.81
322.191	84.81
322.42	90.81
322.649	90.81
322.878	87.81
323.108	100.81
323.337	95.81
323.566	88.81
323.795	92.81
324.024	84.81
324.253	100.81
324.482	84.81
324.71	87.81
324.939	83.81
325.168	81.81
325.397	101.81
325.626	71.81
325.855	93.81
326.084	84.81
326.313	74.81
326.542	84.81
326.77	89.81
326.999	75.81
327.228	76.81
327.457	83.81
327.686	91.81
327.914	87.81
328.143	96.81
328.372	89.81
328.6	84.81
328.829	93.81
329.058	86.81
329.287	80.81
329.515	94.81
329.744	79.81
329.972	99.81
330.201	77.81
330.43	82.81
330.658	76.81
330.887	96.81
331.115	83.81
331.344	79.81
331.572	86.81
331.801	98.81
332.03	98.81
332.258	71.81
332.486	70.81
332.715	71.81
332.943	73.81
333.172	94.81
333.4	93.81
333.629	87.81
333.857	82.81
334.085	83.81
334.314	85.81
334.542	81.81
334.771	90.81
334.999	95.81
335.227	85.81
335.455	88.81
335.684	85.81
335.912	89.81
336.14	100.81
336.369	91.81
336.597	80.81
336.825	94.81
337.053	79.81
337.281	86.81
337.51	91.81
337.738	84.81
337.966	88.81
338.194	83.81
338.422	86.81
338.65	90.81
338.878	85.81
339.106	100.81
339.334	90.81
339.562	81.81
339.79	88.81
340.018	92.81
340.246	80.81
340.474	87.81
340.702	85.81
340.93	86.81
341.158	76.81
341.386	86.81
341.614	82.81
341.842	99.81
342.07	80.81
342.298	71.81
342.526	68.81
342.754	77.81
342.981	82.81
343.209	73.81
343.437	88.81
343.665	91.81
343.893	93.81
344.12	88.81
344.348	88.81
344.576	88.81
344.804	81.81
345.031	76.81
345.259	92.81
345.487	84.81
345.714	79.81
345.942	93.81
346.17	92.81
346.397	80.81
346.625	94.81
346.853	104.81
347.08	85.81
347.308	72.81
347.535	77.81
347.763	73.81
347.99	79.81
348.218	88.81
348.445	93.81
348.673	90.81
348.9	76.81
349.128	78.81
349.355	64.81
349.583	88.81
349.81	70.81
350.037	74.81
350.265	103.81
350.492	84.81
350.72	88.81
350.947	85.81
351.174	74.81
351.402	91.81
351.629	70.81
351.856	78.81
352.083	71.81
352.311	86.81
352.538	104.81
352.765	90.81
352.992	87.81
353.22	76.81
353.447	88.81
353.674	95.81
353.901	97.81
354.128	86.81
354.355	89.81
354.583	84.81
354.81	92.81
355.037	107.81
355.264	80.81
355.491	91.81
355.718	75.81
355.945	71.81
356.172	84.81
356.399	92.81
356.626	82.81
356.853	74.81
357.08	93.81
357.307	90.81
357.534	84.81
357.761	97.81
357.988	90.81
358.215	89.81
358.441	87.81
358.668	74.81
358.895	85.81
359.122	89.81
359.349	74.81
359.576	87.81
359.802	91.81
360.029	79.81
360.256	79.81
360.483	94.81
360.709	85.81
360.936	85.81
361.163	87.81
361.39	75.81
361.616	65.81
361.843	70.81
362.07	76.81
362.296	80.81
362.523	85.81
362.749	86.81
362.976	71.81
363.203	90.81
363.429	84.81
363.656	84.81
363.882	90.81
364.109	85.81
364.335	91.81
364.562	99.81
364.788	93.81
365.015	79.81
365.241	86.81
365.468	73.81
365.694	78.81
365.92	97.81
366.147	78.81
366.373	78.81
366.599	86.81
366.826	77.81
367.052	93.81
367.278	92.81
367.505	102.81
367.731	82.81
367.957	87.81
368.184	85.81
368.41	87.81
368.636	86.81
368.862	73.81
369.089	79.81
369.315	82.81
369.541	90.81
369.767	84.81
369.993	72.81
370.219	81.81
370.445	80.81
370.672	83.81
370.898	98.81
371.124	82.81
371.35	90.81
371.576	89.81
371.802	85.81
372.028	79.81
372.254	90.81
372.48	79.81
372.706	82.81
372.932	88.81
373.158	95.81
373.384	88.81
373.61	79.81
373.835	84.81
374.061	84.81
374.287	94.81
374.513	88.81
374.739	84.81
374.965	87.81
375.191	84.81
375.416	92.81
375.642	102.81
375.868	83.81
376.094	79.81
376.319	83.81
376.545	80.81
376.771	78.81
376.997	95.81
377.222	91.81
377.448	91.81
377.674	78.81
377.899	79.81
378.125	90.81
378.35	84.81
378.576	84.81
378.802	100.81
379.027	85.81
379.253	77.81
379.478	86.81
379.704	91.81
379.929	89.81
380.155	90.81
380.38	88.81
380.606	89.81
380.831	88.81
381.057	93.81
381.282	84.81
381.507	96.81
381.733	93.81
381.958	74.81
382.184	85.81
382.409	87.81
382.634	76.81
382.86	83.81
383.085	95.81
383.31	74.81
383.535	69.81
383.761	81.81
383.986	97.81
384.211	78.81
384.436	92.81
384.662	90.81
384.887	73.81
385.112	95.81
385.337	85.81
385.562	77.81
385.787	84.81
386.013	86.81
386.238	80.81
386.463	102.81
386.688	98.81
386.913	68.81
387.138	79.81
387.363	69.81
387.588	89.81
387.813	83.81
388.038	86.81
388.263	73.81
388.488	86.81
388.713	81.81
388.938	74.81
389.163	91.81
389.387	92.81
389.612	93.81
389.837	75.81
390.062	83.81
390.287	89.81
390.512	89.81
390.736	78.81
390.961	90.81
391.186	86.81
391.411	89.81
391.636	75.81
391.86	99.81
392.085	85.81
392.31	78.81
392.534	86.81
392.759	91.81
392.984	72.81
393.208	78.81
393.433	79.81
393.658	73.81
393.882	84.81
394.107	96.81
394.331	78.81
394.556	93.81
394.78	66.81
395.005	88.81
395.229	76.81
395.454	90.81
395.678	83.81
395.903	86.81
396.127	78.81
396.352	80.81
396.576	85.81
396.801	80.81
397.025	73.81
397.249	87.81
397.474	95.81
397.698	88.81
397.922	75.81
398.147	80.81
398.371	87.81
398.595	89.81
398.82	78.81
399.044	78.81
399.268	81.81
399.492	92.81
399.717	90.81
399.941	100.81
400.165	96.81
400.389	101.81
400.613	91.81
400.837	86.81
401.062	99.81
401.286	90.81
401.51	90.81
401.734	80.81
401.958	88.81
402.182	80.81
402.406	88.81
402.63	83.81
402.854	99.81
403.078	74.81
403.302	95.81
403.526	86.81
403.75	95.81
403.974	86.81
404.198	81.81
404.422	76.81
404.645	99.81
404.869	88.81
405.093	87.81
405.317	85.81
405.541	92.81
405.765	84.81
405.988	84.81
406.212	87.81
406.436	82.81
406.66	91.81
406.883	98.81
407.107	79.81
407.331	71.81
407.555	95.81
407.778	88.81
408.002	92.81
408.226	84.81
408.449	86.81
408.673	76.81
408.896	91.81
409.12	81.81
409.344	98.81
409.567	90.81
409.791	90.81
410.014	84.81
410.238	98.81
410.461	87.81
410.685	87.81
410.908	91.81
411.132	89.81
411.355	91.81
411.578	96.81
411.802	88.81
412.025	89.81
412.249	91.81
412.472	80.81
412.695	91.81
412.919	94.81
413.142	87.81
413.365	79.81
413.589	75.81
413.812	78.81
414.035	106.81
414.258	88.81
414.482	81.81
414.705	93.81
414.928	78.81
415.151	84.81
415.374	79.81
415.597	76.81
415.821	91.81
416.044	90.81
416.267	75.81
416.49	82.81
416.713	92.81
416.936	95.81
417.159	69.81
417.382	79.81
417.605	103.81
417.828	92.81
418.051	94.81
418.274	86.81
418.497	101.81
418.72	93.81
418.943	93.81
419.166	86.81
419.389	87.81
419.611	106.81
419.834	90.81
420.057	106.81
420.28	113.81
420.503	98.81
420.726	95.81
420.948	79.81
421.171	87.81
421.394	76.81
421.617	103.81
421.839	92.81
422.062	99.81
422.285	94.81
422.507	91.81
422.73	86.81
422.953	89.81
423.175	94.81
423.398	92.81
423.621	100.81
423.843	78.81
424.066	82.81
424.288	85.81
424.511	91.81
424.733	94.81
424.956	85.81
425.178	101.81
425.401	109.81
425.623	79.81
425.846	87.81
426.068	79.81
426.291	90.81
426.513	92.81
426.735	95.81
426.958	101.81
427.18	85.81
427.402	90.81
427.625	105.81
427.847	89.81
428.069	87.81
428.292	95.81
428.514	92.81
428.736	100.81
428.958	90.81
429.181	77.81
429.403	91.81
429.625	80.81
429.847	94.81
430.069	97.81
430.292	86.81
430.514	91.81
430.736	85.81
430.958	89.81
431.18	97.81
431.402	85.81
431.624	94.81
431.846	84.81
432.068	82.81
432.29	84.81
432.512	90.81
432.734	92.81
432.956	77.81
433.178	92.81
433.4	99.81
433.622	101.81
433.844	99.81
434.066	91.81
434.287	98.81
434.509	88.81
434.731	99.81
434.953	74.81
435.175	80.81
435.397	96.81
435.618	83.81
435.84	91.81
436.062	81.81
436.284	103.81
436.505	100.81
436.727	94.81
436.949	90.81
437.17	79.81
437.392	103.81
437.614	99.81
437.835	74.81
438.057	86.81
438.278	80.81
438.5	84.81
438.721	87.81
438.943	96.81
439.165	89.81
439.386	89.81
439.608	88.81
439.829	86.81
440.05	84.81
440.272	82.81
440.493	91.81
440.715	95.81
440.936	92.81
441.158	88.81
441.379	92.81
441.6	95.81
441.822	87.81
442.043	88.81
442.264	84.81
442.486	78.81
442.707	91.81
442.928	94.81
443.149	87.81
443.371	100.81
443.592	88.81
443.813	96.81
444.034	94.81
444.255	97.81
444.476	84.81
444.698	93.81
444.919	91.81
445.14	227.81
445.361	139.81
445.582	91.81
445.803	82.81
446.024	90.81
446.245	101.81
446.466	100.81
446.687	110.81
446.908	100.81
447.129	100.81
447.35	100.81
447.571	97.81
447.792	85.81
448.013	87.81
448.234	92.81
448.455	95.81
448.675	96.81
448.896	92.81
449.117	96.81
449.338	83.81
449.559	83.81
449.779	97.81
450	94.81
450.221	86.81
450.442	90.81
450.662	81.81
450.883	87.81
451.104	91.81
451.324	94.81
451.545	87.81
451.766	98.81
451.986	89.81
452.207	86.81
452.428	84.81
452.648	80.81
452.869	72.81
453.089	87.81
453.31	90.81
453.53	85.81
453.751	107.81
453.971	90.81
454.192	82.81
454.412	91.81
454.633	92.81
454.853	87.81
455.073	82.81
455.294	80.81
455.514	84.81
455.734	93.81
455.955	92.81
456.175	94.81
456.395	82.81
456.616	88.81
456.836	80.81
457.056	96.81
457.276	77.81
457.497	79.81
457.717	86.81
457.937	80.81
458.157	88.81
458.377	73.81
458.598	89.81
458.818	77.81
459.038	92.81
459.258	87.81
459.478	83.81
459.698	88.81
459.918	82.81
460.138	83.81
460.358	71.81
460.578	88.81
460.798	84.81
461.018	92.81
461.238	76.81
461.458	88.81
461.678	87.81
461.898	80.81
462.118	83.81
462.338	83.81
462.558	86.81
462.777	87.81
462.997	106.81
463.217	86.81
463.437	75.81
463.657	98.81
463.876	92.81
464.096	76.81
464.316	69.81
464.536	82.81
464.755	83.81
464.975	92.81
465.195	95.81
465.414	79.81
465.634	94.81
465.854	80.81
466.073	94.81
466.293	91.81
466.512	84.81
466.732	83.81
466.951	96.81
467.171	101.81
467.391	95.81
467.61	71.81
467.829	91.81
468.049	90.81
468.268	87.81
468.488	92.81
468.707	86.81
468.927	98.81
469.146	110.81
469.365	85.81
469.585	80.81
469.804	80.81
470.023	90.81
470.243	85.81
470.462	90.81
470.681	92.81
470.901	90.81
471.12	88.81
471.339	90.81
471.558	91.81
471.777	90.81
471.997	77.81
472.216	111.81
472.435	89.81
472.654	90.81
472.873	86.81
473.092	90.81
473.311	82.81
473.53	79.81
473.749	82.81
473.968	107.81
474.187	87.81
474.406	98.81
474.625	84.81
474.844	99.81
475.063	89.81
475.282	100.81
475.501	85.81
475.72	92.81
475.939	74.81
476.158	89.81
476.377	86.81
476.596	101.81
476.814	100.81
477.033	82.81
477.252	84.81
477.471	97.81
477.69	74.81
477.908	103.81
478.127	103.81
478.346	102.81
478.564	98.81
478.783	83.81
479.002	82.81
479.22	89.81
479.439	77.81
479.658	84.81
479.876	84.81
480.095	78.81
480.313	81.81
480.532	89.81
480.751	79.81
480.969	96.81
481.188	70.81
481.406	76.81
481.624	86.81
481.843	76.81
482.061	84.81
482.28	83.81
482.498	80.81
482.717	85.81
482.935	86.81
483.153	90.81
483.372	91.81
483.59	86.81
483.808	87.81
484.027	103.81
484.245	95.81
484.463	97.81
484.681	84.81
484.9	96.81
485.118	101.81
485.336	86.81
485.554	81.81
485.772	84.81
485.99	94.81
486.209	88.81
486.427	82.81
486.645	79.81
486.863	95.81
487.081	92.81
487.299	79.81
487.517	84.81
487.735	102.81
487.953	87.81
488.171	105.81
488.389	107.81
488.607	94.81
488.825	93.81
489.043	87.81
489.261	100.81
489.479	92.81
489.696	102.81
489.914	99.81
490.132	93.81
490.35	89.81
490.568	105.81
490.786	103.81
491.003	100.81
491.221	90.81
491.439	87.81
491.657	108.81
491.874	102.81
492.092	98.81
492.31	107.81
492.527	102.81
492.745	102.81
492.963	103.81
493.18	108.81
493.398	95.81
493.615	108.81
493.833	96.81
494.05	94.81
494.268	90.81
494.485	95.81
494.703	102.81
494.92	100.81
495.138	91.81
495.355	109.81
495.573	101.81
495.79	86.81
496.008	104.81
496.225	105.81
496.442	90.81
496.66	103.81
496.877	107.81
497.094	106.81
497.312	102.81
497.529	95.81
497.746	100.81
497.963	100.81
498.181	86.81
498.398	71.81
498.615	84.81
498.832	82.81
499.049	90.81
499.267	87.81
499.484	94.81
499.701	92.81
499.918	84.81
500.135	81.81
500.352	86.81
500.569	85.81
500.786	95.81
501.003	84.81
501.22	95.81
501.437	102.81
501.654	101.81
501.871	90.81
502.088	106.81
502.305	96.81
502.522	86.81
502.739	89.81
502.956	95.81
503.172	84.81
503.389	90.81
503.606	87.81
503.823	85.81
504.04	93.81
504.256	104.81
504.473	91.81
504.69	84.81
504.907	94.81
505.123	86.81
505.34	80.81
505.557	96.81
505.773	70.81
505.99	99.81
506.207	84.81
506.423	85.81
506.64	93.81
506.856	82.81
507.073	83.81
507.289	97.81
507.506	98.81
507.722	84.81
507.939	87.81
508.155	96.81
508.372	93.81
508.588	108.81
508.805	92.81
509.021	92.81
509.238	86.81
509.454	92.81
509.67	90.81
509.887	87.81
510.103	82.81
510.319	101.81
510.536	91.81
510.752	90.81
510.968	88.81
511.184	85.81
511.401	83.81
511.617	73.81
511.833	84.81
512.049	94.81
512.265	70.81
512.481	87.81
512.698	86.81
512.914	83.81
513.13	90.81
513.346	83.81
513.562	81.81
513.778	96.81
513.994	80.81
514.21	77.81
514.426	84.81
514.642	82.81
514.858	99.81
515.074	90.81
515.29	80.81
515.506	91.81
515.721	84.81
515.937	89.81
516.153	90.81
516.369	88.81
516.585	73.81
516.801	80.81
517.016	104.81
517.232	93.81
517.448	88.81
517.664	93.81
517.879	82.81
518.095	73.81
