Data from Zn(NO3)2Standard.Agarose3%.GreenCap.LampEnergy5.5.E.O_HRD10591_15-03-12-768.txt Node
Date: Mon Jul 22 15:03:12 EDT 2019
User: cochatt
Spectrometer: HR+D1059
Trigger mode: 1
Integration Time (sec): 1.000000E-1
Scans to average: 1
Electric dark correction enabled: true
Nonlinearity correction enabled: false
Boxcar width: 0
XAxis mode: Wavelengths
Number of Pixels in Spectrum: 2048
>>>>>Begin Spectral Data<<<<<
223.165	-19.19
223.4	-19.19
223.635	-19.19
223.869	0.81
224.104	-29.19
224.338	3.81
224.573	-16.19
224.808	-22.19
225.042	-3.19
225.277	0.81
225.511	-11.19
225.746	4.81
225.98	7.81
226.215	1.81
226.449	27.81
226.683	12.81
226.918	16.81
227.152	23.81
227.387	35.81
227.621	35.81
227.856	41.81
228.09	47.81
228.324	50.81
228.559	45.81
228.793	65.81
229.027	53.81
229.262	51.81
229.496	79.81
229.73	82.81
229.964	70.81
230.199	58.81
230.433	54.81
230.667	64.81
230.901	90.81
231.136	77.81
231.37	66.81
231.604	79.81
231.838	79.81
232.072	73.81
232.306	90.81
232.541	81.81
232.775	75.81
233.009	90.81
233.243	74.81
233.477	75.81
233.711	84.81
233.945	82.81
234.179	93.81
234.413	82.81
234.647	86.81
234.881	85.81
235.115	83.81
235.349	72.81
235.583	72.81
235.817	73.81
236.051	76.81
236.285	69.81
236.519	82.81
236.753	75.81
236.987	76.81
237.221	84.81
237.455	75.81
237.689	63.81
237.922	75.81
238.156	90.81
238.39	83.81
238.624	66.81
238.858	84.81
239.091	78.81
239.325	91.81
239.559	85.81
239.793	73.81
240.027	74.81
240.26	70.81
240.494	67.81
240.728	73.81
240.961	71.81
241.195	81.81
241.429	86.81
241.662	69.81
241.896	76.81
242.13	79.81
242.363	86.81
242.597	74.81
242.83	85.81
243.064	87.81
243.298	81.81
243.531	73.81
243.765	89.81
243.998	72.81
244.232	80.81
244.465	73.81
244.699	75.81
244.932	85.81
245.166	87.81
245.399	85.81
245.633	82.81
245.866	69.81
246.099	60.81
246.333	74.81
246.566	81.81
246.8	74.81
247.033	65.81
247.266	78.81
247.5	71.81
247.733	79.81
247.966	71.81
248.2	92.81
248.433	72.81
248.666	73.81
248.899	66.81
249.133	84.81
249.366	74.81
249.599	92.81
249.832	80.81
250.066	81.81
250.299	72.81
250.532	87.81
250.765	65.81
250.998	87.81
251.231	72.81
251.465	72.81
251.698	81.81
251.931	77.81
252.164	75.81
252.397	77.81
252.63	85.81
252.863	75.81
253.096	70.81
253.329	78.81
253.562	73.81
253.795	81.81
254.028	65.81
254.261	80.81
254.494	85.81
254.727	62.81
254.96	87.81
255.193	80.81
255.426	90.81
255.659	86.81
255.892	89.81
256.124	85.81
256.357	86.81
256.59	87.81
256.823	77.81
257.056	85.81
257.289	85.81
257.521	88.81
257.754	87.81
257.987	80.81
258.22	78.81
258.452	82.81
258.685	85.81
258.918	88.81
259.151	76.81
259.383	69.81
259.616	87.81
259.849	78.81
260.081	92.81
260.314	77.81
260.547	79.81
260.779	73.81
261.012	90.81
261.244	77.81
261.477	82.81
261.71	87.81
261.942	68.81
262.175	92.81
262.407	82.81
262.64	83.81
262.872	82.81
263.105	66.81
263.337	86.81
263.57	74.81
263.802	74.81
264.035	76.81
264.267	75.81
264.499	73.81
264.732	91.81
264.964	75.81
265.197	87.81
265.429	86.81
265.661	72.81
265.894	85.81
266.126	79.81
266.358	81.81
266.591	86.81
266.823	83.81
267.055	96.81
267.287	89.81
267.52	79.81
267.752	87.81
267.984	84.81
268.216	83.81
268.448	90.81
268.681	78.81
268.913	80.81
269.145	76.81
269.377	82.81
269.609	81.81
269.841	77.81
270.073	83.81
270.306	88.81
270.538	74.81
270.77	83.81
271.002	74.81
271.234	71.81
271.466	79.81
271.698	71.81
271.93	79.81
272.162	95.81
272.394	91.81
272.626	83.81
272.858	81.81
273.09	80.81
273.322	82.81
273.553	83.81
273.785	76.81
274.017	95.81
274.249	82.81
274.481	80.81
274.713	97.81
274.945	78.81
275.176	91.81
275.408	78.81
275.64	80.81
275.872	84.81
276.104	83.81
276.335	87.81
276.567	83.81
276.799	88.81
277.031	87.81
277.262	73.81
277.494	77.81
277.726	88.81
277.957	80.81
278.189	78.81
278.421	89.81
278.652	81.81
278.884	73.81
279.115	86.81
279.347	91.81
279.579	91.81
279.81	73.81
280.042	77.81
280.273	89.81
280.505	94.81
280.736	77.81
280.968	82.81
281.199	84.81
281.431	75.81
281.662	86.81
281.894	84.81
282.125	87.81
282.356	84.81
282.588	78.81
282.819	82.81
283.051	90.81
283.282	78.81
283.513	79.81
283.745	91.81
283.976	86.81
284.207	77.81
284.439	81.81
284.67	86.81
284.901	84.81
285.132	85.81
285.364	83.81
285.595	75.81
285.826	82.81
286.057	90.81
286.288	95.81
286.52	104.81
286.751	86.81
286.982	87.81
287.213	87.81
287.444	82.81
287.675	61.81
287.906	80.81
288.138	82.81
288.369	102.81
288.6	84.81
288.831	88.81
289.062	100.81
289.293	82.81
289.524	83.81
289.755	80.81
289.986	82.81
290.217	89.81
290.448	94.81
290.679	91.81
290.91	87.81
291.141	75.81
291.371	88.81
291.602	77.81
291.833	73.81
292.064	81.81
292.295	80.81
292.526	82.81
292.757	81.81
292.987	84.81
293.218	90.81
293.449	98.81
293.68	82.81
293.91	96.81
294.141	87.81
294.372	71.81
294.603	80.81
294.833	78.81
295.064	82.81
295.295	72.81
295.525	75.81
295.756	72.81
295.987	84.81
296.217	97.81
296.448	80.81
296.679	73.81
296.909	79.81
297.14	85.81
297.37	69.81
297.601	82.81
297.831	78.81
298.062	76.81
298.292	73.81
298.523	77.81
298.753	81.81
298.984	86.81
299.214	90.81
299.445	97.81
299.675	90.81
299.905	89.81
300.136	79.81
300.366	93.81
300.597	85.81
300.827	80.81
301.057	85.81
301.288	90.81
301.518	92.81
301.748	97.81
301.979	91.81
302.209	65.81
302.439	91.81
302.669	91.81
302.9	74.81
303.13	80.81
303.36	86.81
303.59	89.81
303.82	88.81
304.051	74.81
304.281	90.81
304.511	82.81
304.741	83.81
304.971	102.81
305.201	85.81
305.431	104.81
305.661	94.81
305.891	85.81
306.121	91.81
306.352	74.81
306.582	81.81
306.812	83.81
307.042	78.81
307.272	97.81
307.502	89.81
307.731	78.81
307.961	84.81
308.191	89.81
308.421	90.81
308.651	93.81
308.881	83.81
309.111	90.81
309.341	91.81
309.571	78.81
309.8	84.81
310.03	86.81
310.26	84.81
310.49	68.81
310.72	90.81
310.949	86.81
311.179	88.81
311.409	89.81
311.639	77.81
311.868	101.81
312.098	97.81
312.328	94.81
312.557	80.81
312.787	78.81
313.017	96.81
313.246	77.81
313.476	93.81
313.706	94.81
313.935	92.81
314.165	96.81
314.394	77.81
314.624	88.81
314.853	97.81
315.083	91.81
315.312	84.81
315.542	90.81
315.771	90.81
316.001	93.81
316.23	88.81
316.46	96.81
316.689	69.81
316.919	69.81
317.148	101.81
317.377	96.81
317.607	91.81
317.836	86.81
318.065	91.81
318.295	64.81
318.524	88.81
318.753	96.81
318.983	96.81
319.212	88.81
319.441	88.81
319.67	84.81
319.9	88.81
320.129	83.81
320.358	87.81
320.587	86.81
320.816	88.81
321.046	77.81
321.275	85.81
321.504	82.81
321.733	89.81
321.962	82.81
322.191	96.81
322.42	74.81
322.649	77.81
322.878	85.81
323.108	86.81
323.337	87.81
323.566	84.81
323.795	78.81
324.024	85.81
324.253	77.81
324.482	82.81
324.71	90.81
324.939	81.81
325.168	70.81
325.397	87.81
325.626	88.81
325.855	85.81
326.084	98.81
326.313	91.81
326.542	102.81
326.77	88.81
326.999	83.81
327.228	81.81
327.457	100.81
327.686	77.81
327.914	96.81
328.143	92.81
328.372	71.81
328.6	75.81
328.829	78.81
329.058	86.81
329.287	81.81
329.515	101.81
329.744	99.81
329.972	82.81
330.201	76.81
330.43	85.81
330.658	79.81
330.887	84.81
331.115	88.81
331.344	87.81
331.572	75.81
331.801	91.81
332.03	84.81
332.258	75.81
332.486	78.81
332.715	89.81
332.943	88.81
333.172	96.81
333.4	83.81
333.629	85.81
333.857	86.81
334.085	85.81
334.314	85.81
334.542	75.81
334.771	78.81
334.999	86.81
335.227	89.81
335.455	96.81
335.684	93.81
335.912	82.81
336.14	84.81
336.369	78.81
336.597	70.81
336.825	84.81
337.053	86.81
337.281	87.81
337.51	91.81
337.738	88.81
337.966	88.81
338.194	72.81
338.422	85.81
338.65	91.81
338.878	85.81
339.106	82.81
339.334	89.81
339.562	81.81
339.79	86.81
340.018	84.81
340.246	89.81
340.474	79.81
340.702	77.81
340.93	77.81
341.158	74.81
341.386	77.81
341.614	82.81
341.842	94.81
342.07	78.81
342.298	96.81
342.526	87.81
342.754	98.81
342.981	83.81
343.209	84.81
343.437	94.81
343.665	79.81
343.893	74.81
344.12	72.81
344.348	76.81
344.576	87.81
344.804	87.81
345.031	68.81
345.259	90.81
345.487	68.81
345.714	75.81
345.942	78.81
346.17	91.81
346.397	79.81
346.625	75.81
346.853	106.81
347.08	93.81
347.308	97.81
347.535	71.81
347.763	73.81
347.99	82.81
348.218	83.81
348.445	84.81
348.673	75.81
348.9	86.81
349.128	80.81
349.355	77.81
349.583	98.81
349.81	83.81
350.037	102.81
350.265	88.81
350.492	83.81
350.72	86.81
350.947	77.81
351.174	74.81
351.402	81.81
351.629	83.81
351.856	96.81
352.083	78.81
352.311	96.81
352.538	87.81
352.765	79.81
352.992	85.81
353.22	97.81
353.447	92.81
353.674	84.81
353.901	73.81
354.128	62.81
354.355	77.81
354.583	85.81
354.81	78.81
355.037	90.81
355.264	80.81
355.491	93.81
355.718	84.81
355.945	77.81
356.172	79.81
356.399	84.81
356.626	84.81
356.853	81.81
357.08	79.81
357.307	88.81
357.534	94.81
357.761	81.81
357.988	90.81
358.215	88.81
358.441	100.81
358.668	93.81
358.895	92.81
359.122	86.81
359.349	95.81
359.576	81.81
359.802	71.81
360.029	79.81
360.256	84.81
360.483	86.81
360.709	78.81
360.936	102.81
361.163	89.81
361.39	79.81
361.616	76.81
361.843	86.81
362.07	83.81
362.296	86.81
362.523	83.81
362.749	87.81
362.976	82.81
363.203	67.81
363.429	68.81
363.656	97.81
363.882	77.81
364.109	94.81
364.335	96.81
364.562	85.81
364.788	80.81
365.015	74.81
365.241	69.81
365.468	86.81
365.694	79.81
365.92	78.81
366.147	88.81
366.373	66.81
366.599	73.81
366.826	87.81
367.052	84.81
367.278	88.81
367.505	81.81
367.731	90.81
367.957	77.81
368.184	85.81
368.41	93.81
368.636	72.81
368.862	77.81
369.089	90.81
369.315	93.81
369.541	91.81
369.767	67.81
369.993	85.81
370.219	83.81
370.445	88.81
370.672	86.81
370.898	93.81
371.124	78.81
371.35	96.81
371.576	82.81
371.802	82.81
372.028	77.81
372.254	80.81
372.48	84.81
372.706	83.81
372.932	80.81
373.158	75.81
373.384	94.81
373.61	87.81
373.835	88.81
374.061	89.81
374.287	78.81
374.513	63.81
374.739	95.81
374.965	87.81
375.191	77.81
375.416	83.81
375.642	82.81
375.868	90.81
376.094	88.81
376.319	80.81
376.545	79.81
376.771	78.81
376.997	92.81
377.222	82.81
377.448	85.81
377.674	83.81
377.899	82.81
378.125	85.81
378.35	91.81
378.576	90.81
378.802	81.81
379.027	65.81
379.253	94.81
379.478	84.81
379.704	72.81
379.929	86.81
380.155	87.81
380.38	86.81
380.606	90.81
380.831	98.81
381.057	90.81
381.282	73.81
381.507	85.81
381.733	66.81
381.958	83.81
382.184	101.81
382.409	94.81
382.634	83.81
382.86	88.81
383.085	83.81
383.31	77.81
383.535	77.81
383.761	98.81
383.986	90.81
384.211	89.81
384.436	100.81
384.662	75.81
384.887	101.81
385.112	88.81
385.337	86.81
385.562	84.81
385.787	82.81
386.013	85.81
386.238	75.81
386.463	99.81
386.688	79.81
386.913	84.81
387.138	81.81
387.363	81.81
387.588	90.81
387.813	89.81
388.038	94.81
388.263	79.81
388.488	82.81
388.713	84.81
388.938	82.81
389.163	85.81
389.387	60.81
389.612	84.81
389.837	96.81
390.062	85.81
390.287	80.81
390.512	84.81
390.736	97.81
390.961	81.81
391.186	75.81
391.411	77.81
391.636	82.81
391.86	84.81
392.085	86.81
392.31	96.81
392.534	78.81
392.759	87.81
392.984	74.81
393.208	91.81
393.433	85.81
393.658	94.81
393.882	89.81
394.107	77.81
394.331	76.81
394.556	84.81
394.78	83.81
395.005	107.81
395.229	81.81
395.454	93.81
395.678	74.81
395.903	91.81
396.127	97.81
396.352	81.81
396.576	82.81
396.801	83.81
397.025	90.81
397.249	83.81
397.474	82.81
397.698	81.81
397.922	79.81
398.147	74.81
398.371	93.81
398.595	87.81
398.82	85.81
399.044	77.81
399.268	82.81
399.492	77.81
399.717	95.81
399.941	86.81
400.165	82.81
400.389	87.81
400.613	82.81
400.837	75.81
401.062	94.81
401.286	92.81
401.51	86.81
401.734	92.81
401.958	89.81
402.182	82.81
402.406	87.81
402.63	87.81
402.854	89.81
403.078	86.81
403.302	76.81
403.526	77.81
403.75	79.81
403.974	87.81
404.198	80.81
404.422	89.81
404.645	90.81
404.869	84.81
405.093	75.81
405.317	77.81
405.541	90.81
405.765	91.81
405.988	78.81
406.212	79.81
406.436	68.81
406.66	76.81
406.883	104.81
407.107	84.81
407.331	80.81
407.555	83.81
407.778	87.81
408.002	81.81
408.226	88.81
408.449	84.81
408.673	92.81
408.896	81.81
409.12	72.81
409.344	84.81
409.567	95.81
409.791	89.81
410.014	82.81
410.238	82.81
410.461	76.81
410.685	73.81
410.908	88.81
411.132	89.81
411.355	83.81
411.578	106.81
411.802	89.81
412.025	82.81
412.249	80.81
412.472	92.81
412.695	75.81
412.919	105.81
413.142	84.81
413.365	82.81
413.589	92.81
413.812	96.81
414.035	87.81
414.258	84.81
414.482	97.81
414.705	81.81
414.928	73.81
415.151	85.81
415.374	89.81
415.597	92.81
415.821	78.81
416.044	91.81
416.267	76.81
416.49	97.81
416.713	88.81
416.936	72.81
417.159	79.81
417.382	81.81
417.605	77.81
417.828	93.81
418.051	96.81
418.274	85.81
418.497	82.81
418.72	89.81
418.943	82.81
419.166	85.81
419.389	81.81
419.611	96.81
419.834	91.81
420.057	90.81
420.28	93.81
420.503	93.81
420.726	94.81
420.948	93.81
421.171	81.81
421.394	91.81
421.617	78.81
421.839	81.81
422.062	78.81
422.285	80.81
422.507	93.81
422.73	85.81
422.953	82.81
423.175	87.81
423.398	79.81
423.621	97.81
423.843	85.81
424.066	91.81
424.288	85.81
424.511	81.81
424.733	90.81
424.956	92.81
425.178	100.81
425.401	81.81
425.623	79.81
425.846	92.81
426.068	87.81
426.291	81.81
426.513	69.81
426.735	97.81
426.958	94.81
427.18	103.81
427.402	101.81
427.625	94.81
427.847	89.81
428.069	85.81
428.292	87.81
428.514	85.81
428.736	75.81
428.958	84.81
429.181	85.81
429.403	69.81
429.625	101.81
429.847	87.81
430.069	88.81
430.292	99.81
430.514	96.81
430.736	79.81
430.958	87.81
431.18	89.81
431.402	90.81
431.624	88.81
431.846	91.81
432.068	88.81
432.29	83.81
432.512	81.81
432.734	71.81
432.956	81.81
433.178	90.81
433.4	94.81
433.622	90.81
433.844	75.81
434.066	88.81
434.287	90.81
434.509	84.81
434.731	99.81
434.953	89.81
435.175	96.81
435.397	75.81
435.618	81.81
435.84	98.81
436.062	85.81
436.284	78.81
436.505	86.81
436.727	82.81
436.949	91.81
437.17	88.81
437.392	96.81
437.614	93.81
437.835	83.81
438.057	91.81
438.278	89.81
438.5	78.81
438.721	84.81
438.943	90.81
439.165	81.81
439.386	89.81
439.608	88.81
439.829	82.81
440.05	83.81
440.272	93.81
440.493	92.81
440.715	80.81
440.936	79.81
441.158	98.81
441.379	91.81
441.6	94.81
441.822	91.81
442.043	86.81
442.264	100.81
442.486	104.81
442.707	88.81
442.928	77.81
443.149	85.81
443.371	102.81
443.592	98.81
443.813	96.81
444.034	96.81
444.255	96.81
444.476	77.81
444.698	92.81
444.919	98.81
445.14	210.81
445.361	133.81
445.582	91.81
445.803	100.81
446.024	106.81
446.245	98.81
446.466	99.81
446.687	85.81
446.908	78.81
447.129	92.81
447.35	93.81
447.571	91.81
447.792	80.81
448.013	90.81
448.234	93.81
448.455	92.81
448.675	87.81
448.896	96.81
449.117	89.81
449.338	77.81
449.559	80.81
449.779	84.81
450	101.81
450.221	101.81
450.442	89.81
450.662	79.81
450.883	93.81
451.104	94.81
451.324	91.81
451.545	89.81
451.766	89.81
451.986	84.81
452.207	81.81
452.428	99.81
452.648	97.81
452.869	100.81
453.089	77.81
453.31	85.81
453.53	91.81
453.751	90.81
453.971	89.81
454.192	82.81
454.412	86.81
454.633	86.81
454.853	93.81
455.073	83.81
455.294	89.81
455.514	72.81
455.734	81.81
455.955	74.81
456.175	83.81
456.395	73.81
456.616	101.81
456.836	90.81
457.056	92.81
457.276	85.81
457.497	74.81
457.717	85.81
457.937	78.81
458.157	82.81
458.377	76.81
458.598	77.81
458.818	88.81
459.038	78.81
459.258	90.81
459.478	87.81
459.698	81.81
459.918	74.81
460.138	74.81
460.358	81.81
460.578	90.81
460.798	66.81
461.018	77.81
461.238	90.81
461.458	68.81
461.678	85.81
461.898	94.81
462.118	88.81
462.338	83.81
462.558	73.81
462.777	77.81
462.997	84.81
463.217	90.81
463.437	91.81
463.657	94.81
463.876	83.81
464.096	87.81
464.316	88.81
464.536	94.81
464.755	98.81
464.975	88.81
465.195	88.81
465.414	87.81
465.634	78.81
465.854	78.81
466.073	86.81
466.293	83.81
466.512	78.81
466.732	81.81
466.951	85.81
467.171	94.81
467.391	108.81
467.61	92.81
467.829	101.81
468.049	85.81
468.268	92.81
468.488	81.81
468.707	98.81
468.927	97.81
469.146	80.81
469.365	77.81
469.585	88.81
469.804	91.81
470.023	83.81
470.243	98.81
470.462	88.81
470.681	102.81
470.901	86.81
471.12	89.81
471.339	87.81
471.558	94.81
471.777	97.81
471.997	89.81
472.216	84.81
472.435	80.81
472.654	87.81
472.873	86.81
473.092	97.81
473.311	82.81
473.53	80.81
473.749	82.81
473.968	97.81
474.187	90.81
474.406	84.81
474.625	93.81
474.844	105.81
475.063	82.81
475.282	87.81
475.501	83.81
475.72	99.81
475.939	91.81
476.158	89.81
476.377	83.81
476.596	95.81
476.814	100.81
477.033	77.81
477.252	86.81
477.471	84.81
477.69	84.81
477.908	94.81
478.127	107.81
478.346	82.81
478.564	81.81
478.783	82.81
479.002	78.81
479.22	105.81
479.439	92.81
479.658	92.81
479.876	89.81
480.095	88.81
480.313	99.81
480.532	85.81
480.751	89.81
480.969	79.81
481.188	101.81
481.406	85.81
481.624	98.81
481.843	79.81
482.061	84.81
482.28	85.81
482.498	95.81
482.717	86.81
482.935	84.81
483.153	97.81
483.372	98.81
483.59	89.81
483.808	86.81
484.027	94.81
484.245	81.81
484.463	93.81
484.681	100.81
484.9	94.81
485.118	97.81
485.336	85.81
485.554	85.81
485.772	80.81
485.99	101.81
486.209	74.81
486.427	89.81
486.645	95.81
486.863	94.81
487.081	96.81
487.299	90.81
487.517	102.81
487.735	85.81
487.953	101.81
488.171	99.81
488.389	103.81
488.607	78.81
488.825	87.81
489.043	82.81
489.261	83.81
489.479	105.81
489.696	104.81
489.914	94.81
490.132	93.81
490.35	88.81
490.568	85.81
490.786	94.81
491.003	102.81
491.221	97.81
491.439	93.81
491.657	97.81
491.874	104.81
492.092	103.81
492.31	97.81
492.527	117.81
492.745	112.81
492.963	103.81
493.18	113.81
493.398	99.81
493.615	92.81
493.833	98.81
494.05	103.81
494.268	97.81
494.485	93.81
494.703	105.81
494.92	109.81
495.138	100.81
495.355	94.81
495.573	101.81
495.79	92.81
496.008	92.81
496.225	104.81
496.442	102.81
496.66	104.81
496.877	91.81
497.094	82.81
497.312	98.81
497.529	91.81
497.746	102.81
497.963	96.81
498.181	86.81
498.398	90.81
498.615	87.81
498.832	93.81
499.049	83.81
499.267	90.81
499.484	93.81
499.701	96.81
499.918	92.81
500.135	87.81
500.352	100.81
500.569	94.81
500.786	97.81
501.003	112.81
501.22	91.81
501.437	94.81
501.654	83.81
501.871	91.81
502.088	88.81
502.305	94.81
502.522	89.81
502.739	88.81
502.956	91.81
503.172	99.81
503.389	94.81
503.606	85.81
503.823	99.81
504.04	84.81
504.256	92.81
504.473	90.81
504.69	91.81
504.907	97.81
505.123	91.81
505.34	88.81
505.557	86.81
505.773	91.81
505.99	89.81
506.207	80.81
506.423	107.81
506.64	73.81
506.856	87.81
507.073	96.81
507.289	98.81
507.506	81.81
507.722	77.81
507.939	82.81
508.155	82.81
508.372	97.81
508.588	87.81
508.805	81.81
509.021	97.81
509.238	86.81
509.454	94.81
509.67	82.81
509.887	91.81
510.103	93.81
510.319	85.81
510.536	82.81
510.752	92.81
510.968	84.81
511.184	88.81
511.401	87.81
511.617	81.81
511.833	82.81
512.049	70.81
512.265	88.81
512.481	87.81
512.698	79.81
512.914	98.81
513.13	92.81
513.346	73.81
513.562	100.81
513.778	87.81
513.994	75.81
514.21	95.81
514.426	93.81
514.642	66.81
514.858	79.81
515.074	84.81
515.29	79.81
515.506	77.81
515.721	81.81
515.937	78.81
516.153	74.81
516.369	88.81
516.585	71.81
516.801	84.81
517.016	81.81
517.232	100.81
517.448	84.81
517.664	74.81
517.879	85.81
518.095	89.81
518.311	81.81
518.527	88.81
