Data from Zn(NO3)2Standard.Agarose3%.GreenCap.LampEnergy5.5.E.O_HRD10591_15-01-22-767.txt Node
Date: Mon Jul 22 15:01:22 EDT 2019
User: cochatt
Spectrometer: HR+D1059
Trigger mode: 1
Integration Time (sec): 1.000000E-1
Scans to average: 1
Electric dark correction enabled: true
Nonlinearity correction enabled: false
Boxcar width: 0
XAxis mode: Wavelengths
Number of Pixels in Spectrum: 2048
>>>>>Begin Spectral Data<<<<<
223.165	-14.56
223.4	-14.56
223.635	-14.56
223.869	-4.56
224.104	-19.56
224.338	-9.56
224.573	-21.56
224.808	-16.56
225.042	-1.56
225.277	-16.56
225.511	5.44
225.746	9.44
225.98	-3.56
226.215	20.44
226.449	21.44
226.683	-2.56
226.918	27.44
227.152	26.44
227.387	33.44
227.621	50.44
227.856	38.44
228.09	35.44
228.324	45.44
228.559	55.44
228.793	75.44
229.027	62.44
229.262	59.44
229.496	70.44
229.73	78.44
229.964	63.44
230.199	86.44
230.433	65.44
230.667	91.44
230.901	60.44
231.136	77.44
231.37	84.44
231.604	76.44
231.838	82.44
232.072	83.44
232.306	75.44
232.541	89.44
232.775	68.44
233.009	83.44
233.243	84.44
233.477	83.44
233.711	92.44
233.945	78.44
234.179	82.44
234.413	90.44
234.647	74.44
234.881	77.44
235.115	76.44
235.349	77.44
235.583	81.44
235.817	78.44
236.051	85.44
236.285	67.44
236.519	95.44
236.753	74.44
236.987	85.44
237.221	82.44
237.455	71.44
237.689	77.44
237.922	76.44
238.156	87.44
238.39	78.44
238.624	69.44
238.858	77.44
239.091	79.44
239.325	79.44
239.559	77.44
239.793	71.44
240.027	83.44
240.26	67.44
240.494	76.44
240.728	81.44
240.961	78.44
241.195	83.44
241.429	75.44
241.662	68.44
241.896	81.44
242.13	89.44
242.363	71.44
242.597	63.44
242.83	74.44
243.064	73.44
243.298	67.44
243.531	79.44
243.765	71.44
243.998	77.44
244.232	91.44
244.465	101.44
244.699	85.44
244.932	78.44
245.166	65.44
245.399	79.44
245.633	90.44
245.866	80.44
246.099	77.44
246.333	78.44
246.566	76.44
246.8	77.44
247.033	72.44
247.266	73.44
247.5	76.44
247.733	78.44
247.966	75.44
248.2	77.44
248.433	80.44
248.666	82.44
248.899	74.44
249.133	79.44
249.366	87.44
249.599	98.44
249.832	78.44
250.066	77.44
250.299	78.44
250.532	87.44
250.765	73.44
250.998	76.44
251.231	91.44
251.465	65.44
251.698	79.44
251.931	95.44
252.164	76.44
252.397	85.44
252.63	71.44
252.863	87.44
253.096	77.44
253.329	79.44
253.562	78.44
253.795	89.44
254.028	77.44
254.261	83.44
254.494	79.44
254.727	87.44
254.96	84.44
255.193	82.44
255.426	89.44
255.659	85.44
255.892	93.44
256.124	79.44
256.357	79.44
256.59	66.44
256.823	84.44
257.056	89.44
257.289	85.44
257.521	78.44
257.754	97.44
257.987	72.44
258.22	84.44
258.452	78.44
258.685	75.44
258.918	75.44
259.151	85.44
259.383	74.44
259.616	78.44
259.849	100.44
260.081	79.44
260.314	93.44
260.547	75.44
260.779	84.44
261.012	77.44
261.244	92.44
261.477	89.44
261.71	90.44
261.942	86.44
262.175	85.44
262.407	91.44
262.64	79.44
262.872	77.44
263.105	71.44
263.337	90.44
263.57	75.44
263.802	91.44
264.035	91.44
264.267	92.44
264.499	83.44
264.732	71.44
264.964	81.44
265.197	88.44
265.429	63.44
265.661	73.44
265.894	94.44
266.126	74.44
266.358	78.44
266.591	105.44
266.823	80.44
267.055	73.44
267.287	72.44
267.52	92.44
267.752	90.44
267.984	84.44
268.216	79.44
268.448	76.44
268.681	64.44
268.913	85.44
269.145	80.44
269.377	84.44
269.609	78.44
269.841	81.44
270.073	87.44
270.306	93.44
270.538	81.44
270.77	77.44
271.002	78.44
271.234	85.44
271.466	84.44
271.698	73.44
271.93	76.44
272.162	81.44
272.394	89.44
272.626	84.44
272.858	85.44
273.09	91.44
273.322	77.44
273.553	82.44
273.785	79.44
274.017	83.44
274.249	85.44
274.481	86.44
274.713	85.44
274.945	90.44
275.176	78.44
275.408	93.44
275.64	78.44
275.872	79.44
276.104	88.44
276.335	91.44
276.567	91.44
276.799	86.44
277.031	89.44
277.262	94.44
277.494	91.44
277.726	90.44
277.957	82.44
278.189	74.44
278.421	88.44
278.652	93.44
278.884	86.44
279.115	83.44
279.347	76.44
279.579	83.44
279.81	82.44
280.042	83.44
280.273	75.44
280.505	81.44
280.736	73.44
280.968	85.44
281.199	91.44
281.431	91.44
281.662	93.44
281.894	90.44
282.125	75.44
282.356	92.44
282.588	87.44
282.819	66.44
283.051	83.44
283.282	93.44
283.513	92.44
283.745	90.44
283.976	97.44
284.207	98.44
284.439	103.44
284.67	91.44
284.901	77.44
285.132	87.44
285.364	100.44
285.595	86.44
285.826	87.44
286.057	87.44
286.288	88.44
286.52	83.44
286.751	96.44
286.982	103.44
287.213	83.44
287.444	79.44
287.675	81.44
287.906	81.44
288.138	91.44
288.369	93.44
288.6	86.44
288.831	98.44
289.062	104.44
289.293	79.44
289.524	86.44
289.755	88.44
289.986	75.44
290.217	96.44
290.448	85.44
290.679	85.44
290.91	91.44
291.141	86.44
291.371	99.44
291.602	81.44
291.833	78.44
292.064	93.44
292.295	85.44
292.526	84.44
292.757	73.44
292.987	94.44
293.218	75.44
293.449	78.44
293.68	95.44
293.91	94.44
294.141	77.44
294.372	85.44
294.603	75.44
294.833	97.44
295.064	78.44
295.295	83.44
295.525	73.44
295.756	85.44
295.987	85.44
296.217	81.44
296.448	77.44
296.679	84.44
296.909	78.44
297.14	67.44
297.37	95.44
297.601	89.44
297.831	85.44
298.062	84.44
298.292	76.44
298.523	83.44
298.753	101.44
298.984	103.44
299.214	104.44
299.445	84.44
299.675	85.44
299.905	83.44
300.136	75.44
300.366	89.44
300.597	106.44
300.827	86.44
301.057	82.44
301.288	91.44
301.518	70.44
301.748	85.44
301.979	85.44
302.209	93.44
302.439	89.44
302.669	73.44
302.9	93.44
303.13	95.44
303.36	103.44
303.59	72.44
303.82	83.44
304.051	87.44
304.281	78.44
304.511	89.44
304.741	85.44
304.971	91.44
305.201	89.44
305.431	84.44
305.661	109.44
305.891	89.44
306.121	86.44
306.352	84.44
306.582	88.44
306.812	95.44
307.042	80.44
307.272	86.44
307.502	82.44
307.731	89.44
307.961	81.44
308.191	85.44
308.421	84.44
308.651	76.44
308.881	87.44
309.111	82.44
309.341	101.44
309.571	85.44
309.8	83.44
310.03	86.44
310.26	84.44
310.49	86.44
310.72	84.44
310.949	88.44
311.179	89.44
311.409	78.44
311.639	88.44
311.868	88.44
312.098	83.44
312.328	88.44
312.557	93.44
312.787	89.44
313.017	92.44
313.246	82.44
313.476	87.44
313.706	81.44
313.935	87.44
314.165	75.44
314.394	91.44
314.624	83.44
314.853	85.44
315.083	78.44
315.312	90.44
315.542	86.44
315.771	79.44
316.001	87.44
316.23	87.44
316.46	80.44
316.689	72.44
316.919	92.44
317.148	92.44
317.377	93.44
317.607	86.44
317.836	91.44
318.065	87.44
318.295	92.44
318.524	84.44
318.753	102.44
318.983	89.44
319.212	91.44
319.441	103.44
319.67	91.44
319.9	97.44
320.129	92.44
320.358	96.44
320.587	77.44
320.816	91.44
321.046	82.44
321.275	92.44
321.504	91.44
321.733	84.44
321.962	75.44
322.191	100.44
322.42	74.44
322.649	83.44
322.878	86.44
323.108	74.44
323.337	84.44
323.566	90.44
323.795	93.44
324.024	76.44
324.253	94.44
324.482	83.44
324.71	62.44
324.939	82.44
325.168	97.44
325.397	76.44
325.626	80.44
325.855	86.44
326.084	85.44
326.313	88.44
326.542	70.44
326.77	75.44
326.999	78.44
327.228	80.44
327.457	86.44
327.686	98.44
327.914	86.44
328.143	94.44
328.372	88.44
328.6	83.44
328.829	75.44
329.058	95.44
329.287	95.44
329.515	82.44
329.744	78.44
329.972	86.44
330.201	60.44
330.43	93.44
330.658	78.44
330.887	84.44
331.115	75.44
331.344	91.44
331.572	100.44
331.801	84.44
332.03	97.44
332.258	85.44
332.486	90.44
332.715	90.44
332.943	93.44
333.172	88.44
333.4	87.44
333.629	74.44
333.857	78.44
334.085	90.44
334.314	88.44
334.542	94.44
334.771	91.44
334.999	87.44
335.227	85.44
335.455	82.44
335.684	87.44
335.912	84.44
336.14	90.44
336.369	85.44
336.597	92.44
336.825	88.44
337.053	84.44
337.281	93.44
337.51	93.44
337.738	97.44
337.966	76.44
338.194	91.44
338.422	81.44
338.65	78.44
338.878	78.44
339.106	83.44
339.334	94.44
339.562	83.44
339.79	84.44
340.018	89.44
340.246	91.44
340.474	77.44
340.702	87.44
340.93	98.44
341.158	100.44
341.386	98.44
341.614	79.44
341.842	84.44
342.07	86.44
342.298	88.44
342.526	73.44
342.754	85.44
342.981	88.44
343.209	80.44
343.437	86.44
343.665	97.44
343.893	93.44
344.12	85.44
344.348	80.44
344.576	79.44
344.804	87.44
345.031	85.44
345.259	100.44
345.487	85.44
345.714	82.44
345.942	89.44
346.17	90.44
346.397	84.44
346.625	84.44
346.853	79.44
347.08	96.44
347.308	101.44
347.535	88.44
347.763	92.44
347.99	85.44
348.218	81.44
348.445	93.44
348.673	87.44
348.9	92.44
349.128	82.44
349.355	97.44
349.583	85.44
349.81	86.44
350.037	87.44
350.265	82.44
350.492	83.44
350.72	78.44
350.947	93.44
351.174	92.44
351.402	84.44
351.629	110.44
351.856	92.44
352.083	86.44
352.311	84.44
352.538	78.44
352.765	85.44
352.992	77.44
353.22	83.44
353.447	81.44
353.674	86.44
353.901	83.44
354.128	90.44
354.355	78.44
354.583	80.44
354.81	83.44
355.037	81.44
355.264	91.44
355.491	93.44
355.718	99.44
355.945	105.44
356.172	90.44
356.399	85.44
356.626	80.44
356.853	77.44
357.08	91.44
357.307	69.44
357.534	83.44
357.761	83.44
357.988	81.44
358.215	69.44
358.441	91.44
358.668	99.44
358.895	95.44
359.122	73.44
359.349	90.44
359.576	78.44
359.802	97.44
360.029	87.44
360.256	84.44
360.483	72.44
360.709	91.44
360.936	82.44
361.163	77.44
361.39	75.44
361.616	84.44
361.843	83.44
362.07	90.44
362.296	82.44
362.523	69.44
362.749	82.44
362.976	94.44
363.203	77.44
363.429	76.44
363.656	69.44
363.882	94.44
364.109	86.44
364.335	92.44
364.562	84.44
364.788	106.44
365.015	86.44
365.241	89.44
365.468	89.44
365.694	82.44
365.92	79.44
366.147	96.44
366.373	81.44
366.599	74.44
366.826	94.44
367.052	92.44
367.278	89.44
367.505	62.44
367.731	78.44
367.957	84.44
368.184	79.44
368.41	83.44
368.636	81.44
368.862	84.44
369.089	84.44
369.315	95.44
369.541	86.44
369.767	93.44
369.993	78.44
370.219	75.44
370.445	87.44
370.672	79.44
370.898	86.44
371.124	91.44
371.35	74.44
371.576	82.44
371.802	97.44
372.028	90.44
372.254	90.44
372.48	71.44
372.706	78.44
372.932	97.44
373.158	73.44
373.384	93.44
373.61	83.44
373.835	94.44
374.061	64.44
374.287	80.44
374.513	72.44
374.739	83.44
374.965	86.44
375.191	85.44
375.416	89.44
375.642	81.44
375.868	95.44
376.094	85.44
376.319	83.44
376.545	93.44
376.771	83.44
376.997	80.44
377.222	94.44
377.448	91.44
377.674	88.44
377.899	91.44
378.125	78.44
378.35	79.44
378.576	86.44
378.802	85.44
379.027	78.44
379.253	97.44
379.478	85.44
379.704	86.44
379.929	84.44
380.155	93.44
380.38	84.44
380.606	84.44
380.831	85.44
381.057	89.44
381.282	85.44
381.507	79.44
381.733	93.44
381.958	94.44
382.184	70.44
382.409	84.44
382.634	93.44
382.86	80.44
383.085	101.44
383.31	87.44
383.535	91.44
383.761	87.44
383.986	98.44
384.211	85.44
384.436	80.44
384.662	79.44
384.887	85.44
385.112	82.44
385.337	96.44
385.562	81.44
385.787	82.44
386.013	99.44
386.238	86.44
386.463	74.44
386.688	81.44
386.913	95.44
387.138	86.44
387.363	94.44
387.588	79.44
387.813	80.44
388.038	78.44
388.263	80.44
388.488	83.44
388.713	83.44
388.938	73.44
389.163	95.44
389.387	92.44
389.612	98.44
389.837	76.44
390.062	90.44
390.287	92.44
390.512	77.44
390.736	84.44
390.961	101.44
391.186	81.44
391.411	85.44
391.636	100.44
391.86	85.44
392.085	97.44
392.31	88.44
392.534	75.44
392.759	84.44
392.984	85.44
393.208	78.44
393.433	92.44
393.658	82.44
393.882	86.44
394.107	98.44
394.331	76.44
394.556	79.44
394.78	87.44
395.005	87.44
395.229	90.44
395.454	85.44
395.678	77.44
395.903	74.44
396.127	80.44
396.352	81.44
396.576	80.44
396.801	97.44
397.025	91.44
397.249	85.44
397.474	84.44
397.698	79.44
397.922	84.44
398.147	88.44
398.371	85.44
398.595	70.44
398.82	80.44
399.044	85.44
399.268	87.44
399.492	75.44
399.717	81.44
399.941	86.44
400.165	98.44
400.389	89.44
400.613	73.44
400.837	78.44
401.062	80.44
401.286	87.44
401.51	85.44
401.734	89.44
401.958	88.44
402.182	90.44
402.406	82.44
402.63	79.44
402.854	75.44
403.078	92.44
403.302	86.44
403.526	76.44
403.75	87.44
403.974	86.44
404.198	90.44
404.422	87.44
404.645	91.44
404.869	71.44
405.093	88.44
405.317	91.44
405.541	77.44
405.765	99.44
405.988	85.44
406.212	87.44
406.436	86.44
406.66	92.44
406.883	83.44
407.107	91.44
407.331	94.44
407.555	86.44
407.778	79.44
408.002	98.44
408.226	82.44
408.449	85.44
408.673	77.44
408.896	110.44
409.12	94.44
409.344	91.44
409.567	89.44
409.791	85.44
410.014	88.44
410.238	83.44
410.461	84.44
410.685	77.44
410.908	87.44
411.132	95.44
411.355	78.44
411.578	91.44
411.802	97.44
412.025	90.44
412.249	88.44
412.472	91.44
412.695	87.44
412.919	95.44
413.142	100.44
413.365	99.44
413.589	105.44
413.812	79.44
414.035	82.44
414.258	94.44
414.482	80.44
414.705	79.44
414.928	87.44
415.151	81.44
415.374	95.44
415.597	89.44
415.821	87.44
416.044	108.44
416.267	89.44
416.49	87.44
416.713	99.44
416.936	85.44
417.159	81.44
417.382	81.44
417.605	73.44
417.828	91.44
418.051	99.44
418.274	93.44
418.497	83.44
418.72	93.44
418.943	96.44
419.166	92.44
419.389	103.44
419.611	85.44
419.834	83.44
420.057	72.44
420.28	92.44
420.503	86.44
420.726	109.44
420.948	86.44
421.171	88.44
421.394	83.44
421.617	92.44
421.839	87.44
422.062	75.44
422.285	86.44
422.507	83.44
422.73	84.44
422.953	81.44
423.175	86.44
423.398	92.44
423.621	86.44
423.843	95.44
424.066	85.44
424.288	76.44
424.511	74.44
424.733	85.44
424.956	100.44
425.178	83.44
425.401	94.44
425.623	90.44
425.846	97.44
426.068	92.44
426.291	89.44
426.513	83.44
426.735	88.44
426.958	87.44
427.18	78.44
427.402	81.44
427.625	79.44
427.847	87.44
428.069	80.44
428.292	80.44
428.514	76.44
428.736	78.44
428.958	91.44
429.181	87.44
429.403	94.44
429.625	82.44
429.847	88.44
430.069	92.44
430.292	83.44
430.514	86.44
430.736	86.44
430.958	94.44
431.18	89.44
431.402	73.44
431.624	93.44
431.846	90.44
432.068	87.44
432.29	93.44
432.512	89.44
432.734	86.44
432.956	81.44
433.178	88.44
433.4	99.44
433.622	85.44
433.844	90.44
434.066	82.44
434.287	83.44
434.509	89.44
434.731	79.44
434.953	61.44
435.175	81.44
435.397	84.44
435.618	85.44
435.84	96.44
436.062	99.44
436.284	90.44
436.505	90.44
436.727	98.44
436.949	95.44
437.17	83.44
437.392	96.44
437.614	88.44
437.835	79.44
438.057	84.44
438.278	79.44
438.5	86.44
438.721	93.44
438.943	78.44
439.165	87.44
439.386	95.44
439.608	80.44
439.829	91.44
440.05	89.44
440.272	84.44
440.493	78.44
440.715	93.44
440.936	110.44
441.158	94.44
441.379	91.44
441.6	90.44
441.822	85.44
442.043	76.44
442.264	85.44
442.486	91.44
442.707	86.44
442.928	90.44
443.149	98.44
443.371	89.44
443.592	93.44
443.813	96.44
444.034	94.44
444.255	80.44
444.476	75.44
444.698	75.44
444.919	89.44
445.14	190.44
445.361	149.44
445.582	87.44
445.803	83.44
446.024	86.44
446.245	94.44
446.466	80.44
446.687	92.44
446.908	84.44
447.129	87.44
447.35	101.44
447.571	94.44
447.792	87.44
448.013	92.44
448.234	95.44
448.455	92.44
448.675	93.44
448.896	75.44
449.117	90.44
449.338	104.44
449.559	106.44
449.779	80.44
450	80.44
450.221	90.44
450.442	80.44
450.662	86.44
450.883	88.44
451.104	100.44
451.324	85.44
451.545	84.44
451.766	87.44
451.986	95.44
452.207	89.44
452.428	83.44
452.648	88.44
452.869	84.44
453.089	90.44
453.31	83.44
453.53	89.44
453.751	51.44
453.971	75.44
454.192	66.44
454.412	83.44
454.633	77.44
454.853	90.44
455.073	76.44
455.294	94.44
455.514	95.44
455.734	74.44
455.955	77.44
456.175	86.44
456.395	69.44
456.616	77.44
456.836	86.44
457.056	78.44
457.276	95.44
457.497	78.44
457.717	89.44
457.937	89.44
458.157	80.44
458.377	82.44
458.598	86.44
458.818	76.44
459.038	74.44
459.258	77.44
459.478	77.44
459.698	70.44
459.918	92.44
460.138	96.44
460.358	88.44
460.578	73.44
460.798	95.44
461.018	99.44
461.238	94.44
461.458	90.44
461.678	82.44
461.898	91.44
462.118	98.44
462.338	90.44
462.558	91.44
462.777	78.44
462.997	91.44
463.217	83.44
463.437	82.44
463.657	91.44
463.876	75.44
464.096	85.44
464.316	96.44
464.536	83.44
464.755	93.44
464.975	99.44
465.195	81.44
465.414	94.44
465.634	96.44
465.854	82.44
466.073	93.44
466.293	90.44
466.512	90.44
466.732	88.44
466.951	102.44
467.171	94.44
467.391	85.44
467.61	94.44
467.829	85.44
468.049	90.44
468.268	89.44
468.488	87.44
468.707	87.44
468.927	89.44
469.146	87.44
469.365	98.44
469.585	87.44
469.804	94.44
470.023	100.44
470.243	106.44
470.462	86.44
470.681	91.44
470.901	90.44
471.12	84.44
471.339	86.44
471.558	98.44
471.777	88.44
471.997	94.44
472.216	100.44
472.435	86.44
472.654	100.44
472.873	78.44
473.092	87.44
473.311	83.44
473.53	93.44
473.749	86.44
473.968	98.44
474.187	99.44
474.406	86.44
474.625	97.44
474.844	93.44
475.063	113.44
475.282	94.44
475.501	72.44
475.72	89.44
475.939	96.44
476.158	79.44
476.377	83.44
476.596	75.44
476.814	78.44
477.033	86.44
477.252	91.44
477.471	82.44
477.69	85.44
477.908	97.44
478.127	85.44
478.346	85.44
478.564	97.44
478.783	94.44
479.002	85.44
479.22	83.44
479.439	85.44
479.658	88.44
479.876	85.44
480.095	89.44
480.313	79.44
480.532	106.44
480.751	93.44
480.969	83.44
481.188	91.44
481.406	96.44
481.624	83.44
481.843	97.44
482.061	95.44
482.28	72.44
482.498	79.44
482.717	84.44
482.935	80.44
483.153	88.44
483.372	90.44
483.59	82.44
483.808	97.44
484.027	79.44
484.245	94.44
484.463	91.44
484.681	100.44
484.9	88.44
485.118	79.44
485.336	97.44
485.554	84.44
485.772	83.44
485.99	89.44
486.209	91.44
486.427	72.44
486.645	93.44
486.863	91.44
487.081	90.44
487.299	86.44
487.517	88.44
487.735	99.44
487.953	95.44
488.171	102.44
488.389	90.44
488.607	104.44
488.825	89.44
489.043	94.44
489.261	101.44
489.479	102.44
489.696	79.44
489.914	92.44
490.132	103.44
490.35	101.44
490.568	101.44
490.786	94.44
491.003	98.44
491.221	97.44
491.439	105.44
491.657	104.44
491.874	104.44
492.092	91.44
492.31	108.44
492.527	95.44
492.745	107.44
492.963	113.44
493.18	109.44
493.398	101.44
493.615	116.44
493.833	100.44
494.05	104.44
494.268	97.44
494.485	110.44
494.703	111.44
494.92	104.44
495.138	109.44
495.355	98.44
495.573	90.44
495.79	85.44
496.008	99.44
496.225	89.44
496.442	99.44
496.66	100.44
496.877	89.44
497.094	86.44
497.312	98.44
497.529	101.44
497.746	98.44
497.963	95.44
498.181	84.44
498.398	97.44
498.615	89.44
498.832	85.44
499.049	89.44
499.267	91.44
499.484	86.44
499.701	85.44
499.918	95.44
500.135	100.44
500.352	92.44
500.569	94.44
500.786	93.44
501.003	76.44
501.22	91.44
501.437	99.44
501.654	80.44
501.871	82.44
502.088	71.44
502.305	86.44
502.522	99.44
502.739	99.44
502.956	91.44
503.172	87.44
503.389	92.44
503.606	94.44
503.823	90.44
504.04	92.44
504.256	85.44
504.473	85.44
504.69	93.44
504.907	89.44
505.123	92.44
505.34	97.44
505.557	82.44
505.773	99.44
505.99	100.44
506.207	81.44
506.423	94.44
506.64	73.44
506.856	84.44
507.073	80.44
507.289	96.44
507.506	78.44
507.722	100.44
507.939	84.44
508.155	68.44
508.372	85.44
508.588	84.44
508.805	92.44
509.021	84.44
509.238	89.44
509.454	84.44
509.67	89.44
509.887	96.44
510.103	93.44
510.319	91.44
510.536	80.44
510.752	91.44
510.968	90.44
511.184	89.44
511.401	92.44
511.617	92.44
511.833	89.44
512.049	83.44
512.265	92.44
512.481	89.44
512.698	102.44
512.914	72.44
513.13	79.44
513.346	90.44
513.562	86.44
513.778	79.44
513.994	91.44
514.21	83.44
514.426	82.44
514.642	81.44
514.858	95.44
515.074	72.44
515.29	80.44
515.506	82.44
515.721	73.44
515.937	77.44
516.153	85.44
516.369	89.44
516.585	80.44
516.801	93.44
517.016	73.44
517.232	79.44
517.448	76.44
517.664	86.44
517.879	79.44
518.095	76.44
518.311	78.44
