Data from Zn(NO3)2Standard.Agarose3%.GreenCap.LampEnergy5.5.E.O_HRD10591_15-01-42-767.txt Node
Date: Mon Jul 22 15:01:42 EDT 2019
User: cochatt
Spectrometer: HR+D1059
Trigger mode: 1
Integration Time (sec): 1.000000E-1
Scans to average: 1
Electric dark correction enabled: true
Nonlinearity correction enabled: false
Boxcar width: 0
XAxis mode: Wavelengths
Number of Pixels in Spectrum: 2048
>>>>>Begin Spectral Data<<<<<
223.165	-23.44
223.4	-23.44
223.635	-23.44
223.869	-16.44
224.104	-13.44
224.338	-12.44
224.573	-8.44
224.808	-17.44
225.042	-10.44
225.277	-8.44
225.511	-6.44
225.746	7.56
225.98	17.56
226.215	12.56
226.449	14.56
226.683	19.56
226.918	18.56
227.152	26.56
227.387	27.56
227.621	31.56
227.856	48.56
228.09	41.56
228.324	59.56
228.559	59.56
228.793	61.56
229.027	71.56
229.262	57.56
229.496	70.56
229.73	67.56
229.964	74.56
230.199	70.56
230.433	79.56
230.667	91.56
230.901	83.56
231.136	76.56
231.37	74.56
231.604	75.56
231.838	91.56
232.072	82.56
232.306	78.56
232.541	91.56
232.775	82.56
233.009	79.56
233.243	83.56
233.477	79.56
233.711	64.56
233.945	87.56
234.179	80.56
234.413	83.56
234.647	81.56
234.881	82.56
235.115	75.56
235.349	76.56
235.583	79.56
235.817	76.56
236.051	74.56
236.285	73.56
236.519	94.56
236.753	96.56
236.987	91.56
237.221	89.56
237.455	87.56
237.689	79.56
237.922	71.56
238.156	77.56
238.39	67.56
238.624	75.56
238.858	78.56
239.091	68.56
239.325	81.56
239.559	85.56
239.793	85.56
240.027	83.56
240.26	74.56
240.494	85.56
240.728	85.56
240.961	60.56
241.195	77.56
241.429	80.56
241.662	78.56
241.896	65.56
242.13	66.56
242.363	68.56
242.597	77.56
242.83	89.56
243.064	76.56
243.298	82.56
243.531	83.56
243.765	70.56
243.998	82.56
244.232	73.56
244.465	75.56
244.699	89.56
244.932	86.56
245.166	86.56
245.399	79.56
245.633	79.56
245.866	76.56
246.099	63.56
246.333	74.56
246.566	87.56
246.8	73.56
247.033	79.56
247.266	94.56
247.5	88.56
247.733	83.56
247.966	73.56
248.2	83.56
248.433	75.56
248.666	85.56
248.899	86.56
249.133	88.56
249.366	86.56
249.599	82.56
249.832	98.56
250.066	81.56
250.299	79.56
250.532	94.56
250.765	83.56
250.998	72.56
251.231	85.56
251.465	83.56
251.698	78.56
251.931	80.56
252.164	79.56
252.397	85.56
252.63	96.56
252.863	92.56
253.096	85.56
253.329	79.56
253.562	82.56
253.795	75.56
254.028	89.56
254.261	77.56
254.494	83.56
254.727	85.56
254.96	88.56
255.193	78.56
255.426	93.56
255.659	89.56
255.892	77.56
256.124	88.56
256.357	78.56
256.59	77.56
256.823	83.56
257.056	82.56
257.289	83.56
257.521	69.56
257.754	80.56
257.987	71.56
258.22	76.56
258.452	80.56
258.685	93.56
258.918	92.56
259.151	92.56
259.383	89.56
259.616	76.56
259.849	80.56
260.081	70.56
260.314	81.56
260.547	81.56
260.779	73.56
261.012	88.56
261.244	80.56
261.477	87.56
261.71	84.56
261.942	74.56
262.175	79.56
262.407	84.56
262.64	104.56
262.872	83.56
263.105	70.56
263.337	72.56
263.57	89.56
263.802	74.56
264.035	83.56
264.267	78.56
264.499	69.56
264.732	81.56
264.964	76.56
265.197	93.56
265.429	76.56
265.661	87.56
265.894	79.56
266.126	78.56
266.358	57.56
266.591	80.56
266.823	91.56
267.055	81.56
267.287	90.56
267.52	79.56
267.752	76.56
267.984	86.56
268.216	73.56
268.448	86.56
268.681	74.56
268.913	84.56
269.145	89.56
269.377	86.56
269.609	89.56
269.841	86.56
270.073	76.56
270.306	91.56
270.538	75.56
270.77	79.56
271.002	83.56
271.234	85.56
271.466	92.56
271.698	83.56
271.93	82.56
272.162	76.56
272.394	88.56
272.626	81.56
272.858	83.56
273.09	68.56
273.322	95.56
273.553	84.56
273.785	95.56
274.017	83.56
274.249	82.56
274.481	78.56
274.713	87.56
274.945	79.56
275.176	95.56
275.408	81.56
275.64	82.56
275.872	90.56
276.104	85.56
276.335	96.56
276.567	85.56
276.799	86.56
277.031	74.56
277.262	98.56
277.494	80.56
277.726	87.56
277.957	90.56
278.189	91.56
278.421	73.56
278.652	78.56
278.884	86.56
279.115	88.56
279.347	87.56
279.579	96.56
279.81	88.56
280.042	95.56
280.273	99.56
280.505	94.56
280.736	76.56
280.968	86.56
281.199	98.56
281.431	89.56
281.662	84.56
281.894	98.56
282.125	81.56
282.356	75.56
282.588	76.56
282.819	81.56
283.051	88.56
283.282	74.56
283.513	77.56
283.745	67.56
283.976	87.56
284.207	86.56
284.439	78.56
284.67	91.56
284.901	76.56
285.132	90.56
285.364	84.56
285.595	86.56
285.826	87.56
286.057	88.56
286.288	94.56
286.52	93.56
286.751	82.56
286.982	94.56
287.213	91.56
287.444	82.56
287.675	93.56
287.906	81.56
288.138	92.56
288.369	99.56
288.6	78.56
288.831	81.56
289.062	81.56
289.293	85.56
289.524	89.56
289.755	88.56
289.986	82.56
290.217	86.56
290.448	101.56
290.679	90.56
290.91	91.56
291.141	80.56
291.371	74.56
291.602	83.56
291.833	85.56
292.064	92.56
292.295	93.56
292.526	77.56
292.757	88.56
292.987	82.56
293.218	82.56
293.449	93.56
293.68	87.56
293.91	79.56
294.141	82.56
294.372	90.56
294.603	86.56
294.833	88.56
295.064	95.56
295.295	92.56
295.525	82.56
295.756	83.56
295.987	88.56
296.217	90.56
296.448	83.56
296.679	93.56
296.909	78.56
297.14	83.56
297.37	94.56
297.601	78.56
297.831	71.56
298.062	82.56
298.292	102.56
298.523	90.56
298.753	91.56
298.984	100.56
299.214	91.56
299.445	90.56
299.675	76.56
299.905	85.56
300.136	88.56
300.366	87.56
300.597	102.56
300.827	100.56
301.057	91.56
301.288	69.56
301.518	81.56
301.748	94.56
301.979	80.56
302.209	90.56
302.439	86.56
302.669	87.56
302.9	74.56
303.13	81.56
303.36	74.56
303.59	79.56
303.82	84.56
304.051	82.56
304.281	85.56
304.511	95.56
304.741	84.56
304.971	85.56
305.201	90.56
305.431	87.56
305.661	83.56
305.891	74.56
306.121	91.56
306.352	73.56
306.582	94.56
306.812	85.56
307.042	97.56
307.272	103.56
307.502	103.56
307.731	101.56
307.961	83.56
308.191	90.56
308.421	99.56
308.651	86.56
308.881	96.56
309.111	79.56
309.341	79.56
309.571	92.56
309.8	85.56
310.03	65.56
310.26	90.56
310.49	77.56
310.72	88.56
310.949	94.56
311.179	84.56
311.409	81.56
311.639	81.56
311.868	87.56
312.098	65.56
312.328	76.56
312.557	78.56
312.787	100.56
313.017	68.56
313.246	78.56
313.476	83.56
313.706	85.56
313.935	80.56
314.165	78.56
314.394	86.56
314.624	85.56
314.853	84.56
315.083	91.56
315.312	74.56
315.542	82.56
315.771	68.56
316.001	79.56
316.23	75.56
316.46	101.56
316.689	83.56
316.919	75.56
317.148	85.56
317.377	72.56
317.607	95.56
317.836	98.56
318.065	83.56
318.295	93.56
318.524	82.56
318.753	93.56
318.983	93.56
319.212	93.56
319.441	82.56
319.67	92.56
319.9	77.56
320.129	73.56
320.358	95.56
320.587	89.56
320.816	70.56
321.046	92.56
321.275	82.56
321.504	84.56
321.733	67.56
321.962	87.56
322.191	75.56
322.42	78.56
322.649	82.56
322.878	76.56
323.108	81.56
323.337	77.56
323.566	93.56
323.795	99.56
324.024	88.56
324.253	93.56
324.482	83.56
324.71	81.56
324.939	79.56
325.168	89.56
325.397	90.56
325.626	77.56
325.855	76.56
326.084	90.56
326.313	85.56
326.542	63.56
326.77	79.56
326.999	79.56
327.228	90.56
327.457	85.56
327.686	82.56
327.914	76.56
328.143	81.56
328.372	65.56
328.6	80.56
328.829	87.56
329.058	71.56
329.287	86.56
329.515	76.56
329.744	94.56
329.972	93.56
330.201	76.56
330.43	81.56
330.658	92.56
330.887	82.56
331.115	87.56
331.344	96.56
331.572	90.56
331.801	89.56
332.03	85.56
332.258	79.56
332.486	94.56
332.715	96.56
332.943	89.56
333.172	78.56
333.4	99.56
333.629	83.56
333.857	90.56
334.085	94.56
334.314	89.56
334.542	90.56
334.771	94.56
334.999	90.56
335.227	89.56
335.455	84.56
335.684	92.56
335.912	82.56
336.14	79.56
336.369	79.56
336.597	79.56
336.825	75.56
337.053	79.56
337.281	79.56
337.51	67.56
337.738	93.56
337.966	87.56
338.194	83.56
338.422	82.56
338.65	69.56
338.878	94.56
339.106	76.56
339.334	95.56
339.562	81.56
339.79	87.56
340.018	81.56
340.246	81.56
340.474	81.56
340.702	89.56
340.93	86.56
341.158	80.56
341.386	91.56
341.614	91.56
341.842	89.56
342.07	82.56
342.298	83.56
342.526	62.56
342.754	89.56
342.981	90.56
343.209	85.56
343.437	91.56
343.665	85.56
343.893	87.56
344.12	80.56
344.348	90.56
344.576	88.56
344.804	78.56
345.031	92.56
345.259	79.56
345.487	69.56
345.714	76.56
345.942	86.56
346.17	92.56
346.397	86.56
346.625	73.56
346.853	77.56
347.08	79.56
347.308	83.56
347.535	74.56
347.763	80.56
347.99	98.56
348.218	86.56
348.445	69.56
348.673	81.56
348.9	72.56
349.128	92.56
349.355	92.56
349.583	81.56
349.81	74.56
350.037	76.56
350.265	70.56
350.492	83.56
350.72	79.56
350.947	75.56
351.174	92.56
351.402	81.56
351.629	83.56
351.856	98.56
352.083	70.56
352.311	89.56
352.538	88.56
352.765	97.56
352.992	85.56
353.22	85.56
353.447	77.56
353.674	85.56
353.901	78.56
354.128	71.56
354.355	88.56
354.583	87.56
354.81	85.56
355.037	89.56
355.264	82.56
355.491	80.56
355.718	84.56
355.945	89.56
356.172	72.56
356.399	81.56
356.626	70.56
356.853	88.56
357.08	82.56
357.307	89.56
357.534	90.56
357.761	76.56
357.988	79.56
358.215	85.56
358.441	80.56
358.668	85.56
358.895	82.56
359.122	82.56
359.349	96.56
359.576	86.56
359.802	89.56
360.029	77.56
360.256	76.56
360.483	77.56
360.709	81.56
360.936	102.56
361.163	65.56
361.39	90.56
361.616	80.56
361.843	80.56
362.07	92.56
362.296	78.56
362.523	71.56
362.749	87.56
362.976	92.56
363.203	90.56
363.429	70.56
363.656	89.56
363.882	82.56
364.109	76.56
364.335	100.56
364.562	89.56
364.788	87.56
365.015	87.56
365.241	82.56
365.468	77.56
365.694	88.56
365.92	80.56
366.147	70.56
366.373	77.56
366.599	79.56
366.826	85.56
367.052	102.56
367.278	86.56
367.505	79.56
367.731	88.56
367.957	81.56
368.184	90.56
368.41	88.56
368.636	85.56
368.862	77.56
369.089	75.56
369.315	75.56
369.541	96.56
369.767	86.56
369.993	78.56
370.219	67.56
370.445	70.56
370.672	74.56
370.898	90.56
371.124	66.56
371.35	74.56
371.576	71.56
371.802	88.56
372.028	81.56
372.254	73.56
372.48	82.56
372.706	83.56
372.932	83.56
373.158	91.56
373.384	75.56
373.61	71.56
373.835	79.56
374.061	87.56
374.287	67.56
374.513	73.56
374.739	89.56
374.965	78.56
375.191	88.56
375.416	81.56
375.642	81.56
375.868	84.56
376.094	90.56
376.319	73.56
376.545	89.56
376.771	74.56
376.997	88.56
377.222	76.56
377.448	90.56
377.674	80.56
377.899	82.56
378.125	90.56
378.35	76.56
378.576	88.56
378.802	76.56
379.027	73.56
379.253	79.56
379.478	80.56
379.704	88.56
379.929	83.56
380.155	89.56
380.38	92.56
380.606	86.56
380.831	77.56
381.057	81.56
381.282	85.56
381.507	85.56
381.733	93.56
381.958	86.56
382.184	89.56
382.409	69.56
382.634	74.56
382.86	62.56
383.085	101.56
383.31	86.56
383.535	79.56
383.761	82.56
383.986	87.56
384.211	84.56
384.436	102.56
384.662	82.56
384.887	80.56
385.112	81.56
385.337	90.56
385.562	74.56
385.787	80.56
386.013	83.56
386.238	74.56
386.463	82.56
386.688	79.56
386.913	74.56
387.138	79.56
387.363	82.56
387.588	74.56
387.813	83.56
388.038	85.56
388.263	84.56
388.488	71.56
388.713	83.56
388.938	81.56
389.163	76.56
389.387	76.56
389.612	77.56
389.837	66.56
390.062	72.56
390.287	82.56
390.512	77.56
390.736	80.56
390.961	76.56
391.186	84.56
391.411	84.56
391.636	90.56
391.86	85.56
392.085	70.56
392.31	77.56
392.534	90.56
392.759	84.56
392.984	74.56
393.208	91.56
393.433	77.56
393.658	71.56
393.882	88.56
394.107	84.56
394.331	84.56
394.556	77.56
394.78	77.56
395.005	84.56
395.229	68.56
395.454	85.56
395.678	86.56
395.903	78.56
396.127	93.56
396.352	92.56
396.576	78.56
396.801	76.56
397.025	89.56
397.249	80.56
397.474	96.56
397.698	80.56
397.922	81.56
398.147	86.56
398.371	91.56
398.595	91.56
398.82	89.56
399.044	93.56
399.268	84.56
399.492	78.56
399.717	90.56
399.941	78.56
400.165	70.56
400.389	73.56
400.613	80.56
400.837	83.56
401.062	91.56
401.286	90.56
401.51	103.56
401.734	84.56
401.958	99.56
402.182	88.56
402.406	95.56
402.63	82.56
402.854	83.56
403.078	108.56
403.302	88.56
403.526	94.56
403.75	86.56
403.974	96.56
404.198	80.56
404.422	85.56
404.645	82.56
404.869	75.56
405.093	77.56
405.317	95.56
405.541	86.56
405.765	79.56
405.988	86.56
406.212	85.56
406.436	93.56
406.66	92.56
406.883	86.56
407.107	106.56
407.331	98.56
407.555	100.56
407.778	85.56
408.002	71.56
408.226	72.56
408.449	68.56
408.673	98.56
408.896	87.56
409.12	85.56
409.344	101.56
409.567	99.56
409.791	97.56
410.014	101.56
410.238	78.56
410.461	84.56
410.685	80.56
410.908	82.56
411.132	89.56
411.355	75.56
411.578	83.56
411.802	87.56
412.025	80.56
412.249	90.56
412.472	85.56
412.695	82.56
412.919	93.56
413.142	97.56
413.365	89.56
413.589	83.56
413.812	88.56
414.035	104.56
414.258	90.56
414.482	60.56
414.705	79.56
414.928	87.56
415.151	91.56
415.374	79.56
415.597	79.56
415.821	88.56
416.044	81.56
416.267	89.56
416.49	93.56
416.713	98.56
416.936	85.56
417.159	93.56
417.382	82.56
417.605	97.56
417.828	85.56
418.051	81.56
418.274	99.56
418.497	85.56
418.72	77.56
418.943	92.56
419.166	99.56
419.389	73.56
419.611	92.56
419.834	96.56
420.057	98.56
420.28	93.56
420.503	70.56
420.726	96.56
420.948	91.56
421.171	86.56
421.394	92.56
421.617	93.56
421.839	80.56
422.062	90.56
422.285	79.56
422.507	97.56
422.73	96.56
422.953	98.56
423.175	78.56
423.398	83.56
423.621	87.56
423.843	78.56
424.066	79.56
424.288	85.56
424.511	95.56
424.733	97.56
424.956	90.56
425.178	96.56
425.401	90.56
425.623	86.56
425.846	89.56
426.068	77.56
426.291	90.56
426.513	85.56
426.735	81.56
426.958	90.56
427.18	71.56
427.402	96.56
427.625	75.56
427.847	88.56
428.069	92.56
428.292	89.56
428.514	84.56
428.736	78.56
428.958	80.56
429.181	85.56
429.403	87.56
429.625	85.56
429.847	78.56
430.069	81.56
430.292	88.56
430.514	92.56
430.736	101.56
430.958	78.56
431.18	89.56
431.402	85.56
431.624	94.56
431.846	82.56
432.068	88.56
432.29	91.56
432.512	89.56
432.734	83.56
432.956	84.56
433.178	105.56
433.4	86.56
433.622	86.56
433.844	99.56
434.066	101.56
434.287	69.56
434.509	93.56
434.731	91.56
434.953	89.56
435.175	92.56
435.397	81.56
435.618	91.56
435.84	67.56
436.062	78.56
436.284	77.56
436.505	82.56
436.727	89.56
436.949	88.56
437.17	83.56
437.392	79.56
437.614	75.56
437.835	80.56
438.057	79.56
438.278	82.56
438.5	83.56
438.721	87.56
438.943	80.56
439.165	87.56
439.386	85.56
439.608	89.56
439.829	74.56
440.05	98.56
440.272	85.56
440.493	94.56
440.715	94.56
440.936	79.56
441.158	83.56
441.379	63.56
441.6	84.56
441.822	81.56
442.043	94.56
442.264	86.56
442.486	95.56
442.707	92.56
442.928	90.56
443.149	90.56
443.371	97.56
443.592	98.56
443.813	72.56
444.034	80.56
444.255	101.56
444.476	85.56
444.698	84.56
444.919	103.56
445.14	183.56
445.361	148.56
445.582	90.56
445.803	72.56
446.024	94.56
446.245	94.56
446.466	95.56
446.687	83.56
446.908	98.56
447.129	97.56
447.35	92.56
447.571	83.56
447.792	101.56
448.013	99.56
448.234	98.56
448.455	93.56
448.675	88.56
448.896	88.56
449.117	80.56
449.338	93.56
449.559	83.56
449.779	81.56
450	84.56
450.221	107.56
450.442	76.56
450.662	85.56
450.883	81.56
451.104	93.56
451.324	89.56
451.545	88.56
451.766	82.56
451.986	94.56
452.207	97.56
452.428	75.56
452.648	78.56
452.869	88.56
453.089	79.56
453.31	79.56
453.53	96.56
453.751	87.56
453.971	95.56
454.192	93.56
454.412	79.56
454.633	84.56
454.853	91.56
455.073	74.56
455.294	85.56
455.514	91.56
455.734	93.56
455.955	79.56
456.175	94.56
456.395	99.56
456.616	86.56
456.836	92.56
457.056	95.56
457.276	72.56
457.497	82.56
457.717	95.56
457.937	77.56
458.157	89.56
458.377	99.56
458.598	91.56
458.818	83.56
459.038	88.56
459.258	97.56
459.478	75.56
459.698	79.56
459.918	81.56
460.138	85.56
460.358	78.56
460.578	104.56
460.798	78.56
461.018	86.56
461.238	95.56
461.458	92.56
461.678	86.56
461.898	86.56
462.118	109.56
462.338	101.56
462.558	75.56
462.777	95.56
462.997	80.56
463.217	74.56
463.437	94.56
463.657	82.56
463.876	73.56
464.096	88.56
464.316	79.56
464.536	69.56
464.755	85.56
464.975	81.56
465.195	86.56
465.414	103.56
465.634	82.56
465.854	93.56
466.073	95.56
466.293	95.56
466.512	97.56
466.732	82.56
466.951	93.56
467.171	98.56
467.391	83.56
467.61	86.56
467.829	87.56
468.049	93.56
468.268	90.56
468.488	90.56
468.707	88.56
468.927	94.56
469.146	91.56
469.365	95.56
469.585	90.56
469.804	95.56
470.023	99.56
470.243	94.56
470.462	84.56
470.681	97.56
470.901	94.56
471.12	89.56
471.339	91.56
471.558	98.56
471.777	93.56
471.997	89.56
472.216	91.56
472.435	92.56
472.654	76.56
472.873	101.56
473.092	95.56
473.311	95.56
473.53	90.56
473.749	96.56
473.968	87.56
474.187	102.56
474.406	94.56
474.625	78.56
474.844	83.56
475.063	90.56
475.282	89.56
475.501	108.56
475.72	91.56
475.939	90.56
476.158	97.56
476.377	90.56
476.596	92.56
476.814	71.56
477.033	96.56
477.252	89.56
477.471	90.56
477.69	87.56
477.908	86.56
478.127	102.56
478.346	67.56
478.564	89.56
478.783	81.56
479.002	96.56
479.22	81.56
479.439	98.56
479.658	101.56
479.876	77.56
480.095	86.56
480.313	89.56
480.532	86.56
480.751	85.56
480.969	78.56
481.188	89.56
481.406	88.56
481.624	93.56
481.843	80.56
482.061	93.56
482.28	87.56
482.498	93.56
482.717	92.56
482.935	92.56
483.153	97.56
483.372	78.56
483.59	103.56
483.808	81.56
484.027	91.56
484.245	83.56
484.463	82.56
484.681	85.56
484.9	87.56
485.118	82.56
485.336	89.56
485.554	87.56
485.772	80.56
485.99	88.56
486.209	90.56
486.427	86.56
486.645	85.56
486.863	101.56
487.081	86.56
487.299	83.56
487.517	91.56
487.735	86.56
487.953	101.56
488.171	108.56
488.389	100.56
488.607	90.56
488.825	83.56
489.043	91.56
489.261	98.56
489.479	97.56
489.696	86.56
489.914	88.56
490.132	86.56
490.35	91.56
490.568	97.56
490.786	91.56
491.003	104.56
491.221	108.56
491.439	87.56
491.657	89.56
491.874	91.56
492.092	96.56
492.31	108.56
492.527	111.56
492.745	109.56
492.963	110.56
493.18	95.56
493.398	103.56
493.615	124.56
493.833	108.56
494.05	89.56
494.268	85.56
494.485	87.56
494.703	106.56
494.92	91.56
495.138	94.56
495.355	99.56
495.573	99.56
495.79	105.56
496.008	99.56
496.225	90.56
496.442	107.56
496.66	101.56
496.877	93.56
497.094	98.56
497.312	97.56
497.529	98.56
497.746	93.56
497.963	85.56
498.181	85.56
498.398	81.56
498.615	86.56
498.832	86.56
499.049	84.56
499.267	102.56
499.484	90.56
499.701	103.56
499.918	95.56
500.135	98.56
500.352	82.56
500.569	86.56
500.786	108.56
501.003	100.56
501.22	86.56
501.437	105.56
501.654	85.56
501.871	82.56
502.088	94.56
502.305	77.56
502.522	90.56
502.739	100.56
502.956	89.56
503.172	113.56
503.389	97.56
503.606	94.56
503.823	94.56
504.04	98.56
504.256	100.56
504.473	83.56
504.69	69.56
504.907	94.56
505.123	78.56
505.34	88.56
505.557	99.56
505.773	89.56
505.99	89.56
506.207	88.56
506.423	88.56
506.64	91.56
506.856	100.56
507.073	83.56
507.289	92.56
507.506	81.56
507.722	92.56
507.939	73.56
508.155	85.56
508.372	84.56
508.588	83.56
508.805	93.56
509.021	93.56
509.238	95.56
509.454	97.56
509.67	85.56
509.887	83.56
510.103	88.56
510.319	90.56
510.536	89.56
510.752	76.56
510.968	87.56
511.184	84.56
511.401	73.56
511.617	87.56
511.833	81.56
512.049	72.56
512.265	84.56
512.481	86.56
512.698	97.56
512.914	88.56
513.13	82.56
513.346	88.56
513.562	80.56
513.778	79.56
513.994	89.56
514.21	85.56
514.426	89.56
514.642	81.56
514.858	93.56
515.074	95.56
515.29	75.56
515.506	93.56
515.721	88.56
515.937	94.56
516.153	89.56
516.369	95.56
516.585	90.56
516.801	84.56
517.016	95.56
517.232	95.56
517.448	79.56
517.664	102.56
517.879	85.56
518.095	92.56
518.311	90.56
518.527	97.56
