Data from Zn(NO3)2Standard.Agarose3%.GreenCap.LampEnergy5.5.E.O_HRD10591_15-02-35-767.txt Node
Date: Mon Jul 22 15:02:35 EDT 2019
User: cochatt
Spectrometer: HR+D1059
Trigger mode: 1
Integration Time (sec): 1.000000E-1
Scans to average: 1
Electric dark correction enabled: true
Nonlinearity correction enabled: false
Boxcar width: 0
XAxis mode: Wavelengths
Number of Pixels in Spectrum: 2048
>>>>>Begin Spectral Data<<<<<
223.165	-1.12
223.4	-1.12
223.635	-1.12
223.869	-19.12
224.104	-25.12
224.338	-19.12
224.573	-27.12
224.808	-24.12
225.042	-8.12
225.277	-5.12
225.511	-7.12
225.746	1.88
225.98	7.88
226.215	4.88
226.449	17.88
226.683	31.88
226.918	36.88
227.152	34.88
227.387	48.88
227.621	45.88
227.856	45.88
228.09	49.88
228.324	63.88
228.559	52.88
228.793	62.88
229.027	66.88
229.262	61.88
229.496	79.88
229.73	56.88
229.964	68.88
230.199	79.88
230.433	81.88
230.667	86.88
230.901	92.88
231.136	76.88
231.37	82.88
231.604	78.88
231.838	79.88
232.072	85.88
232.306	91.88
232.541	82.88
232.775	68.88
233.009	78.88
233.243	72.88
233.477	80.88
233.711	89.88
233.945	92.88
234.179	79.88
234.413	91.88
234.647	82.88
234.881	103.88
235.115	90.88
235.349	68.88
235.583	76.88
235.817	81.88
236.051	87.88
236.285	70.88
236.519	84.88
236.753	81.88
236.987	78.88
237.221	81.88
237.455	68.88
237.689	85.88
237.922	73.88
238.156	76.88
238.39	73.88
238.624	73.88
238.858	85.88
239.091	78.88
239.325	95.88
239.559	81.88
239.793	75.88
240.027	76.88
240.26	80.88
240.494	74.88
240.728	80.88
240.961	72.88
241.195	80.88
241.429	81.88
241.662	82.88
241.896	64.88
242.13	78.88
242.363	88.88
242.597	75.88
242.83	86.88
243.064	92.88
243.298	82.88
243.531	82.88
243.765	82.88
243.998	93.88
244.232	69.88
244.465	83.88
244.699	90.88
244.932	74.88
245.166	79.88
245.399	79.88
245.633	86.88
245.866	68.88
246.099	80.88
246.333	105.88
246.566	82.88
246.8	85.88
247.033	62.88
247.266	82.88
247.5	79.88
247.733	81.88
247.966	89.88
248.2	88.88
248.433	68.88
248.666	70.88
248.899	86.88
249.133	88.88
249.366	78.88
249.599	92.88
249.832	79.88
250.066	80.88
250.299	81.88
250.532	83.88
250.765	80.88
250.998	98.88
251.231	87.88
251.465	80.88
251.698	79.88
251.931	90.88
252.164	88.88
252.397	95.88
252.63	81.88
252.863	80.88
253.096	73.88
253.329	83.88
253.562	76.88
253.795	88.88
254.028	82.88
254.261	70.88
254.494	80.88
254.727	83.88
254.96	86.88
255.193	94.88
255.426	79.88
255.659	75.88
255.892	85.88
256.124	98.88
256.357	89.88
256.59	86.88
256.823	79.88
257.056	81.88
257.289	80.88
257.521	79.88
257.754	66.88
257.987	75.88
258.22	86.88
258.452	81.88
258.685	92.88
258.918	92.88
259.151	85.88
259.383	81.88
259.616	87.88
259.849	77.88
260.081	96.88
260.314	71.88
260.547	94.88
260.779	71.88
261.012	78.88
261.244	86.88
261.477	90.88
261.71	81.88
261.942	88.88
262.175	86.88
262.407	84.88
262.64	90.88
262.872	64.88
263.105	79.88
263.337	82.88
263.57	70.88
263.802	80.88
264.035	85.88
264.267	70.88
264.499	83.88
264.732	82.88
264.964	88.88
265.197	80.88
265.429	86.88
265.661	90.88
265.894	72.88
266.126	86.88
266.358	86.88
266.591	97.88
266.823	86.88
267.055	82.88
267.287	93.88
267.52	86.88
267.752	91.88
267.984	89.88
268.216	78.88
268.448	76.88
268.681	93.88
268.913	98.88
269.145	94.88
269.377	95.88
269.609	92.88
269.841	89.88
270.073	74.88
270.306	87.88
270.538	83.88
270.77	90.88
271.002	75.88
271.234	84.88
271.466	85.88
271.698	96.88
271.93	88.88
272.162	88.88
272.394	78.88
272.626	95.88
272.858	81.88
273.09	77.88
273.322	95.88
273.553	86.88
273.785	89.88
274.017	86.88
274.249	78.88
274.481	84.88
274.713	68.88
274.945	88.88
275.176	88.88
275.408	93.88
275.64	76.88
275.872	84.88
276.104	94.88
276.335	84.88
276.567	86.88
276.799	83.88
277.031	92.88
277.262	89.88
277.494	100.88
277.726	80.88
277.957	87.88
278.189	86.88
278.421	80.88
278.652	86.88
278.884	90.88
279.115	84.88
279.347	82.88
279.579	86.88
279.81	80.88
280.042	82.88
280.273	88.88
280.505	90.88
280.736	81.88
280.968	80.88
281.199	89.88
281.431	89.88
281.662	101.88
281.894	76.88
282.125	88.88
282.356	77.88
282.588	82.88
282.819	94.88
283.051	96.88
283.282	88.88
283.513	89.88
283.745	87.88
283.976	88.88
284.207	96.88
284.439	94.88
284.67	88.88
284.901	92.88
285.132	89.88
285.364	73.88
285.595	86.88
285.826	93.88
286.057	85.88
286.288	78.88
286.52	75.88
286.751	72.88
286.982	79.88
287.213	94.88
287.444	74.88
287.675	98.88
287.906	102.88
288.138	97.88
288.369	92.88
288.6	86.88
288.831	74.88
289.062	95.88
289.293	94.88
289.524	87.88
289.755	87.88
289.986	85.88
290.217	85.88
290.448	79.88
290.679	84.88
290.91	90.88
291.141	92.88
291.371	91.88
291.602	82.88
291.833	85.88
292.064	90.88
292.295	83.88
292.526	85.88
292.757	95.88
292.987	87.88
293.218	90.88
293.449	95.88
293.68	87.88
293.91	85.88
294.141	91.88
294.372	86.88
294.603	87.88
294.833	91.88
295.064	100.88
295.295	88.88
295.525	85.88
295.756	85.88
295.987	93.88
296.217	99.88
296.448	98.88
296.679	81.88
296.909	78.88
297.14	87.88
297.37	102.88
297.601	100.88
297.831	87.88
298.062	85.88
298.292	93.88
298.523	82.88
298.753	79.88
298.984	90.88
299.214	82.88
299.445	97.88
299.675	99.88
299.905	90.88
300.136	72.88
300.366	101.88
300.597	88.88
300.827	87.88
301.057	91.88
301.288	97.88
301.518	96.88
301.748	83.88
301.979	95.88
302.209	78.88
302.439	92.88
302.669	88.88
302.9	82.88
303.13	83.88
303.36	79.88
303.59	92.88
303.82	73.88
304.051	74.88
304.281	88.88
304.511	74.88
304.741	97.88
304.971	86.88
305.201	90.88
305.431	86.88
305.661	88.88
305.891	93.88
306.121	88.88
306.352	90.88
306.582	82.88
306.812	81.88
307.042	86.88
307.272	83.88
307.502	95.88
307.731	104.88
307.961	94.88
308.191	88.88
308.421	74.88
308.651	91.88
308.881	88.88
309.111	87.88
309.341	87.88
309.571	87.88
309.8	90.88
310.03	88.88
310.26	90.88
310.49	90.88
310.72	92.88
310.949	89.88
311.179	88.88
311.409	80.88
311.639	100.88
311.868	84.88
312.098	91.88
312.328	96.88
312.557	79.88
312.787	74.88
313.017	86.88
313.246	83.88
313.476	81.88
313.706	93.88
313.935	90.88
314.165	80.88
314.394	98.88
314.624	92.88
314.853	82.88
315.083	93.88
315.312	88.88
315.542	84.88
315.771	66.88
316.001	81.88
316.23	96.88
316.46	93.88
316.689	70.88
316.919	90.88
317.148	89.88
317.377	97.88
317.607	86.88
317.836	80.88
318.065	86.88
318.295	82.88
318.524	91.88
318.753	96.88
318.983	95.88
319.212	85.88
319.441	75.88
319.67	89.88
319.9	93.88
320.129	87.88
320.358	89.88
320.587	93.88
320.816	84.88
321.046	86.88
321.275	87.88
321.504	80.88
321.733	102.88
321.962	80.88
322.191	98.88
322.42	81.88
322.649	86.88
322.878	99.88
323.108	87.88
323.337	86.88
323.566	99.88
323.795	81.88
324.024	92.88
324.253	96.88
324.482	94.88
324.71	80.88
324.939	93.88
325.168	80.88
325.397	81.88
325.626	80.88
325.855	96.88
326.084	100.88
326.313	97.88
326.542	90.88
326.77	84.88
326.999	79.88
327.228	94.88
327.457	87.88
327.686	96.88
327.914	89.88
328.143	80.88
328.372	81.88
328.6	82.88
328.829	85.88
329.058	77.88
329.287	96.88
329.515	88.88
329.744	82.88
329.972	89.88
330.201	98.88
330.43	97.88
330.658	86.88
330.887	89.88
331.115	87.88
331.344	94.88
331.572	95.88
331.801	87.88
332.03	82.88
332.258	103.88
332.486	90.88
332.715	101.88
332.943	97.88
333.172	90.88
333.4	92.88
333.629	94.88
333.857	105.88
334.085	87.88
334.314	95.88
334.542	99.88
334.771	65.88
334.999	83.88
335.227	86.88
335.455	94.88
335.684	90.88
335.912	79.88
336.14	97.88
336.369	88.88
336.597	92.88
336.825	86.88
337.053	101.88
337.281	89.88
337.51	79.88
337.738	81.88
337.966	82.88
338.194	81.88
338.422	82.88
338.65	93.88
338.878	98.88
339.106	97.88
339.334	101.88
339.562	86.88
339.79	97.88
340.018	89.88
340.246	96.88
340.474	84.88
340.702	80.88
340.93	91.88
341.158	89.88
341.386	89.88
341.614	83.88
341.842	73.88
342.07	97.88
342.298	76.88
342.526	82.88
342.754	85.88
342.981	69.88
343.209	97.88
343.437	94.88
343.665	75.88
343.893	93.88
344.12	101.88
344.348	85.88
344.576	72.88
344.804	94.88
345.031	89.88
345.259	90.88
345.487	93.88
345.714	86.88
345.942	92.88
346.17	95.88
346.397	84.88
346.625	73.88
346.853	97.88
347.08	89.88
347.308	102.88
347.535	81.88
347.763	85.88
347.99	98.88
348.218	104.88
348.445	94.88
348.673	86.88
348.9	88.88
349.128	86.88
349.355	88.88
349.583	81.88
349.81	84.88
350.037	91.88
350.265	91.88
350.492	92.88
350.72	82.88
350.947	101.88
351.174	92.88
351.402	93.88
351.629	95.88
351.856	90.88
352.083	88.88
352.311	94.88
352.538	96.88
352.765	86.88
352.992	91.88
353.22	100.88
353.447	80.88
353.674	98.88
353.901	78.88
354.128	88.88
354.355	90.88
354.583	100.88
354.81	90.88
355.037	84.88
355.264	84.88
355.491	74.88
355.718	66.88
355.945	78.88
356.172	85.88
356.399	86.88
356.626	80.88
356.853	74.88
357.08	90.88
357.307	76.88
357.534	87.88
357.761	88.88
357.988	89.88
358.215	72.88
358.441	87.88
358.668	99.88
358.895	87.88
359.122	84.88
359.349	80.88
359.576	85.88
359.802	72.88
360.029	84.88
360.256	81.88
360.483	90.88
360.709	83.88
360.936	86.88
361.163	88.88
361.39	91.88
361.616	93.88
361.843	88.88
362.07	88.88
362.296	81.88
362.523	86.88
362.749	90.88
362.976	86.88
363.203	90.88
363.429	93.88
363.656	86.88
363.882	90.88
364.109	88.88
364.335	81.88
364.562	96.88
364.788	100.88
365.015	95.88
365.241	82.88
365.468	78.88
365.694	95.88
365.92	98.88
366.147	79.88
366.373	87.88
366.599	93.88
366.826	85.88
367.052	82.88
367.278	101.88
367.505	86.88
367.731	66.88
367.957	88.88
368.184	86.88
368.41	97.88
368.636	86.88
368.862	75.88
369.089	84.88
369.315	92.88
369.541	90.88
369.767	89.88
369.993	80.88
370.219	78.88
370.445	81.88
370.672	93.88
370.898	82.88
371.124	80.88
371.35	96.88
371.576	89.88
371.802	82.88
372.028	77.88
372.254	79.88
372.48	86.88
372.706	88.88
372.932	77.88
373.158	88.88
373.384	85.88
373.61	89.88
373.835	79.88
374.061	93.88
374.287	81.88
374.513	78.88
374.739	90.88
374.965	84.88
375.191	86.88
375.416	89.88
375.642	76.88
375.868	93.88
376.094	84.88
376.319	81.88
376.545	84.88
376.771	77.88
376.997	81.88
377.222	92.88
377.448	91.88
377.674	78.88
377.899	84.88
378.125	92.88
378.35	80.88
378.576	88.88
378.802	89.88
379.027	84.88
379.253	93.88
379.478	91.88
379.704	81.88
379.929	87.88
380.155	79.88
380.38	74.88
380.606	87.88
380.831	97.88
381.057	90.88
381.282	75.88
381.507	85.88
381.733	94.88
381.958	85.88
382.184	84.88
382.409	93.88
382.634	77.88
382.86	84.88
383.085	80.88
383.31	86.88
383.535	76.88
383.761	90.88
383.986	93.88
384.211	84.88
384.436	90.88
384.662	93.88
384.887	92.88
385.112	78.88
385.337	88.88
385.562	85.88
385.787	86.88
386.013	94.88
386.238	89.88
386.463	81.88
386.688	86.88
386.913	97.88
387.138	99.88
387.363	63.88
387.588	91.88
387.813	83.88
388.038	89.88
388.263	82.88
388.488	92.88
388.713	79.88
388.938	90.88
389.163	86.88
389.387	89.88
389.612	89.88
389.837	93.88
390.062	68.88
390.287	86.88
390.512	89.88
390.736	80.88
390.961	82.88
391.186	82.88
391.411	89.88
391.636	91.88
391.86	89.88
392.085	82.88
392.31	73.88
392.534	87.88
392.759	81.88
392.984	90.88
393.208	73.88
393.433	89.88
393.658	97.88
393.882	89.88
394.107	76.88
394.331	77.88
394.556	84.88
394.78	110.88
395.005	92.88
395.229	89.88
395.454	77.88
395.678	84.88
395.903	99.88
396.127	83.88
396.352	82.88
396.576	90.88
396.801	87.88
397.025	102.88
397.249	82.88
397.474	92.88
397.698	88.88
397.922	81.88
398.147	96.88
398.371	93.88
398.595	88.88
398.82	84.88
399.044	70.88
399.268	93.88
399.492	88.88
399.717	87.88
399.941	86.88
400.165	86.88
400.389	101.88
400.613	90.88
400.837	86.88
401.062	89.88
401.286	94.88
401.51	79.88
401.734	69.88
401.958	92.88
402.182	90.88
402.406	93.88
402.63	85.88
402.854	86.88
403.078	96.88
403.302	86.88
403.526	90.88
403.75	75.88
403.974	90.88
404.198	85.88
404.422	87.88
404.645	89.88
404.869	87.88
405.093	88.88
405.317	97.88
405.541	89.88
405.765	102.88
405.988	69.88
406.212	97.88
406.436	84.88
406.66	105.88
406.883	82.88
407.107	87.88
407.331	87.88
407.555	85.88
407.778	93.88
408.002	93.88
408.226	92.88
408.449	86.88
408.673	79.88
408.896	94.88
409.12	92.88
409.344	92.88
409.567	87.88
409.791	85.88
410.014	98.88
410.238	95.88
410.461	80.88
410.685	81.88
410.908	101.88
411.132	85.88
411.355	79.88
411.578	84.88
411.802	88.88
412.025	87.88
412.249	79.88
412.472	98.88
412.695	76.88
412.919	87.88
413.142	84.88
413.365	90.88
413.589	90.88
413.812	93.88
414.035	94.88
414.258	83.88
414.482	103.88
414.705	94.88
414.928	89.88
415.151	86.88
415.374	95.88
415.597	93.88
415.821	85.88
416.044	80.88
416.267	101.88
416.49	87.88
416.713	87.88
416.936	89.88
417.159	102.88
417.382	104.88
417.605	83.88
417.828	93.88
418.051	83.88
418.274	89.88
418.497	97.88
418.72	76.88
418.943	93.88
419.166	81.88
419.389	90.88
419.611	106.88
419.834	103.88
420.057	88.88
420.28	89.88
420.503	84.88
420.726	83.88
420.948	96.88
421.171	95.88
421.394	93.88
421.617	92.88
421.839	100.88
422.062	105.88
422.285	90.88
422.507	82.88
422.73	94.88
422.953	84.88
423.175	99.88
423.398	93.88
423.621	82.88
423.843	103.88
424.066	101.88
424.288	101.88
424.511	104.88
424.733	102.88
424.956	80.88
425.178	91.88
425.401	85.88
425.623	92.88
425.846	93.88
426.068	85.88
426.291	96.88
426.513	99.88
426.735	69.88
426.958	112.88
427.18	97.88
427.402	94.88
427.625	81.88
427.847	86.88
428.069	91.88
428.292	85.88
428.514	92.88
428.736	94.88
428.958	94.88
429.181	90.88
429.403	101.88
429.625	87.88
429.847	70.88
430.069	86.88
430.292	98.88
430.514	91.88
430.736	90.88
430.958	94.88
431.18	81.88
431.402	93.88
431.624	86.88
431.846	84.88
432.068	97.88
432.29	100.88
432.512	88.88
432.734	93.88
432.956	108.88
433.178	91.88
433.4	98.88
433.622	89.88
433.844	93.88
434.066	104.88
434.287	82.88
434.509	97.88
434.731	87.88
434.953	94.88
435.175	90.88
435.397	81.88
435.618	73.88
435.84	85.88
436.062	89.88
436.284	93.88
436.505	92.88
436.727	91.88
436.949	88.88
437.17	100.88
437.392	86.88
437.614	82.88
437.835	86.88
438.057	80.88
438.278	89.88
438.5	85.88
438.721	94.88
438.943	101.88
439.165	88.88
439.386	87.88
439.608	98.88
439.829	90.88
440.05	89.88
440.272	93.88
440.493	93.88
440.715	80.88
440.936	95.88
441.158	91.88
441.379	80.88
441.6	119.88
441.822	89.88
442.043	89.88
442.264	86.88
442.486	96.88
442.707	89.88
442.928	80.88
443.149	87.88
443.371	72.88
443.592	97.88
443.813	94.88
444.034	100.88
444.255	94.88
444.476	88.88
444.698	104.88
444.919	86.88
445.14	218.88
445.361	154.88
445.582	106.88
445.803	82.88
446.024	92.88
446.245	101.88
446.466	103.88
446.687	93.88
446.908	101.88
447.129	93.88
447.35	84.88
447.571	84.88
447.792	96.88
448.013	83.88
448.234	88.88
448.455	97.88
448.675	77.88
448.896	79.88
449.117	78.88
449.338	80.88
449.559	91.88
449.779	92.88
450	82.88
450.221	82.88
450.442	82.88
450.662	81.88
450.883	74.88
451.104	101.88
451.324	85.88
451.545	83.88
451.766	91.88
451.986	97.88
452.207	87.88
452.428	86.88
452.648	84.88
452.869	78.88
453.089	71.88
453.31	62.88
453.53	87.88
453.751	85.88
453.971	89.88
454.192	90.88
454.412	90.88
454.633	105.88
454.853	92.88
455.073	86.88
455.294	103.88
455.514	87.88
455.734	87.88
455.955	83.88
456.175	87.88
456.395	83.88
456.616	74.88
456.836	87.88
457.056	96.88
457.276	100.88
457.497	93.88
457.717	88.88
457.937	96.88
458.157	90.88
458.377	71.88
458.598	100.88
458.818	90.88
459.038	87.88
459.258	80.88
459.478	78.88
459.698	89.88
459.918	79.88
460.138	94.88
460.358	86.88
460.578	85.88
460.798	97.88
461.018	103.88
461.238	87.88
461.458	95.88
461.678	76.88
461.898	91.88
462.118	94.88
462.338	82.88
462.558	100.88
462.777	84.88
462.997	89.88
463.217	102.88
463.437	94.88
463.657	86.88
463.876	88.88
464.096	95.88
464.316	97.88
464.536	88.88
464.755	88.88
464.975	83.88
465.195	87.88
465.414	86.88
465.634	86.88
465.854	82.88
466.073	80.88
466.293	87.88
466.512	94.88
466.732	86.88
466.951	89.88
467.171	87.88
467.391	78.88
467.61	100.88
467.829	97.88
468.049	92.88
468.268	92.88
468.488	90.88
468.707	94.88
468.927	97.88
469.146	87.88
469.365	98.88
469.585	102.88
469.804	110.88
470.023	92.88
470.243	105.88
470.462	101.88
470.681	89.88
470.901	102.88
471.12	91.88
471.339	90.88
471.558	102.88
471.777	108.88
471.997	80.88
472.216	90.88
472.435	88.88
472.654	84.88
472.873	88.88
473.092	71.88
473.311	87.88
473.53	76.88
473.749	88.88
473.968	107.88
474.187	76.88
474.406	86.88
474.625	90.88
474.844	88.88
475.063	103.88
475.282	77.88
475.501	81.88
475.72	104.88
475.939	85.88
476.158	93.88
476.377	80.88
476.596	89.88
476.814	81.88
477.033	82.88
477.252	88.88
477.471	86.88
477.69	95.88
477.908	95.88
478.127	92.88
478.346	95.88
478.564	96.88
478.783	94.88
479.002	90.88
479.22	106.88
479.439	100.88
479.658	90.88
479.876	82.88
480.095	96.88
480.313	100.88
480.532	90.88
480.751	89.88
480.969	74.88
481.188	74.88
481.406	81.88
481.624	84.88
481.843	92.88
482.061	90.88
482.28	104.88
482.498	93.88
482.717	100.88
482.935	112.88
483.153	84.88
483.372	91.88
483.59	101.88
483.808	93.88
484.027	99.88
484.245	85.88
484.463	98.88
484.681	113.88
484.9	101.88
485.118	82.88
485.336	90.88
485.554	100.88
485.772	87.88
485.99	86.88
486.209	91.88
486.427	93.88
486.645	92.88
486.863	96.88
487.081	87.88
487.299	90.88
487.517	92.88
487.735	100.88
487.953	110.88
488.171	103.88
488.389	85.88
488.607	98.88
488.825	90.88
489.043	93.88
489.261	90.88
489.479	93.88
489.696	84.88
489.914	102.88
490.132	103.88
490.35	109.88
490.568	103.88
490.786	78.88
491.003	91.88
491.221	103.88
491.439	98.88
491.657	103.88
491.874	97.88
492.092	117.88
492.31	125.88
492.527	106.88
492.745	107.88
492.963	101.88
493.18	104.88
493.398	105.88
493.615	82.88
493.833	102.88
494.05	98.88
494.268	110.88
494.485	88.88
494.703	103.88
494.92	103.88
495.138	87.88
495.355	101.88
495.573	107.88
495.79	100.88
496.008	101.88
496.225	110.88
496.442	103.88
496.66	96.88
496.877	111.88
497.094	101.88
497.312	93.88
497.529	90.88
497.746	101.88
497.963	96.88
498.181	85.88
498.398	90.88
498.615	80.88
498.832	91.88
499.049	105.88
499.267	91.88
499.484	110.88
499.701	104.88
499.918	109.88
500.135	97.88
500.352	90.88
500.569	105.88
500.786	101.88
501.003	89.88
501.22	106.88
501.437	100.88
501.654	79.88
501.871	97.88
502.088	98.88
502.305	105.88
502.522	87.88
502.739	87.88
502.956	95.88
503.172	92.88
503.389	85.88
503.606	91.88
503.823	76.88
504.04	109.88
504.256	94.88
504.473	92.88
504.69	84.88
504.907	92.88
505.123	90.88
505.34	85.88
505.557	89.88
505.773	88.88
505.99	80.88
506.207	93.88
506.423	88.88
506.64	90.88
506.856	87.88
507.073	85.88
507.289	100.88
507.506	93.88
507.722	94.88
507.939	93.88
508.155	88.88
508.372	91.88
508.588	90.88
508.805	89.88
509.021	98.88
509.238	80.88
509.454	70.88
509.67	78.88
509.887	76.88
510.103	87.88
510.319	90.88
510.536	89.88
510.752	91.88
510.968	92.88
511.184	82.88
511.401	89.88
511.617	89.88
511.833	85.88
512.049	70.88
512.265	79.88
512.481	82.88
512.698	78.88
512.914	90.88
513.13	95.88
513.346	88.88
513.562	92.88
513.778	82.88
513.994	80.88
514.21	83.88
514.426	84.88
514.642	85.88
514.858	81.88
515.074	82.88
515.29	104.88
515.506	78.88
515.721	76.88
515.937	81.88
516.153	85.88
516.369	68.88
516.585	85.88
516.801	75.88
517.016	83.88
517.232	82.88
517.448	76.88
517.664	90.88
