Data from Zn(NO3)2Standard.Agarose3%.GreenCap.LampEnergy5.5.E.O_HRD10591_15-01-35-767.txt Node
Date: Mon Jul 22 15:01:35 EDT 2019
User: cochatt
Spectrometer: HR+D1059
Trigger mode: 1
Integration Time (sec): 1.000000E-1
Scans to average: 1
Electric dark correction enabled: true
Nonlinearity correction enabled: false
Boxcar width: 0
XAxis mode: Wavelengths
Number of Pixels in Spectrum: 2048
>>>>>Begin Spectral Data<<<<<
223.165	-12.19
223.4	-12.19
223.635	-12.19
223.869	-14.19
224.104	-17.19
224.338	-26.19
224.573	-29.19
224.808	-11.19
225.042	-2.19
225.277	-8.19
225.511	4.81
225.746	13.81
225.98	8.81
226.215	4.81
226.449	11.81
226.683	16.81
226.918	26.81
227.152	32.81
227.387	29.81
227.621	33.81
227.856	41.81
228.09	41.81
228.324	44.81
228.559	44.81
228.793	59.81
229.027	50.81
229.262	59.81
229.496	66.81
229.73	76.81
229.964	74.81
230.199	82.81
230.433	57.81
230.667	65.81
230.901	61.81
231.136	68.81
231.37	82.81
231.604	75.81
231.838	83.81
232.072	81.81
232.306	80.81
232.541	84.81
232.775	83.81
233.009	76.81
233.243	84.81
233.477	84.81
233.711	71.81
233.945	80.81
234.179	69.81
234.413	80.81
234.647	98.81
234.881	84.81
235.115	83.81
235.349	86.81
235.583	83.81
235.817	74.81
236.051	75.81
236.285	77.81
236.519	67.81
236.753	85.81
236.987	77.81
237.221	78.81
237.455	84.81
237.689	63.81
237.922	74.81
238.156	77.81
238.39	77.81
238.624	76.81
238.858	75.81
239.091	72.81
239.325	71.81
239.559	60.81
239.793	76.81
240.027	71.81
240.26	80.81
240.494	85.81
240.728	72.81
240.961	68.81
241.195	81.81
241.429	91.81
241.662	78.81
241.896	68.81
242.13	74.81
242.363	68.81
242.597	79.81
242.83	79.81
243.064	73.81
243.298	81.81
243.531	76.81
243.765	78.81
243.998	74.81
244.232	87.81
244.465	75.81
244.699	76.81
244.932	73.81
245.166	89.81
245.399	86.81
245.633	87.81
245.866	71.81
246.099	67.81
246.333	73.81
246.566	84.81
246.8	72.81
247.033	69.81
247.266	68.81
247.5	77.81
247.733	81.81
247.966	80.81
248.2	80.81
248.433	88.81
248.666	72.81
248.899	85.81
249.133	70.81
249.366	89.81
249.599	68.81
249.832	89.81
250.066	76.81
250.299	64.81
250.532	81.81
250.765	77.81
250.998	71.81
251.231	74.81
251.465	75.81
251.698	67.81
251.931	69.81
252.164	79.81
252.397	78.81
252.63	92.81
252.863	75.81
253.096	75.81
253.329	82.81
253.562	72.81
253.795	81.81
254.028	73.81
254.261	84.81
254.494	81.81
254.727	76.81
254.96	76.81
255.193	76.81
255.426	77.81
255.659	89.81
255.892	84.81
256.124	77.81
256.357	67.81
256.59	79.81
256.823	80.81
257.056	94.81
257.289	90.81
257.521	76.81
257.754	71.81
257.987	77.81
258.22	85.81
258.452	73.81
258.685	68.81
258.918	83.81
259.151	83.81
259.383	91.81
259.616	80.81
259.849	88.81
260.081	80.81
260.314	91.81
260.547	77.81
260.779	86.81
261.012	77.81
261.244	82.81
261.477	80.81
261.71	75.81
261.942	68.81
262.175	83.81
262.407	82.81
262.64	71.81
262.872	87.81
263.105	84.81
263.337	90.81
263.57	81.81
263.802	71.81
264.035	64.81
264.267	80.81
264.499	88.81
264.732	78.81
264.964	85.81
265.197	91.81
265.429	75.81
265.661	77.81
265.894	80.81
266.126	85.81
266.358	82.81
266.591	78.81
266.823	76.81
267.055	69.81
267.287	77.81
267.52	72.81
267.752	85.81
267.984	75.81
268.216	71.81
268.448	86.81
268.681	87.81
268.913	85.81
269.145	86.81
269.377	76.81
269.609	83.81
269.841	78.81
270.073	84.81
270.306	70.81
270.538	79.81
270.77	88.81
271.002	92.81
271.234	88.81
271.466	92.81
271.698	86.81
271.93	85.81
272.162	79.81
272.394	84.81
272.626	90.81
272.858	80.81
273.09	92.81
273.322	87.81
273.553	92.81
273.785	77.81
274.017	76.81
274.249	76.81
274.481	83.81
274.713	76.81
274.945	87.81
275.176	72.81
275.408	83.81
275.64	75.81
275.872	85.81
276.104	79.81
276.335	71.81
276.567	84.81
276.799	80.81
277.031	88.81
277.262	82.81
277.494	76.81
277.726	71.81
277.957	92.81
278.189	74.81
278.421	65.81
278.652	76.81
278.884	84.81
279.115	72.81
279.347	95.81
279.579	78.81
279.81	85.81
280.042	76.81
280.273	86.81
280.505	90.81
280.736	87.81
280.968	95.81
281.199	93.81
281.431	73.81
281.662	75.81
281.894	81.81
282.125	85.81
282.356	81.81
282.588	80.81
282.819	82.81
283.051	76.81
283.282	71.81
283.513	83.81
283.745	89.81
283.976	85.81
284.207	92.81
284.439	80.81
284.67	87.81
284.901	83.81
285.132	70.81
285.364	88.81
285.595	77.81
285.826	77.81
286.057	95.81
286.288	87.81
286.52	90.81
286.751	83.81
286.982	82.81
287.213	85.81
287.444	97.81
287.675	101.81
287.906	87.81
288.138	91.81
288.369	80.81
288.6	83.81
288.831	80.81
289.062	94.81
289.293	95.81
289.524	100.81
289.755	84.81
289.986	74.81
290.217	80.81
290.448	75.81
290.679	89.81
290.91	88.81
291.141	88.81
291.371	91.81
291.602	100.81
291.833	90.81
292.064	86.81
292.295	80.81
292.526	74.81
292.757	85.81
292.987	76.81
293.218	80.81
293.449	76.81
293.68	92.81
293.91	77.81
294.141	99.81
294.372	94.81
294.603	79.81
294.833	72.81
295.064	82.81
295.295	92.81
295.525	78.81
295.756	84.81
295.987	92.81
296.217	78.81
296.448	85.81
296.679	75.81
296.909	63.81
297.14	88.81
297.37	80.81
297.601	74.81
297.831	87.81
298.062	84.81
298.292	84.81
298.523	96.81
298.753	85.81
298.984	83.81
299.214	83.81
299.445	95.81
299.675	76.81
299.905	83.81
300.136	74.81
300.366	90.81
300.597	88.81
300.827	95.81
301.057	73.81
301.288	94.81
301.518	82.81
301.748	89.81
301.979	92.81
302.209	83.81
302.439	83.81
302.669	98.81
302.9	82.81
303.13	77.81
303.36	99.81
303.59	73.81
303.82	84.81
304.051	78.81
304.281	85.81
304.511	103.81
304.741	87.81
304.971	77.81
305.201	84.81
305.431	93.81
305.661	73.81
305.891	80.81
306.121	90.81
306.352	83.81
306.582	98.81
306.812	100.81
307.042	74.81
307.272	74.81
307.502	92.81
307.731	70.81
307.961	85.81
308.191	89.81
308.421	91.81
308.651	77.81
308.881	72.81
309.111	82.81
309.341	79.81
309.571	95.81
309.8	90.81
310.03	89.81
310.26	77.81
310.49	98.81
310.72	91.81
310.949	93.81
311.179	88.81
311.409	73.81
311.639	87.81
311.868	76.81
312.098	76.81
312.328	82.81
312.557	82.81
312.787	77.81
313.017	87.81
313.246	73.81
313.476	72.81
313.706	84.81
313.935	83.81
314.165	94.81
314.394	78.81
314.624	87.81
314.853	93.81
315.083	73.81
315.312	79.81
315.542	79.81
315.771	86.81
316.001	82.81
316.23	81.81
316.46	75.81
316.689	86.81
316.919	74.81
317.148	86.81
317.377	98.81
317.607	87.81
317.836	85.81
318.065	97.81
318.295	86.81
318.524	89.81
318.753	76.81
318.983	70.81
319.212	73.81
319.441	87.81
319.67	87.81
319.9	87.81
320.129	80.81
320.358	85.81
320.587	86.81
320.816	84.81
321.046	86.81
321.275	91.81
321.504	76.81
321.733	75.81
321.962	78.81
322.191	71.81
322.42	84.81
322.649	65.81
322.878	88.81
323.108	95.81
323.337	84.81
323.566	78.81
323.795	91.81
324.024	74.81
324.253	80.81
324.482	77.81
324.71	77.81
324.939	86.81
325.168	86.81
325.397	90.81
325.626	96.81
325.855	90.81
326.084	80.81
326.313	90.81
326.542	87.81
326.77	80.81
326.999	87.81
327.228	77.81
327.457	85.81
327.686	94.81
327.914	78.81
328.143	88.81
328.372	97.81
328.6	81.81
328.829	86.81
329.058	83.81
329.287	88.81
329.515	77.81
329.744	92.81
329.972	96.81
330.201	93.81
330.43	81.81
330.658	77.81
330.887	88.81
331.115	93.81
331.344	104.81
331.572	61.81
331.801	69.81
332.03	73.81
332.258	81.81
332.486	80.81
332.715	88.81
332.943	68.81
333.172	85.81
333.4	83.81
333.629	84.81
333.857	81.81
334.085	93.81
334.314	95.81
334.542	97.81
334.771	77.81
334.999	93.81
335.227	85.81
335.455	79.81
335.684	75.81
335.912	85.81
336.14	90.81
336.369	88.81
336.597	74.81
336.825	72.81
337.053	76.81
337.281	83.81
337.51	80.81
337.738	61.81
337.966	80.81
338.194	74.81
338.422	86.81
338.65	83.81
338.878	94.81
339.106	90.81
339.334	83.81
339.562	96.81
339.79	81.81
340.018	87.81
340.246	83.81
340.474	97.81
340.702	85.81
340.93	77.81
341.158	76.81
341.386	81.81
341.614	90.81
341.842	81.81
342.07	93.81
342.298	81.81
342.526	96.81
342.754	74.81
342.981	87.81
343.209	71.81
343.437	97.81
343.665	87.81
343.893	82.81
344.12	89.81
344.348	81.81
344.576	91.81
344.804	76.81
345.031	71.81
345.259	70.81
345.487	88.81
345.714	88.81
345.942	72.81
346.17	88.81
346.397	77.81
346.625	81.81
346.853	84.81
347.08	87.81
347.308	79.81
347.535	73.81
347.763	90.81
347.99	77.81
348.218	83.81
348.445	83.81
348.673	77.81
348.9	93.81
349.128	76.81
349.355	74.81
349.583	91.81
349.81	69.81
350.037	85.81
350.265	89.81
350.492	81.81
350.72	72.81
350.947	77.81
351.174	92.81
351.402	98.81
351.629	85.81
351.856	79.81
352.083	82.81
352.311	79.81
352.538	85.81
352.765	81.81
352.992	80.81
353.22	92.81
353.447	75.81
353.674	82.81
353.901	85.81
354.128	85.81
354.355	81.81
354.583	74.81
354.81	89.81
355.037	84.81
355.264	71.81
355.491	88.81
355.718	92.81
355.945	85.81
356.172	92.81
356.399	88.81
356.626	80.81
356.853	74.81
357.08	100.81
357.307	88.81
357.534	88.81
357.761	93.81
357.988	80.81
358.215	90.81
358.441	83.81
358.668	87.81
358.895	89.81
359.122	79.81
359.349	89.81
359.576	67.81
359.802	78.81
360.029	82.81
360.256	85.81
360.483	67.81
360.709	93.81
360.936	103.81
361.163	84.81
361.39	76.81
361.616	77.81
361.843	78.81
362.07	87.81
362.296	78.81
362.523	85.81
362.749	80.81
362.976	84.81
363.203	80.81
363.429	78.81
363.656	78.81
363.882	70.81
364.109	77.81
364.335	85.81
364.562	80.81
364.788	83.81
365.015	103.81
365.241	84.81
365.468	75.81
365.694	78.81
365.92	74.81
366.147	67.81
366.373	71.81
366.599	81.81
366.826	87.81
367.052	85.81
367.278	75.81
367.505	87.81
367.731	81.81
367.957	91.81
368.184	84.81
368.41	91.81
368.636	80.81
368.862	85.81
369.089	94.81
369.315	73.81
369.541	79.81
369.767	83.81
369.993	78.81
370.219	89.81
370.445	76.81
370.672	93.81
370.898	89.81
371.124	91.81
371.35	68.81
371.576	76.81
371.802	88.81
372.028	86.81
372.254	83.81
372.48	74.81
372.706	72.81
372.932	96.81
373.158	81.81
373.384	80.81
373.61	77.81
373.835	86.81
374.061	68.81
374.287	76.81
374.513	93.81
374.739	83.81
374.965	67.81
375.191	87.81
375.416	85.81
375.642	68.81
375.868	77.81
376.094	78.81
376.319	87.81
376.545	82.81
376.771	81.81
376.997	86.81
377.222	83.81
377.448	75.81
377.674	72.81
377.899	86.81
378.125	72.81
378.35	95.81
378.576	85.81
378.802	79.81
379.027	105.81
379.253	88.81
379.478	72.81
379.704	84.81
379.929	81.81
380.155	85.81
380.38	87.81
380.606	87.81
380.831	79.81
381.057	88.81
381.282	80.81
381.507	88.81
381.733	93.81
381.958	79.81
382.184	96.81
382.409	66.81
382.634	79.81
382.86	77.81
383.085	88.81
383.31	79.81
383.535	84.81
383.761	69.81
383.986	86.81
384.211	66.81
384.436	82.81
384.662	85.81
384.887	80.81
385.112	81.81
385.337	96.81
385.562	62.81
385.787	83.81
386.013	86.81
386.238	97.81
386.463	86.81
386.688	81.81
386.913	79.81
387.138	85.81
387.363	89.81
387.588	92.81
387.813	92.81
388.038	83.81
388.263	83.81
388.488	95.81
388.713	73.81
388.938	86.81
389.163	89.81
389.387	85.81
389.612	73.81
389.837	74.81
390.062	73.81
390.287	80.81
390.512	65.81
390.736	96.81
390.961	94.81
391.186	87.81
391.411	87.81
391.636	91.81
391.86	82.81
392.085	78.81
392.31	82.81
392.534	93.81
392.759	90.81
392.984	86.81
393.208	80.81
393.433	84.81
393.658	94.81
393.882	84.81
394.107	83.81
394.331	81.81
394.556	83.81
394.78	88.81
395.005	78.81
395.229	83.81
395.454	75.81
395.678	64.81
395.903	72.81
396.127	75.81
396.352	64.81
396.576	77.81
396.801	77.81
397.025	71.81
397.249	80.81
397.474	93.81
397.698	80.81
397.922	84.81
398.147	82.81
398.371	93.81
398.595	90.81
398.82	83.81
399.044	95.81
399.268	75.81
399.492	80.81
399.717	83.81
399.941	65.81
400.165	80.81
400.389	71.81
400.613	86.81
400.837	91.81
401.062	90.81
401.286	91.81
401.51	84.81
401.734	67.81
401.958	75.81
402.182	84.81
402.406	64.81
402.63	82.81
402.854	76.81
403.078	81.81
403.302	81.81
403.526	85.81
403.75	97.81
403.974	76.81
404.198	83.81
404.422	84.81
404.645	83.81
404.869	84.81
405.093	96.81
405.317	75.81
405.541	87.81
405.765	87.81
405.988	96.81
406.212	77.81
406.436	92.81
406.66	69.81
406.883	67.81
407.107	101.81
407.331	88.81
407.555	72.81
407.778	80.81
408.002	90.81
408.226	86.81
408.449	85.81
408.673	90.81
408.896	101.81
409.12	83.81
409.344	86.81
409.567	83.81
409.791	96.81
410.014	102.81
410.238	83.81
410.461	84.81
410.685	73.81
410.908	76.81
411.132	99.81
411.355	85.81
411.578	96.81
411.802	83.81
412.025	79.81
412.249	79.81
412.472	78.81
412.695	84.81
412.919	90.81
413.142	97.81
413.365	95.81
413.589	92.81
413.812	84.81
414.035	90.81
414.258	78.81
414.482	90.81
414.705	69.81
414.928	84.81
415.151	74.81
415.374	77.81
415.597	101.81
415.821	82.81
416.044	87.81
416.267	100.81
416.49	74.81
416.713	77.81
416.936	94.81
417.159	93.81
417.382	82.81
417.605	105.81
417.828	88.81
418.051	75.81
418.274	97.81
418.497	90.81
418.72	104.81
418.943	83.81
419.166	80.81
419.389	79.81
419.611	82.81
419.834	86.81
420.057	100.81
420.28	87.81
420.503	94.81
420.726	99.81
420.948	90.81
421.171	93.81
421.394	80.81
421.617	83.81
421.839	94.81
422.062	80.81
422.285	89.81
422.507	75.81
422.73	89.81
422.953	79.81
423.175	83.81
423.398	85.81
423.621	71.81
423.843	81.81
424.066	87.81
424.288	92.81
424.511	97.81
424.733	86.81
424.956	83.81
425.178	89.81
425.401	89.81
425.623	73.81
425.846	91.81
426.068	82.81
426.291	97.81
426.513	92.81
426.735	89.81
426.958	79.81
427.18	107.81
427.402	89.81
427.625	91.81
427.847	86.81
428.069	93.81
428.292	76.81
428.514	96.81
428.736	84.81
428.958	90.81
429.181	75.81
429.403	71.81
429.625	78.81
429.847	98.81
430.069	95.81
430.292	99.81
430.514	83.81
430.736	88.81
430.958	95.81
431.18	92.81
431.402	81.81
431.624	86.81
431.846	80.81
432.068	90.81
432.29	80.81
432.512	89.81
432.734	91.81
432.956	91.81
433.178	88.81
433.4	91.81
433.622	84.81
433.844	85.81
434.066	75.81
434.287	86.81
434.509	82.81
434.731	80.81
434.953	86.81
435.175	86.81
435.397	107.81
435.618	87.81
435.84	83.81
436.062	80.81
436.284	85.81
436.505	92.81
436.727	88.81
436.949	95.81
437.17	77.81
437.392	87.81
437.614	79.81
437.835	76.81
438.057	105.81
438.278	85.81
438.5	80.81
438.721	99.81
438.943	83.81
439.165	76.81
439.386	75.81
439.608	89.81
439.829	90.81
440.05	80.81
440.272	96.81
440.493	80.81
440.715	91.81
440.936	72.81
441.158	78.81
441.379	79.81
441.6	90.81
441.822	91.81
442.043	88.81
442.264	100.81
442.486	91.81
442.707	95.81
442.928	81.81
443.149	96.81
443.371	96.81
443.592	91.81
443.813	87.81
444.034	100.81
444.255	84.81
444.476	103.81
444.698	93.81
444.919	90.81
445.14	168.81
445.361	132.81
445.582	87.81
445.803	85.81
446.024	77.81
446.245	104.81
446.466	104.81
446.687	83.81
446.908	84.81
447.129	95.81
447.35	79.81
447.571	97.81
447.792	89.81
448.013	91.81
448.234	103.81
448.455	82.81
448.675	90.81
448.896	94.81
449.117	94.81
449.338	88.81
449.559	79.81
449.779	77.81
450	95.81
450.221	83.81
450.442	95.81
450.662	95.81
450.883	98.81
451.104	86.81
451.324	91.81
451.545	85.81
451.766	83.81
451.986	102.81
452.207	92.81
452.428	90.81
452.648	86.81
452.869	97.81
453.089	86.81
453.31	80.81
453.53	85.81
453.751	76.81
453.971	95.81
454.192	67.81
454.412	87.81
454.633	81.81
454.853	92.81
455.073	87.81
455.294	77.81
455.514	82.81
455.734	83.81
455.955	92.81
456.175	93.81
456.395	88.81
456.616	81.81
456.836	80.81
457.056	75.81
457.276	75.81
457.497	84.81
457.717	83.81
457.937	90.81
458.157	85.81
458.377	80.81
458.598	84.81
458.818	82.81
459.038	68.81
459.258	84.81
459.478	70.81
459.698	87.81
459.918	70.81
460.138	91.81
460.358	85.81
460.578	77.81
460.798	83.81
461.018	82.81
461.238	97.81
461.458	83.81
461.678	82.81
461.898	85.81
462.118	73.81
462.338	87.81
462.558	80.81
462.777	80.81
462.997	98.81
463.217	85.81
463.437	91.81
463.657	90.81
463.876	89.81
464.096	92.81
464.316	87.81
464.536	101.81
464.755	87.81
464.975	91.81
465.195	80.81
465.414	85.81
465.634	77.81
465.854	89.81
466.073	95.81
466.293	92.81
466.512	95.81
466.732	72.81
466.951	87.81
467.171	101.81
467.391	84.81
467.61	77.81
467.829	91.81
468.049	93.81
468.268	90.81
468.488	84.81
468.707	83.81
468.927	75.81
469.146	96.81
469.365	84.81
469.585	87.81
469.804	91.81
470.023	83.81
470.243	84.81
470.462	92.81
470.681	107.81
470.901	88.81
471.12	82.81
471.339	83.81
471.558	77.81
471.777	84.81
471.997	91.81
472.216	78.81
472.435	79.81
472.654	70.81
472.873	80.81
473.092	83.81
473.311	78.81
473.53	86.81
473.749	90.81
473.968	101.81
474.187	78.81
474.406	83.81
474.625	84.81
474.844	80.81
475.063	96.81
475.282	79.81
475.501	80.81
475.72	84.81
475.939	82.81
476.158	85.81
476.377	101.81
476.596	85.81
476.814	86.81
477.033	89.81
477.252	96.81
477.471	87.81
477.69	92.81
477.908	92.81
478.127	76.81
478.346	92.81
478.564	90.81
478.783	94.81
479.002	88.81
479.22	82.81
479.439	77.81
479.658	91.81
479.876	76.81
480.095	90.81
480.313	97.81
480.532	79.81
480.751	93.81
480.969	71.81
481.188	87.81
481.406	71.81
481.624	77.81
481.843	83.81
482.061	94.81
482.28	90.81
482.498	80.81
482.717	79.81
482.935	77.81
483.153	92.81
483.372	89.81
483.59	77.81
483.808	92.81
484.027	96.81
484.245	91.81
484.463	90.81
484.681	97.81
484.9	94.81
485.118	76.81
485.336	81.81
485.554	83.81
485.772	89.81
485.99	76.81
486.209	93.81
486.427	81.81
486.645	92.81
486.863	94.81
487.081	91.81
487.299	91.81
487.517	82.81
487.735	91.81
487.953	77.81
488.171	112.81
488.389	93.81
488.607	94.81
488.825	87.81
489.043	100.81
489.261	95.81
489.479	94.81
489.696	92.81
489.914	95.81
490.132	79.81
490.35	89.81
490.568	85.81
490.786	97.81
491.003	107.81
491.221	100.81
491.439	117.81
491.657	104.81
491.874	104.81
492.092	99.81
492.31	96.81
492.527	100.81
492.745	89.81
492.963	97.81
493.18	98.81
493.398	102.81
493.615	89.81
493.833	88.81
494.05	89.81
494.268	99.81
494.485	106.81
494.703	99.81
494.92	101.81
495.138	111.81
495.355	98.81
495.573	114.81
495.79	97.81
496.008	101.81
496.225	106.81
496.442	104.81
496.66	94.81
496.877	98.81
497.094	118.81
497.312	99.81
497.529	95.81
497.746	87.81
497.963	92.81
498.181	91.81
498.398	92.81
498.615	90.81
498.832	77.81
499.049	89.81
499.267	74.81
499.484	91.81
499.701	81.81
499.918	81.81
500.135	80.81
500.352	90.81
500.569	81.81
500.786	92.81
501.003	86.81
501.22	84.81
501.437	91.81
501.654	94.81
501.871	95.81
502.088	86.81
502.305	91.81
502.522	86.81
502.739	102.81
502.956	107.81
503.172	78.81
503.389	72.81
503.606	87.81
503.823	75.81
504.04	92.81
504.256	75.81
504.473	74.81
504.69	85.81
504.907	81.81
505.123	81.81
505.34	105.81
505.557	92.81
505.773	90.81
505.99	90.81
506.207	95.81
506.423	92.81
506.64	92.81
506.856	82.81
507.073	84.81
507.289	97.81
507.506	77.81
507.722	82.81
507.939	87.81
508.155	99.81
508.372	88.81
508.588	97.81
508.805	74.81
509.021	93.81
509.238	83.81
509.454	75.81
509.67	97.81
509.887	89.81
510.103	91.81
510.319	91.81
510.536	87.81
510.752	85.81
510.968	73.81
511.184	75.81
511.401	90.81
511.617	84.81
511.833	90.81
512.049	83.81
512.265	72.81
512.481	90.81
512.698	99.81
512.914	82.81
513.13	80.81
513.346	89.81
513.562	91.81
513.778	78.81
513.994	81.81
514.21	92.81
514.426	94.81
514.642	83.81
514.858	86.81
515.074	78.81
515.29	94.81
515.506	99.81
515.721	76.81
515.937	99.81
516.153	79.81
516.369	87.81
516.585	88.81
516.801	76.81
517.016	64.81
517.232	73.81
517.448	81.81
517.664	84.81
517.879	83.81
518.095	80.81
518.311	83.81
518.527	71.81
518.742	75.81
