Data from Zn(NO3)2Standard.Agarose3%.GreenCap.LampEnergy5.5.E.O_HRD10591_15-01-25-767.txt Node
Date: Mon Jul 22 15:01:25 EDT 2019
User: cochatt
Spectrometer: HR+D1059
Trigger mode: 1
Integration Time (sec): 1.000000E-1
Scans to average: 1
Electric dark correction enabled: true
Nonlinearity correction enabled: false
Boxcar width: 0
XAxis mode: Wavelengths
Number of Pixels in Spectrum: 2048
>>>>>Begin Spectral Data<<<<<
223.165	-22.25
223.4	-22.25
223.635	-22.25
223.869	-15.25
224.104	-9.25
224.338	-7.25
224.573	-4.25
224.808	-6.25
225.042	-11.25
225.277	-8.25
225.511	-5.25
225.746	-9.25
225.98	5.75
226.215	9.75
226.449	7.75
226.683	19.75
226.918	25.75
227.152	29.75
227.387	34.75
227.621	43.75
227.856	40.75
228.09	49.75
228.324	49.75
228.559	52.75
228.793	55.75
229.027	58.75
229.262	53.75
229.496	71.75
229.73	53.75
229.964	68.75
230.199	77.75
230.433	61.75
230.667	75.75
230.901	66.75
231.136	78.75
231.37	77.75
231.604	72.75
231.838	72.75
232.072	78.75
232.306	88.75
232.541	95.75
232.775	89.75
233.009	76.75
233.243	78.75
233.477	68.75
233.711	98.75
233.945	88.75
234.179	69.75
234.413	80.75
234.647	74.75
234.881	78.75
235.115	67.75
235.349	80.75
235.583	82.75
235.817	77.75
236.051	71.75
236.285	73.75
236.519	67.75
236.753	88.75
236.987	79.75
237.221	84.75
237.455	80.75
237.689	79.75
237.922	77.75
238.156	75.75
238.39	61.75
238.624	69.75
238.858	72.75
239.091	85.75
239.325	79.75
239.559	90.75
239.793	69.75
240.027	78.75
240.26	80.75
240.494	74.75
240.728	77.75
240.961	75.75
241.195	76.75
241.429	66.75
241.662	75.75
241.896	83.75
242.13	66.75
242.363	68.75
242.597	66.75
242.83	85.75
243.064	89.75
243.298	76.75
243.531	65.75
243.765	90.75
243.998	73.75
244.232	81.75
244.465	90.75
244.699	68.75
244.932	74.75
245.166	81.75
245.399	68.75
245.633	80.75
245.866	92.75
246.099	81.75
246.333	60.75
246.566	69.75
246.8	82.75
247.033	70.75
247.266	82.75
247.5	88.75
247.733	69.75
247.966	71.75
248.2	78.75
248.433	78.75
248.666	72.75
248.899	76.75
249.133	92.75
249.366	91.75
249.599	85.75
249.832	92.75
250.066	66.75
250.299	79.75
250.532	76.75
250.765	71.75
250.998	73.75
251.231	89.75
251.465	86.75
251.698	82.75
251.931	82.75
252.164	82.75
252.397	74.75
252.63	84.75
252.863	88.75
253.096	76.75
253.329	81.75
253.562	86.75
253.795	89.75
254.028	83.75
254.261	74.75
254.494	79.75
254.727	81.75
254.96	71.75
255.193	81.75
255.426	91.75
255.659	78.75
255.892	77.75
256.124	84.75
256.357	97.75
256.59	81.75
256.823	81.75
257.056	80.75
257.289	86.75
257.521	79.75
257.754	87.75
257.987	77.75
258.22	76.75
258.452	76.75
258.685	80.75
258.918	91.75
259.151	88.75
259.383	77.75
259.616	85.75
259.849	73.75
260.081	78.75
260.314	61.75
260.547	84.75
260.779	75.75
261.012	76.75
261.244	83.75
261.477	88.75
261.71	82.75
261.942	76.75
262.175	95.75
262.407	82.75
262.64	85.75
262.872	86.75
263.105	94.75
263.337	93.75
263.57	67.75
263.802	88.75
264.035	85.75
264.267	83.75
264.499	82.75
264.732	92.75
264.964	76.75
265.197	91.75
265.429	85.75
265.661	85.75
265.894	85.75
266.126	77.75
266.358	81.75
266.591	87.75
266.823	78.75
267.055	78.75
267.287	77.75
267.52	69.75
267.752	101.75
267.984	91.75
268.216	85.75
268.448	84.75
268.681	63.75
268.913	77.75
269.145	91.75
269.377	73.75
269.609	82.75
269.841	91.75
270.073	91.75
270.306	75.75
270.538	80.75
270.77	75.75
271.002	84.75
271.234	75.75
271.466	83.75
271.698	86.75
271.93	82.75
272.162	93.75
272.394	89.75
272.626	85.75
272.858	77.75
273.09	77.75
273.322	81.75
273.553	70.75
273.785	75.75
274.017	89.75
274.249	78.75
274.481	79.75
274.713	73.75
274.945	69.75
275.176	66.75
275.408	88.75
275.64	69.75
275.872	69.75
276.104	85.75
276.335	91.75
276.567	89.75
276.799	80.75
277.031	78.75
277.262	86.75
277.494	78.75
277.726	90.75
277.957	105.75
278.189	76.75
278.421	84.75
278.652	79.75
278.884	76.75
279.115	76.75
279.347	76.75
279.579	74.75
279.81	95.75
280.042	82.75
280.273	91.75
280.505	83.75
280.736	94.75
280.968	78.75
281.199	72.75
281.431	87.75
281.662	93.75
281.894	92.75
282.125	85.75
282.356	77.75
282.588	92.75
282.819	71.75
283.051	86.75
283.282	100.75
283.513	97.75
283.745	83.75
283.976	78.75
284.207	101.75
284.439	92.75
284.67	87.75
284.901	64.75
285.132	77.75
285.364	81.75
285.595	81.75
285.826	85.75
286.057	80.75
286.288	84.75
286.52	77.75
286.751	86.75
286.982	86.75
287.213	84.75
287.444	81.75
287.675	82.75
287.906	85.75
288.138	88.75
288.369	97.75
288.6	88.75
288.831	77.75
289.062	90.75
289.293	81.75
289.524	68.75
289.755	82.75
289.986	74.75
290.217	93.75
290.448	88.75
290.679	107.75
290.91	90.75
291.141	76.75
291.371	82.75
291.602	76.75
291.833	89.75
292.064	72.75
292.295	77.75
292.526	75.75
292.757	67.75
292.987	75.75
293.218	70.75
293.449	87.75
293.68	84.75
293.91	92.75
294.141	99.75
294.372	82.75
294.603	77.75
294.833	77.75
295.064	82.75
295.295	80.75
295.525	88.75
295.756	80.75
295.987	66.75
296.217	85.75
296.448	67.75
296.679	76.75
296.909	101.75
297.14	75.75
297.37	92.75
297.601	81.75
297.831	82.75
298.062	78.75
298.292	87.75
298.523	80.75
298.753	79.75
298.984	96.75
299.214	77.75
299.445	93.75
299.675	97.75
299.905	81.75
300.136	82.75
300.366	96.75
300.597	83.75
300.827	93.75
301.057	78.75
301.288	96.75
301.518	94.75
301.748	77.75
301.979	89.75
302.209	75.75
302.439	87.75
302.669	85.75
302.9	74.75
303.13	70.75
303.36	78.75
303.59	83.75
303.82	79.75
304.051	86.75
304.281	77.75
304.511	93.75
304.741	88.75
304.971	65.75
305.201	89.75
305.431	92.75
305.661	86.75
305.891	78.75
306.121	73.75
306.352	89.75
306.582	85.75
306.812	77.75
307.042	85.75
307.272	73.75
307.502	83.75
307.731	86.75
307.961	87.75
308.191	79.75
308.421	76.75
308.651	67.75
308.881	78.75
309.111	84.75
309.341	83.75
309.571	76.75
309.8	88.75
310.03	88.75
310.26	81.75
310.49	84.75
310.72	86.75
310.949	86.75
311.179	71.75
311.409	78.75
311.639	85.75
311.868	74.75
312.098	89.75
312.328	86.75
312.557	85.75
312.787	78.75
313.017	74.75
313.246	87.75
313.476	77.75
313.706	87.75
313.935	90.75
314.165	85.75
314.394	85.75
314.624	82.75
314.853	101.75
315.083	73.75
315.312	69.75
315.542	76.75
315.771	81.75
316.001	81.75
316.23	92.75
316.46	74.75
316.689	89.75
316.919	80.75
317.148	96.75
317.377	91.75
317.607	90.75
317.836	97.75
318.065	73.75
318.295	86.75
318.524	78.75
318.753	84.75
318.983	86.75
319.212	88.75
319.441	84.75
319.67	80.75
319.9	84.75
320.129	84.75
320.358	78.75
320.587	82.75
320.816	85.75
321.046	79.75
321.275	88.75
321.504	78.75
321.733	61.75
321.962	82.75
322.191	78.75
322.42	86.75
322.649	80.75
322.878	81.75
323.108	84.75
323.337	76.75
323.566	83.75
323.795	83.75
324.024	96.75
324.253	77.75
324.482	87.75
324.71	78.75
324.939	101.75
325.168	88.75
325.397	77.75
325.626	89.75
325.855	70.75
326.084	84.75
326.313	82.75
326.542	74.75
326.77	86.75
326.999	88.75
327.228	68.75
327.457	72.75
327.686	80.75
327.914	82.75
328.143	72.75
328.372	70.75
328.6	82.75
328.829	73.75
329.058	83.75
329.287	91.75
329.515	92.75
329.744	93.75
329.972	85.75
330.201	77.75
330.43	77.75
330.658	81.75
330.887	86.75
331.115	86.75
331.344	83.75
331.572	84.75
331.801	87.75
332.03	94.75
332.258	78.75
332.486	89.75
332.715	88.75
332.943	96.75
333.172	94.75
333.4	89.75
333.629	78.75
333.857	86.75
334.085	92.75
334.314	88.75
334.542	92.75
334.771	68.75
334.999	88.75
335.227	67.75
335.455	87.75
335.684	92.75
335.912	85.75
336.14	82.75
336.369	88.75
336.597	77.75
336.825	89.75
337.053	83.75
337.281	83.75
337.51	90.75
337.738	75.75
337.966	84.75
338.194	70.75
338.422	99.75
338.65	88.75
338.878	69.75
339.106	70.75
339.334	84.75
339.562	86.75
339.79	81.75
340.018	76.75
340.246	74.75
340.474	83.75
340.702	75.75
340.93	76.75
341.158	82.75
341.386	87.75
341.614	68.75
341.842	69.75
342.07	72.75
342.298	76.75
342.526	83.75
342.754	76.75
342.981	69.75
343.209	79.75
343.437	102.75
343.665	85.75
343.893	87.75
344.12	75.75
344.348	72.75
344.576	84.75
344.804	84.75
345.031	75.75
345.259	83.75
345.487	74.75
345.714	90.75
345.942	71.75
346.17	75.75
346.397	76.75
346.625	77.75
346.853	71.75
347.08	89.75
347.308	82.75
347.535	79.75
347.763	91.75
347.99	74.75
348.218	83.75
348.445	82.75
348.673	77.75
348.9	101.75
349.128	86.75
349.355	84.75
349.583	94.75
349.81	88.75
350.037	74.75
350.265	83.75
350.492	82.75
350.72	74.75
350.947	77.75
351.174	93.75
351.402	92.75
351.629	88.75
351.856	82.75
352.083	78.75
352.311	83.75
352.538	76.75
352.765	99.75
352.992	95.75
353.22	87.75
353.447	73.75
353.674	80.75
353.901	86.75
354.128	68.75
354.355	67.75
354.583	74.75
354.81	95.75
355.037	75.75
355.264	96.75
355.491	100.75
355.718	77.75
355.945	79.75
356.172	68.75
356.399	77.75
356.626	90.75
356.853	93.75
357.08	83.75
357.307	97.75
357.534	72.75
357.761	74.75
357.988	77.75
358.215	94.75
358.441	85.75
358.668	86.75
358.895	77.75
359.122	72.75
359.349	79.75
359.576	78.75
359.802	72.75
360.029	88.75
360.256	81.75
360.483	76.75
360.709	80.75
360.936	86.75
361.163	92.75
361.39	81.75
361.616	102.75
361.843	93.75
362.07	81.75
362.296	74.75
362.523	84.75
362.749	90.75
362.976	76.75
363.203	76.75
363.429	86.75
363.656	84.75
363.882	82.75
364.109	90.75
364.335	72.75
364.562	85.75
364.788	80.75
365.015	83.75
365.241	82.75
365.468	85.75
365.694	83.75
365.92	83.75
366.147	76.75
366.373	76.75
366.599	76.75
366.826	71.75
367.052	89.75
367.278	84.75
367.505	93.75
367.731	90.75
367.957	78.75
368.184	89.75
368.41	77.75
368.636	70.75
368.862	76.75
369.089	80.75
369.315	86.75
369.541	95.75
369.767	80.75
369.993	81.75
370.219	65.75
370.445	82.75
370.672	84.75
370.898	88.75
371.124	69.75
371.35	77.75
371.576	93.75
371.802	87.75
372.028	83.75
372.254	77.75
372.48	84.75
372.706	76.75
372.932	81.75
373.158	84.75
373.384	79.75
373.61	81.75
373.835	71.75
374.061	87.75
374.287	81.75
374.513	79.75
374.739	90.75
374.965	91.75
375.191	85.75
375.416	67.75
375.642	72.75
375.868	91.75
376.094	85.75
376.319	97.75
376.545	67.75
376.771	89.75
376.997	90.75
377.222	75.75
377.448	82.75
377.674	89.75
377.899	85.75
378.125	78.75
378.35	90.75
378.576	77.75
378.802	84.75
379.027	78.75
379.253	84.75
379.478	68.75
379.704	85.75
379.929	93.75
380.155	80.75
380.38	85.75
380.606	78.75
380.831	79.75
381.057	93.75
381.282	82.75
381.507	76.75
381.733	85.75
381.958	91.75
382.184	92.75
382.409	91.75
382.634	88.75
382.86	90.75
383.085	79.75
383.31	79.75
383.535	86.75
383.761	78.75
383.986	83.75
384.211	78.75
384.436	88.75
384.662	66.75
384.887	77.75
385.112	78.75
385.337	87.75
385.562	83.75
385.787	79.75
386.013	84.75
386.238	69.75
386.463	80.75
386.688	81.75
386.913	67.75
387.138	83.75
387.363	85.75
387.588	79.75
387.813	71.75
388.038	82.75
388.263	97.75
388.488	91.75
388.713	75.75
388.938	78.75
389.163	82.75
389.387	84.75
389.612	77.75
389.837	80.75
390.062	78.75
390.287	77.75
390.512	73.75
390.736	82.75
390.961	87.75
391.186	78.75
391.411	94.75
391.636	81.75
391.86	90.75
392.085	92.75
392.31	83.75
392.534	78.75
392.759	81.75
392.984	82.75
393.208	77.75
393.433	79.75
393.658	93.75
393.882	85.75
394.107	80.75
394.331	79.75
394.556	65.75
394.78	79.75
395.005	90.75
395.229	66.75
395.454	84.75
395.678	83.75
395.903	86.75
396.127	84.75
396.352	90.75
396.576	75.75
396.801	89.75
397.025	72.75
397.249	85.75
397.474	88.75
397.698	92.75
397.922	92.75
398.147	75.75
398.371	89.75
398.595	89.75
398.82	86.75
399.044	78.75
399.268	91.75
399.492	81.75
399.717	78.75
399.941	86.75
400.165	86.75
400.389	75.75
400.613	81.75
400.837	75.75
401.062	74.75
401.286	86.75
401.51	82.75
401.734	84.75
401.958	90.75
402.182	81.75
402.406	86.75
402.63	93.75
402.854	88.75
403.078	82.75
403.302	79.75
403.526	78.75
403.75	76.75
403.974	83.75
404.198	84.75
404.422	81.75
404.645	81.75
404.869	79.75
405.093	93.75
405.317	83.75
405.541	75.75
405.765	91.75
405.988	89.75
406.212	92.75
406.436	78.75
406.66	89.75
406.883	82.75
407.107	85.75
407.331	84.75
407.555	80.75
407.778	84.75
408.002	90.75
408.226	72.75
408.449	68.75
408.673	86.75
408.896	90.75
409.12	100.75
409.344	93.75
409.567	84.75
409.791	102.75
410.014	94.75
410.238	82.75
410.461	71.75
410.685	102.75
410.908	74.75
411.132	82.75
411.355	98.75
411.578	78.75
411.802	78.75
412.025	87.75
412.249	84.75
412.472	66.75
412.695	102.75
412.919	90.75
413.142	102.75
413.365	85.75
413.589	89.75
413.812	85.75
414.035	88.75
414.258	91.75
414.482	78.75
414.705	94.75
414.928	93.75
415.151	102.75
415.374	94.75
415.597	80.75
415.821	94.75
416.044	82.75
416.267	101.75
416.49	80.75
416.713	88.75
416.936	89.75
417.159	84.75
417.382	78.75
417.605	86.75
417.828	94.75
418.051	78.75
418.274	84.75
418.497	83.75
418.72	78.75
418.943	90.75
419.166	71.75
419.389	98.75
419.611	85.75
419.834	81.75
420.057	87.75
420.28	79.75
420.503	84.75
420.726	84.75
420.948	83.75
421.171	80.75
421.394	89.75
421.617	94.75
421.839	80.75
422.062	84.75
422.285	89.75
422.507	76.75
422.73	76.75
422.953	71.75
423.175	90.75
423.398	92.75
423.621	86.75
423.843	91.75
424.066	87.75
424.288	89.75
424.511	91.75
424.733	93.75
424.956	91.75
425.178	99.75
425.401	92.75
425.623	96.75
425.846	90.75
426.068	86.75
426.291	76.75
426.513	83.75
426.735	85.75
426.958	83.75
427.18	92.75
427.402	86.75
427.625	81.75
427.847	79.75
428.069	87.75
428.292	83.75
428.514	85.75
428.736	77.75
428.958	100.75
429.181	88.75
429.403	91.75
429.625	81.75
429.847	95.75
430.069	99.75
430.292	91.75
430.514	86.75
430.736	83.75
430.958	93.75
431.18	101.75
431.402	83.75
431.624	90.75
431.846	72.75
432.068	95.75
432.29	81.75
432.512	93.75
432.734	93.75
432.956	80.75
433.178	78.75
433.4	83.75
433.622	84.75
433.844	81.75
434.066	88.75
434.287	91.75
434.509	87.75
434.731	70.75
434.953	95.75
435.175	97.75
435.397	77.75
435.618	80.75
435.84	94.75
436.062	71.75
436.284	74.75
436.505	82.75
436.727	97.75
436.949	91.75
437.17	84.75
437.392	89.75
437.614	82.75
437.835	90.75
438.057	83.75
438.278	84.75
438.5	85.75
438.721	88.75
438.943	98.75
439.165	86.75
439.386	98.75
439.608	82.75
439.829	98.75
440.05	75.75
440.272	94.75
440.493	99.75
440.715	82.75
440.936	89.75
441.158	93.75
441.379	80.75
441.6	77.75
441.822	86.75
442.043	106.75
442.264	75.75
442.486	88.75
442.707	96.75
442.928	87.75
443.149	94.75
443.371	98.75
443.592	86.75
443.813	75.75
444.034	66.75
444.255	85.75
444.476	95.75
444.698	93.75
444.919	93.75
445.14	205.75
445.361	136.75
445.582	84.75
445.803	98.75
446.024	85.75
446.245	111.75
446.466	112.75
446.687	85.75
446.908	87.75
447.129	84.75
447.35	86.75
447.571	93.75
447.792	95.75
448.013	78.75
448.234	78.75
448.455	85.75
448.675	99.75
448.896	85.75
449.117	88.75
449.338	85.75
449.559	76.75
449.779	71.75
450	87.75
450.221	95.75
450.442	80.75
450.662	92.75
450.883	83.75
451.104	90.75
451.324	90.75
451.545	74.75
451.766	87.75
451.986	66.75
452.207	89.75
452.428	89.75
452.648	81.75
452.869	94.75
453.089	83.75
453.31	94.75
453.53	80.75
453.751	71.75
453.971	76.75
454.192	88.75
454.412	76.75
454.633	96.75
454.853	78.75
455.073	85.75
455.294	84.75
455.514	84.75
455.734	102.75
455.955	88.75
456.175	85.75
456.395	85.75
456.616	92.75
456.836	80.75
457.056	80.75
457.276	86.75
457.497	82.75
457.717	78.75
457.937	83.75
458.157	86.75
458.377	87.75
458.598	89.75
458.818	82.75
459.038	78.75
459.258	78.75
459.478	74.75
459.698	70.75
459.918	93.75
460.138	90.75
460.358	88.75
460.578	91.75
460.798	83.75
461.018	82.75
461.238	89.75
461.458	80.75
461.678	90.75
461.898	79.75
462.118	77.75
462.338	80.75
462.558	84.75
462.777	85.75
462.997	91.75
463.217	94.75
463.437	88.75
463.657	100.75
463.876	78.75
464.096	86.75
464.316	90.75
464.536	81.75
464.755	79.75
464.975	87.75
465.195	97.75
465.414	88.75
465.634	89.75
465.854	83.75
466.073	81.75
466.293	106.75
466.512	97.75
466.732	91.75
466.951	82.75
467.171	88.75
467.391	87.75
467.61	75.75
467.829	108.75
468.049	84.75
468.268	90.75
468.488	93.75
468.707	90.75
468.927	90.75
469.146	92.75
469.365	65.75
469.585	98.75
469.804	88.75
470.023	97.75
470.243	83.75
470.462	95.75
470.681	91.75
470.901	77.75
471.12	91.75
471.339	78.75
471.558	81.75
471.777	87.75
471.997	91.75
472.216	86.75
472.435	73.75
472.654	88.75
472.873	76.75
473.092	83.75
473.311	75.75
473.53	79.75
473.749	97.75
473.968	86.75
474.187	82.75
474.406	89.75
474.625	89.75
474.844	87.75
475.063	83.75
475.282	87.75
475.501	98.75
475.72	92.75
475.939	84.75
476.158	77.75
476.377	90.75
476.596	77.75
476.814	78.75
477.033	87.75
477.252	73.75
477.471	79.75
477.69	84.75
477.908	94.75
478.127	99.75
478.346	89.75
478.564	82.75
478.783	84.75
479.002	85.75
479.22	92.75
479.439	89.75
479.658	87.75
479.876	79.75
480.095	76.75
480.313	77.75
480.532	82.75
480.751	88.75
480.969	75.75
481.188	92.75
481.406	91.75
481.624	82.75
481.843	81.75
482.061	81.75
482.28	92.75
482.498	87.75
482.717	79.75
482.935	81.75
483.153	99.75
483.372	104.75
483.59	94.75
483.808	93.75
484.027	84.75
484.245	86.75
484.463	75.75
484.681	87.75
484.9	78.75
485.118	108.75
485.336	89.75
485.554	81.75
485.772	79.75
485.99	83.75
486.209	96.75
486.427	76.75
486.645	96.75
486.863	92.75
487.081	87.75
487.299	85.75
487.517	101.75
487.735	104.75
487.953	89.75
488.171	104.75
488.389	94.75
488.607	88.75
488.825	95.75
489.043	91.75
489.261	92.75
489.479	85.75
489.696	100.75
489.914	95.75
490.132	86.75
490.35	85.75
490.568	73.75
490.786	90.75
491.003	91.75
491.221	109.75
491.439	100.75
491.657	82.75
491.874	101.75
492.092	108.75
492.31	111.75
492.527	106.75
492.745	110.75
492.963	114.75
493.18	105.75
493.398	99.75
493.615	105.75
493.833	97.75
494.05	109.75
494.268	106.75
494.485	88.75
494.703	92.75
494.92	109.75
495.138	93.75
495.355	97.75
495.573	107.75
495.79	99.75
496.008	93.75
496.225	109.75
496.442	92.75
496.66	97.75
496.877	98.75
497.094	95.75
497.312	102.75
497.529	101.75
497.746	97.75
497.963	103.75
498.181	85.75
498.398	90.75
498.615	77.75
498.832	91.75
499.049	79.75
499.267	75.75
499.484	85.75
499.701	92.75
499.918	95.75
500.135	99.75
500.352	97.75
500.569	96.75
500.786	93.75
501.003	100.75
501.22	97.75
501.437	111.75
501.654	89.75
501.871	98.75
502.088	100.75
502.305	82.75
502.522	87.75
502.739	81.75
502.956	98.75
503.172	86.75
503.389	91.75
503.606	102.75
503.823	90.75
504.04	93.75
504.256	95.75
504.473	98.75
504.69	73.75
504.907	88.75
505.123	77.75
505.34	82.75
505.557	93.75
505.773	76.75
505.99	99.75
506.207	82.75
506.423	81.75
506.64	78.75
506.856	94.75
507.073	80.75
507.289	89.75
507.506	73.75
507.722	84.75
507.939	80.75
508.155	85.75
508.372	98.75
508.588	99.75
508.805	96.75
509.021	84.75
509.238	92.75
509.454	83.75
509.67	89.75
509.887	87.75
510.103	78.75
510.319	88.75
510.536	97.75
510.752	83.75
510.968	81.75
511.184	88.75
511.401	86.75
511.617	82.75
511.833	90.75
512.049	94.75
512.265	69.75
512.481	75.75
512.698	82.75
512.914	82.75
513.13	84.75
513.346	97.75
513.562	90.75
513.778	88.75
513.994	95.75
514.21	78.75
514.426	87.75
514.642	86.75
514.858	88.75
515.074	98.75
515.29	105.75
515.506	81.75
515.721	80.75
515.937	88.75
516.153	94.75
516.369	75.75
516.585	79.75
516.801	87.75
517.016	98.75
517.232	85.75
517.448	84.75
517.664	85.75
517.879	79.75
518.095	94.75
518.311	100.75
518.527	84.75
518.742	90.75
