Data from Zn(NO3)2Standard.Agarose3%.GreenCap.LampEnergy10E.O_HRD10591_15-07-29-944.txt Node
Date: Mon Jul 22 15:07:29 EDT 2019
User: cochatt
Spectrometer: HR+D1059
Trigger mode: 1
Integration Time (sec): 1.000000E-1
Scans to average: 1
Electric dark correction enabled: true
Nonlinearity correction enabled: false
Boxcar width: 0
XAxis mode: Wavelengths
Number of Pixels in Spectrum: 2048
>>>>>Begin Spectral Data<<<<<
223.165	-22.12
223.4	-22.12
223.635	-22.12
223.869	-13.12
224.104	-15.12
224.338	-10.12
224.573	0.88
224.808	-13.12
225.042	2.88
225.277	-3.12
225.511	-11.12
225.746	6.88
225.98	10.88
226.215	8.88
226.449	11.88
226.683	27.88
226.918	8.88
227.152	8.88
227.387	40.88
227.621	38.88
227.856	39.88
228.09	53.88
228.324	47.88
228.559	58.88
228.793	60.88
229.027	60.88
229.262	57.88
229.496	62.88
229.73	51.88
229.964	70.88
230.199	72.88
230.433	74.88
230.667	88.88
230.901	83.88
231.136	78.88
231.37	80.88
231.604	82.88
231.838	86.88
232.072	85.88
232.306	83.88
232.541	79.88
232.775	79.88
233.009	83.88
233.243	80.88
233.477	86.88
233.711	74.88
233.945	63.88
234.179	75.88
234.413	67.88
234.647	83.88
234.881	75.88
235.115	78.88
235.349	94.88
235.583	79.88
235.817	72.88
236.051	75.88
236.285	71.88
236.519	81.88
236.753	81.88
236.987	77.88
237.221	85.88
237.455	74.88
237.689	83.88
237.922	93.88
238.156	50.88
238.39	69.88
238.624	78.88
238.858	65.88
239.091	72.88
239.325	81.88
239.559	56.88
239.793	72.88
240.027	84.88
240.26	66.88
240.494	72.88
240.728	73.88
240.961	59.88
241.195	80.88
241.429	75.88
241.662	86.88
241.896	67.88
242.13	85.88
242.363	74.88
242.597	80.88
242.83	73.88
243.064	84.88
243.298	81.88
243.531	77.88
243.765	75.88
243.998	87.88
244.232	67.88
244.465	76.88
244.699	67.88
244.932	63.88
245.166	70.88
245.399	63.88
245.633	72.88
245.866	66.88
246.099	75.88
246.333	87.88
246.566	75.88
246.8	74.88
247.033	89.88
247.266	69.88
247.5	74.88
247.733	73.88
247.966	86.88
248.2	80.88
248.433	76.88
248.666	76.88
248.899	78.88
249.133	74.88
249.366	79.88
249.599	87.88
249.832	82.88
250.066	71.88
250.299	87.88
250.532	82.88
250.765	81.88
250.998	81.88
251.231	95.88
251.465	76.88
251.698	90.88
251.931	64.88
252.164	69.88
252.397	69.88
252.63	80.88
252.863	66.88
253.096	92.88
253.329	89.88
253.562	83.88
253.795	66.88
254.028	81.88
254.261	82.88
254.494	87.88
254.727	84.88
254.96	82.88
255.193	74.88
255.426	80.88
255.659	73.88
255.892	76.88
256.124	87.88
256.357	71.88
256.59	72.88
256.823	72.88
257.056	80.88
257.289	84.88
257.521	86.88
257.754	71.88
257.987	75.88
258.22	88.88
258.452	75.88
258.685	94.88
258.918	78.88
259.151	83.88
259.383	84.88
259.616	78.88
259.849	73.88
260.081	88.88
260.314	82.88
260.547	76.88
260.779	86.88
261.012	81.88
261.244	71.88
261.477	75.88
261.71	80.88
261.942	81.88
262.175	80.88
262.407	78.88
262.64	80.88
262.872	74.88
263.105	86.88
263.337	77.88
263.57	81.88
263.802	84.88
264.035	91.88
264.267	76.88
264.499	86.88
264.732	83.88
264.964	82.88
265.197	76.88
265.429	79.88
265.661	81.88
265.894	86.88
266.126	87.88
266.358	71.88
266.591	81.88
266.823	86.88
267.055	77.88
267.287	83.88
267.52	68.88
267.752	86.88
267.984	88.88
268.216	73.88
268.448	83.88
268.681	77.88
268.913	78.88
269.145	82.88
269.377	91.88
269.609	82.88
269.841	84.88
270.073	86.88
270.306	87.88
270.538	84.88
270.77	76.88
271.002	83.88
271.234	94.88
271.466	85.88
271.698	74.88
271.93	79.88
272.162	84.88
272.394	91.88
272.626	91.88
272.858	86.88
273.09	81.88
273.322	80.88
273.553	77.88
273.785	83.88
274.017	90.88
274.249	82.88
274.481	88.88
274.713	84.88
274.945	79.88
275.176	76.88
275.408	71.88
275.64	85.88
275.872	80.88
276.104	76.88
276.335	97.88
276.567	79.88
276.799	83.88
277.031	81.88
277.262	85.88
277.494	87.88
277.726	88.88
277.957	80.88
278.189	88.88
278.421	71.88
278.652	92.88
278.884	75.88
279.115	96.88
279.347	83.88
279.579	77.88
279.81	81.88
280.042	89.88
280.273	94.88
280.505	92.88
280.736	82.88
280.968	74.88
281.199	81.88
281.431	88.88
281.662	80.88
281.894	88.88
282.125	83.88
282.356	83.88
282.588	82.88
282.819	83.88
283.051	89.88
283.282	75.88
283.513	83.88
283.745	84.88
283.976	81.88
284.207	76.88
284.439	85.88
284.67	93.88
284.901	85.88
285.132	79.88
285.364	75.88
285.595	99.88
285.826	97.88
286.057	83.88
286.288	79.88
286.52	85.88
286.751	89.88
286.982	87.88
287.213	80.88
287.444	85.88
287.675	80.88
287.906	86.88
288.138	82.88
288.369	86.88
288.6	93.88
288.831	80.88
289.062	85.88
289.293	75.88
289.524	79.88
289.755	80.88
289.986	89.88
290.217	89.88
290.448	88.88
290.679	83.88
290.91	89.88
291.141	78.88
291.371	82.88
291.602	82.88
291.833	72.88
292.064	100.88
292.295	84.88
292.526	70.88
292.757	92.88
292.987	87.88
293.218	80.88
293.449	89.88
293.68	84.88
293.91	81.88
294.141	88.88
294.372	80.88
294.603	78.88
294.833	90.88
295.064	85.88
295.295	83.88
295.525	68.88
295.756	84.88
295.987	70.88
296.217	78.88
296.448	60.88
296.679	77.88
296.909	79.88
297.14	85.88
297.37	89.88
297.601	72.88
297.831	81.88
298.062	82.88
298.292	95.88
298.523	76.88
298.753	83.88
298.984	74.88
299.214	87.88
299.445	93.88
299.675	76.88
299.905	88.88
300.136	76.88
300.366	83.88
300.597	89.88
300.827	91.88
301.057	83.88
301.288	75.88
301.518	76.88
301.748	90.88
301.979	80.88
302.209	76.88
302.439	79.88
302.669	82.88
302.9	74.88
303.13	83.88
303.36	86.88
303.59	90.88
303.82	83.88
304.051	75.88
304.281	101.88
304.511	80.88
304.741	88.88
304.971	82.88
305.201	88.88
305.431	89.88
305.661	101.88
305.891	82.88
306.121	75.88
306.352	78.88
306.582	72.88
306.812	86.88
307.042	89.88
307.272	72.88
307.502	85.88
307.731	83.88
307.961	90.88
308.191	65.88
308.421	70.88
308.651	79.88
308.881	90.88
309.111	76.88
309.341	79.88
309.571	80.88
309.8	83.88
310.03	90.88
310.26	85.88
310.49	96.88
310.72	82.88
310.949	71.88
311.179	80.88
311.409	88.88
311.639	84.88
311.868	83.88
312.098	74.88
312.328	81.88
312.557	90.88
312.787	76.88
313.017	78.88
313.246	81.88
313.476	86.88
313.706	77.88
313.935	84.88
314.165	91.88
314.394	80.88
314.624	76.88
314.853	95.88
315.083	83.88
315.312	83.88
315.542	97.88
315.771	92.88
316.001	99.88
316.23	86.88
316.46	73.88
316.689	81.88
316.919	89.88
317.148	78.88
317.377	72.88
317.607	84.88
317.836	88.88
318.065	83.88
318.295	91.88
318.524	68.88
318.753	80.88
318.983	88.88
319.212	80.88
319.441	73.88
319.67	73.88
319.9	79.88
320.129	71.88
320.358	85.88
320.587	88.88
320.816	87.88
321.046	91.88
321.275	91.88
321.504	89.88
321.733	85.88
321.962	80.88
322.191	90.88
322.42	79.88
322.649	79.88
322.878	90.88
323.108	76.88
323.337	88.88
323.566	81.88
323.795	96.88
324.024	90.88
324.253	91.88
324.482	85.88
324.71	86.88
324.939	83.88
325.168	86.88
325.397	82.88
325.626	85.88
325.855	88.88
326.084	72.88
326.313	84.88
326.542	78.88
326.77	87.88
326.999	94.88
327.228	89.88
327.457	96.88
327.686	86.88
327.914	92.88
328.143	94.88
328.372	84.88
328.6	89.88
328.829	86.88
329.058	90.88
329.287	75.88
329.515	74.88
329.744	91.88
329.972	84.88
330.201	88.88
330.43	81.88
330.658	82.88
330.887	79.88
331.115	79.88
331.344	98.88
331.572	74.88
331.801	71.88
332.03	85.88
332.258	77.88
332.486	87.88
332.715	92.88
332.943	81.88
333.172	83.88
333.4	72.88
333.629	74.88
333.857	90.88
334.085	71.88
334.314	91.88
334.542	85.88
334.771	98.88
334.999	88.88
335.227	86.88
335.455	79.88
335.684	77.88
335.912	92.88
336.14	86.88
336.369	73.88
336.597	84.88
336.825	80.88
337.053	83.88
337.281	92.88
337.51	95.88
337.738	91.88
337.966	92.88
338.194	98.88
338.422	89.88
338.65	78.88
338.878	86.88
339.106	80.88
339.334	82.88
339.562	83.88
339.79	86.88
340.018	79.88
340.246	83.88
340.474	93.88
340.702	91.88
340.93	72.88
341.158	76.88
341.386	80.88
341.614	94.88
341.842	88.88
342.07	80.88
342.298	79.88
342.526	84.88
342.754	76.88
342.981	71.88
343.209	72.88
343.437	88.88
343.665	86.88
343.893	85.88
344.12	86.88
344.348	88.88
344.576	89.88
344.804	86.88
345.031	89.88
345.259	86.88
345.487	76.88
345.714	85.88
345.942	75.88
346.17	86.88
346.397	87.88
346.625	83.88
346.853	75.88
347.08	85.88
347.308	76.88
347.535	70.88
347.763	82.88
347.99	92.88
348.218	99.88
348.445	83.88
348.673	96.88
348.9	87.88
349.128	85.88
349.355	84.88
349.583	78.88
349.81	72.88
350.037	87.88
350.265	87.88
350.492	96.88
350.72	72.88
350.947	71.88
351.174	88.88
351.402	72.88
351.629	97.88
351.856	80.88
352.083	80.88
352.311	80.88
352.538	75.88
352.765	88.88
352.992	83.88
353.22	79.88
353.447	76.88
353.674	83.88
353.901	89.88
354.128	88.88
354.355	87.88
354.583	94.88
354.81	97.88
355.037	102.88
355.264	79.88
355.491	88.88
355.718	95.88
355.945	86.88
356.172	64.88
356.399	89.88
356.626	79.88
356.853	90.88
357.08	89.88
357.307	81.88
357.534	95.88
357.761	76.88
357.988	91.88
358.215	106.88
358.441	89.88
358.668	94.88
358.895	83.88
359.122	85.88
359.349	82.88
359.576	69.88
359.802	79.88
360.029	80.88
360.256	83.88
360.483	94.88
360.709	99.88
360.936	98.88
361.163	73.88
361.39	72.88
361.616	85.88
361.843	81.88
362.07	82.88
362.296	93.88
362.523	83.88
362.749	92.88
362.976	84.88
363.203	90.88
363.429	90.88
363.656	66.88
363.882	70.88
364.109	83.88
364.335	75.88
364.562	84.88
364.788	83.88
365.015	76.88
365.241	87.88
365.468	86.88
365.694	83.88
365.92	69.88
366.147	74.88
366.373	76.88
366.599	82.88
366.826	76.88
367.052	80.88
367.278	91.88
367.505	97.88
367.731	82.88
367.957	89.88
368.184	84.88
368.41	91.88
368.636	97.88
368.862	77.88
369.089	77.88
369.315	84.88
369.541	94.88
369.767	89.88
369.993	67.88
370.219	72.88
370.445	74.88
370.672	96.88
370.898	84.88
371.124	76.88
371.35	80.88
371.576	90.88
371.802	72.88
372.028	77.88
372.254	75.88
372.48	78.88
372.706	69.88
372.932	86.88
373.158	84.88
373.384	89.88
373.61	92.88
373.835	95.88
374.061	87.88
374.287	80.88
374.513	81.88
374.739	81.88
374.965	87.88
375.191	90.88
375.416	100.88
375.642	82.88
375.868	90.88
376.094	84.88
376.319	94.88
376.545	92.88
376.771	84.88
376.997	73.88
377.222	74.88
377.448	84.88
377.674	89.88
377.899	88.88
378.125	93.88
378.35	86.88
378.576	87.88
378.802	95.88
379.027	78.88
379.253	96.88
379.478	83.88
379.704	92.88
379.929	106.88
380.155	89.88
380.38	89.88
380.606	84.88
380.831	100.88
381.057	92.88
381.282	105.88
381.507	94.88
381.733	91.88
381.958	82.88
382.184	88.88
382.409	85.88
382.634	86.88
382.86	100.88
383.085	95.88
383.31	91.88
383.535	88.88
383.761	100.88
383.986	75.88
384.211	89.88
384.436	63.88
384.662	97.88
384.887	79.88
385.112	66.88
385.337	86.88
385.562	92.88
385.787	95.88
386.013	93.88
386.238	95.88
386.463	89.88
386.688	93.88
386.913	99.88
387.138	91.88
387.363	87.88
387.588	97.88
387.813	88.88
388.038	80.88
388.263	96.88
388.488	95.88
388.713	75.88
388.938	83.88
389.163	94.88
389.387	80.88
389.612	98.88
389.837	96.88
390.062	100.88
390.287	89.88
390.512	85.88
390.736	94.88
390.961	81.88
391.186	92.88
391.411	90.88
391.636	73.88
391.86	84.88
392.085	90.88
392.31	100.88
392.534	105.88
392.759	90.88
392.984	99.88
393.208	105.88
393.433	96.88
393.658	92.88
393.882	94.88
394.107	96.88
394.331	83.88
394.556	73.88
394.78	83.88
395.005	80.88
395.229	86.88
395.454	91.88
395.678	90.88
395.903	93.88
396.127	75.88
396.352	92.88
396.576	89.88
396.801	86.88
397.025	91.88
397.249	90.88
397.474	91.88
397.698	96.88
397.922	102.88
398.147	96.88
398.371	95.88
398.595	84.88
398.82	94.88
399.044	91.88
399.268	90.88
399.492	91.88
399.717	104.88
399.941	106.88
400.165	84.88
400.389	84.88
400.613	94.88
400.837	83.88
401.062	99.88
401.286	103.88
401.51	93.88
401.734	94.88
401.958	99.88
402.182	94.88
402.406	86.88
402.63	100.88
402.854	86.88
403.078	96.88
403.302	102.88
403.526	96.88
403.75	87.88
403.974	92.88
404.198	94.88
404.422	112.88
404.645	107.88
404.869	88.88
405.093	103.88
405.317	101.88
405.541	94.88
405.765	94.88
405.988	88.88
406.212	104.88
406.436	99.88
406.66	107.88
406.883	88.88
407.107	99.88
407.331	92.88
407.555	111.88
407.778	99.88
408.002	101.88
408.226	92.88
408.449	96.88
408.673	106.88
408.896	99.88
409.12	104.88
409.344	101.88
409.567	89.88
409.791	108.88
410.014	104.88
410.238	95.88
410.461	84.88
410.685	89.88
410.908	95.88
411.132	94.88
411.355	98.88
411.578	99.88
411.802	88.88
412.025	100.88
412.249	100.88
412.472	107.88
412.695	98.88
412.919	88.88
413.142	103.88
413.365	116.88
413.589	88.88
413.812	108.88
414.035	97.88
414.258	97.88
414.482	107.88
414.705	105.88
414.928	81.88
415.151	103.88
415.374	94.88
415.597	103.88
415.821	91.88
416.044	103.88
416.267	98.88
416.49	102.88
416.713	105.88
416.936	79.88
417.159	110.88
417.382	100.88
417.605	99.88
417.828	101.88
418.051	87.88
418.274	124.88
418.497	102.88
418.72	107.88
418.943	107.88
419.166	97.88
419.389	95.88
419.611	104.88
419.834	111.88
420.057	101.88
420.28	100.88
420.503	100.88
420.726	107.88
420.948	96.88
421.171	104.88
421.394	116.88
421.617	104.88
421.839	100.88
422.062	109.88
422.285	101.88
422.507	96.88
422.73	86.88
422.953	90.88
423.175	102.88
423.398	99.88
423.621	115.88
423.843	98.88
424.066	111.88
424.288	111.88
424.511	91.88
424.733	109.88
424.956	112.88
425.178	102.88
425.401	120.88
425.623	107.88
425.846	103.88
426.068	107.88
426.291	105.88
426.513	92.88
426.735	84.88
426.958	113.88
427.18	107.88
427.402	115.88
427.625	111.88
427.847	90.88
428.069	98.88
428.292	108.88
428.514	112.88
428.736	101.88
428.958	98.88
429.181	106.88
429.403	113.88
429.625	102.88
429.847	101.88
430.069	99.88
430.292	102.88
430.514	108.88
430.736	94.88
430.958	100.88
431.18	91.88
431.402	110.88
431.624	101.88
431.846	98.88
432.068	96.88
432.29	80.88
432.512	94.88
432.734	104.88
432.956	113.88
433.178	102.88
433.4	99.88
433.622	108.88
433.844	107.88
434.066	108.88
434.287	104.88
434.509	83.88
434.731	88.88
434.953	93.88
435.175	90.88
435.397	102.88
435.618	104.88
435.84	103.88
436.062	102.88
436.284	114.88
436.505	105.88
436.727	100.88
436.949	98.88
437.17	97.88
437.392	107.88
437.614	95.88
437.835	99.88
438.057	100.88
438.278	94.88
438.5	105.88
438.721	104.88
438.943	108.88
439.165	110.88
439.386	105.88
439.608	103.88
439.829	103.88
440.05	126.88
440.272	109.88
440.493	96.88
440.715	116.88
440.936	110.88
441.158	105.88
441.379	115.88
441.6	110.88
441.822	117.88
442.043	126.88
442.264	91.88
442.486	112.88
442.707	105.88
442.928	120.88
443.149	101.88
443.371	106.88
443.592	102.88
443.813	94.88
444.034	119.88
444.255	110.88
444.476	100.88
444.698	100.88
444.919	95.88
445.14	215.88
445.361	164.88
445.582	106.88
445.803	102.88
446.024	102.88
446.245	109.88
446.466	105.88
446.687	112.88
446.908	122.88
447.129	115.88
447.35	108.88
447.571	130.88
447.792	108.88
448.013	111.88
448.234	110.88
448.455	113.88
448.675	127.88
448.896	103.88
449.117	122.88
449.338	98.88
449.559	99.88
449.779	105.88
450	97.88
450.221	99.88
450.442	114.88
450.662	100.88
450.883	114.88
451.104	105.88
451.324	118.88
451.545	96.88
451.766	104.88
451.986	101.88
452.207	106.88
452.428	77.88
452.648	102.88
452.869	96.88
453.089	104.88
453.31	93.88
453.53	95.88
453.751	83.88
453.971	85.88
454.192	97.88
454.412	94.88
454.633	101.88
454.853	102.88
455.073	98.88
455.294	92.88
455.514	105.88
455.734	108.88
455.955	105.88
456.175	99.88
456.395	81.88
456.616	89.88
456.836	82.88
457.056	80.88
457.276	107.88
457.497	86.88
457.717	95.88
457.937	88.88
458.157	99.88
458.377	76.88
458.598	90.88
458.818	80.88
459.038	96.88
459.258	87.88
459.478	83.88
459.698	72.88
459.918	94.88
460.138	97.88
460.358	93.88
460.578	94.88
460.798	95.88
461.018	89.88
461.238	83.88
461.458	87.88
461.678	82.88
461.898	98.88
462.118	109.88
462.338	100.88
462.558	87.88
462.777	102.88
462.997	85.88
463.217	98.88
463.437	77.88
463.657	97.88
463.876	90.88
464.096	89.88
464.316	91.88
464.536	96.88
464.755	84.88
464.975	101.88
465.195	107.88
465.414	101.88
465.634	100.88
465.854	92.88
466.073	88.88
466.293	102.88
466.512	105.88
466.732	99.88
466.951	89.88
467.171	91.88
467.391	118.88
467.61	113.88
467.829	113.88
468.049	116.88
468.268	101.88
468.488	104.88
468.707	103.88
468.927	101.88
469.146	116.88
469.365	111.88
469.585	105.88
469.804	84.88
470.023	110.88
470.243	102.88
470.462	126.88
470.681	102.88
470.901	120.88
471.12	108.88
471.339	123.88
471.558	112.88
471.777	116.88
471.997	117.88
472.216	96.88
472.435	101.88
472.654	87.88
472.873	101.88
473.092	98.88
473.311	101.88
473.53	100.88
473.749	102.88
473.968	95.88
474.187	101.88
474.406	103.88
474.625	98.88
474.844	119.88
475.063	112.88
475.282	96.88
475.501	103.88
475.72	102.88
475.939	107.88
476.158	105.88
476.377	105.88
476.596	95.88
476.814	104.88
477.033	95.88
477.252	101.88
477.471	102.88
477.69	105.88
477.908	107.88
478.127	98.88
478.346	98.88
478.564	111.88
478.783	100.88
479.002	103.88
479.22	110.88
479.439	100.88
479.658	95.88
479.876	108.88
480.095	92.88
480.313	95.88
480.532	90.88
480.751	100.88
480.969	81.88
481.188	83.88
481.406	81.88
481.624	85.88
481.843	89.88
482.061	84.88
482.28	99.88
482.498	98.88
482.717	100.88
482.935	119.88
483.153	102.88
483.372	114.88
483.59	110.88
483.808	109.88
484.027	119.88
484.245	102.88
484.463	111.88
484.681	118.88
484.9	112.88
485.118	120.88
485.336	113.88
485.554	73.88
485.772	91.88
485.99	92.88
486.209	92.88
486.427	98.88
486.645	94.88
486.863	102.88
487.081	107.88
487.299	102.88
487.517	104.88
487.735	137.88
487.953	124.88
488.171	134.88
488.389	122.88
488.607	120.88
488.825	119.88
489.043	104.88
489.261	112.88
489.479	95.88
489.696	110.88
489.914	99.88
490.132	107.88
490.35	126.88
490.568	110.88
490.786	107.88
491.003	117.88
491.221	126.88
491.439	130.88
491.657	140.88
491.874	139.88
492.092	152.88
492.31	159.88
492.527	146.88
492.745	140.88
492.963	125.88
493.18	146.88
493.398	126.88
493.615	130.88
493.833	134.88
494.05	124.88
494.268	126.88
494.485	126.88
494.703	137.88
494.92	134.88
495.138	115.88
495.355	136.88
495.573	121.88
495.79	130.88
496.008	113.88
496.225	115.88
496.442	119.88
496.66	122.88
496.877	121.88
497.094	130.88
497.312	128.88
497.529	126.88
497.746	122.88
497.963	107.88
498.181	119.88
498.398	100.88
498.615	107.88
498.832	108.88
499.049	112.88
499.267	103.88
499.484	115.88
499.701	106.88
499.918	102.88
500.135	102.88
500.352	120.88
500.569	116.88
500.786	110.88
501.003	94.88
501.22	112.88
501.437	106.88
501.654	104.88
501.871	125.88
502.088	107.88
502.305	110.88
502.522	106.88
502.739	117.88
502.956	103.88
503.172	111.88
503.389	102.88
503.606	83.88
503.823	109.88
504.04	109.88
504.256	112.88
504.473	95.88
504.69	96.88
504.907	112.88
505.123	103.88
505.34	96.88
505.557	99.88
505.773	119.88
505.99	106.88
506.207	112.88
506.423	111.88
506.64	105.88
506.856	99.88
507.073	94.88
507.289	101.88
507.506	111.88
507.722	101.88
507.939	107.88
508.155	85.88
508.372	99.88
508.588	74.88
508.805	102.88
509.021	103.88
509.238	97.88
509.454	106.88
509.67	87.88
509.887	98.88
510.103	98.88
510.319	83.88
510.536	71.88
510.752	86.88
510.968	80.88
511.184	89.88
511.401	82.88
511.617	81.88
511.833	87.88
512.049	81.88
512.265	80.88
512.481	82.88
512.698	81.88
512.914	92.88
513.13	76.88
513.346	88.88
513.562	102.88
513.778	93.88
513.994	98.88
514.21	95.88
514.426	86.88
514.642	89.88
514.858	86.88
