Data from Zn(NO3)2Standard.Agarose3%.GreenCap.LampEnergy5.5.E.O_HRD10591_15-01-53-767.txt Node
Date: Mon Jul 22 15:01:53 EDT 2019
User: cochatt
Spectrometer: HR+D1059
Trigger mode: 1
Integration Time (sec): 1.000000E-1
Scans to average: 1
Electric dark correction enabled: true
Nonlinearity correction enabled: false
Boxcar width: 0
XAxis mode: Wavelengths
Number of Pixels in Spectrum: 2048
>>>>>Begin Spectral Data<<<<<
223.165	-7.44
223.4	-7.44
223.635	-7.44
223.869	-12.44
224.104	-10.44
224.338	-18.44
224.573	-17.44
224.808	-5.44
225.042	-19.44
225.277	7.56
225.511	-8.44
225.746	-8.44
225.98	7.56
226.215	-0.44
226.449	13.56
226.683	24.56
226.918	19.56
227.152	35.56
227.387	48.56
227.621	43.56
227.856	47.56
228.09	47.56
228.324	43.56
228.559	57.56
228.793	31.56
229.027	53.56
229.262	79.56
229.496	72.56
229.73	83.56
229.964	69.56
230.199	84.56
230.433	73.56
230.667	71.56
230.901	75.56
231.136	75.56
231.37	75.56
231.604	87.56
231.838	79.56
232.072	75.56
232.306	91.56
232.541	91.56
232.775	100.56
233.009	80.56
233.243	75.56
233.477	81.56
233.711	93.56
233.945	78.56
234.179	86.56
234.413	95.56
234.647	86.56
234.881	90.56
235.115	73.56
235.349	78.56
235.583	78.56
235.817	80.56
236.051	76.56
236.285	76.56
236.519	77.56
236.753	91.56
236.987	78.56
237.221	73.56
237.455	74.56
237.689	77.56
237.922	68.56
238.156	91.56
238.39	90.56
238.624	73.56
238.858	84.56
239.091	72.56
239.325	74.56
239.559	79.56
239.793	84.56
240.027	88.56
240.26	75.56
240.494	62.56
240.728	73.56
240.961	71.56
241.195	87.56
241.429	69.56
241.662	79.56
241.896	78.56
242.13	78.56
242.363	75.56
242.597	76.56
242.83	81.56
243.064	84.56
243.298	81.56
243.531	87.56
243.765	86.56
243.998	89.56
244.232	83.56
244.465	83.56
244.699	76.56
244.932	79.56
245.166	68.56
245.399	96.56
245.633	90.56
245.866	78.56
246.099	70.56
246.333	85.56
246.566	79.56
246.8	85.56
247.033	86.56
247.266	81.56
247.5	78.56
247.733	94.56
247.966	83.56
248.2	92.56
248.433	81.56
248.666	83.56
248.899	80.56
249.133	74.56
249.366	92.56
249.599	84.56
249.832	87.56
250.066	68.56
250.299	84.56
250.532	90.56
250.765	87.56
250.998	79.56
251.231	68.56
251.465	79.56
251.698	83.56
251.931	86.56
252.164	75.56
252.397	85.56
252.63	88.56
252.863	69.56
253.096	79.56
253.329	75.56
253.562	75.56
253.795	80.56
254.028	76.56
254.261	85.56
254.494	68.56
254.727	94.56
254.96	105.56
255.193	97.56
255.426	73.56
255.659	93.56
255.892	80.56
256.124	86.56
256.357	83.56
256.59	99.56
256.823	78.56
257.056	73.56
257.289	71.56
257.521	87.56
257.754	89.56
257.987	87.56
258.22	87.56
258.452	80.56
258.685	74.56
258.918	85.56
259.151	73.56
259.383	93.56
259.616	78.56
259.849	89.56
260.081	85.56
260.314	82.56
260.547	93.56
260.779	72.56
261.012	79.56
261.244	89.56
261.477	72.56
261.71	77.56
261.942	87.56
262.175	75.56
262.407	69.56
262.64	84.56
262.872	78.56
263.105	79.56
263.337	76.56
263.57	74.56
263.802	95.56
264.035	91.56
264.267	85.56
264.499	92.56
264.732	85.56
264.964	85.56
265.197	84.56
265.429	84.56
265.661	72.56
265.894	98.56
266.126	79.56
266.358	95.56
266.591	66.56
266.823	75.56
267.055	83.56
267.287	64.56
267.52	85.56
267.752	81.56
267.984	93.56
268.216	77.56
268.448	81.56
268.681	94.56
268.913	88.56
269.145	89.56
269.377	82.56
269.609	81.56
269.841	79.56
270.073	87.56
270.306	90.56
270.538	92.56
270.77	91.56
271.002	79.56
271.234	86.56
271.466	77.56
271.698	96.56
271.93	93.56
272.162	85.56
272.394	92.56
272.626	86.56
272.858	87.56
273.09	83.56
273.322	93.56
273.553	99.56
273.785	79.56
274.017	66.56
274.249	84.56
274.481	94.56
274.713	90.56
274.945	86.56
275.176	87.56
275.408	85.56
275.64	89.56
275.872	86.56
276.104	93.56
276.335	87.56
276.567	88.56
276.799	70.56
277.031	102.56
277.262	101.56
277.494	95.56
277.726	86.56
277.957	80.56
278.189	88.56
278.421	95.56
278.652	84.56
278.884	85.56
279.115	94.56
279.347	86.56
279.579	80.56
279.81	81.56
280.042	102.56
280.273	87.56
280.505	86.56
280.736	100.56
280.968	78.56
281.199	76.56
281.431	81.56
281.662	96.56
281.894	92.56
282.125	103.56
282.356	93.56
282.588	83.56
282.819	88.56
283.051	88.56
283.282	96.56
283.513	90.56
283.745	82.56
283.976	78.56
284.207	78.56
284.439	75.56
284.67	97.56
284.901	93.56
285.132	85.56
285.364	72.56
285.595	101.56
285.826	82.56
286.057	86.56
286.288	88.56
286.52	97.56
286.751	95.56
286.982	93.56
287.213	82.56
287.444	80.56
287.675	94.56
287.906	76.56
288.138	72.56
288.369	88.56
288.6	82.56
288.831	89.56
289.062	85.56
289.293	104.56
289.524	80.56
289.755	75.56
289.986	92.56
290.217	80.56
290.448	86.56
290.679	70.56
290.91	91.56
291.141	91.56
291.371	86.56
291.602	81.56
291.833	92.56
292.064	87.56
292.295	74.56
292.526	86.56
292.757	84.56
292.987	84.56
293.218	94.56
293.449	88.56
293.68	87.56
293.91	82.56
294.141	81.56
294.372	77.56
294.603	92.56
294.833	96.56
295.064	79.56
295.295	90.56
295.525	82.56
295.756	88.56
295.987	88.56
296.217	92.56
296.448	77.56
296.679	87.56
296.909	99.56
297.14	82.56
297.37	92.56
297.601	83.56
297.831	91.56
298.062	79.56
298.292	87.56
298.523	91.56
298.753	92.56
298.984	88.56
299.214	89.56
299.445	95.56
299.675	83.56
299.905	88.56
300.136	89.56
300.366	83.56
300.597	78.56
300.827	87.56
301.057	86.56
301.288	87.56
301.518	93.56
301.748	87.56
301.979	87.56
302.209	80.56
302.439	84.56
302.669	82.56
302.9	99.56
303.13	93.56
303.36	95.56
303.59	86.56
303.82	86.56
304.051	91.56
304.281	89.56
304.511	95.56
304.741	85.56
304.971	93.56
305.201	85.56
305.431	92.56
305.661	105.56
305.891	100.56
306.121	80.56
306.352	85.56
306.582	94.56
306.812	85.56
307.042	83.56
307.272	97.56
307.502	96.56
307.731	90.56
307.961	93.56
308.191	99.56
308.421	83.56
308.651	88.56
308.881	78.56
309.111	103.56
309.341	89.56
309.571	87.56
309.8	95.56
310.03	96.56
310.26	86.56
310.49	93.56
310.72	78.56
310.949	88.56
311.179	94.56
311.409	102.56
311.639	81.56
311.868	85.56
312.098	84.56
312.328	98.56
312.557	90.56
312.787	88.56
313.017	91.56
313.246	86.56
313.476	89.56
313.706	94.56
313.935	100.56
314.165	102.56
314.394	83.56
314.624	82.56
314.853	91.56
315.083	74.56
315.312	86.56
315.542	89.56
315.771	89.56
316.001	92.56
316.23	99.56
316.46	85.56
316.689	83.56
316.919	79.56
317.148	99.56
317.377	99.56
317.607	81.56
317.836	85.56
318.065	87.56
318.295	81.56
318.524	110.56
318.753	90.56
318.983	92.56
319.212	86.56
319.441	84.56
319.67	86.56
319.9	91.56
320.129	89.56
320.358	86.56
320.587	88.56
320.816	81.56
321.046	91.56
321.275	100.56
321.504	88.56
321.733	104.56
321.962	91.56
322.191	101.56
322.42	85.56
322.649	101.56
322.878	85.56
323.108	91.56
323.337	89.56
323.566	84.56
323.795	74.56
324.024	89.56
324.253	95.56
324.482	95.56
324.71	105.56
324.939	93.56
325.168	89.56
325.397	79.56
325.626	84.56
325.855	96.56
326.084	85.56
326.313	82.56
326.542	99.56
326.77	91.56
326.999	83.56
327.228	93.56
327.457	72.56
327.686	75.56
327.914	88.56
328.143	91.56
328.372	84.56
328.6	90.56
328.829	86.56
329.058	91.56
329.287	90.56
329.515	95.56
329.744	97.56
329.972	84.56
330.201	83.56
330.43	96.56
330.658	94.56
330.887	81.56
331.115	78.56
331.344	86.56
331.572	97.56
331.801	84.56
332.03	96.56
332.258	91.56
332.486	77.56
332.715	97.56
332.943	90.56
333.172	89.56
333.4	92.56
333.629	86.56
333.857	89.56
334.085	88.56
334.314	84.56
334.542	99.56
334.771	79.56
334.999	89.56
335.227	84.56
335.455	93.56
335.684	97.56
335.912	96.56
336.14	78.56
336.369	85.56
336.597	74.56
336.825	90.56
337.053	96.56
337.281	97.56
337.51	92.56
337.738	95.56
337.966	98.56
338.194	88.56
338.422	93.56
338.65	91.56
338.878	85.56
339.106	102.56
339.334	98.56
339.562	89.56
339.79	90.56
340.018	80.56
340.246	99.56
340.474	91.56
340.702	79.56
340.93	100.56
341.158	91.56
341.386	87.56
341.614	103.56
341.842	86.56
342.07	82.56
342.298	87.56
342.526	93.56
342.754	97.56
342.981	89.56
343.209	88.56
343.437	81.56
343.665	103.56
343.893	87.56
344.12	78.56
344.348	77.56
344.576	83.56
344.804	80.56
345.031	72.56
345.259	86.56
345.487	90.56
345.714	82.56
345.942	83.56
346.17	87.56
346.397	94.56
346.625	85.56
346.853	98.56
347.08	84.56
347.308	105.56
347.535	87.56
347.763	71.56
347.99	85.56
348.218	93.56
348.445	103.56
348.673	92.56
348.9	79.56
349.128	82.56
349.355	82.56
349.583	99.56
349.81	88.56
350.037	72.56
350.265	96.56
350.492	91.56
350.72	87.56
350.947	90.56
351.174	79.56
351.402	109.56
351.629	93.56
351.856	95.56
352.083	78.56
352.311	107.56
352.538	90.56
352.765	96.56
352.992	89.56
353.22	75.56
353.447	79.56
353.674	80.56
353.901	94.56
354.128	91.56
354.355	96.56
354.583	89.56
354.81	101.56
355.037	80.56
355.264	85.56
355.491	76.56
355.718	77.56
355.945	103.56
356.172	102.56
356.399	92.56
356.626	88.56
356.853	90.56
357.08	86.56
357.307	75.56
357.534	84.56
357.761	95.56
357.988	100.56
358.215	95.56
358.441	104.56
358.668	95.56
358.895	93.56
359.122	85.56
359.349	86.56
359.576	90.56
359.802	89.56
360.029	97.56
360.256	101.56
360.483	80.56
360.709	77.56
360.936	92.56
361.163	93.56
361.39	92.56
361.616	90.56
361.843	96.56
362.07	95.56
362.296	73.56
362.523	89.56
362.749	87.56
362.976	91.56
363.203	103.56
363.429	87.56
363.656	92.56
363.882	85.56
364.109	97.56
364.335	92.56
364.562	88.56
364.788	83.56
365.015	88.56
365.241	80.56
365.468	88.56
365.694	85.56
365.92	86.56
366.147	81.56
366.373	89.56
366.599	86.56
366.826	85.56
367.052	96.56
367.278	70.56
367.505	85.56
367.731	80.56
367.957	105.56
368.184	101.56
368.41	67.56
368.636	89.56
368.862	95.56
369.089	93.56
369.315	93.56
369.541	83.56
369.767	79.56
369.993	84.56
370.219	83.56
370.445	88.56
370.672	96.56
370.898	72.56
371.124	96.56
371.35	88.56
371.576	105.56
371.802	89.56
372.028	85.56
372.254	78.56
372.48	85.56
372.706	84.56
372.932	81.56
373.158	91.56
373.384	93.56
373.61	87.56
373.835	91.56
374.061	85.56
374.287	87.56
374.513	92.56
374.739	103.56
374.965	86.56
375.191	87.56
375.416	89.56
375.642	86.56
375.868	89.56
376.094	94.56
376.319	80.56
376.545	89.56
376.771	76.56
376.997	80.56
377.222	87.56
377.448	83.56
377.674	90.56
377.899	91.56
378.125	90.56
378.35	81.56
378.576	77.56
378.802	92.56
379.027	90.56
379.253	91.56
379.478	90.56
379.704	101.56
379.929	82.56
380.155	81.56
380.38	89.56
380.606	95.56
380.831	93.56
381.057	108.56
381.282	83.56
381.507	95.56
381.733	79.56
381.958	81.56
382.184	99.56
382.409	97.56
382.634	80.56
382.86	101.56
383.085	84.56
383.31	73.56
383.535	92.56
383.761	82.56
383.986	100.56
384.211	82.56
384.436	83.56
384.662	80.56
384.887	83.56
385.112	89.56
385.337	74.56
385.562	95.56
385.787	89.56
386.013	88.56
386.238	87.56
386.463	74.56
386.688	86.56
386.913	86.56
387.138	76.56
387.363	80.56
387.588	87.56
387.813	91.56
388.038	85.56
388.263	91.56
388.488	76.56
388.713	82.56
388.938	92.56
389.163	84.56
389.387	92.56
389.612	78.56
389.837	81.56
390.062	93.56
390.287	94.56
390.512	92.56
390.736	96.56
390.961	84.56
391.186	106.56
391.411	94.56
391.636	78.56
391.86	101.56
392.085	94.56
392.31	90.56
392.534	90.56
392.759	89.56
392.984	93.56
393.208	84.56
393.433	81.56
393.658	90.56
393.882	91.56
394.107	91.56
394.331	92.56
394.556	89.56
394.78	83.56
395.005	84.56
395.229	80.56
395.454	83.56
395.678	80.56
395.903	92.56
396.127	94.56
396.352	84.56
396.576	103.56
396.801	93.56
397.025	85.56
397.249	87.56
397.474	96.56
397.698	96.56
397.922	96.56
398.147	95.56
398.371	85.56
398.595	84.56
398.82	88.56
399.044	89.56
399.268	96.56
399.492	98.56
399.717	92.56
399.941	81.56
400.165	90.56
400.389	92.56
400.613	101.56
400.837	104.56
401.062	93.56
401.286	95.56
401.51	90.56
401.734	89.56
401.958	93.56
402.182	89.56
402.406	80.56
402.63	96.56
402.854	99.56
403.078	89.56
403.302	91.56
403.526	74.56
403.75	97.56
403.974	72.56
404.198	81.56
404.422	85.56
404.645	103.56
404.869	93.56
405.093	88.56
405.317	106.56
405.541	97.56
405.765	95.56
405.988	84.56
406.212	90.56
406.436	76.56
406.66	99.56
406.883	93.56
407.107	97.56
407.331	93.56
407.555	72.56
407.778	96.56
408.002	90.56
408.226	90.56
408.449	84.56
408.673	90.56
408.896	89.56
409.12	86.56
409.344	88.56
409.567	88.56
409.791	82.56
410.014	82.56
410.238	88.56
410.461	91.56
410.685	92.56
410.908	84.56
411.132	84.56
411.355	85.56
411.578	107.56
411.802	81.56
412.025	84.56
412.249	91.56
412.472	91.56
412.695	88.56
412.919	104.56
413.142	86.56
413.365	89.56
413.589	81.56
413.812	96.56
414.035	92.56
414.258	91.56
414.482	90.56
414.705	87.56
414.928	92.56
415.151	83.56
415.374	89.56
415.597	92.56
415.821	96.56
416.044	93.56
416.267	91.56
416.49	91.56
416.713	105.56
416.936	97.56
417.159	90.56
417.382	96.56
417.605	77.56
417.828	89.56
418.051	84.56
418.274	84.56
418.497	100.56
418.72	95.56
418.943	88.56
419.166	80.56
419.389	102.56
419.611	93.56
419.834	87.56
420.057	99.56
420.28	98.56
420.503	91.56
420.726	95.56
420.948	87.56
421.171	83.56
421.394	95.56
421.617	87.56
421.839	93.56
422.062	92.56
422.285	88.56
422.507	90.56
422.73	88.56
422.953	89.56
423.175	82.56
423.398	83.56
423.621	84.56
423.843	81.56
424.066	92.56
424.288	103.56
424.511	79.56
424.733	88.56
424.956	96.56
425.178	86.56
425.401	101.56
425.623	95.56
425.846	84.56
426.068	96.56
426.291	102.56
426.513	89.56
426.735	95.56
426.958	92.56
427.18	76.56
427.402	85.56
427.625	87.56
427.847	98.56
428.069	96.56
428.292	81.56
428.514	89.56
428.736	93.56
428.958	88.56
429.181	94.56
429.403	98.56
429.625	97.56
429.847	68.56
430.069	85.56
430.292	96.56
430.514	85.56
430.736	65.56
430.958	92.56
431.18	82.56
431.402	103.56
431.624	95.56
431.846	90.56
432.068	85.56
432.29	86.56
432.512	112.56
432.734	89.56
432.956	104.56
433.178	93.56
433.4	91.56
433.622	91.56
433.844	83.56
434.066	93.56
434.287	90.56
434.509	77.56
434.731	90.56
434.953	90.56
435.175	92.56
435.397	95.56
435.618	91.56
435.84	84.56
436.062	85.56
436.284	84.56
436.505	83.56
436.727	103.56
436.949	98.56
437.17	90.56
437.392	99.56
437.614	99.56
437.835	89.56
438.057	92.56
438.278	93.56
438.5	76.56
438.721	88.56
438.943	101.56
439.165	86.56
439.386	86.56
439.608	96.56
439.829	95.56
440.05	93.56
440.272	104.56
440.493	102.56
440.715	83.56
440.936	85.56
441.158	93.56
441.379	101.56
441.6	95.56
441.822	87.56
442.043	90.56
442.264	102.56
442.486	98.56
442.707	94.56
442.928	108.56
443.149	75.56
443.371	91.56
443.592	83.56
443.813	94.56
444.034	85.56
444.255	94.56
444.476	98.56
444.698	86.56
444.919	88.56
445.14	228.56
445.361	163.56
445.582	107.56
445.803	91.56
446.024	92.56
446.245	112.56
446.466	100.56
446.687	91.56
446.908	103.56
447.129	107.56
447.35	99.56
447.571	92.56
447.792	96.56
448.013	94.56
448.234	91.56
448.455	95.56
448.675	81.56
448.896	105.56
449.117	93.56
449.338	106.56
449.559	94.56
449.779	94.56
450	99.56
450.221	95.56
450.442	92.56
450.662	88.56
450.883	77.56
451.104	102.56
451.324	89.56
451.545	89.56
451.766	85.56
451.986	81.56
452.207	109.56
452.428	105.56
452.648	95.56
452.869	95.56
453.089	85.56
453.31	88.56
453.53	98.56
453.751	86.56
453.971	75.56
454.192	96.56
454.412	91.56
454.633	93.56
454.853	81.56
455.073	105.56
455.294	85.56
455.514	96.56
455.734	85.56
455.955	86.56
456.175	98.56
456.395	83.56
456.616	87.56
456.836	89.56
457.056	87.56
457.276	80.56
457.497	106.56
457.717	85.56
457.937	80.56
458.157	91.56
458.377	83.56
458.598	71.56
458.818	89.56
459.038	83.56
459.258	89.56
459.478	82.56
459.698	81.56
459.918	92.56
460.138	88.56
460.358	76.56
460.578	90.56
460.798	81.56
461.018	93.56
461.238	85.56
461.458	89.56
461.678	84.56
461.898	84.56
462.118	88.56
462.338	96.56
462.558	89.56
462.777	81.56
462.997	90.56
463.217	91.56
463.437	95.56
463.657	92.56
463.876	84.56
464.096	83.56
464.316	83.56
464.536	88.56
464.755	94.56
464.975	89.56
465.195	89.56
465.414	84.56
465.634	97.56
465.854	103.56
466.073	82.56
466.293	99.56
466.512	89.56
466.732	99.56
466.951	87.56
467.171	91.56
467.391	90.56
467.61	84.56
467.829	95.56
468.049	103.56
468.268	88.56
468.488	104.56
468.707	88.56
468.927	92.56
469.146	89.56
469.365	89.56
469.585	89.56
469.804	80.56
470.023	93.56
470.243	89.56
470.462	90.56
470.681	102.56
470.901	88.56
471.12	96.56
471.339	101.56
471.558	99.56
471.777	80.56
471.997	102.56
472.216	76.56
472.435	82.56
472.654	87.56
472.873	89.56
473.092	82.56
473.311	88.56
473.53	88.56
473.749	99.56
473.968	93.56
474.187	91.56
474.406	78.56
474.625	100.56
474.844	106.56
475.063	96.56
475.282	88.56
475.501	102.56
475.72	96.56
475.939	109.56
476.158	90.56
476.377	89.56
476.596	99.56
476.814	96.56
477.033	92.56
477.252	85.56
477.471	100.56
477.69	83.56
477.908	93.56
478.127	101.56
478.346	100.56
478.564	115.56
478.783	101.56
479.002	90.56
479.22	85.56
479.439	103.56
479.658	88.56
479.876	77.56
480.095	72.56
480.313	92.56
480.532	95.56
480.751	95.56
480.969	89.56
481.188	79.56
481.406	78.56
481.624	80.56
481.843	81.56
482.061	88.56
482.28	90.56
482.498	88.56
482.717	77.56
482.935	92.56
483.153	90.56
483.372	96.56
483.59	103.56
483.808	103.56
484.027	98.56
484.245	93.56
484.463	94.56
484.681	104.56
484.9	88.56
485.118	82.56
485.336	86.56
485.554	88.56
485.772	85.56
485.99	106.56
486.209	86.56
486.427	86.56
486.645	108.56
486.863	86.56
487.081	87.56
487.299	98.56
487.517	99.56
487.735	84.56
487.953	96.56
488.171	104.56
488.389	99.56
488.607	103.56
488.825	98.56
489.043	74.56
489.261	90.56
489.479	98.56
489.696	90.56
489.914	95.56
490.132	90.56
490.35	107.56
490.568	108.56
490.786	104.56
491.003	107.56
491.221	103.56
491.439	109.56
491.657	91.56
491.874	120.56
492.092	112.56
492.31	126.56
492.527	106.56
492.745	88.56
492.963	103.56
493.18	95.56
493.398	104.56
493.615	113.56
493.833	90.56
494.05	104.56
494.268	108.56
494.485	93.56
494.703	107.56
494.92	100.56
495.138	91.56
495.355	104.56
495.573	106.56
495.79	92.56
496.008	94.56
496.225	98.56
496.442	100.56
496.66	104.56
496.877	93.56
497.094	97.56
497.312	111.56
497.529	110.56
497.746	86.56
497.963	86.56
498.181	96.56
498.398	93.56
498.615	96.56
498.832	86.56
499.049	89.56
499.267	95.56
499.484	88.56
499.701	95.56
499.918	84.56
500.135	90.56
500.352	101.56
500.569	92.56
500.786	96.56
501.003	100.56
501.22	90.56
501.437	90.56
501.654	74.56
501.871	87.56
502.088	85.56
502.305	95.56
502.522	95.56
502.739	90.56
502.956	87.56
503.172	89.56
503.389	85.56
503.606	90.56
503.823	88.56
504.04	93.56
504.256	87.56
504.473	96.56
504.69	111.56
504.907	94.56
505.123	105.56
505.34	86.56
505.557	71.56
505.773	93.56
505.99	92.56
506.207	70.56
506.423	79.56
506.64	81.56
506.856	94.56
507.073	94.56
507.289	109.56
507.506	101.56
507.722	81.56
507.939	86.56
508.155	97.56
508.372	78.56
508.588	89.56
508.805	85.56
509.021	96.56
509.238	85.56
509.454	93.56
509.67	99.56
509.887	77.56
510.103	87.56
510.319	81.56
510.536	87.56
510.752	80.56
510.968	91.56
511.184	78.56
511.401	89.56
511.617	88.56
511.833	83.56
512.049	96.56
512.265	82.56
512.481	81.56
512.698	79.56
512.914	82.56
513.13	75.56
513.346	90.56
513.562	76.56
513.778	89.56
513.994	80.56
514.21	94.56
514.426	93.56
514.642	77.56
514.858	95.56
515.074	88.56
515.29	95.56
515.506	92.56
515.721	77.56
515.937	88.56
516.153	97.56
516.369	92.56
516.585	72.56
516.801	75.56
517.016	88.56
517.232	91.56
517.448	89.56
517.664	86.56
