Data from Zn(NO3)2Standard.Agarose3%.GreenCap.LampEnergy5.5.E.O_HRD10591_15-02-05-768.txt Node
Date: Mon Jul 22 15:02:05 EDT 2019
User: cochatt
Spectrometer: HR+D1059
Trigger mode: 1
Integration Time (sec): 1.000000E-1
Scans to average: 1
Electric dark correction enabled: true
Nonlinearity correction enabled: false
Boxcar width: 0
XAxis mode: Wavelengths
Number of Pixels in Spectrum: 2048
>>>>>Begin Spectral Data<<<<<
223.165	-11.56
223.4	-11.56
223.635	-11.56
223.869	1.44
224.104	-10.56
224.338	-7.56
224.573	-9.56
224.808	-2.56
225.042	-5.56
225.277	-16.56
225.511	-10.56
225.746	-0.56
225.98	9.44
226.215	-1.56
226.449	6.44
226.683	11.44
226.918	26.44
227.152	21.44
227.387	39.44
227.621	36.44
227.856	53.44
228.09	45.44
228.324	47.44
228.559	54.44
228.793	57.44
229.027	63.44
229.262	64.44
229.496	69.44
229.73	70.44
229.964	90.44
230.199	87.44
230.433	72.44
230.667	79.44
230.901	67.44
231.136	87.44
231.37	96.44
231.604	71.44
231.838	79.44
232.072	91.44
232.306	83.44
232.541	84.44
232.775	75.44
233.009	79.44
233.243	73.44
233.477	78.44
233.711	100.44
233.945	87.44
234.179	76.44
234.413	77.44
234.647	83.44
234.881	74.44
235.115	87.44
235.349	89.44
235.583	77.44
235.817	86.44
236.051	84.44
236.285	77.44
236.519	87.44
236.753	85.44
236.987	85.44
237.221	79.44
237.455	81.44
237.689	79.44
237.922	90.44
238.156	85.44
238.39	62.44
238.624	70.44
238.858	56.44
239.091	61.44
239.325	61.44
239.559	70.44
239.793	66.44
240.027	69.44
240.26	79.44
240.494	75.44
240.728	65.44
240.961	84.44
241.195	82.44
241.429	78.44
241.662	63.44
241.896	89.44
242.13	75.44
242.363	80.44
242.597	87.44
242.83	92.44
243.064	77.44
243.298	86.44
243.531	60.44
243.765	85.44
243.998	77.44
244.232	75.44
244.465	92.44
244.699	77.44
244.932	87.44
245.166	99.44
245.399	80.44
245.633	86.44
245.866	75.44
246.099	89.44
246.333	83.44
246.566	79.44
246.8	77.44
247.033	89.44
247.266	68.44
247.5	74.44
247.733	75.44
247.966	85.44
248.2	85.44
248.433	75.44
248.666	77.44
248.899	92.44
249.133	86.44
249.366	65.44
249.599	69.44
249.832	78.44
250.066	95.44
250.299	68.44
250.532	95.44
250.765	93.44
250.998	76.44
251.231	71.44
251.465	73.44
251.698	75.44
251.931	86.44
252.164	80.44
252.397	66.44
252.63	78.44
252.863	74.44
253.096	79.44
253.329	70.44
253.562	75.44
253.795	73.44
254.028	80.44
254.261	79.44
254.494	82.44
254.727	81.44
254.96	87.44
255.193	67.44
255.426	90.44
255.659	74.44
255.892	74.44
256.124	73.44
256.357	94.44
256.59	85.44
256.823	80.44
257.056	96.44
257.289	82.44
257.521	78.44
257.754	78.44
257.987	79.44
258.22	82.44
258.452	71.44
258.685	88.44
258.918	83.44
259.151	86.44
259.383	75.44
259.616	77.44
259.849	72.44
260.081	77.44
260.314	90.44
260.547	80.44
260.779	91.44
261.012	86.44
261.244	87.44
261.477	82.44
261.71	86.44
261.942	80.44
262.175	82.44
262.407	76.44
262.64	89.44
262.872	77.44
263.105	87.44
263.337	99.44
263.57	85.44
263.802	77.44
264.035	73.44
264.267	87.44
264.499	82.44
264.732	91.44
264.964	90.44
265.197	88.44
265.429	77.44
265.661	72.44
265.894	94.44
266.126	91.44
266.358	88.44
266.591	74.44
266.823	84.44
267.055	88.44
267.287	84.44
267.52	98.44
267.752	75.44
267.984	87.44
268.216	89.44
268.448	88.44
268.681	79.44
268.913	76.44
269.145	77.44
269.377	79.44
269.609	100.44
269.841	84.44
270.073	88.44
270.306	84.44
270.538	88.44
270.77	84.44
271.002	88.44
271.234	96.44
271.466	85.44
271.698	75.44
271.93	74.44
272.162	83.44
272.394	82.44
272.626	67.44
272.858	88.44
273.09	95.44
273.322	92.44
273.553	68.44
273.785	80.44
274.017	85.44
274.249	74.44
274.481	79.44
274.713	87.44
274.945	90.44
275.176	90.44
275.408	68.44
275.64	88.44
275.872	70.44
276.104	81.44
276.335	79.44
276.567	74.44
276.799	77.44
277.031	89.44
277.262	79.44
277.494	66.44
277.726	93.44
277.957	84.44
278.189	67.44
278.421	80.44
278.652	68.44
278.884	84.44
279.115	91.44
279.347	80.44
279.579	83.44
279.81	85.44
280.042	79.44
280.273	69.44
280.505	89.44
280.736	75.44
280.968	93.44
281.199	88.44
281.431	93.44
281.662	91.44
281.894	88.44
282.125	92.44
282.356	77.44
282.588	74.44
282.819	78.44
283.051	96.44
283.282	76.44
283.513	82.44
283.745	81.44
283.976	92.44
284.207	90.44
284.439	75.44
284.67	81.44
284.901	94.44
285.132	87.44
285.364	84.44
285.595	78.44
285.826	93.44
286.057	90.44
286.288	85.44
286.52	86.44
286.751	75.44
286.982	86.44
287.213	92.44
287.444	98.44
287.675	95.44
287.906	82.44
288.138	87.44
288.369	92.44
288.6	78.44
288.831	85.44
289.062	86.44
289.293	93.44
289.524	81.44
289.755	78.44
289.986	78.44
290.217	73.44
290.448	79.44
290.679	88.44
290.91	78.44
291.141	87.44
291.371	93.44
291.602	85.44
291.833	82.44
292.064	82.44
292.295	80.44
292.526	85.44
292.757	75.44
292.987	91.44
293.218	85.44
293.449	90.44
293.68	99.44
293.91	90.44
294.141	91.44
294.372	85.44
294.603	79.44
294.833	88.44
295.064	80.44
295.295	108.44
295.525	98.44
295.756	95.44
295.987	93.44
296.217	94.44
296.448	67.44
296.679	91.44
296.909	82.44
297.14	100.44
297.37	94.44
297.601	88.44
297.831	78.44
298.062	90.44
298.292	85.44
298.523	85.44
298.753	79.44
298.984	72.44
299.214	85.44
299.445	90.44
299.675	92.44
299.905	86.44
300.136	98.44
300.366	90.44
300.597	78.44
300.827	89.44
301.057	88.44
301.288	86.44
301.518	93.44
301.748	95.44
301.979	91.44
302.209	89.44
302.439	90.44
302.669	100.44
302.9	89.44
303.13	85.44
303.36	82.44
303.59	87.44
303.82	108.44
304.051	83.44
304.281	102.44
304.511	91.44
304.741	80.44
304.971	89.44
305.201	87.44
305.431	94.44
305.661	85.44
305.891	84.44
306.121	106.44
306.352	93.44
306.582	97.44
306.812	101.44
307.042	77.44
307.272	91.44
307.502	89.44
307.731	97.44
307.961	94.44
308.191	86.44
308.421	94.44
308.651	83.44
308.881	94.44
309.111	86.44
309.341	101.44
309.571	81.44
309.8	95.44
310.03	94.44
310.26	75.44
310.49	90.44
310.72	79.44
310.949	91.44
311.179	98.44
311.409	78.44
311.639	82.44
311.868	86.44
312.098	77.44
312.328	88.44
312.557	106.44
312.787	85.44
313.017	92.44
313.246	79.44
313.476	84.44
313.706	89.44
313.935	75.44
314.165	82.44
314.394	83.44
314.624	82.44
314.853	82.44
315.083	95.44
315.312	93.44
315.542	85.44
315.771	80.44
316.001	85.44
316.23	91.44
316.46	79.44
316.689	84.44
316.919	89.44
317.148	87.44
317.377	73.44
317.607	91.44
317.836	81.44
318.065	78.44
318.295	83.44
318.524	75.44
318.753	97.44
318.983	79.44
319.212	95.44
319.441	91.44
319.67	102.44
319.9	89.44
320.129	89.44
320.358	86.44
320.587	88.44
320.816	89.44
321.046	91.44
321.275	86.44
321.504	71.44
321.733	75.44
321.962	88.44
322.191	91.44
322.42	89.44
322.649	84.44
322.878	79.44
323.108	86.44
323.337	77.44
323.566	91.44
323.795	88.44
324.024	74.44
324.253	84.44
324.482	83.44
324.71	96.44
324.939	95.44
325.168	81.44
325.397	73.44
325.626	96.44
325.855	82.44
326.084	92.44
326.313	97.44
326.542	87.44
326.77	92.44
326.999	97.44
327.228	87.44
327.457	87.44
327.686	84.44
327.914	83.44
328.143	79.44
328.372	93.44
328.6	83.44
328.829	91.44
329.058	72.44
329.287	82.44
329.515	88.44
329.744	86.44
329.972	87.44
330.201	85.44
330.43	85.44
330.658	91.44
330.887	73.44
331.115	62.44
331.344	79.44
331.572	92.44
331.801	104.44
332.03	85.44
332.258	79.44
332.486	87.44
332.715	70.44
332.943	86.44
333.172	86.44
333.4	79.44
333.629	85.44
333.857	85.44
334.085	86.44
334.314	77.44
334.542	95.44
334.771	98.44
334.999	93.44
335.227	75.44
335.455	98.44
335.684	85.44
335.912	89.44
336.14	93.44
336.369	86.44
336.597	86.44
336.825	83.44
337.053	85.44
337.281	76.44
337.51	77.44
337.738	93.44
337.966	84.44
338.194	91.44
338.422	82.44
338.65	84.44
338.878	90.44
339.106	75.44
339.334	89.44
339.562	75.44
339.79	85.44
340.018	90.44
340.246	89.44
340.474	76.44
340.702	77.44
340.93	76.44
341.158	92.44
341.386	96.44
341.614	84.44
341.842	90.44
342.07	75.44
342.298	86.44
342.526	87.44
342.754	82.44
342.981	95.44
343.209	92.44
343.437	81.44
343.665	66.44
343.893	73.44
344.12	76.44
344.348	95.44
344.576	76.44
344.804	79.44
345.031	99.44
345.259	86.44
345.487	65.44
345.714	83.44
345.942	85.44
346.17	89.44
346.397	103.44
346.625	80.44
346.853	94.44
347.08	87.44
347.308	87.44
347.535	87.44
347.763	85.44
347.99	73.44
348.218	90.44
348.445	81.44
348.673	86.44
348.9	91.44
349.128	102.44
349.355	91.44
349.583	100.44
349.81	81.44
350.037	70.44
350.265	98.44
350.492	98.44
350.72	79.44
350.947	86.44
351.174	85.44
351.402	79.44
351.629	82.44
351.856	88.44
352.083	77.44
352.311	88.44
352.538	86.44
352.765	95.44
352.992	84.44
353.22	87.44
353.447	83.44
353.674	84.44
353.901	89.44
354.128	80.44
354.355	78.44
354.583	78.44
354.81	89.44
355.037	83.44
355.264	76.44
355.491	81.44
355.718	75.44
355.945	85.44
356.172	80.44
356.399	85.44
356.626	91.44
356.853	94.44
357.08	83.44
357.307	81.44
357.534	87.44
357.761	82.44
357.988	90.44
358.215	89.44
358.441	79.44
358.668	87.44
358.895	83.44
359.122	90.44
359.349	69.44
359.576	79.44
359.802	71.44
360.029	80.44
360.256	95.44
360.483	72.44
360.709	86.44
360.936	86.44
361.163	101.44
361.39	90.44
361.616	86.44
361.843	74.44
362.07	73.44
362.296	85.44
362.523	89.44
362.749	76.44
362.976	79.44
363.203	86.44
363.429	90.44
363.656	85.44
363.882	100.44
364.109	67.44
364.335	84.44
364.562	92.44
364.788	87.44
365.015	75.44
365.241	86.44
365.468	80.44
365.694	89.44
365.92	78.44
366.147	89.44
366.373	84.44
366.599	84.44
366.826	74.44
367.052	94.44
367.278	90.44
367.505	87.44
367.731	99.44
367.957	91.44
368.184	91.44
368.41	87.44
368.636	94.44
368.862	91.44
369.089	82.44
369.315	81.44
369.541	80.44
369.767	78.44
369.993	73.44
370.219	75.44
370.445	84.44
370.672	88.44
370.898	91.44
371.124	78.44
371.35	76.44
371.576	84.44
371.802	83.44
372.028	92.44
372.254	75.44
372.48	83.44
372.706	78.44
372.932	89.44
373.158	91.44
373.384	79.44
373.61	82.44
373.835	91.44
374.061	76.44
374.287	85.44
374.513	101.44
374.739	90.44
374.965	71.44
375.191	91.44
375.416	82.44
375.642	90.44
375.868	81.44
376.094	83.44
376.319	79.44
376.545	82.44
376.771	85.44
376.997	87.44
377.222	89.44
377.448	73.44
377.674	98.44
377.899	92.44
378.125	75.44
378.35	76.44
378.576	75.44
378.802	94.44
379.027	86.44
379.253	86.44
379.478	93.44
379.704	84.44
379.929	88.44
380.155	77.44
380.38	88.44
380.606	91.44
380.831	98.44
381.057	98.44
381.282	83.44
381.507	98.44
381.733	97.44
381.958	80.44
382.184	91.44
382.409	93.44
382.634	72.44
382.86	83.44
383.085	84.44
383.31	85.44
383.535	82.44
383.761	76.44
383.986	77.44
384.211	76.44
384.436	74.44
384.662	90.44
384.887	83.44
385.112	75.44
385.337	80.44
385.562	94.44
385.787	93.44
386.013	94.44
386.238	83.44
386.463	98.44
386.688	67.44
386.913	73.44
387.138	71.44
387.363	68.44
387.588	86.44
387.813	96.44
388.038	95.44
388.263	92.44
388.488	79.44
388.713	89.44
388.938	83.44
389.163	92.44
389.387	91.44
389.612	84.44
389.837	65.44
390.062	85.44
390.287	82.44
390.512	94.44
390.736	90.44
390.961	75.44
391.186	92.44
391.411	84.44
391.636	75.44
391.86	90.44
392.085	76.44
392.31	84.44
392.534	81.44
392.759	77.44
392.984	97.44
393.208	78.44
393.433	87.44
393.658	98.44
393.882	81.44
394.107	86.44
394.331	79.44
394.556	87.44
394.78	82.44
395.005	90.44
395.229	71.44
395.454	87.44
395.678	98.44
395.903	95.44
396.127	79.44
396.352	83.44
396.576	84.44
396.801	88.44
397.025	95.44
397.249	98.44
397.474	90.44
397.698	89.44
397.922	84.44
398.147	77.44
398.371	92.44
398.595	83.44
398.82	94.44
399.044	96.44
399.268	81.44
399.492	89.44
399.717	89.44
399.941	78.44
400.165	78.44
400.389	73.44
400.613	90.44
400.837	75.44
401.062	76.44
401.286	94.44
401.51	84.44
401.734	81.44
401.958	78.44
402.182	78.44
402.406	86.44
402.63	71.44
402.854	80.44
403.078	82.44
403.302	89.44
403.526	91.44
403.75	63.44
403.974	81.44
404.198	97.44
404.422	90.44
404.645	85.44
404.869	86.44
405.093	75.44
405.317	80.44
405.541	89.44
405.765	94.44
405.988	80.44
406.212	81.44
406.436	87.44
406.66	85.44
406.883	93.44
407.107	91.44
407.331	82.44
407.555	82.44
407.778	93.44
408.002	88.44
408.226	85.44
408.449	80.44
408.673	78.44
408.896	94.44
409.12	98.44
409.344	73.44
409.567	92.44
409.791	83.44
410.014	83.44
410.238	84.44
410.461	97.44
410.685	89.44
410.908	74.44
411.132	86.44
411.355	83.44
411.578	90.44
411.802	99.44
412.025	85.44
412.249	78.44
412.472	91.44
412.695	82.44
412.919	89.44
413.142	83.44
413.365	83.44
413.589	88.44
413.812	82.44
414.035	88.44
414.258	82.44
414.482	75.44
414.705	79.44
414.928	92.44
415.151	113.44
415.374	95.44
415.597	86.44
415.821	93.44
416.044	100.44
416.267	94.44
416.49	93.44
416.713	116.44
416.936	94.44
417.159	98.44
417.382	94.44
417.605	95.44
417.828	86.44
418.051	82.44
418.274	92.44
418.497	96.44
418.72	95.44
418.943	101.44
419.166	84.44
419.389	90.44
419.611	82.44
419.834	80.44
420.057	88.44
420.28	80.44
420.503	86.44
420.726	107.44
420.948	93.44
421.171	85.44
421.394	79.44
421.617	92.44
421.839	81.44
422.062	87.44
422.285	79.44
422.507	94.44
422.73	85.44
422.953	98.44
423.175	92.44
423.398	78.44
423.621	80.44
423.843	92.44
424.066	101.44
424.288	85.44
424.511	89.44
424.733	101.44
424.956	102.44
425.178	87.44
425.401	90.44
425.623	79.44
425.846	87.44
426.068	82.44
426.291	94.44
426.513	86.44
426.735	77.44
426.958	86.44
427.18	89.44
427.402	84.44
427.625	66.44
427.847	84.44
428.069	87.44
428.292	107.44
428.514	97.44
428.736	98.44
428.958	90.44
429.181	90.44
429.403	78.44
429.625	94.44
429.847	90.44
430.069	83.44
430.292	100.44
430.514	88.44
430.736	89.44
430.958	91.44
431.18	96.44
431.402	90.44
431.624	74.44
431.846	73.44
432.068	80.44
432.29	93.44
432.512	82.44
432.734	80.44
432.956	99.44
433.178	89.44
433.4	86.44
433.622	99.44
433.844	84.44
434.066	81.44
434.287	80.44
434.509	81.44
434.731	80.44
434.953	82.44
435.175	80.44
435.397	93.44
435.618	78.44
435.84	90.44
436.062	84.44
436.284	85.44
436.505	97.44
436.727	94.44
436.949	78.44
437.17	80.44
437.392	78.44
437.614	82.44
437.835	85.44
438.057	86.44
438.278	74.44
438.5	87.44
438.721	71.44
438.943	78.44
439.165	91.44
439.386	85.44
439.608	84.44
439.829	83.44
440.05	96.44
440.272	100.44
440.493	92.44
440.715	92.44
440.936	96.44
441.158	102.44
441.379	88.44
441.6	78.44
441.822	91.44
442.043	93.44
442.264	82.44
442.486	85.44
442.707	85.44
442.928	87.44
443.149	88.44
443.371	91.44
443.592	101.44
443.813	96.44
444.034	93.44
444.255	97.44
444.476	88.44
444.698	91.44
444.919	98.44
445.14	223.44
445.361	153.44
445.582	101.44
445.803	89.44
446.024	90.44
446.245	80.44
446.466	91.44
446.687	87.44
446.908	93.44
447.129	94.44
447.35	117.44
447.571	87.44
447.792	97.44
448.013	95.44
448.234	93.44
448.455	84.44
448.675	98.44
448.896	86.44
449.117	95.44
449.338	86.44
449.559	89.44
449.779	90.44
450	96.44
450.221	91.44
450.442	79.44
450.662	88.44
450.883	84.44
451.104	96.44
451.324	92.44
451.545	99.44
451.766	86.44
451.986	94.44
452.207	85.44
452.428	90.44
452.648	102.44
452.869	94.44
453.089	68.44
453.31	92.44
453.53	85.44
453.751	80.44
453.971	78.44
454.192	91.44
454.412	83.44
454.633	94.44
454.853	88.44
455.073	84.44
455.294	87.44
455.514	82.44
455.734	78.44
455.955	82.44
456.175	92.44
456.395	77.44
456.616	92.44
456.836	92.44
457.056	81.44
457.276	81.44
457.497	82.44
457.717	89.44
457.937	96.44
458.157	84.44
458.377	72.44
458.598	74.44
458.818	80.44
459.038	71.44
459.258	71.44
459.478	79.44
459.698	82.44
459.918	86.44
460.138	88.44
460.358	92.44
460.578	78.44
460.798	86.44
461.018	86.44
461.238	72.44
461.458	75.44
461.678	84.44
461.898	88.44
462.118	93.44
462.338	77.44
462.558	91.44
462.777	83.44
462.997	92.44
463.217	90.44
463.437	88.44
463.657	75.44
463.876	92.44
464.096	87.44
464.316	74.44
464.536	94.44
464.755	90.44
464.975	101.44
465.195	93.44
465.414	89.44
465.634	79.44
465.854	93.44
466.073	93.44
466.293	85.44
466.512	86.44
466.732	79.44
466.951	91.44
467.171	86.44
467.391	93.44
467.61	90.44
467.829	93.44
468.049	102.44
468.268	103.44
468.488	88.44
468.707	91.44
468.927	76.44
469.146	93.44
469.365	100.44
469.585	98.44
469.804	91.44
470.023	86.44
470.243	88.44
470.462	95.44
470.681	96.44
470.901	94.44
471.12	96.44
471.339	94.44
471.558	99.44
471.777	92.44
471.997	89.44
472.216	98.44
472.435	97.44
472.654	70.44
472.873	83.44
473.092	82.44
473.311	83.44
473.53	100.44
473.749	92.44
473.968	93.44
474.187	93.44
474.406	89.44
474.625	93.44
474.844	100.44
475.063	92.44
475.282	98.44
475.501	95.44
475.72	89.44
475.939	85.44
476.158	84.44
476.377	84.44
476.596	89.44
476.814	78.44
477.033	85.44
477.252	88.44
477.471	90.44
477.69	90.44
477.908	88.44
478.127	75.44
478.346	81.44
478.564	91.44
478.783	86.44
479.002	83.44
479.22	93.44
479.439	104.44
479.658	83.44
479.876	82.44
480.095	78.44
480.313	93.44
480.532	92.44
480.751	78.44
480.969	81.44
481.188	87.44
481.406	86.44
481.624	89.44
481.843	94.44
482.061	84.44
482.28	69.44
482.498	84.44
482.717	90.44
482.935	89.44
483.153	82.44
483.372	104.44
483.59	92.44
483.808	88.44
484.027	93.44
484.245	101.44
484.463	90.44
484.681	101.44
484.9	85.44
485.118	100.44
485.336	98.44
485.554	98.44
485.772	94.44
485.99	99.44
486.209	86.44
486.427	78.44
486.645	91.44
486.863	99.44
487.081	92.44
487.299	91.44
487.517	99.44
487.735	86.44
487.953	101.44
488.171	92.44
488.389	96.44
488.607	91.44
488.825	83.44
489.043	95.44
489.261	90.44
489.479	93.44
489.696	100.44
489.914	98.44
490.132	82.44
490.35	103.44
490.568	86.44
490.786	100.44
491.003	100.44
491.221	76.44
491.439	102.44
491.657	111.44
491.874	110.44
492.092	102.44
492.31	118.44
492.527	118.44
492.745	78.44
492.963	93.44
493.18	105.44
493.398	104.44
493.615	105.44
493.833	101.44
494.05	89.44
494.268	87.44
494.485	83.44
494.703	102.44
494.92	98.44
495.138	109.44
495.355	101.44
495.573	96.44
495.79	101.44
496.008	93.44
496.225	95.44
496.442	94.44
496.66	108.44
496.877	92.44
497.094	87.44
497.312	98.44
497.529	90.44
497.746	91.44
497.963	88.44
498.181	97.44
498.398	90.44
498.615	73.44
498.832	89.44
499.049	88.44
499.267	74.44
499.484	83.44
499.701	102.44
499.918	82.44
500.135	89.44
500.352	87.44
500.569	96.44
500.786	97.44
501.003	98.44
501.22	86.44
501.437	78.44
501.654	97.44
501.871	86.44
502.088	97.44
502.305	96.44
502.522	74.44
502.739	78.44
502.956	104.44
503.172	86.44
503.389	70.44
503.606	81.44
503.823	87.44
504.04	91.44
504.256	90.44
504.473	86.44
504.69	88.44
504.907	93.44
505.123	87.44
505.34	91.44
505.557	96.44
505.773	86.44
505.99	84.44
506.207	106.44
506.423	84.44
506.64	85.44
506.856	92.44
507.073	86.44
507.289	94.44
507.506	100.44
507.722	77.44
507.939	83.44
508.155	88.44
508.372	86.44
508.588	90.44
508.805	102.44
509.021	87.44
509.238	84.44
509.454	86.44
509.67	80.44
509.887	98.44
510.103	90.44
510.319	82.44
510.536	82.44
510.752	84.44
510.968	83.44
511.184	82.44
511.401	86.44
511.617	78.44
511.833	71.44
512.049	95.44
512.265	86.44
512.481	87.44
512.698	84.44
512.914	79.44
513.13	72.44
513.346	98.44
513.562	87.44
513.778	72.44
513.994	78.44
514.21	85.44
514.426	93.44
514.642	95.44
514.858	85.44
515.074	77.44
515.29	77.44
515.506	71.44
515.721	83.44
515.937	82.44
516.153	80.44
516.369	96.44
516.585	83.44
516.801	75.44
517.016	77.44
517.232	77.44
517.448	87.44
517.664	83.44
517.879	99.44
518.095	72.44
518.311	92.44
518.527	89.44
