Data from Zn(NO3)2Standard.Agarose3%.GreenCap.LampEnergy5.5.E.O_HRD10591_15-03-39-768.txt Node
Date: Mon Jul 22 15:03:39 EDT 2019
User: cochatt
Spectrometer: HR+D1059
Trigger mode: 1
Integration Time (sec): 1.000000E-1
Scans to average: 1
Electric dark correction enabled: true
Nonlinearity correction enabled: false
Boxcar width: 0
XAxis mode: Wavelengths
Number of Pixels in Spectrum: 2048
>>>>>Begin Spectral Data<<<<<
223.165	-1.25
223.4	-1.25
223.635	-1.25
223.869	-12.25
224.104	-26.25
224.338	-17.25
224.573	-15.25
224.808	-12.25
225.042	4.75
225.277	-4.25
225.511	-9.25
225.746	19.75
225.98	2.75
226.215	14.75
226.449	17.75
226.683	3.75
226.918	4.75
227.152	29.75
227.387	26.75
227.621	38.75
227.856	56.75
228.09	47.75
228.324	57.75
228.559	62.75
228.793	77.75
229.027	55.75
229.262	68.75
229.496	63.75
229.73	67.75
229.964	68.75
230.199	74.75
230.433	64.75
230.667	77.75
230.901	82.75
231.136	76.75
231.37	77.75
231.604	98.75
231.838	73.75
232.072	78.75
232.306	81.75
232.541	69.75
232.775	87.75
233.009	75.75
233.243	63.75
233.477	76.75
233.711	89.75
233.945	71.75
234.179	73.75
234.413	69.75
234.647	72.75
234.881	87.75
235.115	72.75
235.349	74.75
235.583	75.75
235.817	77.75
236.051	71.75
236.285	66.75
236.519	73.75
236.753	76.75
236.987	76.75
237.221	78.75
237.455	79.75
237.689	68.75
237.922	79.75
238.156	84.75
238.39	74.75
238.624	80.75
238.858	75.75
239.091	82.75
239.325	72.75
239.559	76.75
239.793	84.75
240.027	72.75
240.26	72.75
240.494	79.75
240.728	82.75
240.961	75.75
241.195	72.75
241.429	67.75
241.662	69.75
241.896	75.75
242.13	70.75
242.363	80.75
242.597	72.75
242.83	76.75
243.064	66.75
243.298	75.75
243.531	72.75
243.765	72.75
243.998	81.75
244.232	73.75
244.465	70.75
244.699	88.75
244.932	85.75
245.166	71.75
245.399	63.75
245.633	68.75
245.866	84.75
246.099	69.75
246.333	64.75
246.566	68.75
246.8	72.75
247.033	88.75
247.266	73.75
247.5	75.75
247.733	90.75
247.966	63.75
248.2	83.75
248.433	78.75
248.666	79.75
248.899	96.75
249.133	74.75
249.366	75.75
249.599	69.75
249.832	84.75
250.066	65.75
250.299	68.75
250.532	72.75
250.765	72.75
250.998	91.75
251.231	73.75
251.465	68.75
251.698	80.75
251.931	87.75
252.164	82.75
252.397	71.75
252.63	92.75
252.863	73.75
253.096	73.75
253.329	75.75
253.562	75.75
253.795	76.75
254.028	80.75
254.261	65.75
254.494	78.75
254.727	82.75
254.96	80.75
255.193	81.75
255.426	87.75
255.659	77.75
255.892	82.75
256.124	71.75
256.357	76.75
256.59	76.75
256.823	90.75
257.056	83.75
257.289	82.75
257.521	84.75
257.754	77.75
257.987	81.75
258.22	74.75
258.452	76.75
258.685	75.75
258.918	83.75
259.151	73.75
259.383	71.75
259.616	75.75
259.849	76.75
260.081	77.75
260.314	75.75
260.547	80.75
260.779	83.75
261.012	83.75
261.244	77.75
261.477	75.75
261.71	67.75
261.942	85.75
262.175	90.75
262.407	88.75
262.64	80.75
262.872	80.75
263.105	73.75
263.337	80.75
263.57	82.75
263.802	86.75
264.035	72.75
264.267	80.75
264.499	87.75
264.732	83.75
264.964	74.75
265.197	64.75
265.429	83.75
265.661	85.75
265.894	73.75
266.126	70.75
266.358	83.75
266.591	69.75
266.823	72.75
267.055	77.75
267.287	85.75
267.52	80.75
267.752	80.75
267.984	92.75
268.216	69.75
268.448	87.75
268.681	69.75
268.913	87.75
269.145	76.75
269.377	83.75
269.609	81.75
269.841	94.75
270.073	84.75
270.306	82.75
270.538	95.75
270.77	72.75
271.002	69.75
271.234	77.75
271.466	85.75
271.698	80.75
271.93	78.75
272.162	89.75
272.394	84.75
272.626	74.75
272.858	100.75
273.09	83.75
273.322	77.75
273.553	95.75
273.785	72.75
274.017	72.75
274.249	89.75
274.481	86.75
274.713	67.75
274.945	91.75
275.176	81.75
275.408	85.75
275.64	95.75
275.872	82.75
276.104	82.75
276.335	92.75
276.567	82.75
276.799	79.75
277.031	86.75
277.262	70.75
277.494	71.75
277.726	85.75
277.957	69.75
278.189	72.75
278.421	67.75
278.652	95.75
278.884	80.75
279.115	89.75
279.347	88.75
279.579	65.75
279.81	85.75
280.042	75.75
280.273	81.75
280.505	77.75
280.736	65.75
280.968	67.75
281.199	69.75
281.431	66.75
281.662	70.75
281.894	92.75
282.125	85.75
282.356	77.75
282.588	78.75
282.819	75.75
283.051	76.75
283.282	86.75
283.513	90.75
283.745	81.75
283.976	72.75
284.207	82.75
284.439	90.75
284.67	80.75
284.901	76.75
285.132	77.75
285.364	77.75
285.595	90.75
285.826	80.75
286.057	88.75
286.288	88.75
286.52	77.75
286.751	79.75
286.982	83.75
287.213	90.75
287.444	87.75
287.675	76.75
287.906	85.75
288.138	97.75
288.369	81.75
288.6	79.75
288.831	77.75
289.062	84.75
289.293	72.75
289.524	79.75
289.755	80.75
289.986	79.75
290.217	90.75
290.448	73.75
290.679	83.75
290.91	93.75
291.141	80.75
291.371	82.75
291.602	82.75
291.833	97.75
292.064	83.75
292.295	70.75
292.526	94.75
292.757	81.75
292.987	77.75
293.218	76.75
293.449	81.75
293.68	83.75
293.91	78.75
294.141	88.75
294.372	76.75
294.603	79.75
294.833	73.75
295.064	73.75
295.295	82.75
295.525	87.75
295.756	84.75
295.987	76.75
296.217	99.75
296.448	75.75
296.679	79.75
296.909	86.75
297.14	89.75
297.37	73.75
297.601	75.75
297.831	74.75
298.062	83.75
298.292	99.75
298.523	75.75
298.753	80.75
298.984	71.75
299.214	87.75
299.445	77.75
299.675	74.75
299.905	79.75
300.136	74.75
300.366	90.75
300.597	80.75
300.827	86.75
301.057	90.75
301.288	77.75
301.518	85.75
301.748	84.75
301.979	86.75
302.209	85.75
302.439	81.75
302.669	95.75
302.9	85.75
303.13	72.75
303.36	75.75
303.59	76.75
303.82	85.75
304.051	79.75
304.281	88.75
304.511	85.75
304.741	84.75
304.971	90.75
305.201	87.75
305.431	86.75
305.661	100.75
305.891	71.75
306.121	100.75
306.352	77.75
306.582	91.75
306.812	92.75
307.042	81.75
307.272	79.75
307.502	77.75
307.731	88.75
307.961	88.75
308.191	83.75
308.421	88.75
308.651	98.75
308.881	89.75
309.111	80.75
309.341	75.75
309.571	84.75
309.8	90.75
310.03	89.75
310.26	65.75
310.49	82.75
310.72	80.75
310.949	85.75
311.179	81.75
311.409	85.75
311.639	64.75
311.868	96.75
312.098	78.75
312.328	87.75
312.557	98.75
312.787	79.75
313.017	84.75
313.246	79.75
313.476	73.75
313.706	79.75
313.935	90.75
314.165	85.75
314.394	84.75
314.624	79.75
314.853	104.75
315.083	91.75
315.312	88.75
315.542	88.75
315.771	76.75
316.001	93.75
316.23	71.75
316.46	87.75
316.689	83.75
316.919	91.75
317.148	81.75
317.377	91.75
317.607	96.75
317.836	75.75
318.065	72.75
318.295	83.75
318.524	79.75
318.753	84.75
318.983	86.75
319.212	76.75
319.441	86.75
319.67	100.75
319.9	74.75
320.129	76.75
320.358	74.75
320.587	81.75
320.816	90.75
321.046	96.75
321.275	80.75
321.504	96.75
321.733	75.75
321.962	87.75
322.191	91.75
322.42	88.75
322.649	85.75
322.878	85.75
323.108	76.75
323.337	72.75
323.566	87.75
323.795	81.75
324.024	68.75
324.253	80.75
324.482	75.75
324.71	77.75
324.939	92.75
325.168	87.75
325.397	97.75
325.626	83.75
325.855	98.75
326.084	73.75
326.313	83.75
326.542	73.75
326.77	66.75
326.999	97.75
327.228	85.75
327.457	96.75
327.686	66.75
327.914	77.75
328.143	91.75
328.372	75.75
328.6	75.75
328.829	80.75
329.058	83.75
329.287	89.75
329.515	76.75
329.744	85.75
329.972	91.75
330.201	93.75
330.43	81.75
330.658	73.75
330.887	83.75
331.115	82.75
331.344	91.75
331.572	88.75
331.801	80.75
332.03	68.75
332.258	88.75
332.486	71.75
332.715	87.75
332.943	80.75
333.172	83.75
333.4	90.75
333.629	84.75
333.857	78.75
334.085	79.75
334.314	85.75
334.542	69.75
334.771	91.75
334.999	79.75
335.227	77.75
335.455	88.75
335.684	91.75
335.912	73.75
336.14	80.75
336.369	84.75
336.597	78.75
336.825	92.75
337.053	64.75
337.281	89.75
337.51	91.75
337.738	66.75
337.966	91.75
338.194	91.75
338.422	88.75
338.65	77.75
338.878	83.75
339.106	90.75
339.334	78.75
339.562	77.75
339.79	92.75
340.018	90.75
340.246	81.75
340.474	84.75
340.702	87.75
340.93	85.75
341.158	75.75
341.386	78.75
341.614	76.75
341.842	78.75
342.07	102.75
342.298	81.75
342.526	82.75
342.754	79.75
342.981	91.75
343.209	85.75
343.437	91.75
343.665	93.75
343.893	83.75
344.12	83.75
344.348	88.75
344.576	91.75
344.804	75.75
345.031	71.75
345.259	79.75
345.487	76.75
345.714	95.75
345.942	71.75
346.17	84.75
346.397	85.75
346.625	88.75
346.853	87.75
347.08	76.75
347.308	73.75
347.535	80.75
347.763	79.75
347.99	83.75
348.218	84.75
348.445	87.75
348.673	81.75
348.9	74.75
349.128	93.75
349.355	78.75
349.583	83.75
349.81	85.75
350.037	86.75
350.265	92.75
350.492	81.75
350.72	78.75
350.947	87.75
351.174	95.75
351.402	74.75
351.629	78.75
351.856	94.75
352.083	78.75
352.311	87.75
352.538	75.75
352.765	73.75
352.992	78.75
353.22	74.75
353.447	71.75
353.674	74.75
353.901	80.75
354.128	80.75
354.355	78.75
354.583	84.75
354.81	89.75
355.037	99.75
355.264	81.75
355.491	72.75
355.718	70.75
355.945	72.75
356.172	81.75
356.399	81.75
356.626	81.75
356.853	77.75
357.08	84.75
357.307	74.75
357.534	91.75
357.761	95.75
357.988	85.75
358.215	75.75
358.441	73.75
358.668	70.75
358.895	80.75
359.122	86.75
359.349	86.75
359.576	84.75
359.802	72.75
360.029	77.75
360.256	82.75
360.483	80.75
360.709	83.75
360.936	86.75
361.163	75.75
361.39	66.75
361.616	91.75
361.843	90.75
362.07	81.75
362.296	80.75
362.523	77.75
362.749	87.75
362.976	82.75
363.203	91.75
363.429	88.75
363.656	81.75
363.882	67.75
364.109	77.75
364.335	74.75
364.562	76.75
364.788	91.75
365.015	88.75
365.241	89.75
365.468	95.75
365.694	75.75
365.92	85.75
366.147	87.75
366.373	75.75
366.599	83.75
366.826	88.75
367.052	86.75
367.278	84.75
367.505	77.75
367.731	78.75
367.957	79.75
368.184	68.75
368.41	85.75
368.636	78.75
368.862	75.75
369.089	82.75
369.315	86.75
369.541	69.75
369.767	80.75
369.993	82.75
370.219	89.75
370.445	83.75
370.672	80.75
370.898	73.75
371.124	85.75
371.35	84.75
371.576	77.75
371.802	96.75
372.028	92.75
372.254	79.75
372.48	79.75
372.706	83.75
372.932	84.75
373.158	90.75
373.384	88.75
373.61	84.75
373.835	94.75
374.061	100.75
374.287	91.75
374.513	77.75
374.739	97.75
374.965	84.75
375.191	71.75
375.416	77.75
375.642	94.75
375.868	83.75
376.094	98.75
376.319	78.75
376.545	70.75
376.771	84.75
376.997	72.75
377.222	79.75
377.448	72.75
377.674	74.75
377.899	91.75
378.125	77.75
378.35	83.75
378.576	70.75
378.802	79.75
379.027	92.75
379.253	72.75
379.478	82.75
379.704	83.75
379.929	84.75
380.155	87.75
380.38	84.75
380.606	85.75
380.831	72.75
381.057	89.75
381.282	86.75
381.507	85.75
381.733	85.75
381.958	77.75
382.184	81.75
382.409	85.75
382.634	74.75
382.86	70.75
383.085	83.75
383.31	81.75
383.535	95.75
383.761	79.75
383.986	73.75
384.211	82.75
384.436	75.75
384.662	77.75
384.887	84.75
385.112	83.75
385.337	81.75
385.562	81.75
385.787	75.75
386.013	79.75
386.238	99.75
386.463	87.75
386.688	88.75
386.913	74.75
387.138	73.75
387.363	78.75
387.588	92.75
387.813	71.75
388.038	83.75
388.263	89.75
388.488	69.75
388.713	97.75
388.938	71.75
389.163	78.75
389.387	80.75
389.612	94.75
389.837	60.75
390.062	91.75
390.287	87.75
390.512	95.75
390.736	80.75
390.961	79.75
391.186	85.75
391.411	89.75
391.636	79.75
391.86	81.75
392.085	85.75
392.31	78.75
392.534	74.75
392.759	87.75
392.984	92.75
393.208	88.75
393.433	81.75
393.658	64.75
393.882	76.75
394.107	73.75
394.331	79.75
394.556	84.75
394.78	88.75
395.005	85.75
395.229	87.75
395.454	81.75
395.678	84.75
395.903	84.75
396.127	73.75
396.352	77.75
396.576	67.75
396.801	82.75
397.025	71.75
397.249	92.75
397.474	93.75
397.698	86.75
397.922	76.75
398.147	83.75
398.371	82.75
398.595	75.75
398.82	78.75
399.044	94.75
399.268	77.75
399.492	81.75
399.717	84.75
399.941	82.75
400.165	84.75
400.389	92.75
400.613	86.75
400.837	93.75
401.062	84.75
401.286	75.75
401.51	92.75
401.734	89.75
401.958	82.75
402.182	68.75
402.406	80.75
402.63	74.75
402.854	73.75
403.078	93.75
403.302	74.75
403.526	75.75
403.75	90.75
403.974	75.75
404.198	89.75
404.422	84.75
404.645	73.75
404.869	79.75
405.093	82.75
405.317	87.75
405.541	97.75
405.765	85.75
405.988	78.75
406.212	87.75
406.436	79.75
406.66	92.75
406.883	92.75
407.107	82.75
407.331	85.75
407.555	82.75
407.778	84.75
408.002	75.75
408.226	74.75
408.449	85.75
408.673	83.75
408.896	76.75
409.12	76.75
409.344	89.75
409.567	82.75
409.791	84.75
410.014	93.75
410.238	71.75
410.461	75.75
410.685	82.75
410.908	91.75
411.132	79.75
411.355	93.75
411.578	100.75
411.802	89.75
412.025	81.75
412.249	86.75
412.472	82.75
412.695	69.75
412.919	72.75
413.142	83.75
413.365	87.75
413.589	94.75
413.812	79.75
414.035	89.75
414.258	87.75
414.482	75.75
414.705	85.75
414.928	77.75
415.151	80.75
415.374	84.75
415.597	90.75
415.821	95.75
416.044	83.75
416.267	88.75
416.49	88.75
416.713	77.75
416.936	90.75
417.159	92.75
417.382	79.75
417.605	81.75
417.828	91.75
418.051	94.75
418.274	92.75
418.497	95.75
418.72	85.75
418.943	89.75
419.166	97.75
419.389	92.75
419.611	99.75
419.834	98.75
420.057	101.75
420.28	69.75
420.503	80.75
420.726	91.75
420.948	77.75
421.171	106.75
421.394	102.75
421.617	90.75
421.839	100.75
422.062	83.75
422.285	88.75
422.507	83.75
422.73	90.75
422.953	95.75
423.175	96.75
423.398	92.75
423.621	96.75
423.843	94.75
424.066	102.75
424.288	96.75
424.511	87.75
424.733	90.75
424.956	83.75
425.178	83.75
425.401	77.75
425.623	87.75
425.846	85.75
426.068	95.75
426.291	77.75
426.513	82.75
426.735	84.75
426.958	81.75
427.18	84.75
427.402	79.75
427.625	77.75
427.847	85.75
428.069	88.75
428.292	84.75
428.514	96.75
428.736	95.75
428.958	75.75
429.181	83.75
429.403	92.75
429.625	83.75
429.847	92.75
430.069	89.75
430.292	76.75
430.514	92.75
430.736	95.75
430.958	90.75
431.18	88.75
431.402	88.75
431.624	81.75
431.846	79.75
432.068	73.75
432.29	62.75
432.512	84.75
432.734	90.75
432.956	100.75
433.178	75.75
433.4	95.75
433.622	97.75
433.844	90.75
434.066	87.75
434.287	73.75
434.509	72.75
434.731	72.75
434.953	77.75
435.175	89.75
435.397	77.75
435.618	83.75
435.84	85.75
436.062	101.75
436.284	93.75
436.505	77.75
436.727	78.75
436.949	84.75
437.17	84.75
437.392	98.75
437.614	81.75
437.835	84.75
438.057	80.75
438.278	83.75
438.5	81.75
438.721	86.75
438.943	89.75
439.165	76.75
439.386	96.75
439.608	88.75
439.829	89.75
440.05	77.75
440.272	69.75
440.493	77.75
440.715	83.75
440.936	96.75
441.158	95.75
441.379	76.75
441.6	85.75
441.822	86.75
442.043	95.75
442.264	86.75
442.486	84.75
442.707	86.75
442.928	89.75
443.149	86.75
443.371	95.75
443.592	84.75
443.813	92.75
444.034	91.75
444.255	97.75
444.476	98.75
444.698	84.75
444.919	72.75
445.14	216.75
445.361	150.75
445.582	97.75
445.803	83.75
446.024	92.75
446.245	97.75
446.466	83.75
446.687	93.75
446.908	80.75
447.129	76.75
447.35	87.75
447.571	106.75
447.792	83.75
448.013	89.75
448.234	85.75
448.455	97.75
448.675	86.75
448.896	81.75
449.117	83.75
449.338	92.75
449.559	83.75
449.779	78.75
450	79.75
450.221	80.75
450.442	83.75
450.662	77.75
450.883	88.75
451.104	88.75
451.324	97.75
451.545	74.75
451.766	95.75
451.986	96.75
452.207	88.75
452.428	97.75
452.648	100.75
452.869	75.75
453.089	86.75
453.31	69.75
453.53	82.75
453.751	82.75
453.971	88.75
454.192	80.75
454.412	81.75
454.633	92.75
454.853	82.75
455.073	85.75
455.294	88.75
455.514	102.75
455.734	96.75
455.955	73.75
456.175	81.75
456.395	79.75
456.616	92.75
456.836	93.75
457.056	85.75
457.276	83.75
457.497	81.75
457.717	71.75
457.937	88.75
458.157	97.75
458.377	97.75
458.598	89.75
458.818	78.75
459.038	76.75
459.258	77.75
459.478	81.75
459.698	82.75
459.918	85.75
460.138	76.75
460.358	96.75
460.578	96.75
460.798	75.75
461.018	81.75
461.238	85.75
461.458	81.75
461.678	89.75
461.898	85.75
462.118	96.75
462.338	85.75
462.558	88.75
462.777	80.75
462.997	88.75
463.217	88.75
463.437	80.75
463.657	89.75
463.876	97.75
464.096	90.75
464.316	73.75
464.536	103.75
464.755	91.75
464.975	101.75
465.195	96.75
465.414	88.75
465.634	91.75
465.854	76.75
466.073	92.75
466.293	84.75
466.512	85.75
466.732	101.75
466.951	78.75
467.171	99.75
467.391	90.75
467.61	81.75
467.829	97.75
468.049	96.75
468.268	108.75
468.488	75.75
468.707	92.75
468.927	79.75
469.146	85.75
469.365	89.75
469.585	98.75
469.804	90.75
470.023	96.75
470.243	99.75
470.462	92.75
470.681	88.75
470.901	76.75
471.12	87.75
471.339	77.75
471.558	80.75
471.777	86.75
471.997	83.75
472.216	85.75
472.435	81.75
472.654	98.75
472.873	104.75
473.092	86.75
473.311	82.75
473.53	91.75
473.749	93.75
473.968	88.75
474.187	93.75
474.406	101.75
474.625	93.75
474.844	82.75
475.063	83.75
475.282	92.75
475.501	91.75
475.72	81.75
475.939	88.75
476.158	86.75
476.377	82.75
476.596	84.75
476.814	84.75
477.033	73.75
477.252	84.75
477.471	83.75
477.69	90.75
477.908	104.75
478.127	86.75
478.346	74.75
478.564	90.75
478.783	91.75
479.002	88.75
479.22	91.75
479.439	101.75
479.658	88.75
479.876	81.75
480.095	76.75
480.313	79.75
480.532	84.75
480.751	92.75
480.969	71.75
481.188	74.75
481.406	91.75
481.624	90.75
481.843	79.75
482.061	79.75
482.28	85.75
482.498	88.75
482.717	80.75
482.935	88.75
483.153	100.75
483.372	76.75
483.59	86.75
483.808	89.75
484.027	90.75
484.245	88.75
484.463	82.75
484.681	88.75
484.9	91.75
485.118	86.75
485.336	77.75
485.554	85.75
485.772	74.75
485.99	99.75
486.209	94.75
486.427	80.75
486.645	76.75
486.863	76.75
487.081	84.75
487.299	91.75
487.517	84.75
487.735	85.75
487.953	91.75
488.171	103.75
488.389	89.75
488.607	96.75
488.825	96.75
489.043	90.75
489.261	85.75
489.479	90.75
489.696	100.75
489.914	92.75
490.132	87.75
490.35	97.75
490.568	95.75
490.786	104.75
491.003	95.75
491.221	94.75
491.439	101.75
491.657	112.75
491.874	103.75
492.092	105.75
492.31	105.75
492.527	113.75
492.745	85.75
492.963	102.75
493.18	101.75
493.398	109.75
493.615	89.75
493.833	95.75
494.05	96.75
494.268	93.75
494.485	92.75
494.703	88.75
494.92	92.75
495.138	100.75
495.355	90.75
495.573	86.75
495.79	85.75
496.008	113.75
496.225	106.75
496.442	95.75
496.66	99.75
496.877	101.75
497.094	103.75
497.312	95.75
497.529	92.75
497.746	85.75
497.963	88.75
498.181	77.75
498.398	96.75
498.615	91.75
498.832	91.75
499.049	95.75
499.267	82.75
499.484	87.75
499.701	84.75
499.918	84.75
500.135	81.75
500.352	84.75
500.569	79.75
500.786	92.75
501.003	84.75
501.22	81.75
501.437	98.75
501.654	78.75
501.871	85.75
502.088	89.75
502.305	98.75
502.522	87.75
502.739	84.75
502.956	91.75
503.172	89.75
503.389	91.75
503.606	84.75
503.823	85.75
504.04	84.75
504.256	84.75
504.473	74.75
504.69	85.75
504.907	100.75
505.123	91.75
505.34	91.75
505.557	84.75
505.773	93.75
505.99	77.75
506.207	91.75
506.423	88.75
506.64	88.75
506.856	85.75
507.073	81.75
507.289	91.75
507.506	86.75
507.722	94.75
507.939	84.75
508.155	82.75
508.372	85.75
508.588	85.75
508.805	79.75
509.021	88.75
509.238	96.75
509.454	81.75
509.67	94.75
509.887	96.75
510.103	104.75
510.319	102.75
510.536	95.75
510.752	79.75
510.968	80.75
511.184	98.75
511.401	78.75
511.617	79.75
511.833	84.75
512.049	90.75
512.265	80.75
512.481	85.75
512.698	90.75
512.914	86.75
513.13	81.75
513.346	92.75
513.562	89.75
513.778	65.75
513.994	68.75
514.21	75.75
514.426	94.75
514.642	82.75
514.858	79.75
515.074	80.75
515.29	79.75
515.506	86.75
515.721	99.75
515.937	91.75
516.153	76.75
516.369	83.75
516.585	91.75
516.801	86.75
517.016	69.75
517.232	69.75
517.448	72.75
517.664	60.75
517.879	71.75
518.095	76.75
518.311	72.75
518.527	81.75
518.742	91.75
518.958	90.75
