Data from Zn(NO3)2Standard.Agarose3%.GreenCap.LampEnergy10E.O_HRD10591_15-09-11-953.txt Node
Date: Mon Jul 22 15:09:11 EDT 2019
User: cochatt
Spectrometer: HR+D1059
Trigger mode: 1
Integration Time (sec): 1.000000E-1
Scans to average: 1
Electric dark correction enabled: true
Nonlinearity correction enabled: false
Boxcar width: 0
XAxis mode: Wavelengths
Number of Pixels in Spectrum: 2048
>>>>>Begin Spectral Data<<<<<
223.165	-14.75
223.4	-14.75
223.635	-14.75
223.869	-24.75
224.104	-30.75
224.338	-21.75
224.573	-14.75
224.808	3.25
225.042	-20.75
225.277	-2.75
225.511	3.25
225.746	11.25
225.98	0.25
226.215	12.25
226.449	19.25
226.683	21.25
226.918	35.25
227.152	24.25
227.387	40.25
227.621	32.25
227.856	52.25
228.09	36.25
228.324	40.25
228.559	54.25
228.793	56.25
229.027	63.25
229.262	69.25
229.496	53.25
229.73	68.25
229.964	66.25
230.199	78.25
230.433	78.25
230.667	72.25
230.901	80.25
231.136	80.25
231.37	69.25
231.604	84.25
231.838	93.25
232.072	78.25
232.306	69.25
232.541	76.25
232.775	85.25
233.009	76.25
233.243	89.25
233.477	73.25
233.711	68.25
233.945	69.25
234.179	70.25
234.413	87.25
234.647	97.25
234.881	79.25
235.115	86.25
235.349	74.25
235.583	90.25
235.817	81.25
236.051	75.25
236.285	88.25
236.519	76.25
236.753	77.25
236.987	74.25
237.221	63.25
237.455	81.25
237.689	81.25
237.922	63.25
238.156	82.25
238.39	79.25
238.624	53.25
238.858	61.25
239.091	68.25
239.325	65.25
239.559	68.25
239.793	69.25
240.027	68.25
240.26	80.25
240.494	61.25
240.728	66.25
240.961	70.25
241.195	67.25
241.429	89.25
241.662	88.25
241.896	85.25
242.13	71.25
242.363	90.25
242.597	77.25
242.83	79.25
243.064	86.25
243.298	88.25
243.531	81.25
243.765	59.25
243.998	78.25
244.232	83.25
244.465	88.25
244.699	66.25
244.932	75.25
245.166	82.25
245.399	85.25
245.633	92.25
245.866	89.25
246.099	89.25
246.333	79.25
246.566	76.25
246.8	74.25
247.033	82.25
247.266	74.25
247.5	87.25
247.733	87.25
247.966	75.25
248.2	89.25
248.433	75.25
248.666	80.25
248.899	85.25
249.133	72.25
249.366	97.25
249.599	75.25
249.832	84.25
250.066	82.25
250.299	78.25
250.532	76.25
250.765	78.25
250.998	74.25
251.231	83.25
251.465	87.25
251.698	75.25
251.931	86.25
252.164	58.25
252.397	92.25
252.63	84.25
252.863	80.25
253.096	79.25
253.329	89.25
253.562	77.25
253.795	88.25
254.028	83.25
254.261	74.25
254.494	87.25
254.727	81.25
254.96	74.25
255.193	86.25
255.426	79.25
255.659	90.25
255.892	84.25
256.124	89.25
256.357	82.25
256.59	99.25
256.823	93.25
257.056	66.25
257.289	93.25
257.521	83.25
257.754	76.25
257.987	93.25
258.22	88.25
258.452	83.25
258.685	69.25
258.918	89.25
259.151	75.25
259.383	100.25
259.616	90.25
259.849	91.25
260.081	90.25
260.314	72.25
260.547	86.25
260.779	82.25
261.012	81.25
261.244	85.25
261.477	88.25
261.71	78.25
261.942	99.25
262.175	83.25
262.407	95.25
262.64	87.25
262.872	70.25
263.105	65.25
263.337	73.25
263.57	81.25
263.802	86.25
264.035	79.25
264.267	87.25
264.499	99.25
264.732	88.25
264.964	84.25
265.197	86.25
265.429	92.25
265.661	77.25
265.894	87.25
266.126	94.25
266.358	83.25
266.591	88.25
266.823	87.25
267.055	78.25
267.287	91.25
267.52	76.25
267.752	84.25
267.984	92.25
268.216	81.25
268.448	86.25
268.681	83.25
268.913	90.25
269.145	75.25
269.377	93.25
269.609	98.25
269.841	82.25
270.073	94.25
270.306	88.25
270.538	82.25
270.77	95.25
271.002	91.25
271.234	93.25
271.466	80.25
271.698	78.25
271.93	73.25
272.162	83.25
272.394	86.25
272.626	78.25
272.858	70.25
273.09	86.25
273.322	71.25
273.553	78.25
273.785	87.25
274.017	93.25
274.249	82.25
274.481	86.25
274.713	78.25
274.945	99.25
275.176	86.25
275.408	84.25
275.64	86.25
275.872	75.25
276.104	84.25
276.335	94.25
276.567	91.25
276.799	83.25
277.031	81.25
277.262	80.25
277.494	92.25
277.726	93.25
277.957	80.25
278.189	78.25
278.421	88.25
278.652	88.25
278.884	82.25
279.115	86.25
279.347	81.25
279.579	95.25
279.81	90.25
280.042	88.25
280.273	97.25
280.505	91.25
280.736	76.25
280.968	90.25
281.199	94.25
281.431	103.25
281.662	76.25
281.894	93.25
282.125	78.25
282.356	88.25
282.588	101.25
282.819	84.25
283.051	93.25
283.282	82.25
283.513	87.25
283.745	83.25
283.976	85.25
284.207	95.25
284.439	98.25
284.67	89.25
284.901	87.25
285.132	92.25
285.364	89.25
285.595	76.25
285.826	89.25
286.057	88.25
286.288	78.25
286.52	75.25
286.751	82.25
286.982	89.25
287.213	95.25
287.444	98.25
287.675	89.25
287.906	85.25
288.138	82.25
288.369	77.25
288.6	73.25
288.831	88.25
289.062	95.25
289.293	87.25
289.524	93.25
289.755	79.25
289.986	83.25
290.217	81.25
290.448	79.25
290.679	81.25
290.91	79.25
291.141	83.25
291.371	72.25
291.602	74.25
291.833	85.25
292.064	97.25
292.295	102.25
292.526	90.25
292.757	79.25
292.987	86.25
293.218	74.25
293.449	83.25
293.68	89.25
293.91	91.25
294.141	88.25
294.372	107.25
294.603	89.25
294.833	70.25
295.064	77.25
295.295	102.25
295.525	77.25
295.756	83.25
295.987	99.25
296.217	84.25
296.448	89.25
296.679	93.25
296.909	86.25
297.14	87.25
297.37	85.25
297.601	92.25
297.831	84.25
298.062	79.25
298.292	83.25
298.523	101.25
298.753	83.25
298.984	92.25
299.214	86.25
299.445	90.25
299.675	83.25
299.905	88.25
300.136	76.25
300.366	78.25
300.597	84.25
300.827	84.25
301.057	98.25
301.288	78.25
301.518	88.25
301.748	88.25
301.979	84.25
302.209	73.25
302.439	76.25
302.669	86.25
302.9	85.25
303.13	89.25
303.36	83.25
303.59	98.25
303.82	98.25
304.051	82.25
304.281	88.25
304.511	90.25
304.741	89.25
304.971	95.25
305.201	90.25
305.431	90.25
305.661	82.25
305.891	92.25
306.121	89.25
306.352	97.25
306.582	83.25
306.812	78.25
307.042	78.25
307.272	101.25
307.502	92.25
307.731	90.25
307.961	84.25
308.191	84.25
308.421	95.25
308.651	85.25
308.881	79.25
309.111	84.25
309.341	88.25
309.571	87.25
309.8	82.25
310.03	86.25
310.26	85.25
310.49	79.25
310.72	81.25
310.949	85.25
311.179	83.25
311.409	81.25
311.639	89.25
311.868	87.25
312.098	85.25
312.328	91.25
312.557	77.25
312.787	85.25
313.017	83.25
313.246	85.25
313.476	82.25
313.706	79.25
313.935	89.25
314.165	79.25
314.394	77.25
314.624	81.25
314.853	85.25
315.083	95.25
315.312	93.25
315.542	84.25
315.771	98.25
316.001	87.25
316.23	82.25
316.46	80.25
316.689	72.25
316.919	69.25
317.148	82.25
317.377	109.25
317.607	70.25
317.836	89.25
318.065	94.25
318.295	102.25
318.524	97.25
318.753	95.25
318.983	85.25
319.212	91.25
319.441	91.25
319.67	89.25
319.9	92.25
320.129	94.25
320.358	94.25
320.587	89.25
320.816	94.25
321.046	84.25
321.275	87.25
321.504	79.25
321.733	90.25
321.962	96.25
322.191	72.25
322.42	86.25
322.649	84.25
322.878	94.25
323.108	75.25
323.337	73.25
323.566	75.25
323.795	66.25
324.024	85.25
324.253	87.25
324.482	102.25
324.71	87.25
324.939	87.25
325.168	84.25
325.397	78.25
325.626	96.25
325.855	81.25
326.084	65.25
326.313	90.25
326.542	101.25
326.77	91.25
326.999	92.25
327.228	92.25
327.457	78.25
327.686	77.25
327.914	114.25
328.143	109.25
328.372	84.25
328.6	82.25
328.829	79.25
329.058	83.25
329.287	75.25
329.515	97.25
329.744	97.25
329.972	90.25
330.201	82.25
330.43	85.25
330.658	71.25
330.887	95.25
331.115	94.25
331.344	89.25
331.572	77.25
331.801	99.25
332.03	91.25
332.258	84.25
332.486	84.25
332.715	90.25
332.943	83.25
333.172	92.25
333.4	81.25
333.629	79.25
333.857	78.25
334.085	99.25
334.314	77.25
334.542	91.25
334.771	85.25
334.999	103.25
335.227	92.25
335.455	88.25
335.684	87.25
335.912	86.25
336.14	78.25
336.369	84.25
336.597	85.25
336.825	83.25
337.053	93.25
337.281	78.25
337.51	82.25
337.738	79.25
337.966	102.25
338.194	85.25
338.422	63.25
338.65	92.25
338.878	94.25
339.106	79.25
339.334	84.25
339.562	81.25
339.79	85.25
340.018	86.25
340.246	85.25
340.474	109.25
340.702	85.25
340.93	94.25
341.158	82.25
341.386	84.25
341.614	86.25
341.842	84.25
342.07	87.25
342.298	96.25
342.526	98.25
342.754	85.25
342.981	97.25
343.209	87.25
343.437	82.25
343.665	89.25
343.893	91.25
344.12	93.25
344.348	88.25
344.576	89.25
344.804	91.25
345.031	89.25
345.259	81.25
345.487	87.25
345.714	78.25
345.942	74.25
346.17	70.25
346.397	99.25
346.625	91.25
346.853	96.25
347.08	92.25
347.308	73.25
347.535	88.25
347.763	89.25
347.99	100.25
348.218	68.25
348.445	82.25
348.673	84.25
348.9	89.25
349.128	102.25
349.355	89.25
349.583	85.25
349.81	86.25
350.037	93.25
350.265	97.25
350.492	85.25
350.72	84.25
350.947	86.25
351.174	69.25
351.402	72.25
351.629	90.25
351.856	97.25
352.083	84.25
352.311	82.25
352.538	86.25
352.765	91.25
352.992	87.25
353.22	72.25
353.447	97.25
353.674	88.25
353.901	85.25
354.128	78.25
354.355	88.25
354.583	82.25
354.81	101.25
355.037	86.25
355.264	80.25
355.491	85.25
355.718	84.25
355.945	88.25
356.172	99.25
356.399	76.25
356.626	85.25
356.853	77.25
357.08	70.25
357.307	85.25
357.534	85.25
357.761	80.25
357.988	76.25
358.215	83.25
358.441	98.25
358.668	86.25
358.895	90.25
359.122	73.25
359.349	89.25
359.576	65.25
359.802	91.25
360.029	90.25
360.256	93.25
360.483	86.25
360.709	92.25
360.936	83.25
361.163	78.25
361.39	77.25
361.616	79.25
361.843	88.25
362.07	101.25
362.296	82.25
362.523	97.25
362.749	94.25
362.976	95.25
363.203	79.25
363.429	77.25
363.656	95.25
363.882	90.25
364.109	81.25
364.335	97.25
364.562	95.25
364.788	90.25
365.015	71.25
365.241	80.25
365.468	99.25
365.694	84.25
365.92	99.25
366.147	105.25
366.373	79.25
366.599	82.25
366.826	84.25
367.052	83.25
367.278	71.25
367.505	84.25
367.731	88.25
367.957	92.25
368.184	85.25
368.41	84.25
368.636	92.25
368.862	77.25
369.089	83.25
369.315	92.25
369.541	95.25
369.767	94.25
369.993	84.25
370.219	94.25
370.445	89.25
370.672	89.25
370.898	96.25
371.124	85.25
371.35	73.25
371.576	94.25
371.802	88.25
372.028	86.25
372.254	93.25
372.48	83.25
372.706	88.25
372.932	91.25
373.158	83.25
373.384	104.25
373.61	94.25
373.835	89.25
374.061	73.25
374.287	87.25
374.513	82.25
374.739	95.25
374.965	90.25
375.191	99.25
375.416	95.25
375.642	93.25
375.868	74.25
376.094	86.25
376.319	95.25
376.545	95.25
376.771	100.25
376.997	83.25
377.222	89.25
377.448	91.25
377.674	87.25
377.899	71.25
378.125	89.25
378.35	74.25
378.576	91.25
378.802	85.25
379.027	92.25
379.253	79.25
379.478	97.25
379.704	85.25
379.929	106.25
380.155	83.25
380.38	102.25
380.606	98.25
380.831	84.25
381.057	88.25
381.282	94.25
381.507	108.25
381.733	93.25
381.958	89.25
382.184	92.25
382.409	98.25
382.634	101.25
382.86	72.25
383.085	93.25
383.31	92.25
383.535	81.25
383.761	89.25
383.986	99.25
384.211	87.25
384.436	92.25
384.662	80.25
384.887	77.25
385.112	84.25
385.337	95.25
385.562	98.25
385.787	86.25
386.013	96.25
386.238	98.25
386.463	78.25
386.688	92.25
386.913	88.25
387.138	97.25
387.363	84.25
387.588	99.25
387.813	101.25
388.038	86.25
388.263	86.25
388.488	88.25
388.713	98.25
388.938	87.25
389.163	95.25
389.387	104.25
389.612	70.25
389.837	90.25
390.062	87.25
390.287	91.25
390.512	83.25
390.736	92.25
390.961	99.25
391.186	92.25
391.411	103.25
391.636	88.25
391.86	81.25
392.085	104.25
392.31	95.25
392.534	94.25
392.759	100.25
392.984	100.25
393.208	85.25
393.433	92.25
393.658	84.25
393.882	87.25
394.107	89.25
394.331	88.25
394.556	71.25
394.78	93.25
395.005	94.25
395.229	92.25
395.454	103.25
395.678	96.25
395.903	100.25
396.127	97.25
396.352	90.25
396.576	110.25
396.801	114.25
397.025	93.25
397.249	81.25
397.474	95.25
397.698	88.25
397.922	103.25
398.147	97.25
398.371	94.25
398.595	88.25
398.82	92.25
399.044	99.25
399.268	92.25
399.492	87.25
399.717	106.25
399.941	102.25
400.165	105.25
400.389	98.25
400.613	91.25
400.837	104.25
401.062	109.25
401.286	89.25
401.51	103.25
401.734	94.25
401.958	104.25
402.182	102.25
402.406	89.25
402.63	89.25
402.854	101.25
403.078	99.25
403.302	106.25
403.526	85.25
403.75	98.25
403.974	86.25
404.198	93.25
404.422	107.25
404.645	109.25
404.869	104.25
405.093	100.25
405.317	103.25
405.541	94.25
405.765	94.25
405.988	100.25
406.212	109.25
406.436	99.25
406.66	88.25
406.883	100.25
407.107	110.25
407.331	114.25
407.555	110.25
407.778	97.25
408.002	110.25
408.226	106.25
408.449	98.25
408.673	99.25
408.896	106.25
409.12	95.25
409.344	89.25
409.567	93.25
409.791	88.25
410.014	107.25
410.238	95.25
410.461	100.25
410.685	111.25
410.908	101.25
411.132	94.25
411.355	123.25
411.578	86.25
411.802	101.25
412.025	90.25
412.249	105.25
412.472	97.25
412.695	114.25
412.919	100.25
413.142	90.25
413.365	110.25
413.589	97.25
413.812	107.25
414.035	101.25
414.258	96.25
414.482	117.25
414.705	107.25
414.928	121.25
415.151	106.25
415.374	100.25
415.597	103.25
415.821	103.25
416.044	101.25
416.267	114.25
416.49	109.25
416.713	118.25
416.936	121.25
417.159	113.25
417.382	101.25
417.605	101.25
417.828	102.25
418.051	102.25
418.274	114.25
418.497	100.25
418.72	103.25
418.943	110.25
419.166	92.25
419.389	121.25
419.611	102.25
419.834	117.25
420.057	98.25
420.28	93.25
420.503	105.25
420.726	105.25
420.948	114.25
421.171	117.25
421.394	103.25
421.617	115.25
421.839	104.25
422.062	110.25
422.285	104.25
422.507	118.25
422.73	102.25
422.953	100.25
423.175	106.25
423.398	103.25
423.621	120.25
423.843	113.25
424.066	122.25
424.288	119.25
424.511	111.25
424.733	117.25
424.956	101.25
425.178	96.25
425.401	129.25
425.623	113.25
425.846	106.25
426.068	106.25
426.291	100.25
426.513	106.25
426.735	105.25
426.958	131.25
427.18	114.25
427.402	104.25
427.625	114.25
427.847	121.25
428.069	111.25
428.292	111.25
428.514	115.25
428.736	106.25
428.958	110.25
429.181	114.25
429.403	94.25
429.625	86.25
429.847	103.25
430.069	111.25
430.292	108.25
430.514	115.25
430.736	113.25
430.958	100.25
431.18	102.25
431.402	90.25
431.624	102.25
431.846	102.25
432.068	82.25
432.29	89.25
432.512	99.25
432.734	104.25
432.956	92.25
433.178	105.25
433.4	106.25
433.622	103.25
433.844	96.25
434.066	109.25
434.287	84.25
434.509	84.25
434.731	113.25
434.953	86.25
435.175	96.25
435.397	106.25
435.618	116.25
435.84	108.25
436.062	97.25
436.284	103.25
436.505	106.25
436.727	123.25
436.949	105.25
437.17	106.25
437.392	93.25
437.614	107.25
437.835	111.25
438.057	102.25
438.278	104.25
438.5	90.25
438.721	107.25
438.943	97.25
439.165	109.25
439.386	118.25
439.608	125.25
439.829	113.25
440.05	109.25
440.272	110.25
440.493	99.25
440.715	116.25
440.936	128.25
441.158	118.25
441.379	115.25
441.6	107.25
441.822	107.25
442.043	126.25
442.264	120.25
442.486	122.25
442.707	122.25
442.928	110.25
443.149	115.25
443.371	115.25
443.592	97.25
443.813	106.25
444.034	126.25
444.255	106.25
444.476	110.25
444.698	135.25
444.919	125.25
445.14	242.25
445.361	180.25
445.582	106.25
445.803	110.25
446.024	126.25
446.245	122.25
446.466	115.25
446.687	109.25
446.908	118.25
447.129	98.25
447.35	117.25
447.571	102.25
447.792	121.25
448.013	110.25
448.234	113.25
448.455	105.25
448.675	94.25
448.896	106.25
449.117	114.25
449.338	110.25
449.559	120.25
449.779	98.25
450	114.25
450.221	103.25
450.442	115.25
450.662	100.25
450.883	95.25
451.104	110.25
451.324	110.25
451.545	104.25
451.766	120.25
451.986	106.25
452.207	97.25
452.428	92.25
452.648	102.25
452.869	113.25
453.089	108.25
453.31	107.25
453.53	93.25
453.751	97.25
453.971	101.25
454.192	95.25
454.412	78.25
454.633	119.25
454.853	94.25
455.073	100.25
455.294	89.25
455.514	89.25
455.734	103.25
455.955	95.25
456.175	102.25
456.395	99.25
456.616	96.25
456.836	105.25
457.056	111.25
457.276	86.25
457.497	104.25
457.717	89.25
457.937	97.25
458.157	103.25
458.377	88.25
458.598	78.25
458.818	78.25
459.038	78.25
459.258	84.25
459.478	85.25
459.698	89.25
459.918	88.25
460.138	90.25
460.358	95.25
460.578	109.25
460.798	94.25
461.018	102.25
461.238	105.25
461.458	101.25
461.678	112.25
461.898	115.25
462.118	102.25
462.338	97.25
462.558	95.25
462.777	89.25
462.997	89.25
463.217	102.25
463.437	96.25
463.657	90.25
463.876	103.25
464.096	97.25
464.316	91.25
464.536	92.25
464.755	107.25
464.975	86.25
465.195	103.25
465.414	92.25
465.634	117.25
465.854	105.25
466.073	104.25
466.293	100.25
466.512	116.25
466.732	108.25
466.951	113.25
467.171	104.25
467.391	116.25
467.61	116.25
467.829	116.25
468.049	107.25
468.268	102.25
468.488	102.25
468.707	98.25
468.927	116.25
469.146	124.25
469.365	123.25
469.585	124.25
469.804	122.25
470.023	113.25
470.243	110.25
470.462	103.25
470.681	122.25
470.901	127.25
471.12	118.25
471.339	125.25
471.558	97.25
471.777	110.25
471.997	117.25
472.216	105.25
472.435	100.25
472.654	94.25
472.873	93.25
473.092	100.25
473.311	113.25
473.53	111.25
473.749	99.25
473.968	108.25
474.187	107.25
474.406	109.25
474.625	103.25
474.844	105.25
475.063	105.25
475.282	104.25
475.501	115.25
475.72	103.25
475.939	99.25
476.158	103.25
476.377	92.25
476.596	98.25
476.814	98.25
477.033	89.25
477.252	91.25
477.471	98.25
477.69	109.25
477.908	101.25
478.127	110.25
478.346	101.25
478.564	108.25
478.783	110.25
479.002	117.25
479.22	111.25
479.439	114.25
479.658	105.25
479.876	95.25
480.095	103.25
480.313	95.25
480.532	102.25
480.751	98.25
480.969	93.25
481.188	98.25
481.406	91.25
481.624	84.25
481.843	97.25
482.061	90.25
482.28	83.25
482.498	105.25
482.717	89.25
482.935	110.25
483.153	107.25
483.372	109.25
483.59	115.25
483.808	102.25
484.027	110.25
484.245	105.25
484.463	107.25
484.681	137.25
484.9	122.25
485.118	119.25
485.336	118.25
485.554	99.25
485.772	97.25
485.99	90.25
486.209	85.25
486.427	93.25
486.645	100.25
486.863	110.25
487.081	123.25
487.299	101.25
487.517	100.25
487.735	115.25
487.953	131.25
488.171	136.25
488.389	137.25
488.607	118.25
488.825	114.25
489.043	114.25
489.261	120.25
489.479	113.25
489.696	118.25
489.914	122.25
490.132	113.25
490.35	121.25
490.568	126.25
490.786	119.25
491.003	126.25
491.221	129.25
491.439	141.25
491.657	147.25
491.874	147.25
492.092	151.25
492.31	173.25
492.527	160.25
492.745	138.25
492.963	149.25
493.18	145.25
493.398	135.25
493.615	121.25
493.833	134.25
494.05	141.25
494.268	126.25
494.485	132.25
494.703	129.25
494.92	134.25
495.138	141.25
495.355	117.25
495.573	121.25
495.79	130.25
496.008	130.25
496.225	124.25
496.442	119.25
496.66	111.25
496.877	123.25
497.094	118.25
497.312	125.25
497.529	130.25
497.746	109.25
497.963	114.25
498.181	101.25
498.398	97.25
498.615	104.25
498.832	115.25
499.049	100.25
499.267	104.25
499.484	110.25
499.701	109.25
499.918	117.25
500.135	123.25
500.352	126.25
500.569	107.25
500.786	100.25
501.003	108.25
501.22	109.25
501.437	116.25
501.654	118.25
501.871	112.25
502.088	110.25
502.305	115.25
502.522	117.25
502.739	117.25
502.956	114.25
503.172	100.25
503.389	105.25
503.606	107.25
503.823	92.25
504.04	115.25
504.256	113.25
504.473	108.25
504.69	102.25
504.907	115.25
505.123	105.25
505.34	115.25
505.557	108.25
505.773	115.25
505.99	114.25
506.207	110.25
506.423	112.25
506.64	102.25
506.856	101.25
507.073	108.25
507.289	110.25
507.506	115.25
507.722	105.25
507.939	105.25
508.155	105.25
508.372	108.25
508.588	107.25
508.805	92.25
509.021	94.25
509.238	85.25
509.454	93.25
509.67	83.25
509.887	99.25
510.103	96.25
510.319	94.25
510.536	99.25
510.752	98.25
510.968	86.25
511.184	88.25
511.401	98.25
511.617	99.25
511.833	85.25
512.049	84.25
512.265	94.25
512.481	89.25
512.698	104.25
512.914	83.25
513.13	88.25
513.346	82.25
513.562	89.25
