Data from Zn(NO3)2Standard.Agarose3%.GreenCap.LampEnergy10E.O_HRD10591_15-07-02-942.txt Node
Date: Mon Jul 22 15:07:02 EDT 2019
User: cochatt
Spectrometer: HR+D1059
Trigger mode: 1
Integration Time (sec): 1.000000E-1
Scans to average: 1
Electric dark correction enabled: true
Nonlinearity correction enabled: false
Boxcar width: 0
XAxis mode: Wavelengths
Number of Pixels in Spectrum: 2048
>>>>>Begin Spectral Data<<<<<
223.165	-19.06
223.4	-19.06
223.635	-19.06
223.869	-16.06
224.104	-26.06
224.338	-17.06
224.573	0.94
224.808	-13.06
225.042	-19.06
225.277	-0.06
225.511	9.94
225.746	3.94
225.98	3.94
226.215	13.94
226.449	10.94
226.683	16.94
226.918	13.94
227.152	35.94
227.387	22.94
227.621	28.94
227.856	22.94
228.09	39.94
228.324	54.94
228.559	58.94
228.793	66.94
229.027	63.94
229.262	72.94
229.496	74.94
229.73	71.94
229.964	62.94
230.199	74.94
230.433	74.94
230.667	77.94
230.901	63.94
231.136	76.94
231.37	80.94
231.604	71.94
231.838	84.94
232.072	81.94
232.306	71.94
232.541	73.94
232.775	65.94
233.009	76.94
233.243	82.94
233.477	79.94
233.711	75.94
233.945	64.94
234.179	71.94
234.413	69.94
234.647	87.94
234.881	79.94
235.115	68.94
235.349	88.94
235.583	74.94
235.817	78.94
236.051	93.94
236.285	68.94
236.519	72.94
236.753	88.94
236.987	71.94
237.221	71.94
237.455	72.94
237.689	68.94
237.922	74.94
238.156	66.94
238.39	55.94
238.624	74.94
238.858	75.94
239.091	66.94
239.325	74.94
239.559	92.94
239.793	66.94
240.027	73.94
240.26	81.94
240.494	73.94
240.728	61.94
240.961	88.94
241.195	89.94
241.429	90.94
241.662	68.94
241.896	86.94
242.13	64.94
242.363	78.94
242.597	66.94
242.83	75.94
243.064	80.94
243.298	89.94
243.531	74.94
243.765	80.94
243.998	66.94
244.232	80.94
244.465	79.94
244.699	84.94
244.932	73.94
245.166	75.94
245.399	74.94
245.633	74.94
245.866	79.94
246.099	75.94
246.333	70.94
246.566	85.94
246.8	70.94
247.033	74.94
247.266	81.94
247.5	75.94
247.733	70.94
247.966	89.94
248.2	70.94
248.433	72.94
248.666	73.94
248.899	75.94
249.133	63.94
249.366	79.94
249.599	82.94
249.832	89.94
250.066	80.94
250.299	86.94
250.532	68.94
250.765	79.94
250.998	84.94
251.231	80.94
251.465	71.94
251.698	76.94
251.931	76.94
252.164	83.94
252.397	78.94
252.63	67.94
252.863	78.94
253.096	76.94
253.329	82.94
253.562	83.94
253.795	79.94
254.028	84.94
254.261	76.94
254.494	82.94
254.727	94.94
254.96	75.94
255.193	98.94
255.426	93.94
255.659	84.94
255.892	75.94
256.124	62.94
256.357	73.94
256.59	88.94
256.823	79.94
257.056	87.94
257.289	74.94
257.521	76.94
257.754	71.94
257.987	82.94
258.22	89.94
258.452	71.94
258.685	78.94
258.918	70.94
259.151	93.94
259.383	78.94
259.616	89.94
259.849	80.94
260.081	94.94
260.314	81.94
260.547	86.94
260.779	78.94
261.012	75.94
261.244	82.94
261.477	69.94
261.71	70.94
261.942	76.94
262.175	86.94
262.407	82.94
262.64	79.94
262.872	74.94
263.105	72.94
263.337	93.94
263.57	70.94
263.802	76.94
264.035	87.94
264.267	73.94
264.499	74.94
264.732	79.94
264.964	74.94
265.197	63.94
265.429	84.94
265.661	72.94
265.894	81.94
266.126	95.94
266.358	76.94
266.591	75.94
266.823	80.94
267.055	84.94
267.287	86.94
267.52	87.94
267.752	64.94
267.984	81.94
268.216	86.94
268.448	86.94
268.681	69.94
268.913	69.94
269.145	83.94
269.377	86.94
269.609	78.94
269.841	87.94
270.073	76.94
270.306	76.94
270.538	74.94
270.77	72.94
271.002	83.94
271.234	72.94
271.466	86.94
271.698	65.94
271.93	83.94
272.162	96.94
272.394	83.94
272.626	94.94
272.858	65.94
273.09	77.94
273.322	78.94
273.553	81.94
273.785	76.94
274.017	83.94
274.249	66.94
274.481	83.94
274.713	82.94
274.945	89.94
275.176	79.94
275.408	81.94
275.64	87.94
275.872	84.94
276.104	99.94
276.335	74.94
276.567	74.94
276.799	72.94
277.031	88.94
277.262	70.94
277.494	84.94
277.726	77.94
277.957	73.94
278.189	76.94
278.421	74.94
278.652	77.94
278.884	95.94
279.115	88.94
279.347	89.94
279.579	83.94
279.81	87.94
280.042	77.94
280.273	90.94
280.505	90.94
280.736	92.94
280.968	74.94
281.199	81.94
281.431	73.94
281.662	64.94
281.894	75.94
282.125	69.94
282.356	86.94
282.588	89.94
282.819	90.94
283.051	85.94
283.282	84.94
283.513	74.94
283.745	79.94
283.976	98.94
284.207	90.94
284.439	77.94
284.67	83.94
284.901	79.94
285.132	78.94
285.364	81.94
285.595	75.94
285.826	85.94
286.057	87.94
286.288	88.94
286.52	93.94
286.751	78.94
286.982	96.94
287.213	64.94
287.444	85.94
287.675	75.94
287.906	88.94
288.138	87.94
288.369	67.94
288.6	88.94
288.831	89.94
289.062	88.94
289.293	80.94
289.524	82.94
289.755	87.94
289.986	90.94
290.217	61.94
290.448	79.94
290.679	106.94
290.91	82.94
291.141	83.94
291.371	81.94
291.602	81.94
291.833	81.94
292.064	70.94
292.295	85.94
292.526	97.94
292.757	65.94
292.987	84.94
293.218	81.94
293.449	73.94
293.68	84.94
293.91	90.94
294.141	88.94
294.372	90.94
294.603	107.94
294.833	87.94
295.064	75.94
295.295	92.94
295.525	75.94
295.756	76.94
295.987	70.94
296.217	90.94
296.448	76.94
296.679	85.94
296.909	73.94
297.14	91.94
297.37	105.94
297.601	79.94
297.831	91.94
298.062	78.94
298.292	97.94
298.523	97.94
298.753	83.94
298.984	75.94
299.214	87.94
299.445	90.94
299.675	71.94
299.905	84.94
300.136	84.94
300.366	84.94
300.597	88.94
300.827	94.94
301.057	65.94
301.288	90.94
301.518	87.94
301.748	86.94
301.979	77.94
302.209	90.94
302.439	80.94
302.669	85.94
302.9	93.94
303.13	87.94
303.36	82.94
303.59	88.94
303.82	82.94
304.051	80.94
304.281	73.94
304.511	80.94
304.741	81.94
304.971	82.94
305.201	73.94
305.431	86.94
305.661	92.94
305.891	70.94
306.121	82.94
306.352	82.94
306.582	70.94
306.812	88.94
307.042	81.94
307.272	97.94
307.502	70.94
307.731	95.94
307.961	70.94
308.191	71.94
308.421	89.94
308.651	94.94
308.881	89.94
309.111	71.94
309.341	86.94
309.571	87.94
309.8	88.94
310.03	88.94
310.26	74.94
310.49	70.94
310.72	85.94
310.949	85.94
311.179	94.94
311.409	76.94
311.639	75.94
311.868	83.94
312.098	69.94
312.328	80.94
312.557	85.94
312.787	86.94
313.017	86.94
313.246	73.94
313.476	80.94
313.706	101.94
313.935	83.94
314.165	77.94
314.394	93.94
314.624	68.94
314.853	90.94
315.083	89.94
315.312	93.94
315.542	82.94
315.771	93.94
316.001	82.94
316.23	80.94
316.46	70.94
316.689	81.94
316.919	92.94
317.148	84.94
317.377	95.94
317.607	85.94
317.836	73.94
318.065	75.94
318.295	87.94
318.524	87.94
318.753	91.94
318.983	86.94
319.212	71.94
319.441	66.94
319.67	79.94
319.9	85.94
320.129	80.94
320.358	86.94
320.587	86.94
320.816	92.94
321.046	89.94
321.275	83.94
321.504	95.94
321.733	86.94
321.962	91.94
322.191	79.94
322.42	72.94
322.649	76.94
322.878	87.94
323.108	76.94
323.337	86.94
323.566	79.94
323.795	77.94
324.024	84.94
324.253	80.94
324.482	87.94
324.71	86.94
324.939	82.94
325.168	79.94
325.397	83.94
325.626	99.94
325.855	83.94
326.084	71.94
326.313	82.94
326.542	82.94
326.77	82.94
326.999	86.94
327.228	88.94
327.457	89.94
327.686	79.94
327.914	79.94
328.143	75.94
328.372	89.94
328.6	65.94
328.829	92.94
329.058	94.94
329.287	77.94
329.515	78.94
329.744	81.94
329.972	87.94
330.201	86.94
330.43	80.94
330.658	80.94
330.887	76.94
331.115	90.94
331.344	81.94
331.572	73.94
331.801	75.94
332.03	86.94
332.258	86.94
332.486	76.94
332.715	101.94
332.943	77.94
333.172	82.94
333.4	76.94
333.629	78.94
333.857	77.94
334.085	79.94
334.314	76.94
334.542	68.94
334.771	75.94
334.999	79.94
335.227	85.94
335.455	84.94
335.684	88.94
335.912	85.94
336.14	84.94
336.369	92.94
336.597	92.94
336.825	77.94
337.053	83.94
337.281	92.94
337.51	77.94
337.738	79.94
337.966	88.94
338.194	70.94
338.422	73.94
338.65	72.94
338.878	75.94
339.106	84.94
339.334	94.94
339.562	92.94
339.79	72.94
340.018	80.94
340.246	95.94
340.474	85.94
340.702	86.94
340.93	84.94
341.158	77.94
341.386	86.94
341.614	82.94
341.842	81.94
342.07	94.94
342.298	74.94
342.526	54.94
342.754	88.94
342.981	66.94
343.209	82.94
343.437	85.94
343.665	93.94
343.893	67.94
344.12	98.94
344.348	81.94
344.576	74.94
344.804	71.94
345.031	84.94
345.259	75.94
345.487	99.94
345.714	81.94
345.942	82.94
346.17	84.94
346.397	88.94
346.625	80.94
346.853	76.94
347.08	76.94
347.308	94.94
347.535	78.94
347.763	80.94
347.99	81.94
348.218	82.94
348.445	77.94
348.673	94.94
348.9	88.94
349.128	92.94
349.355	90.94
349.583	94.94
349.81	76.94
350.037	94.94
350.265	72.94
350.492	86.94
350.72	83.94
350.947	88.94
351.174	82.94
351.402	74.94
351.629	98.94
351.856	92.94
352.083	77.94
352.311	83.94
352.538	81.94
352.765	81.94
352.992	80.94
353.22	77.94
353.447	79.94
353.674	79.94
353.901	103.94
354.128	68.94
354.355	73.94
354.583	78.94
354.81	71.94
355.037	94.94
355.264	79.94
355.491	86.94
355.718	98.94
355.945	82.94
356.172	74.94
356.399	85.94
356.626	81.94
356.853	90.94
357.08	80.94
357.307	86.94
357.534	85.94
357.761	73.94
357.988	75.94
358.215	97.94
358.441	83.94
358.668	81.94
358.895	72.94
359.122	92.94
359.349	79.94
359.576	86.94
359.802	84.94
360.029	87.94
360.256	81.94
360.483	84.94
360.709	77.94
360.936	92.94
361.163	76.94
361.39	95.94
361.616	79.94
361.843	79.94
362.07	74.94
362.296	81.94
362.523	82.94
362.749	81.94
362.976	76.94
363.203	96.94
363.429	88.94
363.656	94.94
363.882	82.94
364.109	79.94
364.335	70.94
364.562	79.94
364.788	71.94
365.015	83.94
365.241	83.94
365.468	81.94
365.694	71.94
365.92	76.94
366.147	79.94
366.373	81.94
366.599	80.94
366.826	90.94
367.052	85.94
367.278	77.94
367.505	68.94
367.731	96.94
367.957	86.94
368.184	78.94
368.41	87.94
368.636	76.94
368.862	86.94
369.089	87.94
369.315	92.94
369.541	80.94
369.767	82.94
369.993	88.94
370.219	76.94
370.445	78.94
370.672	67.94
370.898	85.94
371.124	75.94
371.35	88.94
371.576	87.94
371.802	78.94
372.028	76.94
372.254	90.94
372.48	93.94
372.706	90.94
372.932	86.94
373.158	87.94
373.384	91.94
373.61	81.94
373.835	101.94
374.061	76.94
374.287	81.94
374.513	92.94
374.739	108.94
374.965	94.94
375.191	67.94
375.416	89.94
375.642	76.94
375.868	90.94
376.094	86.94
376.319	94.94
376.545	88.94
376.771	97.94
376.997	75.94
377.222	61.94
377.448	88.94
377.674	83.94
377.899	89.94
378.125	86.94
378.35	78.94
378.576	86.94
378.802	73.94
379.027	88.94
379.253	94.94
379.478	91.94
379.704	67.94
379.929	78.94
380.155	96.94
380.38	85.94
380.606	83.94
380.831	75.94
381.057	87.94
381.282	84.94
381.507	78.94
381.733	100.94
381.958	79.94
382.184	81.94
382.409	80.94
382.634	86.94
382.86	86.94
383.085	74.94
383.31	77.94
383.535	86.94
383.761	92.94
383.986	85.94
384.211	92.94
384.436	86.94
384.662	84.94
384.887	97.94
385.112	74.94
385.337	82.94
385.562	70.94
385.787	80.94
386.013	82.94
386.238	88.94
386.463	85.94
386.688	82.94
386.913	89.94
387.138	76.94
387.363	90.94
387.588	91.94
387.813	84.94
388.038	75.94
388.263	95.94
388.488	98.94
388.713	95.94
388.938	80.94
389.163	89.94
389.387	104.94
389.612	86.94
389.837	96.94
390.062	97.94
390.287	84.94
390.512	95.94
390.736	95.94
390.961	84.94
391.186	106.94
391.411	94.94
391.636	88.94
391.86	87.94
392.085	90.94
392.31	88.94
392.534	90.94
392.759	95.94
392.984	92.94
393.208	81.94
393.433	100.94
393.658	94.94
393.882	103.94
394.107	95.94
394.331	100.94
394.556	82.94
394.78	94.94
395.005	79.94
395.229	90.94
395.454	85.94
395.678	94.94
395.903	89.94
396.127	83.94
396.352	95.94
396.576	80.94
396.801	91.94
397.025	81.94
397.249	89.94
397.474	90.94
397.698	89.94
397.922	98.94
398.147	105.94
398.371	90.94
398.595	97.94
398.82	81.94
399.044	103.94
399.268	88.94
399.492	94.94
399.717	75.94
399.941	83.94
400.165	82.94
400.389	88.94
400.613	86.94
400.837	95.94
401.062	85.94
401.286	82.94
401.51	82.94
401.734	82.94
401.958	98.94
402.182	97.94
402.406	96.94
402.63	104.94
402.854	95.94
403.078	91.94
403.302	86.94
403.526	93.94
403.75	89.94
403.974	98.94
404.198	107.94
404.422	111.94
404.645	89.94
404.869	99.94
405.093	102.94
405.317	95.94
405.541	92.94
405.765	94.94
405.988	93.94
406.212	99.94
406.436	90.94
406.66	114.94
406.883	114.94
407.107	92.94
407.331	106.94
407.555	99.94
407.778	107.94
408.002	86.94
408.226	96.94
408.449	102.94
408.673	119.94
408.896	114.94
409.12	98.94
409.344	97.94
409.567	102.94
409.791	103.94
410.014	104.94
410.238	104.94
410.461	84.94
410.685	103.94
410.908	89.94
411.132	110.94
411.355	98.94
411.578	89.94
411.802	86.94
412.025	93.94
412.249	106.94
412.472	105.94
412.695	101.94
412.919	105.94
413.142	103.94
413.365	93.94
413.589	96.94
413.812	96.94
414.035	106.94
414.258	99.94
414.482	107.94
414.705	74.94
414.928	101.94
415.151	90.94
415.374	91.94
415.597	99.94
415.821	98.94
416.044	97.94
416.267	107.94
416.49	90.94
416.713	102.94
416.936	108.94
417.159	103.94
417.382	85.94
417.605	98.94
417.828	91.94
418.051	107.94
418.274	105.94
418.497	114.94
418.72	94.94
418.943	110.94
419.166	109.94
419.389	99.94
419.611	90.94
419.834	90.94
420.057	106.94
420.28	89.94
420.503	99.94
420.726	97.94
420.948	97.94
421.171	112.94
421.394	107.94
421.617	121.94
421.839	122.94
422.062	116.94
422.285	118.94
422.507	111.94
422.73	96.94
422.953	101.94
423.175	96.94
423.398	97.94
423.621	115.94
423.843	108.94
424.066	106.94
424.288	111.94
424.511	91.94
424.733	110.94
424.956	108.94
425.178	103.94
425.401	112.94
425.623	104.94
425.846	104.94
426.068	111.94
426.291	108.94
426.513	112.94
426.735	115.94
426.958	96.94
427.18	93.94
427.402	98.94
427.625	117.94
427.847	86.94
428.069	114.94
428.292	111.94
428.514	117.94
428.736	106.94
428.958	99.94
429.181	102.94
429.403	106.94
429.625	108.94
429.847	110.94
430.069	96.94
430.292	92.94
430.514	111.94
430.736	95.94
430.958	103.94
431.18	110.94
431.402	90.94
431.624	105.94
431.846	90.94
432.068	90.94
432.29	80.94
432.512	96.94
432.734	86.94
432.956	100.94
433.178	111.94
433.4	118.94
433.622	97.94
433.844	122.94
434.066	106.94
434.287	100.94
434.509	98.94
434.731	86.94
434.953	90.94
435.175	99.94
435.397	107.94
435.618	114.94
435.84	102.94
436.062	98.94
436.284	98.94
436.505	106.94
436.727	88.94
436.949	100.94
437.17	106.94
437.392	87.94
437.614	95.94
437.835	105.94
438.057	86.94
438.278	89.94
438.5	88.94
438.721	108.94
438.943	119.94
439.165	107.94
439.386	96.94
439.608	110.94
439.829	111.94
440.05	110.94
440.272	114.94
440.493	102.94
440.715	126.94
440.936	115.94
441.158	111.94
441.379	122.94
441.6	97.94
441.822	115.94
442.043	115.94
442.264	104.94
442.486	122.94
442.707	110.94
442.928	97.94
443.149	105.94
443.371	114.94
443.592	107.94
443.813	96.94
444.034	104.94
444.255	97.94
444.476	112.94
444.698	105.94
444.919	110.94
445.14	246.94
445.361	162.94
445.582	112.94
445.803	125.94
446.024	107.94
446.245	89.94
446.466	119.94
446.687	97.94
446.908	122.94
447.129	113.94
447.35	120.94
447.571	115.94
447.792	107.94
448.013	100.94
448.234	102.94
448.455	107.94
448.675	101.94
448.896	108.94
449.117	123.94
449.338	101.94
449.559	108.94
449.779	96.94
450	90.94
450.221	102.94
450.442	98.94
450.662	112.94
450.883	105.94
451.104	92.94
451.324	115.94
451.545	101.94
451.766	100.94
451.986	110.94
452.207	87.94
452.428	90.94
452.648	124.94
452.869	106.94
453.089	83.94
453.31	104.94
453.53	89.94
453.751	91.94
453.971	93.94
454.192	90.94
454.412	96.94
454.633	106.94
454.853	99.94
455.073	114.94
455.294	106.94
455.514	116.94
455.734	108.94
455.955	95.94
456.175	87.94
456.395	98.94
456.616	92.94
456.836	99.94
457.056	118.94
457.276	88.94
457.497	90.94
457.717	94.94
457.937	101.94
458.157	85.94
458.377	103.94
458.598	89.94
458.818	90.94
459.038	94.94
459.258	89.94
459.478	89.94
459.698	93.94
459.918	83.94
460.138	87.94
460.358	86.94
460.578	117.94
460.798	88.94
461.018	93.94
461.238	108.94
461.458	98.94
461.678	96.94
461.898	91.94
462.118	86.94
462.338	98.94
462.558	92.94
462.777	86.94
462.997	94.94
463.217	93.94
463.437	78.94
463.657	86.94
463.876	89.94
464.096	87.94
464.316	88.94
464.536	97.94
464.755	106.94
464.975	94.94
465.195	86.94
465.414	97.94
465.634	106.94
465.854	99.94
466.073	93.94
466.293	93.94
466.512	105.94
466.732	89.94
466.951	102.94
467.171	120.94
467.391	103.94
467.61	104.94
467.829	97.94
468.049	108.94
468.268	112.94
468.488	98.94
468.707	107.94
468.927	106.94
469.146	111.94
469.365	99.94
469.585	100.94
469.804	119.94
470.023	102.94
470.243	108.94
470.462	121.94
470.681	110.94
470.901	117.94
471.12	109.94
471.339	120.94
471.558	113.94
471.777	108.94
471.997	113.94
472.216	98.94
472.435	87.94
472.654	91.94
472.873	90.94
473.092	96.94
473.311	107.94
473.53	117.94
473.749	110.94
473.968	116.94
474.187	111.94
474.406	99.94
474.625	100.94
474.844	103.94
475.063	108.94
475.282	99.94
475.501	100.94
475.72	107.94
475.939	99.94
476.158	98.94
476.377	104.94
476.596	99.94
476.814	95.94
477.033	106.94
477.252	91.94
477.471	87.94
477.69	107.94
477.908	121.94
478.127	100.94
478.346	116.94
478.564	121.94
478.783	92.94
479.002	122.94
479.22	110.94
479.439	103.94
479.658	96.94
479.876	107.94
480.095	98.94
480.313	96.94
480.532	100.94
480.751	87.94
480.969	80.94
481.188	94.94
481.406	100.94
481.624	87.94
481.843	83.94
482.061	100.94
482.28	96.94
482.498	99.94
482.717	86.94
482.935	106.94
483.153	101.94
483.372	127.94
483.59	118.94
483.808	104.94
484.027	109.94
484.245	117.94
484.463	114.94
484.681	127.94
484.9	121.94
485.118	124.94
485.336	98.94
485.554	88.94
485.772	92.94
485.99	85.94
486.209	102.94
486.427	110.94
486.645	93.94
486.863	110.94
487.081	119.94
487.299	94.94
487.517	100.94
487.735	122.94
487.953	124.94
488.171	143.94
488.389	121.94
488.607	132.94
488.825	119.94
489.043	90.94
489.261	80.94
489.479	111.94
489.696	112.94
489.914	118.94
490.132	107.94
490.35	110.94
490.568	112.94
490.786	136.94
491.003	111.94
491.221	126.94
491.439	122.94
491.657	142.94
491.874	139.94
492.092	136.94
492.31	165.94
492.527	166.94
492.745	131.94
492.963	130.94
493.18	120.94
493.398	124.94
493.615	128.94
493.833	123.94
494.05	124.94
494.268	137.94
494.485	125.94
494.703	139.94
494.92	128.94
495.138	131.94
495.355	127.94
495.573	126.94
495.79	136.94
496.008	125.94
496.225	120.94
496.442	123.94
496.66	102.94
496.877	116.94
497.094	119.94
497.312	119.94
497.529	127.94
497.746	111.94
497.963	103.94
498.181	92.94
498.398	114.94
498.615	98.94
498.832	87.94
499.049	95.94
499.267	98.94
499.484	87.94
499.701	94.94
499.918	111.94
500.135	96.94
500.352	105.94
500.569	118.94
500.786	96.94
501.003	118.94
501.22	102.94
501.437	113.94
501.654	102.94
501.871	112.94
502.088	111.94
502.305	100.94
502.522	100.94
502.739	118.94
502.956	101.94
503.172	100.94
503.389	113.94
503.606	95.94
503.823	97.94
504.04	103.94
504.256	112.94
504.473	97.94
504.69	100.94
504.907	118.94
505.123	102.94
505.34	93.94
505.557	111.94
505.773	112.94
505.99	97.94
506.207	98.94
506.423	91.94
506.64	107.94
506.856	97.94
507.073	91.94
507.289	107.94
507.506	105.94
507.722	105.94
507.939	104.94
508.155	103.94
508.372	108.94
508.588	92.94
508.805	86.94
509.021	100.94
509.238	107.94
509.454	101.94
509.67	94.94
509.887	95.94
510.103	79.94
510.319	82.94
510.536	80.94
510.752	85.94
510.968	72.94
511.184	81.94
511.401	83.94
511.617	92.94
511.833	84.94
512.049	89.94
512.265	88.94
512.481	93.94
512.698	94.94
512.914	94.94
513.13	89.94
513.346	88.94
513.562	93.94
513.778	90.94
513.994	90.94
514.21	86.94
514.426	92.94
514.642	82.94
514.858	81.94
515.074	83.94
