Data from Zn(NO3)2Standard.Agarose3%.GreenCap.LampEnergy10E.O_HRD10591_15-08-59-952.txt Node
Date: Mon Jul 22 15:08:59 EDT 2019
User: cochatt
Spectrometer: HR+D1059
Trigger mode: 1
Integration Time (sec): 1.000000E-1
Scans to average: 1
Electric dark correction enabled: true
Nonlinearity correction enabled: false
Boxcar width: 0
XAxis mode: Wavelengths
Number of Pixels in Spectrum: 2048
>>>>>Begin Spectral Data<<<<<
223.165	-22.81
223.4	-22.81
223.635	-22.81
223.869	-25.81
224.104	-14.81
224.338	-15.81
224.573	-12.81
224.808	-5.81
225.042	4.19
225.277	-14.81
225.511	-9.81
225.746	7.19
225.98	14.19
226.215	11.19
226.449	16.19
226.683	6.19
226.918	30.19
227.152	33.19
227.387	38.19
227.621	24.19
227.856	49.19
228.09	49.19
228.324	48.19
228.559	52.19
228.793	63.19
229.027	67.19
229.262	71.19
229.496	63.19
229.73	67.19
229.964	71.19
230.199	71.19
230.433	71.19
230.667	72.19
230.901	71.19
231.136	71.19
231.37	71.19
231.604	81.19
231.838	92.19
232.072	85.19
232.306	87.19
232.541	74.19
232.775	86.19
233.009	76.19
233.243	81.19
233.477	84.19
233.711	100.19
233.945	79.19
234.179	80.19
234.413	84.19
234.647	85.19
234.881	80.19
235.115	83.19
235.349	83.19
235.583	72.19
235.817	76.19
236.051	74.19
236.285	80.19
236.519	86.19
236.753	57.19
236.987	74.19
237.221	74.19
237.455	72.19
237.689	71.19
237.922	75.19
238.156	88.19
238.39	71.19
238.624	69.19
238.858	67.19
239.091	75.19
239.325	79.19
239.559	80.19
239.793	88.19
240.027	82.19
240.26	87.19
240.494	81.19
240.728	81.19
240.961	63.19
241.195	78.19
241.429	76.19
241.662	64.19
241.896	82.19
242.13	77.19
242.363	97.19
242.597	85.19
242.83	79.19
243.064	69.19
243.298	76.19
243.531	72.19
243.765	74.19
243.998	59.19
244.232	85.19
244.465	87.19
244.699	76.19
244.932	74.19
245.166	80.19
245.399	81.19
245.633	75.19
245.866	76.19
246.099	71.19
246.333	73.19
246.566	72.19
246.8	68.19
247.033	92.19
247.266	66.19
247.5	82.19
247.733	85.19
247.966	73.19
248.2	89.19
248.433	70.19
248.666	77.19
248.899	75.19
249.133	77.19
249.366	75.19
249.599	82.19
249.832	65.19
250.066	76.19
250.299	69.19
250.532	74.19
250.765	93.19
250.998	77.19
251.231	78.19
251.465	89.19
251.698	77.19
251.931	80.19
252.164	93.19
252.397	75.19
252.63	77.19
252.863	65.19
253.096	80.19
253.329	76.19
253.562	76.19
253.795	74.19
254.028	77.19
254.261	78.19
254.494	72.19
254.727	90.19
254.96	70.19
255.193	80.19
255.426	95.19
255.659	77.19
255.892	79.19
256.124	94.19
256.357	72.19
256.59	77.19
256.823	74.19
257.056	87.19
257.289	75.19
257.521	84.19
257.754	70.19
257.987	85.19
258.22	86.19
258.452	83.19
258.685	74.19
258.918	74.19
259.151	87.19
259.383	77.19
259.616	79.19
259.849	73.19
260.081	98.19
260.314	69.19
260.547	90.19
260.779	86.19
261.012	84.19
261.244	83.19
261.477	82.19
261.71	71.19
261.942	87.19
262.175	75.19
262.407	87.19
262.64	89.19
262.872	96.19
263.105	88.19
263.337	92.19
263.57	87.19
263.802	83.19
264.035	81.19
264.267	74.19
264.499	89.19
264.732	95.19
264.964	75.19
265.197	84.19
265.429	83.19
265.661	90.19
265.894	97.19
266.126	83.19
266.358	79.19
266.591	85.19
266.823	90.19
267.055	67.19
267.287	83.19
267.52	80.19
267.752	80.19
267.984	80.19
268.216	84.19
268.448	68.19
268.681	97.19
268.913	91.19
269.145	87.19
269.377	85.19
269.609	83.19
269.841	75.19
270.073	73.19
270.306	78.19
270.538	98.19
270.77	71.19
271.002	73.19
271.234	80.19
271.466	90.19
271.698	86.19
271.93	74.19
272.162	86.19
272.394	91.19
272.626	90.19
272.858	85.19
273.09	93.19
273.322	83.19
273.553	82.19
273.785	101.19
274.017	71.19
274.249	91.19
274.481	81.19
274.713	81.19
274.945	69.19
275.176	74.19
275.408	77.19
275.64	97.19
275.872	93.19
276.104	86.19
276.335	83.19
276.567	83.19
276.799	93.19
277.031	77.19
277.262	96.19
277.494	77.19
277.726	74.19
277.957	92.19
278.189	72.19
278.421	89.19
278.652	73.19
278.884	77.19
279.115	87.19
279.347	86.19
279.579	80.19
279.81	91.19
280.042	89.19
280.273	74.19
280.505	87.19
280.736	82.19
280.968	86.19
281.199	68.19
281.431	73.19
281.662	76.19
281.894	74.19
282.125	80.19
282.356	72.19
282.588	91.19
282.819	82.19
283.051	91.19
283.282	103.19
283.513	78.19
283.745	74.19
283.976	85.19
284.207	92.19
284.439	89.19
284.67	93.19
284.901	76.19
285.132	81.19
285.364	83.19
285.595	100.19
285.826	84.19
286.057	92.19
286.288	71.19
286.52	67.19
286.751	76.19
286.982	90.19
287.213	95.19
287.444	97.19
287.675	91.19
287.906	71.19
288.138	79.19
288.369	90.19
288.6	72.19
288.831	86.19
289.062	86.19
289.293	78.19
289.524	83.19
289.755	81.19
289.986	77.19
290.217	74.19
290.448	84.19
290.679	86.19
290.91	83.19
291.141	75.19
291.371	83.19
291.602	87.19
291.833	88.19
292.064	90.19
292.295	86.19
292.526	93.19
292.757	67.19
292.987	79.19
293.218	95.19
293.449	88.19
293.68	78.19
293.91	93.19
294.141	83.19
294.372	89.19
294.603	87.19
294.833	81.19
295.064	77.19
295.295	80.19
295.525	85.19
295.756	81.19
295.987	79.19
296.217	81.19
296.448	80.19
296.679	92.19
296.909	82.19
297.14	87.19
297.37	86.19
297.601	88.19
297.831	71.19
298.062	83.19
298.292	84.19
298.523	80.19
298.753	85.19
298.984	75.19
299.214	82.19
299.445	78.19
299.675	87.19
299.905	79.19
300.136	91.19
300.366	86.19
300.597	91.19
300.827	97.19
301.057	77.19
301.288	92.19
301.518	85.19
301.748	83.19
301.979	92.19
302.209	87.19
302.439	90.19
302.669	86.19
302.9	76.19
303.13	80.19
303.36	91.19
303.59	78.19
303.82	85.19
304.051	93.19
304.281	99.19
304.511	74.19
304.741	83.19
304.971	92.19
305.201	84.19
305.431	88.19
305.661	90.19
305.891	82.19
306.121	90.19
306.352	91.19
306.582	86.19
306.812	86.19
307.042	82.19
307.272	79.19
307.502	96.19
307.731	96.19
307.961	87.19
308.191	81.19
308.421	91.19
308.651	101.19
308.881	98.19
309.111	87.19
309.341	77.19
309.571	93.19
309.8	86.19
310.03	82.19
310.26	80.19
310.49	95.19
310.72	97.19
310.949	76.19
311.179	88.19
311.409	88.19
311.639	85.19
311.868	92.19
312.098	98.19
312.328	87.19
312.557	84.19
312.787	72.19
313.017	79.19
313.246	79.19
313.476	72.19
313.706	71.19
313.935	69.19
314.165	104.19
314.394	84.19
314.624	85.19
314.853	82.19
315.083	76.19
315.312	84.19
315.542	97.19
315.771	101.19
316.001	85.19
316.23	91.19
316.46	101.19
316.689	82.19
316.919	87.19
317.148	87.19
317.377	92.19
317.607	76.19
317.836	87.19
318.065	79.19
318.295	77.19
318.524	86.19
318.753	95.19
318.983	92.19
319.212	78.19
319.441	74.19
319.67	71.19
319.9	72.19
320.129	79.19
320.358	70.19
320.587	82.19
320.816	91.19
321.046	79.19
321.275	81.19
321.504	76.19
321.733	73.19
321.962	74.19
322.191	80.19
322.42	88.19
322.649	84.19
322.878	80.19
323.108	84.19
323.337	78.19
323.566	101.19
323.795	74.19
324.024	87.19
324.253	89.19
324.482	85.19
324.71	85.19
324.939	100.19
325.168	92.19
325.397	84.19
325.626	71.19
325.855	90.19
326.084	83.19
326.313	83.19
326.542	72.19
326.77	80.19
326.999	83.19
327.228	100.19
327.457	86.19
327.686	82.19
327.914	102.19
328.143	91.19
328.372	83.19
328.6	84.19
328.829	74.19
329.058	83.19
329.287	83.19
329.515	90.19
329.744	88.19
329.972	102.19
330.201	86.19
330.43	78.19
330.658	84.19
330.887	101.19
331.115	80.19
331.344	87.19
331.572	80.19
331.801	82.19
332.03	100.19
332.258	90.19
332.486	92.19
332.715	94.19
332.943	87.19
333.172	85.19
333.4	89.19
333.629	84.19
333.857	85.19
334.085	77.19
334.314	95.19
334.542	76.19
334.771	82.19
334.999	74.19
335.227	100.19
335.455	91.19
335.684	80.19
335.912	99.19
336.14	76.19
336.369	90.19
336.597	76.19
336.825	71.19
337.053	88.19
337.281	88.19
337.51	81.19
337.738	95.19
337.966	87.19
338.194	87.19
338.422	84.19
338.65	87.19
338.878	83.19
339.106	78.19
339.334	84.19
339.562	65.19
339.79	85.19
340.018	94.19
340.246	95.19
340.474	68.19
340.702	87.19
340.93	83.19
341.158	76.19
341.386	85.19
341.614	83.19
341.842	75.19
342.07	83.19
342.298	92.19
342.526	85.19
342.754	85.19
342.981	78.19
343.209	96.19
343.437	76.19
343.665	69.19
343.893	83.19
344.12	83.19
344.348	90.19
344.576	83.19
344.804	93.19
345.031	86.19
345.259	77.19
345.487	83.19
345.714	78.19
345.942	75.19
346.17	78.19
346.397	97.19
346.625	83.19
346.853	93.19
347.08	73.19
347.308	71.19
347.535	80.19
347.763	83.19
347.99	89.19
348.218	85.19
348.445	92.19
348.673	76.19
348.9	86.19
349.128	95.19
349.355	76.19
349.583	75.19
349.81	90.19
350.037	92.19
350.265	79.19
350.492	83.19
350.72	83.19
350.947	92.19
351.174	77.19
351.402	81.19
351.629	84.19
351.856	78.19
352.083	79.19
352.311	83.19
352.538	80.19
352.765	86.19
352.992	83.19
353.22	92.19
353.447	97.19
353.674	84.19
353.901	72.19
354.128	71.19
354.355	68.19
354.583	76.19
354.81	76.19
355.037	76.19
355.264	92.19
355.491	83.19
355.718	87.19
355.945	84.19
356.172	81.19
356.399	85.19
356.626	85.19
356.853	87.19
357.08	70.19
357.307	73.19
357.534	77.19
357.761	83.19
357.988	89.19
358.215	71.19
358.441	86.19
358.668	90.19
358.895	73.19
359.122	60.19
359.349	86.19
359.576	68.19
359.802	92.19
360.029	81.19
360.256	88.19
360.483	80.19
360.709	88.19
360.936	90.19
361.163	89.19
361.39	83.19
361.616	87.19
361.843	84.19
362.07	83.19
362.296	72.19
362.523	83.19
362.749	60.19
362.976	83.19
363.203	78.19
363.429	73.19
363.656	81.19
363.882	75.19
364.109	95.19
364.335	86.19
364.562	87.19
364.788	79.19
365.015	89.19
365.241	68.19
365.468	94.19
365.694	89.19
365.92	83.19
366.147	97.19
366.373	80.19
366.599	75.19
366.826	85.19
367.052	89.19
367.278	91.19
367.505	82.19
367.731	91.19
367.957	78.19
368.184	77.19
368.41	91.19
368.636	69.19
368.862	88.19
369.089	86.19
369.315	80.19
369.541	87.19
369.767	89.19
369.993	96.19
370.219	74.19
370.445	78.19
370.672	78.19
370.898	87.19
371.124	95.19
371.35	84.19
371.576	78.19
371.802	68.19
372.028	76.19
372.254	85.19
372.48	97.19
372.706	93.19
372.932	72.19
373.158	76.19
373.384	83.19
373.61	79.19
373.835	88.19
374.061	85.19
374.287	98.19
374.513	79.19
374.739	87.19
374.965	83.19
375.191	75.19
375.416	88.19
375.642	103.19
375.868	90.19
376.094	103.19
376.319	91.19
376.545	99.19
376.771	78.19
376.997	100.19
377.222	94.19
377.448	85.19
377.674	94.19
377.899	87.19
378.125	82.19
378.35	81.19
378.576	88.19
378.802	88.19
379.027	79.19
379.253	93.19
379.478	91.19
379.704	92.19
379.929	81.19
380.155	92.19
380.38	94.19
380.606	100.19
380.831	99.19
381.057	90.19
381.282	87.19
381.507	89.19
381.733	104.19
381.958	91.19
382.184	80.19
382.409	106.19
382.634	91.19
382.86	92.19
383.085	84.19
383.31	86.19
383.535	87.19
383.761	98.19
383.986	91.19
384.211	89.19
384.436	90.19
384.662	91.19
384.887	98.19
385.112	102.19
385.337	84.19
385.562	81.19
385.787	68.19
386.013	100.19
386.238	89.19
386.463	102.19
386.688	96.19
386.913	83.19
387.138	85.19
387.363	91.19
387.588	97.19
387.813	86.19
388.038	85.19
388.263	100.19
388.488	82.19
388.713	78.19
388.938	84.19
389.163	81.19
389.387	87.19
389.612	95.19
389.837	103.19
390.062	108.19
390.287	85.19
390.512	90.19
390.736	97.19
390.961	84.19
391.186	82.19
391.411	67.19
391.636	87.19
391.86	85.19
392.085	92.19
392.31	97.19
392.534	93.19
392.759	84.19
392.984	96.19
393.208	90.19
393.433	86.19
393.658	80.19
393.882	74.19
394.107	87.19
394.331	84.19
394.556	81.19
394.78	97.19
395.005	98.19
395.229	94.19
395.454	81.19
395.678	101.19
395.903	97.19
396.127	85.19
396.352	97.19
396.576	84.19
396.801	89.19
397.025	94.19
397.249	90.19
397.474	99.19
397.698	86.19
397.922	98.19
398.147	91.19
398.371	102.19
398.595	81.19
398.82	95.19
399.044	92.19
399.268	82.19
399.492	95.19
399.717	91.19
399.941	89.19
400.165	83.19
400.389	95.19
400.613	99.19
400.837	95.19
401.062	100.19
401.286	94.19
401.51	110.19
401.734	91.19
401.958	98.19
402.182	99.19
402.406	91.19
402.63	92.19
402.854	75.19
403.078	104.19
403.302	91.19
403.526	91.19
403.75	93.19
403.974	88.19
404.198	106.19
404.422	94.19
404.645	96.19
404.869	92.19
405.093	96.19
405.317	85.19
405.541	88.19
405.765	88.19
405.988	90.19
406.212	106.19
406.436	91.19
406.66	103.19
406.883	98.19
407.107	109.19
407.331	82.19
407.555	88.19
407.778	86.19
408.002	92.19
408.226	98.19
408.449	96.19
408.673	91.19
408.896	98.19
409.12	84.19
409.344	95.19
409.567	112.19
409.791	101.19
410.014	108.19
410.238	104.19
410.461	103.19
410.685	90.19
410.908	94.19
411.132	107.19
411.355	84.19
411.578	93.19
411.802	104.19
412.025	101.19
412.249	99.19
412.472	100.19
412.695	108.19
412.919	92.19
413.142	111.19
413.365	91.19
413.589	94.19
413.812	94.19
414.035	87.19
414.258	91.19
414.482	93.19
414.705	98.19
414.928	84.19
415.151	104.19
415.374	86.19
415.597	85.19
415.821	87.19
416.044	101.19
416.267	107.19
416.49	115.19
416.713	96.19
416.936	93.19
417.159	106.19
417.382	95.19
417.605	93.19
417.828	106.19
418.051	111.19
418.274	118.19
418.497	116.19
418.72	88.19
418.943	95.19
419.166	96.19
419.389	100.19
419.611	97.19
419.834	98.19
420.057	115.19
420.28	115.19
420.503	115.19
420.726	107.19
420.948	93.19
421.171	98.19
421.394	105.19
421.617	101.19
421.839	107.19
422.062	118.19
422.285	103.19
422.507	97.19
422.73	104.19
422.953	103.19
423.175	100.19
423.398	116.19
423.621	90.19
423.843	101.19
424.066	107.19
424.288	102.19
424.511	111.19
424.733	108.19
424.956	97.19
425.178	98.19
425.401	106.19
425.623	108.19
425.846	109.19
426.068	93.19
426.291	90.19
426.513	90.19
426.735	104.19
426.958	106.19
427.18	98.19
427.402	98.19
427.625	92.19
427.847	104.19
428.069	113.19
428.292	104.19
428.514	100.19
428.736	87.19
428.958	104.19
429.181	95.19
429.403	98.19
429.625	88.19
429.847	104.19
430.069	111.19
430.292	101.19
430.514	112.19
430.736	102.19
430.958	97.19
431.18	89.19
431.402	92.19
431.624	86.19
431.846	91.19
432.068	89.19
432.29	88.19
432.512	91.19
432.734	108.19
432.956	94.19
433.178	112.19
433.4	106.19
433.622	111.19
433.844	113.19
434.066	109.19
434.287	103.19
434.509	77.19
434.731	103.19
434.953	97.19
435.175	93.19
435.397	106.19
435.618	88.19
435.84	87.19
436.062	104.19
436.284	98.19
436.505	104.19
436.727	120.19
436.949	120.19
437.17	86.19
437.392	104.19
437.614	94.19
437.835	101.19
438.057	100.19
438.278	91.19
438.5	111.19
438.721	119.19
438.943	98.19
439.165	119.19
439.386	123.19
439.608	111.19
439.829	104.19
440.05	107.19
440.272	121.19
440.493	108.19
440.715	116.19
440.936	108.19
441.158	114.19
441.379	104.19
441.6	115.19
441.822	119.19
442.043	105.19
442.264	111.19
442.486	101.19
442.707	102.19
442.928	115.19
443.149	113.19
443.371	105.19
443.592	100.19
443.813	104.19
444.034	104.19
444.255	113.19
444.476	102.19
444.698	119.19
444.919	114.19
445.14	249.19
445.361	186.19
445.582	111.19
445.803	97.19
446.024	105.19
446.245	119.19
446.466	99.19
446.687	112.19
446.908	121.19
447.129	100.19
447.35	113.19
447.571	107.19
447.792	111.19
448.013	125.19
448.234	108.19
448.455	129.19
448.675	107.19
448.896	111.19
449.117	86.19
449.338	101.19
449.559	119.19
449.779	118.19
450	103.19
450.221	114.19
450.442	105.19
450.662	113.19
450.883	103.19
451.104	119.19
451.324	88.19
451.545	112.19
451.766	117.19
451.986	111.19
452.207	105.19
452.428	103.19
452.648	114.19
452.869	101.19
453.089	81.19
453.31	88.19
453.53	99.19
453.751	82.19
453.971	90.19
454.192	96.19
454.412	100.19
454.633	99.19
454.853	91.19
455.073	105.19
455.294	104.19
455.514	94.19
455.734	73.19
455.955	91.19
456.175	103.19
456.395	78.19
456.616	93.19
456.836	97.19
457.056	86.19
457.276	97.19
457.497	81.19
457.717	97.19
457.937	97.19
458.157	85.19
458.377	100.19
458.598	91.19
458.818	89.19
459.038	69.19
459.258	92.19
459.478	105.19
459.698	81.19
459.918	92.19
460.138	87.19
460.358	104.19
460.578	98.19
460.798	97.19
461.018	92.19
461.238	103.19
461.458	99.19
461.678	107.19
461.898	90.19
462.118	90.19
462.338	83.19
462.558	97.19
462.777	87.19
462.997	92.19
463.217	88.19
463.437	81.19
463.657	89.19
463.876	83.19
464.096	109.19
464.316	95.19
464.536	99.19
464.755	90.19
464.975	101.19
465.195	103.19
465.414	93.19
465.634	111.19
465.854	99.19
466.073	95.19
466.293	84.19
466.512	103.19
466.732	105.19
466.951	104.19
467.171	114.19
467.391	111.19
467.61	115.19
467.829	109.19
468.049	101.19
468.268	108.19
468.488	97.19
468.707	98.19
468.927	106.19
469.146	98.19
469.365	102.19
469.585	114.19
469.804	97.19
470.023	95.19
470.243	104.19
470.462	105.19
470.681	124.19
470.901	115.19
471.12	124.19
471.339	119.19
471.558	102.19
471.777	104.19
471.997	101.19
472.216	100.19
472.435	92.19
472.654	100.19
472.873	96.19
473.092	114.19
473.311	115.19
473.53	105.19
473.749	101.19
473.968	104.19
474.187	97.19
474.406	93.19
474.625	96.19
474.844	91.19
475.063	108.19
475.282	99.19
475.501	102.19
475.72	93.19
475.939	111.19
476.158	107.19
476.377	95.19
476.596	92.19
476.814	90.19
477.033	87.19
477.252	92.19
477.471	106.19
477.69	101.19
477.908	114.19
478.127	99.19
478.346	108.19
478.564	113.19
478.783	93.19
479.002	88.19
479.22	106.19
479.439	104.19
479.658	104.19
479.876	89.19
480.095	94.19
480.313	102.19
480.532	116.19
480.751	96.19
480.969	71.19
481.188	75.19
481.406	83.19
481.624	72.19
481.843	102.19
482.061	90.19
482.28	87.19
482.498	87.19
482.717	100.19
482.935	100.19
483.153	97.19
483.372	117.19
483.59	111.19
483.808	108.19
484.027	125.19
484.245	80.19
484.463	119.19
484.681	121.19
484.9	120.19
485.118	121.19
485.336	123.19
485.554	119.19
485.772	96.19
485.99	91.19
486.209	74.19
486.427	103.19
486.645	95.19
486.863	104.19
487.081	110.19
487.299	111.19
487.517	91.19
487.735	110.19
487.953	131.19
488.171	136.19
488.389	139.19
488.607	117.19
488.825	120.19
489.043	104.19
489.261	108.19
489.479	113.19
489.696	114.19
489.914	115.19
490.132	121.19
490.35	120.19
490.568	123.19
490.786	136.19
491.003	123.19
491.221	139.19
491.439	146.19
491.657	137.19
491.874	135.19
492.092	150.19
492.31	159.19
492.527	139.19
492.745	142.19
492.963	138.19
493.18	137.19
493.398	117.19
493.615	130.19
493.833	102.19
494.05	119.19
494.268	116.19
494.485	120.19
494.703	132.19
494.92	128.19
495.138	147.19
495.355	123.19
495.573	121.19
495.79	129.19
496.008	133.19
496.225	136.19
496.442	124.19
496.66	118.19
496.877	115.19
497.094	137.19
497.312	117.19
497.529	128.19
497.746	105.19
497.963	119.19
498.181	103.19
498.398	107.19
498.615	100.19
498.832	98.19
499.049	109.19
499.267	106.19
499.484	91.19
499.701	90.19
499.918	98.19
500.135	103.19
500.352	116.19
500.569	103.19
500.786	115.19
501.003	114.19
501.22	127.19
501.437	108.19
501.654	108.19
501.871	104.19
502.088	115.19
502.305	113.19
502.522	100.19
502.739	116.19
502.956	104.19
503.172	100.19
503.389	106.19
503.606	103.19
503.823	101.19
504.04	97.19
504.256	97.19
504.473	92.19
504.69	99.19
504.907	104.19
505.123	100.19
505.34	115.19
505.557	89.19
505.773	108.19
505.99	91.19
506.207	104.19
506.423	91.19
506.64	100.19
506.856	83.19
507.073	108.19
507.289	111.19
507.506	101.19
507.722	96.19
507.939	89.19
508.155	101.19
508.372	78.19
508.588	105.19
508.805	90.19
509.021	93.19
509.238	107.19
509.454	104.19
509.67	86.19
509.887	84.19
510.103	99.19
510.319	92.19
510.536	84.19
510.752	79.19
510.968	95.19
511.184	84.19
511.401	79.19
511.617	89.19
511.833	83.19
512.049	89.19
512.265	93.19
512.481	86.19
512.698	82.19
512.914	100.19
513.13	95.19
513.346	84.19
513.562	80.19
513.778	83.19
513.994	87.19
514.21	82.19
514.426	82.19
514.642	86.19
514.858	92.19
