Data from Zn(NO3)2Standard.Agarose3%.GreenCap.LampEnergy5.5.E.O_HRD10591_15-02-36-768.txt Node
Date: Mon Jul 22 15:02:36 EDT 2019
User: cochatt
Spectrometer: HR+D1059
Trigger mode: 1
Integration Time (sec): 1.000000E-1
Scans to average: 1
Electric dark correction enabled: true
Nonlinearity correction enabled: false
Boxcar width: 0
XAxis mode: Wavelengths
Number of Pixels in Spectrum: 2048
>>>>>Begin Spectral Data<<<<<
223.165	-12.12
223.4	-12.12
223.635	-12.12
223.869	-13.12
224.104	-18.12
224.338	-15.12
224.573	-18.12
224.808	-8.12
225.042	-15.12
225.277	0.88
225.511	4.88
225.746	16.88
225.98	0.88
226.215	2.88
226.449	23.88
226.683	13.88
226.918	24.88
227.152	10.88
227.387	35.88
227.621	35.88
227.856	37.88
228.09	48.88
228.324	58.88
228.559	49.88
228.793	56.88
229.027	61.88
229.262	56.88
229.496	64.88
229.73	69.88
229.964	85.88
230.199	96.88
230.433	69.88
230.667	61.88
230.901	70.88
231.136	81.88
231.37	73.88
231.604	84.88
231.838	80.88
232.072	76.88
232.306	88.88
232.541	83.88
232.775	72.88
233.009	76.88
233.243	65.88
233.477	83.88
233.711	71.88
233.945	67.88
234.179	83.88
234.413	70.88
234.647	71.88
234.881	73.88
235.115	73.88
235.349	79.88
235.583	74.88
235.817	65.88
236.051	78.88
236.285	76.88
236.519	80.88
236.753	82.88
236.987	81.88
237.221	59.88
237.455	64.88
237.689	63.88
237.922	80.88
238.156	74.88
238.39	68.88
238.624	74.88
238.858	70.88
239.091	73.88
239.325	73.88
239.559	66.88
239.793	71.88
240.027	79.88
240.26	77.88
240.494	63.88
240.728	80.88
240.961	70.88
241.195	82.88
241.429	81.88
241.662	63.88
241.896	69.88
242.13	74.88
242.363	67.88
242.597	58.88
242.83	69.88
243.064	88.88
243.298	60.88
243.531	59.88
243.765	56.88
243.998	69.88
244.232	71.88
244.465	59.88
244.699	71.88
244.932	84.88
245.166	68.88
245.399	60.88
245.633	63.88
245.866	73.88
246.099	70.88
246.333	54.88
246.566	73.88
246.8	78.88
247.033	76.88
247.266	71.88
247.5	63.88
247.733	78.88
247.966	64.88
248.2	76.88
248.433	89.88
248.666	77.88
248.899	72.88
249.133	65.88
249.366	73.88
249.599	78.88
249.832	73.88
250.066	72.88
250.299	66.88
250.532	77.88
250.765	69.88
250.998	78.88
251.231	71.88
251.465	65.88
251.698	84.88
251.931	76.88
252.164	74.88
252.397	80.88
252.63	78.88
252.863	69.88
253.096	63.88
253.329	81.88
253.562	79.88
253.795	84.88
254.028	73.88
254.261	75.88
254.494	68.88
254.727	62.88
254.96	71.88
255.193	82.88
255.426	87.88
255.659	73.88
255.892	80.88
256.124	80.88
256.357	83.88
256.59	82.88
256.823	88.88
257.056	80.88
257.289	65.88
257.521	67.88
257.754	72.88
257.987	74.88
258.22	85.88
258.452	72.88
258.685	80.88
258.918	68.88
259.151	81.88
259.383	86.88
259.616	79.88
259.849	75.88
260.081	77.88
260.314	74.88
260.547	76.88
260.779	74.88
261.012	88.88
261.244	84.88
261.477	81.88
261.71	68.88
261.942	79.88
262.175	69.88
262.407	71.88
262.64	76.88
262.872	76.88
263.105	88.88
263.337	79.88
263.57	70.88
263.802	78.88
264.035	85.88
264.267	84.88
264.499	66.88
264.732	89.88
264.964	63.88
265.197	75.88
265.429	77.88
265.661	76.88
265.894	73.88
266.126	81.88
266.358	77.88
266.591	74.88
266.823	76.88
267.055	82.88
267.287	77.88
267.52	67.88
267.752	74.88
267.984	74.88
268.216	87.88
268.448	90.88
268.681	85.88
268.913	84.88
269.145	79.88
269.377	88.88
269.609	74.88
269.841	75.88
270.073	78.88
270.306	63.88
270.538	81.88
270.77	70.88
271.002	76.88
271.234	76.88
271.466	78.88
271.698	83.88
271.93	65.88
272.162	67.88
272.394	78.88
272.626	77.88
272.858	73.88
273.09	82.88
273.322	82.88
273.553	83.88
273.785	77.88
274.017	78.88
274.249	61.88
274.481	76.88
274.713	78.88
274.945	78.88
275.176	73.88
275.408	87.88
275.64	77.88
275.872	62.88
276.104	85.88
276.335	83.88
276.567	74.88
276.799	79.88
277.031	69.88
277.262	73.88
277.494	71.88
277.726	76.88
277.957	64.88
278.189	81.88
278.421	75.88
278.652	84.88
278.884	78.88
279.115	100.88
279.347	85.88
279.579	87.88
279.81	76.88
280.042	85.88
280.273	76.88
280.505	77.88
280.736	76.88
280.968	90.88
281.199	87.88
281.431	77.88
281.662	94.88
281.894	86.88
282.125	76.88
282.356	77.88
282.588	69.88
282.819	84.88
283.051	84.88
283.282	71.88
283.513	89.88
283.745	92.88
283.976	110.88
284.207	80.88
284.439	79.88
284.67	83.88
284.901	76.88
285.132	70.88
285.364	90.88
285.595	82.88
285.826	78.88
286.057	102.88
286.288	73.88
286.52	73.88
286.751	75.88
286.982	79.88
287.213	78.88
287.444	68.88
287.675	74.88
287.906	85.88
288.138	92.88
288.369	73.88
288.6	78.88
288.831	76.88
289.062	83.88
289.293	82.88
289.524	71.88
289.755	76.88
289.986	80.88
290.217	81.88
290.448	76.88
290.679	81.88
290.91	89.88
291.141	77.88
291.371	79.88
291.602	87.88
291.833	71.88
292.064	77.88
292.295	80.88
292.526	76.88
292.757	71.88
292.987	86.88
293.218	78.88
293.449	70.88
293.68	66.88
293.91	81.88
294.141	76.88
294.372	86.88
294.603	76.88
294.833	79.88
295.064	76.88
295.295	78.88
295.525	78.88
295.756	80.88
295.987	80.88
296.217	89.88
296.448	84.88
296.679	67.88
296.909	73.88
297.14	87.88
297.37	98.88
297.601	79.88
297.831	70.88
298.062	74.88
298.292	85.88
298.523	82.88
298.753	69.88
298.984	82.88
299.214	74.88
299.445	75.88
299.675	78.88
299.905	90.88
300.136	82.88
300.366	82.88
300.597	81.88
300.827	82.88
301.057	72.88
301.288	84.88
301.518	78.88
301.748	80.88
301.979	80.88
302.209	78.88
302.439	72.88
302.669	71.88
302.9	78.88
303.13	84.88
303.36	90.88
303.59	82.88
303.82	96.88
304.051	79.88
304.281	94.88
304.511	75.88
304.741	81.88
304.971	74.88
305.201	67.88
305.431	85.88
305.661	70.88
305.891	87.88
306.121	76.88
306.352	82.88
306.582	88.88
306.812	86.88
307.042	72.88
307.272	66.88
307.502	74.88
307.731	73.88
307.961	91.88
308.191	90.88
308.421	87.88
308.651	80.88
308.881	73.88
309.111	70.88
309.341	71.88
309.571	85.88
309.8	86.88
310.03	79.88
310.26	77.88
310.49	62.88
310.72	94.88
310.949	85.88
311.179	77.88
311.409	87.88
311.639	87.88
311.868	78.88
312.098	89.88
312.328	84.88
312.557	78.88
312.787	78.88
313.017	80.88
313.246	69.88
313.476	75.88
313.706	66.88
313.935	81.88
314.165	81.88
314.394	78.88
314.624	78.88
314.853	75.88
315.083	72.88
315.312	77.88
315.542	71.88
315.771	87.88
316.001	91.88
316.23	78.88
316.46	90.88
316.689	84.88
316.919	79.88
317.148	84.88
317.377	87.88
317.607	82.88
317.836	92.88
318.065	85.88
318.295	80.88
318.524	63.88
318.753	79.88
318.983	83.88
319.212	77.88
319.441	77.88
319.67	84.88
319.9	86.88
320.129	73.88
320.358	84.88
320.587	84.88
320.816	88.88
321.046	90.88
321.275	79.88
321.504	74.88
321.733	84.88
321.962	84.88
322.191	89.88
322.42	87.88
322.649	78.88
322.878	92.88
323.108	77.88
323.337	74.88
323.566	79.88
323.795	82.88
324.024	80.88
324.253	88.88
324.482	67.88
324.71	72.88
324.939	77.88
325.168	73.88
325.397	85.88
325.626	70.88
325.855	64.88
326.084	87.88
326.313	79.88
326.542	78.88
326.77	82.88
326.999	74.88
327.228	86.88
327.457	82.88
327.686	85.88
327.914	88.88
328.143	84.88
328.372	80.88
328.6	88.88
328.829	79.88
329.058	78.88
329.287	85.88
329.515	80.88
329.744	80.88
329.972	73.88
330.201	78.88
330.43	82.88
330.658	81.88
330.887	83.88
331.115	63.88
331.344	86.88
331.572	93.88
331.801	72.88
332.03	80.88
332.258	86.88
332.486	87.88
332.715	80.88
332.943	94.88
333.172	74.88
333.4	79.88
333.629	67.88
333.857	85.88
334.085	76.88
334.314	79.88
334.542	74.88
334.771	80.88
334.999	80.88
335.227	93.88
335.455	74.88
335.684	76.88
335.912	86.88
336.14	83.88
336.369	83.88
336.597	88.88
336.825	84.88
337.053	71.88
337.281	73.88
337.51	85.88
337.738	88.88
337.966	85.88
338.194	70.88
338.422	83.88
338.65	81.88
338.878	74.88
339.106	100.88
339.334	85.88
339.562	80.88
339.79	77.88
340.018	78.88
340.246	74.88
340.474	81.88
340.702	86.88
340.93	66.88
341.158	73.88
341.386	79.88
341.614	85.88
341.842	68.88
342.07	82.88
342.298	76.88
342.526	87.88
342.754	87.88
342.981	82.88
343.209	99.88
343.437	72.88
343.665	55.88
343.893	83.88
344.12	84.88
344.348	87.88
344.576	78.88
344.804	70.88
345.031	69.88
345.259	77.88
345.487	81.88
345.714	76.88
345.942	79.88
346.17	83.88
346.397	82.88
346.625	86.88
346.853	78.88
347.08	87.88
347.308	72.88
347.535	93.88
347.763	79.88
347.99	63.88
348.218	68.88
348.445	80.88
348.673	89.88
348.9	80.88
349.128	96.88
349.355	81.88
349.583	80.88
349.81	73.88
350.037	76.88
350.265	81.88
350.492	76.88
350.72	81.88
350.947	82.88
351.174	85.88
351.402	83.88
351.629	79.88
351.856	72.88
352.083	75.88
352.311	79.88
352.538	89.88
352.765	86.88
352.992	86.88
353.22	81.88
353.447	89.88
353.674	76.88
353.901	78.88
354.128	74.88
354.355	70.88
354.583	79.88
354.81	90.88
355.037	85.88
355.264	77.88
355.491	77.88
355.718	91.88
355.945	73.88
356.172	81.88
356.399	79.88
356.626	78.88
356.853	79.88
357.08	76.88
357.307	74.88
357.534	68.88
357.761	77.88
357.988	77.88
358.215	80.88
358.441	68.88
358.668	73.88
358.895	91.88
359.122	82.88
359.349	68.88
359.576	78.88
359.802	80.88
360.029	61.88
360.256	88.88
360.483	75.88
360.709	71.88
360.936	93.88
361.163	65.88
361.39	73.88
361.616	75.88
361.843	68.88
362.07	73.88
362.296	78.88
362.523	91.88
362.749	70.88
362.976	67.88
363.203	98.88
363.429	82.88
363.656	81.88
363.882	79.88
364.109	83.88
364.335	70.88
364.562	87.88
364.788	93.88
365.015	89.88
365.241	86.88
365.468	86.88
365.694	72.88
365.92	79.88
366.147	73.88
366.373	71.88
366.599	68.88
366.826	81.88
367.052	75.88
367.278	82.88
367.505	75.88
367.731	85.88
367.957	81.88
368.184	82.88
368.41	93.88
368.636	88.88
368.862	74.88
369.089	70.88
369.315	89.88
369.541	83.88
369.767	83.88
369.993	62.88
370.219	71.88
370.445	68.88
370.672	61.88
370.898	63.88
371.124	74.88
371.35	81.88
371.576	90.88
371.802	83.88
372.028	73.88
372.254	71.88
372.48	67.88
372.706	78.88
372.932	74.88
373.158	62.88
373.384	98.88
373.61	85.88
373.835	67.88
374.061	78.88
374.287	84.88
374.513	75.88
374.739	82.88
374.965	68.88
375.191	84.88
375.416	91.88
375.642	88.88
375.868	76.88
376.094	87.88
376.319	88.88
376.545	88.88
376.771	88.88
376.997	77.88
377.222	89.88
377.448	75.88
377.674	72.88
377.899	60.88
378.125	73.88
378.35	63.88
378.576	88.88
378.802	76.88
379.027	82.88
379.253	74.88
379.478	83.88
379.704	68.88
379.929	67.88
380.155	77.88
380.38	89.88
380.606	75.88
380.831	68.88
381.057	80.88
381.282	73.88
381.507	85.88
381.733	90.88
381.958	82.88
382.184	79.88
382.409	70.88
382.634	75.88
382.86	78.88
383.085	88.88
383.31	76.88
383.535	85.88
383.761	81.88
383.986	86.88
384.211	71.88
384.436	82.88
384.662	68.88
384.887	79.88
385.112	77.88
385.337	80.88
385.562	78.88
385.787	78.88
386.013	80.88
386.238	75.88
386.463	84.88
386.688	90.88
386.913	79.88
387.138	78.88
387.363	86.88
387.588	82.88
387.813	74.88
388.038	74.88
388.263	81.88
388.488	85.88
388.713	93.88
388.938	66.88
389.163	65.88
389.387	84.88
389.612	83.88
389.837	86.88
390.062	73.88
390.287	74.88
390.512	86.88
390.736	88.88
390.961	79.88
391.186	95.88
391.411	77.88
391.636	80.88
391.86	80.88
392.085	69.88
392.31	86.88
392.534	75.88
392.759	70.88
392.984	73.88
393.208	76.88
393.433	81.88
393.658	90.88
393.882	87.88
394.107	80.88
394.331	80.88
394.556	74.88
394.78	88.88
395.005	72.88
395.229	83.88
395.454	71.88
395.678	72.88
395.903	93.88
396.127	87.88
396.352	74.88
396.576	85.88
396.801	82.88
397.025	75.88
397.249	81.88
397.474	73.88
397.698	75.88
397.922	90.88
398.147	81.88
398.371	73.88
398.595	81.88
398.82	75.88
399.044	80.88
399.268	84.88
399.492	82.88
399.717	89.88
399.941	67.88
400.165	72.88
400.389	79.88
400.613	61.88
400.837	76.88
401.062	85.88
401.286	80.88
401.51	71.88
401.734	85.88
401.958	72.88
402.182	87.88
402.406	87.88
402.63	88.88
402.854	89.88
403.078	71.88
403.302	64.88
403.526	74.88
403.75	87.88
403.974	83.88
404.198	93.88
404.422	85.88
404.645	79.88
404.869	80.88
405.093	80.88
405.317	89.88
405.541	86.88
405.765	74.88
405.988	80.88
406.212	77.88
406.436	81.88
406.66	85.88
406.883	86.88
407.107	84.88
407.331	86.88
407.555	78.88
407.778	51.88
408.002	74.88
408.226	73.88
408.449	82.88
408.673	95.88
408.896	81.88
409.12	79.88
409.344	73.88
409.567	79.88
409.791	74.88
410.014	82.88
410.238	82.88
410.461	78.88
410.685	89.88
410.908	92.88
411.132	87.88
411.355	84.88
411.578	96.88
411.802	74.88
412.025	81.88
412.249	64.88
412.472	83.88
412.695	76.88
412.919	85.88
413.142	74.88
413.365	68.88
413.589	90.88
413.812	87.88
414.035	78.88
414.258	74.88
414.482	80.88
414.705	86.88
414.928	97.88
415.151	86.88
415.374	88.88
415.597	78.88
415.821	79.88
416.044	76.88
416.267	74.88
416.49	68.88
416.713	83.88
416.936	80.88
417.159	77.88
417.382	79.88
417.605	71.88
417.828	95.88
418.051	83.88
418.274	76.88
418.497	77.88
418.72	81.88
418.943	65.88
419.166	81.88
419.389	81.88
419.611	84.88
419.834	86.88
420.057	85.88
420.28	79.88
420.503	87.88
420.726	70.88
420.948	83.88
421.171	87.88
421.394	84.88
421.617	92.88
421.839	78.88
422.062	95.88
422.285	78.88
422.507	78.88
422.73	87.88
422.953	90.88
423.175	97.88
423.398	80.88
423.621	93.88
423.843	78.88
424.066	87.88
424.288	84.88
424.511	86.88
424.733	71.88
424.956	90.88
425.178	79.88
425.401	73.88
425.623	80.88
425.846	81.88
426.068	68.88
426.291	72.88
426.513	69.88
426.735	78.88
426.958	92.88
427.18	99.88
427.402	80.88
427.625	75.88
427.847	93.88
428.069	87.88
428.292	88.88
428.514	90.88
428.736	79.88
428.958	78.88
429.181	88.88
429.403	92.88
429.625	78.88
429.847	79.88
430.069	80.88
430.292	78.88
430.514	87.88
430.736	59.88
430.958	82.88
431.18	84.88
431.402	71.88
431.624	80.88
431.846	74.88
432.068	65.88
432.29	71.88
432.512	85.88
432.734	80.88
432.956	86.88
433.178	83.88
433.4	78.88
433.622	92.88
433.844	89.88
434.066	77.88
434.287	68.88
434.509	84.88
434.731	83.88
434.953	72.88
435.175	76.88
435.397	82.88
435.618	73.88
435.84	88.88
436.062	80.88
436.284	85.88
436.505	78.88
436.727	88.88
436.949	86.88
437.17	85.88
437.392	66.88
437.614	83.88
437.835	81.88
438.057	74.88
438.278	85.88
438.5	91.88
438.721	88.88
438.943	88.88
439.165	74.88
439.386	72.88
439.608	88.88
439.829	81.88
440.05	93.88
440.272	110.88
440.493	98.88
440.715	87.88
440.936	95.88
441.158	113.88
441.379	80.88
441.6	83.88
441.822	86.88
442.043	88.88
442.264	85.88
442.486	93.88
442.707	86.88
442.928	84.88
443.149	71.88
443.371	92.88
443.592	81.88
443.813	97.88
444.034	89.88
444.255	80.88
444.476	85.88
444.698	86.88
444.919	81.88
445.14	203.88
445.361	138.88
445.582	94.88
445.803	81.88
446.024	97.88
446.245	93.88
446.466	104.88
446.687	83.88
446.908	104.88
447.129	90.88
447.35	80.88
447.571	96.88
447.792	78.88
448.013	92.88
448.234	89.88
448.455	68.88
448.675	82.88
448.896	81.88
449.117	81.88
449.338	95.88
449.559	67.88
449.779	79.88
450	87.88
450.221	86.88
450.442	86.88
450.662	81.88
450.883	87.88
451.104	85.88
451.324	92.88
451.545	83.88
451.766	79.88
451.986	83.88
452.207	82.88
452.428	91.88
452.648	93.88
452.869	87.88
453.089	82.88
453.31	86.88
453.53	70.88
453.751	84.88
453.971	75.88
454.192	86.88
454.412	80.88
454.633	87.88
454.853	69.88
455.073	77.88
455.294	74.88
455.514	88.88
455.734	82.88
455.955	76.88
456.175	67.88
456.395	91.88
456.616	91.88
456.836	74.88
457.056	74.88
457.276	85.88
457.497	69.88
457.717	81.88
457.937	77.88
458.157	92.88
458.377	86.88
458.598	74.88
458.818	79.88
459.038	70.88
459.258	78.88
459.478	79.88
459.698	71.88
459.918	80.88
460.138	84.88
460.358	81.88
460.578	78.88
460.798	73.88
461.018	73.88
461.238	73.88
461.458	67.88
461.678	84.88
461.898	82.88
462.118	74.88
462.338	78.88
462.558	63.88
462.777	77.88
462.997	78.88
463.217	71.88
463.437	84.88
463.657	72.88
463.876	76.88
464.096	82.88
464.316	76.88
464.536	85.88
464.755	91.88
464.975	71.88
465.195	93.88
465.414	84.88
465.634	85.88
465.854	95.88
466.073	101.88
466.293	79.88
466.512	72.88
466.732	83.88
466.951	78.88
467.171	86.88
467.391	68.88
467.61	92.88
467.829	92.88
468.049	92.88
468.268	79.88
468.488	90.88
468.707	99.88
468.927	87.88
469.146	87.88
469.365	85.88
469.585	72.88
469.804	96.88
470.023	78.88
470.243	83.88
470.462	100.88
470.681	89.88
470.901	81.88
471.12	83.88
471.339	86.88
471.558	88.88
471.777	75.88
471.997	92.88
472.216	81.88
472.435	89.88
472.654	80.88
472.873	82.88
473.092	78.88
473.311	73.88
473.53	93.88
473.749	80.88
473.968	89.88
474.187	83.88
474.406	72.88
474.625	83.88
474.844	90.88
475.063	81.88
475.282	78.88
475.501	88.88
475.72	85.88
475.939	86.88
476.158	74.88
476.377	80.88
476.596	65.88
476.814	82.88
477.033	90.88
477.252	77.88
477.471	78.88
477.69	80.88
477.908	90.88
478.127	83.88
478.346	84.88
478.564	68.88
478.783	81.88
479.002	95.88
479.22	74.88
479.439	72.88
479.658	71.88
479.876	80.88
480.095	86.88
480.313	86.88
480.532	76.88
480.751	92.88
480.969	80.88
481.188	87.88
481.406	82.88
481.624	80.88
481.843	84.88
482.061	57.88
482.28	80.88
482.498	85.88
482.717	78.88
482.935	79.88
483.153	81.88
483.372	89.88
483.59	97.88
483.808	91.88
484.027	94.88
484.245	81.88
484.463	93.88
484.681	105.88
484.9	89.88
485.118	84.88
485.336	80.88
485.554	82.88
485.772	77.88
485.99	82.88
486.209	83.88
486.427	88.88
486.645	77.88
486.863	88.88
487.081	90.88
487.299	97.88
487.517	116.88
487.735	76.88
487.953	98.88
488.171	89.88
488.389	85.88
488.607	79.88
488.825	89.88
489.043	67.88
489.261	90.88
489.479	84.88
489.696	87.88
489.914	95.88
490.132	88.88
490.35	90.88
490.568	85.88
490.786	88.88
491.003	97.88
491.221	113.88
491.439	99.88
491.657	94.88
491.874	97.88
492.092	90.88
492.31	116.88
492.527	99.88
492.745	99.88
492.963	93.88
493.18	90.88
493.398	90.88
493.615	86.88
493.833	92.88
494.05	105.88
494.268	83.88
494.485	84.88
494.703	103.88
494.92	85.88
495.138	92.88
495.355	93.88
495.573	95.88
495.79	68.88
496.008	86.88
496.225	95.88
496.442	86.88
496.66	91.88
496.877	94.88
497.094	96.88
497.312	89.88
497.529	97.88
497.746	85.88
497.963	92.88
498.181	90.88
498.398	89.88
498.615	100.88
498.832	81.88
499.049	90.88
499.267	87.88
499.484	88.88
499.701	85.88
499.918	89.88
500.135	83.88
500.352	90.88
500.569	89.88
500.786	87.88
501.003	92.88
501.22	73.88
501.437	84.88
501.654	101.88
501.871	82.88
502.088	81.88
502.305	92.88
502.522	79.88
502.739	93.88
502.956	76.88
503.172	85.88
503.389	79.88
503.606	70.88
503.823	82.88
504.04	93.88
504.256	94.88
504.473	89.88
504.69	86.88
504.907	89.88
505.123	82.88
505.34	90.88
505.557	78.88
505.773	103.88
505.99	84.88
506.207	92.88
506.423	72.88
506.64	88.88
506.856	72.88
507.073	72.88
507.289	106.88
507.506	71.88
507.722	82.88
507.939	66.88
508.155	83.88
508.372	80.88
508.588	91.88
508.805	86.88
509.021	74.88
509.238	89.88
509.454	76.88
509.67	80.88
509.887	80.88
510.103	83.88
510.319	82.88
510.536	74.88
510.752	78.88
510.968	84.88
511.184	72.88
511.401	76.88
511.617	72.88
511.833	79.88
512.049	77.88
512.265	93.88
512.481	80.88
512.698	74.88
512.914	86.88
513.13	83.88
513.346	74.88
513.562	90.88
513.778	81.88
513.994	89.88
514.21	83.88
514.426	77.88
514.642	81.88
514.858	72.88
515.074	78.88
515.29	80.88
515.506	77.88
515.721	80.88
515.937	93.88
516.153	88.88
516.369	78.88
516.585	78.88
516.801	87.88
517.016	82.88
517.232	93.88
517.448	80.88
517.664	79.88
517.879	73.88
518.095	81.88
518.311	91.88
518.527	77.88
518.742	72.88
518.958	77.88
519.173	93.88
