Data from Zn(NO3)2Standard.Agarose3%.GreenCap.LampEnergy10E.O_HRD10591_15-06-10-942.txt Node
Date: Mon Jul 22 15:06:10 EDT 2019
User: cochatt
Spectrometer: HR+D1059
Trigger mode: 1
Integration Time (sec): 1.000000E-1
Scans to average: 1
Electric dark correction enabled: true
Nonlinearity correction enabled: false
Boxcar width: 0
XAxis mode: Wavelengths
Number of Pixels in Spectrum: 2048
>>>>>Begin Spectral Data<<<<<
223.165	-2.56
223.4	-2.56
223.635	-2.56
223.869	-15.56
224.104	-23.56
224.338	-2.56
224.573	-21.56
224.808	-23.56
225.042	-7.56
225.277	-10.56
225.511	-22.56
225.746	4.44
225.98	14.44
226.215	21.44
226.449	14.44
226.683	14.44
226.918	37.44
227.152	23.44
227.387	38.44
227.621	35.44
227.856	39.44
228.09	46.44
228.324	61.44
228.559	44.44
228.793	59.44
229.027	51.44
229.262	76.44
229.496	73.44
229.73	74.44
229.964	54.44
230.199	67.44
230.433	71.44
230.667	79.44
230.901	82.44
231.136	84.44
231.37	75.44
231.604	84.44
231.838	79.44
232.072	94.44
232.306	80.44
232.541	87.44
232.775	81.44
233.009	87.44
233.243	86.44
233.477	72.44
233.711	76.44
233.945	88.44
234.179	85.44
234.413	82.44
234.647	77.44
234.881	74.44
235.115	72.44
235.349	85.44
235.583	76.44
235.817	71.44
236.051	74.44
236.285	76.44
236.519	80.44
236.753	89.44
236.987	79.44
237.221	82.44
237.455	74.44
237.689	65.44
237.922	75.44
238.156	77.44
238.39	72.44
238.624	63.44
238.858	73.44
239.091	85.44
239.325	72.44
239.559	77.44
239.793	90.44
240.027	78.44
240.26	89.44
240.494	89.44
240.728	77.44
240.961	76.44
241.195	77.44
241.429	66.44
241.662	74.44
241.896	77.44
242.13	71.44
242.363	81.44
242.597	77.44
242.83	77.44
243.064	66.44
243.298	75.44
243.531	77.44
243.765	66.44
243.998	79.44
244.232	79.44
244.465	77.44
244.699	68.44
244.932	67.44
245.166	73.44
245.399	81.44
245.633	59.44
245.866	74.44
246.099	83.44
246.333	77.44
246.566	69.44
246.8	75.44
247.033	76.44
247.266	76.44
247.5	81.44
247.733	80.44
247.966	80.44
248.2	79.44
248.433	80.44
248.666	83.44
248.899	84.44
249.133	87.44
249.366	72.44
249.599	89.44
249.832	64.44
250.066	69.44
250.299	70.44
250.532	88.44
250.765	85.44
250.998	82.44
251.231	76.44
251.465	91.44
251.698	76.44
251.931	80.44
252.164	73.44
252.397	76.44
252.63	85.44
252.863	68.44
253.096	74.44
253.329	86.44
253.562	81.44
253.795	83.44
254.028	71.44
254.261	71.44
254.494	69.44
254.727	89.44
254.96	69.44
255.193	85.44
255.426	81.44
255.659	87.44
255.892	68.44
256.124	86.44
256.357	74.44
256.59	91.44
256.823	96.44
257.056	72.44
257.289	85.44
257.521	89.44
257.754	80.44
257.987	71.44
258.22	87.44
258.452	75.44
258.685	85.44
258.918	84.44
259.151	94.44
259.383	81.44
259.616	69.44
259.849	77.44
260.081	78.44
260.314	74.44
260.547	62.44
260.779	66.44
261.012	75.44
261.244	74.44
261.477	85.44
261.71	75.44
261.942	84.44
262.175	91.44
262.407	75.44
262.64	88.44
262.872	83.44
263.105	95.44
263.337	82.44
263.57	72.44
263.802	69.44
264.035	65.44
264.267	77.44
264.499	81.44
264.732	90.44
264.964	96.44
265.197	77.44
265.429	89.44
265.661	90.44
265.894	82.44
266.126	86.44
266.358	82.44
266.591	71.44
266.823	91.44
267.055	77.44
267.287	80.44
267.52	86.44
267.752	75.44
267.984	73.44
268.216	85.44
268.448	78.44
268.681	68.44
268.913	72.44
269.145	80.44
269.377	80.44
269.609	80.44
269.841	86.44
270.073	93.44
270.306	87.44
270.538	95.44
270.77	69.44
271.002	91.44
271.234	85.44
271.466	77.44
271.698	91.44
271.93	83.44
272.162	73.44
272.394	84.44
272.626	90.44
272.858	76.44
273.09	87.44
273.322	84.44
273.553	83.44
273.785	97.44
274.017	84.44
274.249	73.44
274.481	81.44
274.713	72.44
274.945	75.44
275.176	77.44
275.408	72.44
275.64	83.44
275.872	84.44
276.104	84.44
276.335	84.44
276.567	91.44
276.799	78.44
277.031	83.44
277.262	74.44
277.494	73.44
277.726	90.44
277.957	72.44
278.189	88.44
278.421	75.44
278.652	95.44
278.884	102.44
279.115	84.44
279.347	81.44
279.579	83.44
279.81	87.44
280.042	70.44
280.273	83.44
280.505	79.44
280.736	80.44
280.968	84.44
281.199	81.44
281.431	85.44
281.662	81.44
281.894	100.44
282.125	74.44
282.356	82.44
282.588	77.44
282.819	83.44
283.051	68.44
283.282	69.44
283.513	96.44
283.745	83.44
283.976	82.44
284.207	77.44
284.439	76.44
284.67	90.44
284.901	63.44
285.132	75.44
285.364	76.44
285.595	68.44
285.826	84.44
286.057	72.44
286.288	84.44
286.52	96.44
286.751	83.44
286.982	80.44
287.213	66.44
287.444	82.44
287.675	79.44
287.906	94.44
288.138	93.44
288.369	105.44
288.6	86.44
288.831	76.44
289.062	76.44
289.293	95.44
289.524	88.44
289.755	77.44
289.986	75.44
290.217	93.44
290.448	73.44
290.679	82.44
290.91	76.44
291.141	76.44
291.371	86.44
291.602	87.44
291.833	85.44
292.064	74.44
292.295	93.44
292.526	87.44
292.757	81.44
292.987	98.44
293.218	88.44
293.449	92.44
293.68	83.44
293.91	75.44
294.141	85.44
294.372	85.44
294.603	81.44
294.833	87.44
295.064	84.44
295.295	84.44
295.525	78.44
295.756	83.44
295.987	76.44
296.217	79.44
296.448	73.44
296.679	73.44
296.909	99.44
297.14	86.44
297.37	98.44
297.601	93.44
297.831	83.44
298.062	87.44
298.292	89.44
298.523	92.44
298.753	75.44
298.984	75.44
299.214	81.44
299.445	84.44
299.675	73.44
299.905	85.44
300.136	84.44
300.366	69.44
300.597	84.44
300.827	77.44
301.057	87.44
301.288	83.44
301.518	77.44
301.748	77.44
301.979	84.44
302.209	99.44
302.439	88.44
302.669	75.44
302.9	65.44
303.13	74.44
303.36	95.44
303.59	79.44
303.82	88.44
304.051	95.44
304.281	91.44
304.511	85.44
304.741	83.44
304.971	83.44
305.201	86.44
305.431	100.44
305.661	84.44
305.891	69.44
306.121	83.44
306.352	91.44
306.582	81.44
306.812	73.44
307.042	85.44
307.272	80.44
307.502	83.44
307.731	80.44
307.961	104.44
308.191	83.44
308.421	84.44
308.651	75.44
308.881	91.44
309.111	84.44
309.341	87.44
309.571	87.44
309.8	89.44
310.03	74.44
310.26	77.44
310.49	77.44
310.72	87.44
310.949	96.44
311.179	73.44
311.409	86.44
311.639	85.44
311.868	78.44
312.098	75.44
312.328	98.44
312.557	85.44
312.787	93.44
313.017	77.44
313.246	84.44
313.476	88.44
313.706	82.44
313.935	67.44
314.165	77.44
314.394	92.44
314.624	86.44
314.853	80.44
315.083	94.44
315.312	90.44
315.542	67.44
315.771	98.44
316.001	92.44
316.23	96.44
316.46	82.44
316.689	82.44
316.919	70.44
317.148	77.44
317.377	78.44
317.607	77.44
317.836	93.44
318.065	93.44
318.295	75.44
318.524	86.44
318.753	87.44
318.983	92.44
319.212	81.44
319.441	81.44
319.67	69.44
319.9	88.44
320.129	106.44
320.358	84.44
320.587	90.44
320.816	88.44
321.046	77.44
321.275	71.44
321.504	84.44
321.733	63.44
321.962	73.44
322.191	91.44
322.42	76.44
322.649	77.44
322.878	92.44
323.108	96.44
323.337	83.44
323.566	81.44
323.795	83.44
324.024	81.44
324.253	82.44
324.482	78.44
324.71	80.44
324.939	85.44
325.168	69.44
325.397	92.44
325.626	99.44
325.855	89.44
326.084	76.44
326.313	92.44
326.542	93.44
326.77	82.44
326.999	95.44
327.228	82.44
327.457	90.44
327.686	72.44
327.914	83.44
328.143	101.44
328.372	95.44
328.6	96.44
328.829	93.44
329.058	83.44
329.287	85.44
329.515	90.44
329.744	96.44
329.972	80.44
330.201	76.44
330.43	82.44
330.658	84.44
330.887	74.44
331.115	92.44
331.344	80.44
331.572	95.44
331.801	90.44
332.03	70.44
332.258	72.44
332.486	78.44
332.715	85.44
332.943	76.44
333.172	94.44
333.4	81.44
333.629	88.44
333.857	99.44
334.085	90.44
334.314	94.44
334.542	91.44
334.771	86.44
334.999	84.44
335.227	91.44
335.455	83.44
335.684	82.44
335.912	77.44
336.14	92.44
336.369	74.44
336.597	77.44
336.825	84.44
337.053	87.44
337.281	93.44
337.51	84.44
337.738	97.44
337.966	87.44
338.194	93.44
338.422	96.44
338.65	99.44
338.878	75.44
339.106	79.44
339.334	90.44
339.562	76.44
339.79	71.44
340.018	83.44
340.246	81.44
340.474	69.44
340.702	93.44
340.93	77.44
341.158	85.44
341.386	82.44
341.614	71.44
341.842	92.44
342.07	99.44
342.298	85.44
342.526	81.44
342.754	85.44
342.981	78.44
343.209	74.44
343.437	95.44
343.665	89.44
343.893	76.44
344.12	88.44
344.348	83.44
344.576	89.44
344.804	84.44
345.031	80.44
345.259	78.44
345.487	93.44
345.714	87.44
345.942	89.44
346.17	72.44
346.397	92.44
346.625	85.44
346.853	89.44
347.08	95.44
347.308	76.44
347.535	87.44
347.763	78.44
347.99	81.44
348.218	86.44
348.445	89.44
348.673	86.44
348.9	94.44
349.128	95.44
349.355	76.44
349.583	96.44
349.81	80.44
350.037	83.44
350.265	76.44
350.492	81.44
350.72	92.44
350.947	90.44
351.174	74.44
351.402	94.44
351.629	85.44
351.856	78.44
352.083	77.44
352.311	86.44
352.538	77.44
352.765	77.44
352.992	74.44
353.22	83.44
353.447	93.44
353.674	84.44
353.901	87.44
354.128	66.44
354.355	86.44
354.583	89.44
354.81	82.44
355.037	86.44
355.264	93.44
355.491	76.44
355.718	80.44
355.945	75.44
356.172	75.44
356.399	76.44
356.626	93.44
356.853	77.44
357.08	77.44
357.307	81.44
357.534	76.44
357.761	67.44
357.988	83.44
358.215	91.44
358.441	94.44
358.668	76.44
358.895	83.44
359.122	88.44
359.349	81.44
359.576	89.44
359.802	76.44
360.029	72.44
360.256	73.44
360.483	80.44
360.709	76.44
360.936	77.44
361.163	77.44
361.39	73.44
361.616	86.44
361.843	88.44
362.07	90.44
362.296	81.44
362.523	59.44
362.749	76.44
362.976	76.44
363.203	75.44
363.429	95.44
363.656	88.44
363.882	83.44
364.109	79.44
364.335	80.44
364.562	65.44
364.788	68.44
365.015	87.44
365.241	80.44
365.468	83.44
365.694	68.44
365.92	82.44
366.147	75.44
366.373	86.44
366.599	77.44
366.826	84.44
367.052	89.44
367.278	94.44
367.505	92.44
367.731	82.44
367.957	89.44
368.184	79.44
368.41	74.44
368.636	82.44
368.862	100.44
369.089	74.44
369.315	73.44
369.541	87.44
369.767	87.44
369.993	97.44
370.219	82.44
370.445	75.44
370.672	85.44
370.898	85.44
371.124	88.44
371.35	99.44
371.576	83.44
371.802	81.44
372.028	91.44
372.254	101.44
372.48	88.44
372.706	76.44
372.932	79.44
373.158	92.44
373.384	76.44
373.61	75.44
373.835	75.44
374.061	75.44
374.287	93.44
374.513	76.44
374.739	87.44
374.965	102.44
375.191	87.44
375.416	85.44
375.642	87.44
375.868	71.44
376.094	87.44
376.319	95.44
376.545	89.44
376.771	99.44
376.997	85.44
377.222	80.44
377.448	98.44
377.674	81.44
377.899	94.44
378.125	89.44
378.35	100.44
378.576	88.44
378.802	79.44
379.027	87.44
379.253	99.44
379.478	83.44
379.704	88.44
379.929	67.44
380.155	73.44
380.38	86.44
380.606	83.44
380.831	78.44
381.057	99.44
381.282	88.44
381.507	87.44
381.733	83.44
381.958	87.44
382.184	83.44
382.409	83.44
382.634	92.44
382.86	86.44
383.085	92.44
383.31	90.44
383.535	114.44
383.761	86.44
383.986	87.44
384.211	75.44
384.436	87.44
384.662	95.44
384.887	89.44
385.112	86.44
385.337	82.44
385.562	97.44
385.787	92.44
386.013	88.44
386.238	88.44
386.463	90.44
386.688	96.44
386.913	86.44
387.138	89.44
387.363	93.44
387.588	107.44
387.813	86.44
388.038	82.44
388.263	89.44
388.488	81.44
388.713	86.44
388.938	83.44
389.163	79.44
389.387	93.44
389.612	82.44
389.837	79.44
390.062	102.44
390.287	91.44
390.512	98.44
390.736	85.44
390.961	97.44
391.186	97.44
391.411	86.44
391.636	96.44
391.86	104.44
392.085	100.44
392.31	100.44
392.534	93.44
392.759	83.44
392.984	81.44
393.208	85.44
393.433	104.44
393.658	90.44
393.882	73.44
394.107	88.44
394.331	101.44
394.556	86.44
394.78	92.44
395.005	93.44
395.229	84.44
395.454	96.44
395.678	89.44
395.903	91.44
396.127	101.44
396.352	106.44
396.576	87.44
396.801	79.44
397.025	92.44
397.249	89.44
397.474	94.44
397.698	97.44
397.922	101.44
398.147	95.44
398.371	85.44
398.595	85.44
398.82	87.44
399.044	89.44
399.268	109.44
399.492	96.44
399.717	95.44
399.941	89.44
400.165	95.44
400.389	87.44
400.613	96.44
400.837	90.44
401.062	83.44
401.286	89.44
401.51	109.44
401.734	89.44
401.958	83.44
402.182	92.44
402.406	91.44
402.63	103.44
402.854	85.44
403.078	83.44
403.302	92.44
403.526	104.44
403.75	87.44
403.974	90.44
404.198	117.44
404.422	93.44
404.645	86.44
404.869	87.44
405.093	103.44
405.317	102.44
405.541	87.44
405.765	97.44
405.988	99.44
406.212	87.44
406.436	80.44
406.66	102.44
406.883	95.44
407.107	99.44
407.331	89.44
407.555	100.44
407.778	113.44
408.002	94.44
408.226	97.44
408.449	96.44
408.673	103.44
408.896	84.44
409.12	92.44
409.344	92.44
409.567	106.44
409.791	103.44
410.014	96.44
410.238	88.44
410.461	100.44
410.685	91.44
410.908	97.44
411.132	98.44
411.355	107.44
411.578	100.44
411.802	102.44
412.025	100.44
412.249	98.44
412.472	95.44
412.695	93.44
412.919	116.44
413.142	102.44
413.365	97.44
413.589	91.44
413.812	92.44
414.035	90.44
414.258	97.44
414.482	95.44
414.705	102.44
414.928	91.44
415.151	104.44
415.374	96.44
415.597	93.44
415.821	114.44
416.044	106.44
416.267	104.44
416.49	97.44
416.713	102.44
416.936	98.44
417.159	91.44
417.382	100.44
417.605	104.44
417.828	104.44
418.051	79.44
418.274	103.44
418.497	99.44
418.72	109.44
418.943	113.44
419.166	99.44
419.389	98.44
419.611	99.44
419.834	93.44
420.057	98.44
420.28	111.44
420.503	121.44
420.726	104.44
420.948	92.44
421.171	112.44
421.394	111.44
421.617	97.44
421.839	99.44
422.062	87.44
422.285	96.44
422.507	88.44
422.73	101.44
422.953	93.44
423.175	111.44
423.398	99.44
423.621	108.44
423.843	111.44
424.066	99.44
424.288	92.44
424.511	106.44
424.733	116.44
424.956	111.44
425.178	115.44
425.401	117.44
425.623	103.44
425.846	111.44
426.068	91.44
426.291	101.44
426.513	106.44
426.735	115.44
426.958	96.44
427.18	103.44
427.402	106.44
427.625	105.44
427.847	106.44
428.069	102.44
428.292	99.44
428.514	98.44
428.736	93.44
428.958	103.44
429.181	101.44
429.403	107.44
429.625	98.44
429.847	103.44
430.069	115.44
430.292	102.44
430.514	111.44
430.736	115.44
430.958	106.44
431.18	79.44
431.402	95.44
431.624	101.44
431.846	95.44
432.068	93.44
432.29	92.44
432.512	103.44
432.734	90.44
432.956	95.44
433.178	106.44
433.4	102.44
433.622	105.44
433.844	103.44
434.066	105.44
434.287	105.44
434.509	72.44
434.731	100.44
434.953	86.44
435.175	102.44
435.397	108.44
435.618	97.44
435.84	97.44
436.062	99.44
436.284	101.44
436.505	97.44
436.727	100.44
436.949	98.44
437.17	111.44
437.392	101.44
437.614	94.44
437.835	86.44
438.057	76.44
438.278	94.44
438.5	91.44
438.721	102.44
438.943	115.44
439.165	105.44
439.386	99.44
439.608	113.44
439.829	97.44
440.05	97.44
440.272	120.44
440.493	100.44
440.715	117.44
440.936	110.44
441.158	126.44
441.379	98.44
441.6	122.44
441.822	116.44
442.043	118.44
442.264	103.44
442.486	109.44
442.707	103.44
442.928	105.44
443.149	105.44
443.371	105.44
443.592	107.44
443.813	119.44
444.034	107.44
444.255	108.44
444.476	120.44
444.698	104.44
444.919	108.44
445.14	213.44
445.361	167.44
445.582	106.44
445.803	112.44
446.024	120.44
446.245	107.44
446.466	127.44
446.687	119.44
446.908	102.44
447.129	133.44
447.35	110.44
447.571	103.44
447.792	124.44
448.013	103.44
448.234	89.44
448.455	99.44
448.675	105.44
448.896	108.44
449.117	107.44
449.338	89.44
449.559	97.44
449.779	84.44
450	99.44
450.221	107.44
450.442	114.44
450.662	102.44
450.883	94.44
451.104	105.44
451.324	122.44
451.545	99.44
451.766	108.44
451.986	100.44
452.207	92.44
452.428	106.44
452.648	104.44
452.869	108.44
453.089	105.44
453.31	96.44
453.53	91.44
453.751	87.44
453.971	104.44
454.192	97.44
454.412	97.44
454.633	102.44
454.853	107.44
455.073	92.44
455.294	98.44
455.514	105.44
455.734	107.44
455.955	104.44
456.175	104.44
456.395	92.44
456.616	119.44
456.836	89.44
457.056	92.44
457.276	89.44
457.497	92.44
457.717	83.44
457.937	98.44
458.157	88.44
458.377	98.44
458.598	103.44
458.818	94.44
459.038	96.44
459.258	94.44
459.478	101.44
459.698	89.44
459.918	87.44
460.138	98.44
460.358	113.44
460.578	104.44
460.798	102.44
461.018	104.44
461.238	101.44
461.458	95.44
461.678	92.44
461.898	103.44
462.118	103.44
462.338	98.44
462.558	102.44
462.777	102.44
462.997	104.44
463.217	109.44
463.437	89.44
463.657	98.44
463.876	89.44
464.096	106.44
464.316	101.44
464.536	90.44
464.755	99.44
464.975	95.44
465.195	104.44
465.414	92.44
465.634	102.44
465.854	89.44
466.073	100.44
466.293	105.44
466.512	113.44
466.732	101.44
466.951	103.44
467.171	103.44
467.391	97.44
467.61	103.44
467.829	129.44
468.049	101.44
468.268	123.44
468.488	112.44
468.707	99.44
468.927	103.44
469.146	115.44
469.365	105.44
469.585	106.44
469.804	120.44
470.023	105.44
470.243	123.44
470.462	107.44
470.681	111.44
470.901	112.44
471.12	97.44
471.339	115.44
471.558	113.44
471.777	98.44
471.997	115.44
472.216	116.44
472.435	105.44
472.654	86.44
472.873	98.44
473.092	99.44
473.311	105.44
473.53	112.44
473.749	105.44
473.968	99.44
474.187	106.44
474.406	112.44
474.625	115.44
474.844	105.44
475.063	101.44
475.282	92.44
475.501	103.44
475.72	103.44
475.939	105.44
476.158	98.44
476.377	103.44
476.596	100.44
476.814	97.44
477.033	93.44
477.252	85.44
477.471	104.44
477.69	103.44
477.908	110.44
478.127	117.44
478.346	102.44
478.564	111.44
478.783	111.44
479.002	113.44
479.22	107.44
479.439	116.44
479.658	93.44
479.876	77.44
480.095	99.44
480.313	100.44
480.532	89.44
480.751	100.44
480.969	83.44
481.188	84.44
481.406	97.44
481.624	99.44
481.843	98.44
482.061	92.44
482.28	82.44
482.498	103.44
482.717	85.44
482.935	95.44
483.153	115.44
483.372	131.44
483.59	130.44
483.808	98.44
484.027	116.44
484.245	103.44
484.463	103.44
484.681	106.44
484.9	102.44
485.118	119.44
485.336	99.44
485.554	96.44
485.772	85.44
485.99	98.44
486.209	96.44
486.427	99.44
486.645	96.44
486.863	109.44
487.081	109.44
487.299	116.44
487.517	118.44
487.735	121.44
487.953	124.44
488.171	154.44
488.389	116.44
488.607	120.44
488.825	103.44
489.043	104.44
489.261	115.44
489.479	109.44
489.696	119.44
489.914	112.44
490.132	105.44
490.35	120.44
490.568	126.44
490.786	114.44
491.003	117.44
491.221	131.44
491.439	127.44
491.657	143.44
491.874	148.44
492.092	147.44
492.31	147.44
492.527	147.44
492.745	131.44
492.963	138.44
493.18	131.44
493.398	130.44
493.615	131.44
493.833	129.44
494.05	118.44
494.268	121.44
494.485	138.44
494.703	117.44
494.92	129.44
495.138	124.44
495.355	133.44
495.573	117.44
495.79	129.44
496.008	125.44
496.225	118.44
496.442	120.44
496.66	112.44
496.877	123.44
497.094	117.44
497.312	120.44
497.529	129.44
497.746	120.44
497.963	104.44
498.181	100.44
498.398	106.44
498.615	104.44
498.832	98.44
499.049	113.44
499.267	107.44
499.484	102.44
499.701	108.44
499.918	122.44
500.135	105.44
500.352	117.44
500.569	100.44
500.786	122.44
501.003	119.44
501.22	119.44
501.437	117.44
501.654	108.44
501.871	100.44
502.088	106.44
502.305	104.44
502.522	98.44
502.739	92.44
502.956	108.44
503.172	100.44
503.389	105.44
503.606	103.44
503.823	84.44
504.04	120.44
504.256	107.44
504.473	94.44
504.69	96.44
504.907	101.44
505.123	97.44
505.34	103.44
505.557	101.44
505.773	105.44
505.99	98.44
506.207	111.44
506.423	107.44
506.64	106.44
506.856	99.44
507.073	118.44
507.289	111.44
507.506	99.44
507.722	108.44
507.939	96.44
508.155	107.44
508.372	114.44
508.588	98.44
508.805	91.44
509.021	76.44
509.238	99.44
509.454	96.44
509.67	88.44
509.887	81.44
510.103	87.44
510.319	91.44
510.536	83.44
510.752	76.44
510.968	84.44
511.184	87.44
511.401	83.44
511.617	73.44
511.833	86.44
512.049	81.44
512.265	92.44
512.481	87.44
512.698	87.44
512.914	89.44
513.13	84.44
513.346	91.44
513.562	93.44
513.778	96.44
513.994	83.44
514.21	76.44
514.426	85.44
514.642	88.44
514.858	95.44
