Data from Zn(NO3)2Standard.Agarose3%.GreenCap.LampEnergy10E.O_HRD10591_15-08-28-949.txt Node
Date: Mon Jul 22 15:08:28 EDT 2019
User: cochatt
Spectrometer: HR+D1059
Trigger mode: 1
Integration Time (sec): 1.000000E-1
Scans to average: 1
Electric dark correction enabled: true
Nonlinearity correction enabled: false
Boxcar width: 0
XAxis mode: Wavelengths
Number of Pixels in Spectrum: 2048
>>>>>Begin Spectral Data<<<<<
223.165	-37.19
223.4	-37.19
223.635	-37.19
223.869	-14.19
224.104	-13.19
224.338	-9.19
224.573	-13.19
224.808	-8.19
225.042	-2.19
225.277	-11.19
225.511	-0.19
225.746	6.81
225.98	5.81
226.215	15.81
226.449	12.81
226.683	24.81
226.918	17.81
227.152	24.81
227.387	25.81
227.621	36.81
227.856	55.81
228.09	36.81
228.324	42.81
228.559	55.81
228.793	57.81
229.027	53.81
229.262	59.81
229.496	69.81
229.73	62.81
229.964	73.81
230.199	76.81
230.433	74.81
230.667	75.81
230.901	71.81
231.136	56.81
231.37	80.81
231.604	81.81
231.838	74.81
232.072	93.81
232.306	73.81
232.541	79.81
232.775	80.81
233.009	75.81
233.243	90.81
233.477	83.81
233.711	91.81
233.945	71.81
234.179	85.81
234.413	77.81
234.647	70.81
234.881	77.81
235.115	83.81
235.349	75.81
235.583	82.81
235.817	76.81
236.051	77.81
236.285	66.81
236.519	67.81
236.753	73.81
236.987	69.81
237.221	77.81
237.455	85.81
237.689	79.81
237.922	72.81
238.156	66.81
238.39	81.81
238.624	72.81
238.858	76.81
239.091	75.81
239.325	70.81
239.559	88.81
239.793	76.81
240.027	88.81
240.26	57.81
240.494	67.81
240.728	66.81
240.961	73.81
241.195	56.81
241.429	80.81
241.662	69.81
241.896	74.81
242.13	96.81
242.363	75.81
242.597	70.81
242.83	81.81
243.064	83.81
243.298	84.81
243.531	82.81
243.765	70.81
243.998	75.81
244.232	68.81
244.465	81.81
244.699	70.81
244.932	65.81
245.166	79.81
245.399	72.81
245.633	67.81
245.866	74.81
246.099	87.81
246.333	76.81
246.566	89.81
246.8	74.81
247.033	68.81
247.266	90.81
247.5	72.81
247.733	76.81
247.966	79.81
248.2	75.81
248.433	81.81
248.666	80.81
248.899	72.81
249.133	81.81
249.366	90.81
249.599	79.81
249.832	77.81
250.066	95.81
250.299	74.81
250.532	75.81
250.765	63.81
250.998	79.81
251.231	76.81
251.465	82.81
251.698	76.81
251.931	83.81
252.164	87.81
252.397	79.81
252.63	78.81
252.863	77.81
253.096	85.81
253.329	83.81
253.562	61.81
253.795	82.81
254.028	78.81
254.261	77.81
254.494	81.81
254.727	73.81
254.96	84.81
255.193	89.81
255.426	76.81
255.659	91.81
255.892	85.81
256.124	74.81
256.357	66.81
256.59	72.81
256.823	69.81
257.056	71.81
257.289	78.81
257.521	78.81
257.754	67.81
257.987	82.81
258.22	79.81
258.452	75.81
258.685	83.81
258.918	72.81
259.151	83.81
259.383	72.81
259.616	69.81
259.849	92.81
260.081	90.81
260.314	78.81
260.547	84.81
260.779	91.81
261.012	91.81
261.244	85.81
261.477	97.81
261.71	81.81
261.942	76.81
262.175	89.81
262.407	73.81
262.64	73.81
262.872	83.81
263.105	78.81
263.337	77.81
263.57	77.81
263.802	90.81
264.035	86.81
264.267	77.81
264.499	86.81
264.732	100.81
264.964	62.81
265.197	84.81
265.429	84.81
265.661	78.81
265.894	76.81
266.126	95.81
266.358	73.81
266.591	80.81
266.823	91.81
267.055	60.81
267.287	83.81
267.52	79.81
267.752	76.81
267.984	80.81
268.216	81.81
268.448	80.81
268.681	93.81
268.913	85.81
269.145	68.81
269.377	87.81
269.609	74.81
269.841	78.81
270.073	79.81
270.306	89.81
270.538	70.81
270.77	83.81
271.002	97.81
271.234	89.81
271.466	71.81
271.698	72.81
271.93	80.81
272.162	72.81
272.394	82.81
272.626	89.81
272.858	67.81
273.09	77.81
273.322	77.81
273.553	83.81
273.785	97.81
274.017	96.81
274.249	82.81
274.481	83.81
274.713	87.81
274.945	80.81
275.176	89.81
275.408	75.81
275.64	85.81
275.872	81.81
276.104	82.81
276.335	83.81
276.567	70.81
276.799	88.81
277.031	90.81
277.262	95.81
277.494	69.81
277.726	73.81
277.957	86.81
278.189	85.81
278.421	87.81
278.652	104.81
278.884	79.81
279.115	84.81
279.347	75.81
279.579	85.81
279.81	88.81
280.042	85.81
280.273	81.81
280.505	76.81
280.736	92.81
280.968	92.81
281.199	94.81
281.431	83.81
281.662	76.81
281.894	87.81
282.125	88.81
282.356	89.81
282.588	85.81
282.819	91.81
283.051	90.81
283.282	74.81
283.513	98.81
283.745	89.81
283.976	83.81
284.207	82.81
284.439	85.81
284.67	81.81
284.901	84.81
285.132	89.81
285.364	94.81
285.595	81.81
285.826	79.81
286.057	75.81
286.288	84.81
286.52	74.81
286.751	86.81
286.982	80.81
287.213	87.81
287.444	78.81
287.675	81.81
287.906	91.81
288.138	87.81
288.369	79.81
288.6	82.81
288.831	79.81
289.062	78.81
289.293	78.81
289.524	71.81
289.755	91.81
289.986	72.81
290.217	92.81
290.448	84.81
290.679	94.81
290.91	92.81
291.141	91.81
291.371	80.81
291.602	83.81
291.833	69.81
292.064	89.81
292.295	84.81
292.526	84.81
292.757	73.81
292.987	104.81
293.218	91.81
293.449	84.81
293.68	83.81
293.91	71.81
294.141	98.81
294.372	81.81
294.603	85.81
294.833	90.81
295.064	85.81
295.295	89.81
295.525	83.81
295.756	65.81
295.987	74.81
296.217	86.81
296.448	103.81
296.679	77.81
296.909	94.81
297.14	97.81
297.37	100.81
297.601	79.81
297.831	86.81
298.062	90.81
298.292	86.81
298.523	77.81
298.753	91.81
298.984	75.81
299.214	87.81
299.445	91.81
299.675	93.81
299.905	90.81
300.136	82.81
300.366	81.81
300.597	80.81
300.827	82.81
301.057	76.81
301.288	96.81
301.518	83.81
301.748	77.81
301.979	85.81
302.209	97.81
302.439	91.81
302.669	72.81
302.9	89.81
303.13	85.81
303.36	92.81
303.59	93.81
303.82	92.81
304.051	79.81
304.281	93.81
304.511	85.81
304.741	92.81
304.971	98.81
305.201	79.81
305.431	77.81
305.661	84.81
305.891	87.81
306.121	78.81
306.352	92.81
306.582	77.81
306.812	76.81
307.042	99.81
307.272	96.81
307.502	83.81
307.731	88.81
307.961	93.81
308.191	71.81
308.421	83.81
308.651	82.81
308.881	87.81
309.111	83.81
309.341	83.81
309.571	82.81
309.8	84.81
310.03	87.81
310.26	90.81
310.49	90.81
310.72	81.81
310.949	68.81
311.179	85.81
311.409	86.81
311.639	88.81
311.868	89.81
312.098	88.81
312.328	74.81
312.557	71.81
312.787	90.81
313.017	90.81
313.246	81.81
313.476	83.81
313.706	99.81
313.935	100.81
314.165	76.81
314.394	87.81
314.624	94.81
314.853	76.81
315.083	79.81
315.312	87.81
315.542	80.81
315.771	88.81
316.001	79.81
316.23	92.81
316.46	78.81
316.689	75.81
316.919	93.81
317.148	92.81
317.377	96.81
317.607	88.81
317.836	92.81
318.065	87.81
318.295	81.81
318.524	84.81
318.753	82.81
318.983	73.81
319.212	91.81
319.441	91.81
319.67	102.81
319.9	101.81
320.129	79.81
320.358	89.81
320.587	83.81
320.816	87.81
321.046	85.81
321.275	86.81
321.504	83.81
321.733	83.81
321.962	84.81
322.191	89.81
322.42	82.81
322.649	84.81
322.878	76.81
323.108	83.81
323.337	84.81
323.566	87.81
323.795	75.81
324.024	86.81
324.253	95.81
324.482	80.81
324.71	90.81
324.939	89.81
325.168	79.81
325.397	72.81
325.626	77.81
325.855	72.81
326.084	91.81
326.313	79.81
326.542	84.81
326.77	75.81
326.999	78.81
327.228	88.81
327.457	88.81
327.686	82.81
327.914	99.81
328.143	95.81
328.372	83.81
328.6	94.81
328.829	83.81
329.058	82.81
329.287	92.81
329.515	86.81
329.744	87.81
329.972	75.81
330.201	69.81
330.43	78.81
330.658	84.81
330.887	95.81
331.115	68.81
331.344	85.81
331.572	96.81
331.801	82.81
332.03	90.81
332.258	100.81
332.486	79.81
332.715	81.81
332.943	84.81
333.172	80.81
333.4	88.81
333.629	79.81
333.857	88.81
334.085	85.81
334.314	91.81
334.542	59.81
334.771	84.81
334.999	87.81
335.227	74.81
335.455	74.81
335.684	88.81
335.912	85.81
336.14	81.81
336.369	78.81
336.597	68.81
336.825	76.81
337.053	80.81
337.281	89.81
337.51	74.81
337.738	75.81
337.966	80.81
338.194	82.81
338.422	86.81
338.65	85.81
338.878	102.81
339.106	84.81
339.334	96.81
339.562	86.81
339.79	107.81
340.018	82.81
340.246	81.81
340.474	86.81
340.702	85.81
340.93	77.81
341.158	77.81
341.386	83.81
341.614	83.81
341.842	94.81
342.07	93.81
342.298	88.81
342.526	75.81
342.754	79.81
342.981	85.81
343.209	72.81
343.437	95.81
343.665	79.81
343.893	84.81
344.12	71.81
344.348	72.81
344.576	80.81
344.804	87.81
345.031	75.81
345.259	85.81
345.487	82.81
345.714	79.81
345.942	97.81
346.17	79.81
346.397	75.81
346.625	81.81
346.853	74.81
347.08	76.81
347.308	84.81
347.535	75.81
347.763	83.81
347.99	75.81
348.218	88.81
348.445	80.81
348.673	82.81
348.9	85.81
349.128	83.81
349.355	75.81
349.583	86.81
349.81	74.81
350.037	85.81
350.265	81.81
350.492	81.81
350.72	88.81
350.947	73.81
351.174	84.81
351.402	86.81
351.629	88.81
351.856	101.81
352.083	88.81
352.311	89.81
352.538	80.81
352.765	78.81
352.992	75.81
353.22	76.81
353.447	88.81
353.674	82.81
353.901	87.81
354.128	75.81
354.355	91.81
354.583	90.81
354.81	78.81
355.037	81.81
355.264	89.81
355.491	98.81
355.718	88.81
355.945	84.81
356.172	75.81
356.399	85.81
356.626	90.81
356.853	85.81
357.08	81.81
357.307	76.81
357.534	84.81
357.761	73.81
357.988	78.81
358.215	98.81
358.441	76.81
358.668	89.81
358.895	70.81
359.122	74.81
359.349	92.81
359.576	88.81
359.802	91.81
360.029	94.81
360.256	89.81
360.483	87.81
360.709	89.81
360.936	90.81
361.163	82.81
361.39	89.81
361.616	83.81
361.843	73.81
362.07	88.81
362.296	96.81
362.523	72.81
362.749	87.81
362.976	81.81
363.203	92.81
363.429	76.81
363.656	69.81
363.882	90.81
364.109	92.81
364.335	94.81
364.562	79.81
364.788	91.81
365.015	83.81
365.241	78.81
365.468	88.81
365.694	81.81
365.92	87.81
366.147	88.81
366.373	81.81
366.599	83.81
366.826	76.81
367.052	92.81
367.278	92.81
367.505	82.81
367.731	98.81
367.957	89.81
368.184	92.81
368.41	91.81
368.636	98.81
368.862	87.81
369.089	90.81
369.315	91.81
369.541	90.81
369.767	74.81
369.993	88.81
370.219	81.81
370.445	91.81
370.672	80.81
370.898	75.81
371.124	95.81
371.35	89.81
371.576	99.81
371.802	82.81
372.028	91.81
372.254	102.81
372.48	87.81
372.706	85.81
372.932	94.81
373.158	87.81
373.384	88.81
373.61	85.81
373.835	85.81
374.061	69.81
374.287	81.81
374.513	90.81
374.739	94.81
374.965	99.81
375.191	93.81
375.416	78.81
375.642	98.81
375.868	91.81
376.094	90.81
376.319	80.81
376.545	88.81
376.771	79.81
376.997	88.81
377.222	78.81
377.448	102.81
377.674	85.81
377.899	95.81
378.125	93.81
378.35	76.81
378.576	89.81
378.802	87.81
379.027	83.81
379.253	94.81
379.478	91.81
379.704	92.81
379.929	89.81
380.155	85.81
380.38	84.81
380.606	83.81
380.831	83.81
381.057	81.81
381.282	76.81
381.507	91.81
381.733	89.81
381.958	90.81
382.184	99.81
382.409	77.81
382.634	78.81
382.86	82.81
383.085	87.81
383.31	83.81
383.535	102.81
383.761	76.81
383.986	92.81
384.211	92.81
384.436	90.81
384.662	101.81
384.887	90.81
385.112	85.81
385.337	75.81
385.562	92.81
385.787	90.81
386.013	95.81
386.238	94.81
386.463	84.81
386.688	90.81
386.913	74.81
387.138	82.81
387.363	101.81
387.588	96.81
387.813	89.81
388.038	83.81
388.263	88.81
388.488	91.81
388.713	95.81
388.938	86.81
389.163	76.81
389.387	79.81
389.612	101.81
389.837	92.81
390.062	89.81
390.287	98.81
390.512	86.81
390.736	95.81
390.961	101.81
391.186	88.81
391.411	97.81
391.636	91.81
391.86	93.81
392.085	82.81
392.31	92.81
392.534	93.81
392.759	99.81
392.984	100.81
393.208	91.81
393.433	99.81
393.658	85.81
393.882	97.81
394.107	83.81
394.331	85.81
394.556	101.81
394.78	91.81
395.005	97.81
395.229	82.81
395.454	88.81
395.678	90.81
395.903	82.81
396.127	84.81
396.352	96.81
396.576	98.81
396.801	88.81
397.025	84.81
397.249	93.81
397.474	93.81
397.698	92.81
397.922	103.81
398.147	84.81
398.371	98.81
398.595	95.81
398.82	91.81
399.044	105.81
399.268	84.81
399.492	95.81
399.717	87.81
399.941	104.81
400.165	103.81
400.389	82.81
400.613	92.81
400.837	98.81
401.062	93.81
401.286	90.81
401.51	109.81
401.734	97.81
401.958	92.81
402.182	106.81
402.406	90.81
402.63	92.81
402.854	91.81
403.078	95.81
403.302	90.81
403.526	100.81
403.75	106.81
403.974	95.81
404.198	92.81
404.422	81.81
404.645	93.81
404.869	90.81
405.093	91.81
405.317	85.81
405.541	93.81
405.765	83.81
405.988	84.81
406.212	103.81
406.436	99.81
406.66	88.81
406.883	104.81
407.107	99.81
407.331	93.81
407.555	95.81
407.778	97.81
408.002	107.81
408.226	97.81
408.449	86.81
408.673	104.81
408.896	93.81
409.12	104.81
409.344	90.81
409.567	107.81
409.791	92.81
410.014	112.81
410.238	98.81
410.461	94.81
410.685	98.81
410.908	83.81
411.132	97.81
411.355	109.81
411.578	105.81
411.802	115.81
412.025	79.81
412.249	97.81
412.472	96.81
412.695	105.81
412.919	95.81
413.142	92.81
413.365	101.81
413.589	99.81
413.812	106.81
414.035	110.81
414.258	111.81
414.482	100.81
414.705	101.81
414.928	90.81
415.151	103.81
415.374	97.81
415.597	98.81
415.821	101.81
416.044	103.81
416.267	116.81
416.49	101.81
416.713	97.81
416.936	108.81
417.159	85.81
417.382	100.81
417.605	79.81
417.828	94.81
418.051	101.81
418.274	87.81
418.497	109.81
418.72	105.81
418.943	84.81
419.166	97.81
419.389	107.81
419.611	102.81
419.834	120.81
420.057	102.81
420.28	107.81
420.503	116.81
420.726	111.81
420.948	105.81
421.171	116.81
421.394	111.81
421.617	106.81
421.839	107.81
422.062	122.81
422.285	112.81
422.507	98.81
422.73	113.81
422.953	95.81
423.175	95.81
423.398	103.81
423.621	96.81
423.843	100.81
424.066	111.81
424.288	111.81
424.511	114.81
424.733	100.81
424.956	104.81
425.178	106.81
425.401	109.81
425.623	122.81
425.846	101.81
426.068	120.81
426.291	91.81
426.513	91.81
426.735	107.81
426.958	92.81
427.18	100.81
427.402	111.81
427.625	113.81
427.847	104.81
428.069	101.81
428.292	114.81
428.514	93.81
428.736	107.81
428.958	95.81
429.181	90.81
429.403	95.81
429.625	104.81
429.847	101.81
430.069	116.81
430.292	116.81
430.514	106.81
430.736	98.81
430.958	95.81
431.18	99.81
431.402	102.81
431.624	117.81
431.846	101.81
432.068	89.81
432.29	96.81
432.512	100.81
432.734	117.81
432.956	97.81
433.178	101.81
433.4	104.81
433.622	101.81
433.844	102.81
434.066	118.81
434.287	90.81
434.509	79.81
434.731	88.81
434.953	98.81
435.175	106.81
435.397	101.81
435.618	106.81
435.84	98.81
436.062	101.81
436.284	94.81
436.505	107.81
436.727	96.81
436.949	114.81
437.17	114.81
437.392	105.81
437.614	104.81
437.835	98.81
438.057	113.81
438.278	97.81
438.5	92.81
438.721	102.81
438.943	94.81
439.165	108.81
439.386	94.81
439.608	102.81
439.829	105.81
440.05	122.81
440.272	101.81
440.493	95.81
440.715	100.81
440.936	107.81
441.158	107.81
441.379	114.81
441.6	104.81
441.822	104.81
442.043	121.81
442.264	124.81
442.486	100.81
442.707	123.81
442.928	121.81
443.149	101.81
443.371	119.81
443.592	105.81
443.813	104.81
444.034	125.81
444.255	109.81
444.476	100.81
444.698	110.81
444.919	110.81
445.14	223.81
445.361	171.81
445.582	123.81
445.803	99.81
446.024	117.81
446.245	112.81
446.466	119.81
446.687	121.81
446.908	111.81
447.129	117.81
447.35	115.81
447.571	113.81
447.792	115.81
448.013	111.81
448.234	115.81
448.455	96.81
448.675	97.81
448.896	118.81
449.117	110.81
449.338	89.81
449.559	110.81
449.779	100.81
450	107.81
450.221	91.81
450.442	108.81
450.662	102.81
450.883	106.81
451.104	111.81
451.324	98.81
451.545	112.81
451.766	104.81
451.986	98.81
452.207	101.81
452.428	101.81
452.648	104.81
452.869	98.81
453.089	89.81
453.31	75.81
453.53	109.81
453.751	90.81
453.971	92.81
454.192	90.81
454.412	91.81
454.633	97.81
454.853	103.81
455.073	97.81
455.294	103.81
455.514	106.81
455.734	106.81
455.955	102.81
456.175	96.81
456.395	75.81
456.616	105.81
456.836	99.81
457.056	100.81
457.276	95.81
457.497	92.81
457.717	92.81
457.937	103.81
458.157	114.81
458.377	77.81
458.598	88.81
458.818	89.81
459.038	70.81
459.258	74.81
459.478	95.81
459.698	87.81
459.918	87.81
460.138	95.81
460.358	98.81
460.578	100.81
460.798	93.81
461.018	92.81
461.238	103.81
461.458	94.81
461.678	103.81
461.898	103.81
462.118	90.81
462.338	88.81
462.558	86.81
462.777	90.81
462.997	112.81
463.217	96.81
463.437	107.81
463.657	102.81
463.876	107.81
464.096	100.81
464.316	91.81
464.536	110.81
464.755	97.81
464.975	103.81
465.195	91.81
465.414	95.81
465.634	102.81
465.854	101.81
466.073	111.81
466.293	106.81
466.512	102.81
466.732	99.81
466.951	109.81
467.171	84.81
467.391	111.81
467.61	103.81
467.829	101.81
468.049	106.81
468.268	97.81
468.488	99.81
468.707	102.81
468.927	120.81
469.146	111.81
469.365	118.81
469.585	113.81
469.804	113.81
470.023	112.81
470.243	116.81
470.462	96.81
470.681	120.81
470.901	101.81
471.12	103.81
471.339	106.81
471.558	114.81
471.777	113.81
471.997	119.81
472.216	119.81
472.435	95.81
472.654	100.81
472.873	99.81
473.092	106.81
473.311	105.81
473.53	105.81
473.749	101.81
473.968	111.81
474.187	103.81
474.406	97.81
474.625	101.81
474.844	98.81
475.063	104.81
475.282	101.81
475.501	115.81
475.72	100.81
475.939	107.81
476.158	104.81
476.377	117.81
476.596	95.81
476.814	83.81
477.033	108.81
477.252	97.81
477.471	100.81
477.69	116.81
477.908	107.81
478.127	106.81
478.346	108.81
478.564	113.81
478.783	116.81
479.002	111.81
479.22	113.81
479.439	108.81
479.658	108.81
479.876	105.81
480.095	96.81
480.313	88.81
480.532	100.81
480.751	109.81
480.969	100.81
481.188	89.81
481.406	81.81
481.624	88.81
481.843	91.81
482.061	87.81
482.28	112.81
482.498	99.81
482.717	87.81
482.935	119.81
483.153	107.81
483.372	121.81
483.59	107.81
483.808	123.81
484.027	117.81
484.245	114.81
484.463	125.81
484.681	113.81
484.9	126.81
485.118	96.81
485.336	93.81
485.554	85.81
485.772	96.81
485.99	102.81
486.209	88.81
486.427	109.81
486.645	96.81
486.863	112.81
487.081	108.81
487.299	104.81
487.517	123.81
487.735	113.81
487.953	145.81
488.171	131.81
488.389	135.81
488.607	116.81
488.825	105.81
489.043	102.81
489.261	111.81
489.479	107.81
489.696	108.81
489.914	112.81
490.132	107.81
490.35	136.81
490.568	137.81
490.786	127.81
491.003	116.81
491.221	122.81
491.439	131.81
491.657	127.81
491.874	143.81
492.092	145.81
492.31	151.81
492.527	151.81
492.745	145.81
492.963	123.81
493.18	116.81
493.398	135.81
493.615	119.81
493.833	123.81
494.05	124.81
494.268	128.81
494.485	118.81
494.703	111.81
494.92	141.81
495.138	127.81
495.355	137.81
495.573	124.81
495.79	130.81
496.008	127.81
496.225	122.81
496.442	121.81
496.66	139.81
496.877	141.81
497.094	132.81
497.312	119.81
497.529	124.81
497.746	99.81
497.963	119.81
498.181	89.81
498.398	111.81
498.615	91.81
498.832	97.81
499.049	105.81
499.267	115.81
499.484	101.81
499.701	82.81
499.918	100.81
500.135	100.81
500.352	112.81
500.569	107.81
500.786	107.81
501.003	115.81
501.22	111.81
501.437	95.81
501.654	101.81
501.871	95.81
502.088	96.81
502.305	113.81
502.522	99.81
502.739	112.81
502.956	104.81
503.172	119.81
503.389	109.81
503.606	102.81
503.823	99.81
504.04	89.81
504.256	110.81
504.473	82.81
504.69	98.81
504.907	115.81
505.123	102.81
505.34	114.81
505.557	107.81
505.773	91.81
505.99	100.81
506.207	97.81
506.423	104.81
506.64	104.81
506.856	103.81
507.073	90.81
507.289	106.81
507.506	92.81
507.722	101.81
507.939	97.81
508.155	115.81
508.372	102.81
508.588	106.81
508.805	85.81
509.021	75.81
509.238	82.81
509.454	93.81
509.67	94.81
509.887	86.81
510.103	91.81
510.319	83.81
510.536	90.81
510.752	99.81
510.968	85.81
511.184	94.81
511.401	99.81
511.617	102.81
511.833	88.81
512.049	83.81
512.265	89.81
512.481	92.81
512.698	100.81
512.914	92.81
513.13	83.81
513.346	100.81
513.562	82.81
513.778	98.81
513.994	81.81
514.21	84.81
514.426	96.81
