Data from Zn(NO3)2Standard.Agarose3%.GreenCap.LampEnergy10E.O_HRD10591_15-08-09-947.txt Node
Date: Mon Jul 22 15:08:09 EDT 2019
User: cochatt
Spectrometer: HR+D1059
Trigger mode: 1
Integration Time (sec): 1.000000E-1
Scans to average: 1
Electric dark correction enabled: true
Nonlinearity correction enabled: false
Boxcar width: 0
XAxis mode: Wavelengths
Number of Pixels in Spectrum: 2048
>>>>>Begin Spectral Data<<<<<
223.165	-13.75
223.4	-13.75
223.635	-13.75
223.869	-5.75
224.104	-15.75
224.338	-16.75
224.573	-18.75
224.808	-27.75
225.042	-9.75
225.277	-8.75
225.511	-0.75
225.746	7.25
225.98	-0.75
226.215	20.25
226.449	17.25
226.683	27.25
226.918	25.25
227.152	21.25
227.387	27.25
227.621	36.25
227.856	42.25
228.09	54.25
228.324	42.25
228.559	42.25
228.793	64.25
229.027	70.25
229.262	69.25
229.496	69.25
229.73	81.25
229.964	77.25
230.199	78.25
230.433	77.25
230.667	86.25
230.901	67.25
231.136	66.25
231.37	78.25
231.604	82.25
231.838	83.25
232.072	86.25
232.306	81.25
232.541	83.25
232.775	74.25
233.009	76.25
233.243	88.25
233.477	79.25
233.711	87.25
233.945	88.25
234.179	84.25
234.413	94.25
234.647	79.25
234.881	86.25
235.115	83.25
235.349	79.25
235.583	97.25
235.817	80.25
236.051	79.25
236.285	86.25
236.519	76.25
236.753	75.25
236.987	87.25
237.221	77.25
237.455	79.25
237.689	96.25
237.922	77.25
238.156	76.25
238.39	80.25
238.624	73.25
238.858	68.25
239.091	90.25
239.325	77.25
239.559	57.25
239.793	70.25
240.027	70.25
240.26	77.25
240.494	94.25
240.728	87.25
240.961	81.25
241.195	79.25
241.429	86.25
241.662	80.25
241.896	74.25
242.13	70.25
242.363	90.25
242.597	79.25
242.83	84.25
243.064	72.25
243.298	84.25
243.531	83.25
243.765	67.25
243.998	70.25
244.232	72.25
244.465	68.25
244.699	90.25
244.932	84.25
245.166	73.25
245.399	68.25
245.633	90.25
245.866	75.25
246.099	91.25
246.333	84.25
246.566	72.25
246.8	81.25
247.033	77.25
247.266	83.25
247.5	73.25
247.733	75.25
247.966	74.25
248.2	79.25
248.433	69.25
248.666	74.25
248.899	86.25
249.133	84.25
249.366	75.25
249.599	84.25
249.832	84.25
250.066	86.25
250.299	82.25
250.532	92.25
250.765	87.25
250.998	89.25
251.231	89.25
251.465	85.25
251.698	78.25
251.931	84.25
252.164	79.25
252.397	71.25
252.63	64.25
252.863	98.25
253.096	73.25
253.329	81.25
253.562	77.25
253.795	80.25
254.028	93.25
254.261	81.25
254.494	87.25
254.727	91.25
254.96	80.25
255.193	82.25
255.426	78.25
255.659	74.25
255.892	75.25
256.124	82.25
256.357	89.25
256.59	63.25
256.823	72.25
257.056	77.25
257.289	85.25
257.521	87.25
257.754	77.25
257.987	78.25
258.22	63.25
258.452	82.25
258.685	69.25
258.918	89.25
259.151	84.25
259.383	80.25
259.616	77.25
259.849	73.25
260.081	78.25
260.314	94.25
260.547	76.25
260.779	82.25
261.012	78.25
261.244	96.25
261.477	81.25
261.71	91.25
261.942	80.25
262.175	91.25
262.407	95.25
262.64	75.25
262.872	76.25
263.105	86.25
263.337	86.25
263.57	85.25
263.802	88.25
264.035	69.25
264.267	78.25
264.499	76.25
264.732	80.25
264.964	98.25
265.197	89.25
265.429	88.25
265.661	88.25
265.894	86.25
266.126	86.25
266.358	75.25
266.591	86.25
266.823	79.25
267.055	95.25
267.287	87.25
267.52	77.25
267.752	90.25
267.984	74.25
268.216	86.25
268.448	86.25
268.681	91.25
268.913	87.25
269.145	87.25
269.377	82.25
269.609	83.25
269.841	80.25
270.073	92.25
270.306	96.25
270.538	76.25
270.77	77.25
271.002	76.25
271.234	88.25
271.466	87.25
271.698	88.25
271.93	96.25
272.162	92.25
272.394	89.25
272.626	85.25
272.858	86.25
273.09	87.25
273.322	89.25
273.553	84.25
273.785	86.25
274.017	75.25
274.249	93.25
274.481	88.25
274.713	91.25
274.945	86.25
275.176	82.25
275.408	70.25
275.64	86.25
275.872	55.25
276.104	82.25
276.335	83.25
276.567	82.25
276.799	83.25
277.031	100.25
277.262	94.25
277.494	76.25
277.726	91.25
277.957	84.25
278.189	85.25
278.421	79.25
278.652	86.25
278.884	61.25
279.115	80.25
279.347	82.25
279.579	85.25
279.81	80.25
280.042	89.25
280.273	98.25
280.505	92.25
280.736	86.25
280.968	87.25
281.199	89.25
281.431	86.25
281.662	96.25
281.894	78.25
282.125	86.25
282.356	90.25
282.588	88.25
282.819	80.25
283.051	81.25
283.282	85.25
283.513	81.25
283.745	101.25
283.976	94.25
284.207	90.25
284.439	85.25
284.67	86.25
284.901	79.25
285.132	74.25
285.364	97.25
285.595	89.25
285.826	83.25
286.057	84.25
286.288	77.25
286.52	95.25
286.751	87.25
286.982	84.25
287.213	79.25
287.444	85.25
287.675	93.25
287.906	96.25
288.138	80.25
288.369	78.25
288.6	84.25
288.831	92.25
289.062	85.25
289.293	85.25
289.524	78.25
289.755	83.25
289.986	87.25
290.217	82.25
290.448	96.25
290.679	94.25
290.91	101.25
291.141	91.25
291.371	78.25
291.602	100.25
291.833	86.25
292.064	94.25
292.295	85.25
292.526	90.25
292.757	88.25
292.987	78.25
293.218	69.25
293.449	94.25
293.68	79.25
293.91	77.25
294.141	84.25
294.372	78.25
294.603	91.25
294.833	96.25
295.064	84.25
295.295	90.25
295.525	98.25
295.756	89.25
295.987	84.25
296.217	86.25
296.448	87.25
296.679	80.25
296.909	88.25
297.14	84.25
297.37	79.25
297.601	90.25
297.831	101.25
298.062	100.25
298.292	86.25
298.523	71.25
298.753	81.25
298.984	92.25
299.214	86.25
299.445	90.25
299.675	87.25
299.905	88.25
300.136	78.25
300.366	87.25
300.597	106.25
300.827	95.25
301.057	93.25
301.288	93.25
301.518	90.25
301.748	76.25
301.979	90.25
302.209	77.25
302.439	77.25
302.669	84.25
302.9	99.25
303.13	93.25
303.36	105.25
303.59	85.25
303.82	90.25
304.051	68.25
304.281	77.25
304.511	94.25
304.741	97.25
304.971	90.25
305.201	83.25
305.431	87.25
305.661	97.25
305.891	96.25
306.121	95.25
306.352	90.25
306.582	89.25
306.812	84.25
307.042	84.25
307.272	88.25
307.502	80.25
307.731	79.25
307.961	84.25
308.191	81.25
308.421	87.25
308.651	78.25
308.881	78.25
309.111	88.25
309.341	78.25
309.571	72.25
309.8	90.25
310.03	70.25
310.26	94.25
310.49	92.25
310.72	105.25
310.949	91.25
311.179	93.25
311.409	83.25
311.639	92.25
311.868	103.25
312.098	81.25
312.328	79.25
312.557	98.25
312.787	84.25
313.017	92.25
313.246	69.25
313.476	82.25
313.706	80.25
313.935	77.25
314.165	86.25
314.394	78.25
314.624	91.25
314.853	89.25
315.083	90.25
315.312	83.25
315.542	87.25
315.771	85.25
316.001	88.25
316.23	97.25
316.46	92.25
316.689	99.25
316.919	91.25
317.148	97.25
317.377	87.25
317.607	99.25
317.836	60.25
318.065	88.25
318.295	79.25
318.524	99.25
318.753	78.25
318.983	84.25
319.212	80.25
319.441	80.25
319.67	93.25
319.9	80.25
320.129	97.25
320.358	87.25
320.587	88.25
320.816	79.25
321.046	90.25
321.275	90.25
321.504	102.25
321.733	87.25
321.962	76.25
322.191	92.25
322.42	86.25
322.649	85.25
322.878	83.25
323.108	99.25
323.337	93.25
323.566	78.25
323.795	83.25
324.024	94.25
324.253	85.25
324.482	92.25
324.71	86.25
324.939	104.25
325.168	88.25
325.397	90.25
325.626	96.25
325.855	93.25
326.084	88.25
326.313	94.25
326.542	75.25
326.77	88.25
326.999	95.25
327.228	99.25
327.457	86.25
327.686	91.25
327.914	88.25
328.143	90.25
328.372	80.25
328.6	88.25
328.829	77.25
329.058	76.25
329.287	84.25
329.515	72.25
329.744	96.25
329.972	94.25
330.201	87.25
330.43	87.25
330.658	87.25
330.887	94.25
331.115	90.25
331.344	77.25
331.572	83.25
331.801	87.25
332.03	96.25
332.258	81.25
332.486	90.25
332.715	91.25
332.943	88.25
333.172	84.25
333.4	90.25
333.629	92.25
333.857	77.25
334.085	86.25
334.314	78.25
334.542	95.25
334.771	93.25
334.999	103.25
335.227	76.25
335.455	75.25
335.684	91.25
335.912	98.25
336.14	96.25
336.369	76.25
336.597	84.25
336.825	84.25
337.053	94.25
337.281	81.25
337.51	79.25
337.738	90.25
337.966	85.25
338.194	78.25
338.422	86.25
338.65	81.25
338.878	74.25
339.106	71.25
339.334	83.25
339.562	94.25
339.79	109.25
340.018	89.25
340.246	87.25
340.474	96.25
340.702	99.25
340.93	78.25
341.158	80.25
341.386	93.25
341.614	79.25
341.842	101.25
342.07	76.25
342.298	87.25
342.526	84.25
342.754	86.25
342.981	84.25
343.209	86.25
343.437	89.25
343.665	90.25
343.893	90.25
344.12	91.25
344.348	77.25
344.576	95.25
344.804	82.25
345.031	83.25
345.259	89.25
345.487	86.25
345.714	97.25
345.942	82.25
346.17	89.25
346.397	79.25
346.625	85.25
346.853	84.25
347.08	85.25
347.308	78.25
347.535	96.25
347.763	91.25
347.99	90.25
348.218	92.25
348.445	86.25
348.673	82.25
348.9	100.25
349.128	79.25
349.355	97.25
349.583	80.25
349.81	88.25
350.037	86.25
350.265	83.25
350.492	83.25
350.72	85.25
350.947	79.25
351.174	83.25
351.402	94.25
351.629	92.25
351.856	105.25
352.083	84.25
352.311	80.25
352.538	78.25
352.765	90.25
352.992	91.25
353.22	94.25
353.447	95.25
353.674	72.25
353.901	90.25
354.128	86.25
354.355	87.25
354.583	79.25
354.81	87.25
355.037	93.25
355.264	80.25
355.491	84.25
355.718	79.25
355.945	88.25
356.172	104.25
356.399	85.25
356.626	86.25
356.853	83.25
357.08	81.25
357.307	83.25
357.534	73.25
357.761	87.25
357.988	91.25
358.215	73.25
358.441	88.25
358.668	67.25
358.895	85.25
359.122	73.25
359.349	90.25
359.576	84.25
359.802	88.25
360.029	85.25
360.256	82.25
360.483	67.25
360.709	106.25
360.936	84.25
361.163	86.25
361.39	94.25
361.616	92.25
361.843	90.25
362.07	89.25
362.296	79.25
362.523	93.25
362.749	80.25
362.976	83.25
363.203	92.25
363.429	82.25
363.656	85.25
363.882	85.25
364.109	79.25
364.335	83.25
364.562	96.25
364.788	87.25
365.015	90.25
365.241	87.25
365.468	90.25
365.694	84.25
365.92	91.25
366.147	98.25
366.373	94.25
366.599	75.25
366.826	95.25
367.052	79.25
367.278	94.25
367.505	89.25
367.731	83.25
367.957	88.25
368.184	72.25
368.41	88.25
368.636	88.25
368.862	87.25
369.089	93.25
369.315	94.25
369.541	87.25
369.767	90.25
369.993	85.25
370.219	81.25
370.445	80.25
370.672	88.25
370.898	74.25
371.124	89.25
371.35	91.25
371.576	94.25
371.802	86.25
372.028	98.25
372.254	80.25
372.48	87.25
372.706	83.25
372.932	84.25
373.158	93.25
373.384	76.25
373.61	95.25
373.835	80.25
374.061	78.25
374.287	80.25
374.513	84.25
374.739	97.25
374.965	84.25
375.191	83.25
375.416	89.25
375.642	75.25
375.868	104.25
376.094	82.25
376.319	88.25
376.545	78.25
376.771	85.25
376.997	92.25
377.222	84.25
377.448	74.25
377.674	93.25
377.899	101.25
378.125	95.25
378.35	77.25
378.576	79.25
378.802	96.25
379.027	76.25
379.253	87.25
379.478	94.25
379.704	95.25
379.929	96.25
380.155	89.25
380.38	90.25
380.606	94.25
380.831	100.25
381.057	80.25
381.282	90.25
381.507	94.25
381.733	96.25
381.958	96.25
382.184	96.25
382.409	87.25
382.634	90.25
382.86	100.25
383.085	78.25
383.31	82.25
383.535	101.25
383.761	89.25
383.986	90.25
384.211	101.25
384.436	98.25
384.662	107.25
384.887	94.25
385.112	80.25
385.337	80.25
385.562	90.25
385.787	92.25
386.013	93.25
386.238	86.25
386.463	86.25
386.688	100.25
386.913	86.25
387.138	96.25
387.363	101.25
387.588	88.25
387.813	100.25
388.038	104.25
388.263	89.25
388.488	89.25
388.713	84.25
388.938	100.25
389.163	94.25
389.387	94.25
389.612	105.25
389.837	85.25
390.062	98.25
390.287	92.25
390.512	111.25
390.736	93.25
390.961	98.25
391.186	108.25
391.411	95.25
391.636	85.25
391.86	94.25
392.085	105.25
392.31	116.25
392.534	102.25
392.759	87.25
392.984	98.25
393.208	96.25
393.433	92.25
393.658	97.25
393.882	79.25
394.107	87.25
394.331	95.25
394.556	66.25
394.78	90.25
395.005	93.25
395.229	96.25
395.454	95.25
395.678	104.25
395.903	83.25
396.127	89.25
396.352	100.25
396.576	91.25
396.801	99.25
397.025	94.25
397.249	102.25
397.474	99.25
397.698	98.25
397.922	96.25
398.147	96.25
398.371	108.25
398.595	101.25
398.82	109.25
399.044	101.25
399.268	108.25
399.492	90.25
399.717	98.25
399.941	103.25
400.165	107.25
400.389	109.25
400.613	102.25
400.837	98.25
401.062	107.25
401.286	110.25
401.51	95.25
401.734	103.25
401.958	100.25
402.182	85.25
402.406	88.25
402.63	106.25
402.854	96.25
403.078	106.25
403.302	94.25
403.526	105.25
403.75	106.25
403.974	106.25
404.198	111.25
404.422	102.25
404.645	86.25
404.869	91.25
405.093	101.25
405.317	101.25
405.541	91.25
405.765	98.25
405.988	103.25
406.212	126.25
406.436	105.25
406.66	94.25
406.883	106.25
407.107	89.25
407.331	91.25
407.555	98.25
407.778	99.25
408.002	103.25
408.226	93.25
408.449	111.25
408.673	104.25
408.896	94.25
409.12	111.25
409.344	110.25
409.567	109.25
409.791	97.25
410.014	91.25
410.238	107.25
410.461	100.25
410.685	100.25
410.908	106.25
411.132	93.25
411.355	93.25
411.578	111.25
411.802	103.25
412.025	97.25
412.249	90.25
412.472	95.25
412.695	106.25
412.919	108.25
413.142	106.25
413.365	107.25
413.589	103.25
413.812	104.25
414.035	102.25
414.258	111.25
414.482	92.25
414.705	103.25
414.928	106.25
415.151	98.25
415.374	93.25
415.597	114.25
415.821	116.25
416.044	94.25
416.267	104.25
416.49	114.25
416.713	109.25
416.936	100.25
417.159	98.25
417.382	109.25
417.605	95.25
417.828	103.25
418.051	99.25
418.274	114.25
418.497	116.25
418.72	108.25
418.943	105.25
419.166	106.25
419.389	104.25
419.611	94.25
419.834	105.25
420.057	110.25
420.28	118.25
420.503	102.25
420.726	111.25
420.948	120.25
421.171	109.25
421.394	109.25
421.617	117.25
421.839	118.25
422.062	111.25
422.285	107.25
422.507	116.25
422.73	99.25
422.953	88.25
423.175	110.25
423.398	109.25
423.621	106.25
423.843	109.25
424.066	122.25
424.288	116.25
424.511	108.25
424.733	109.25
424.956	105.25
425.178	111.25
425.401	119.25
425.623	93.25
425.846	111.25
426.068	118.25
426.291	100.25
426.513	107.25
426.735	114.25
426.958	98.25
427.18	103.25
427.402	110.25
427.625	120.25
427.847	103.25
428.069	97.25
428.292	114.25
428.514	122.25
428.736	109.25
428.958	116.25
429.181	108.25
429.403	94.25
429.625	103.25
429.847	100.25
430.069	100.25
430.292	102.25
430.514	111.25
430.736	110.25
430.958	101.25
431.18	102.25
431.402	109.25
431.624	112.25
431.846	99.25
432.068	98.25
432.29	88.25
432.512	96.25
432.734	112.25
432.956	119.25
433.178	122.25
433.4	104.25
433.622	118.25
433.844	112.25
434.066	103.25
434.287	100.25
434.509	90.25
434.731	92.25
434.953	104.25
435.175	117.25
435.397	109.25
435.618	110.25
435.84	102.25
436.062	93.25
436.284	102.25
436.505	101.25
436.727	108.25
436.949	118.25
437.17	114.25
437.392	127.25
437.614	103.25
437.835	110.25
438.057	108.25
438.278	104.25
438.5	88.25
438.721	103.25
438.943	119.25
439.165	115.25
439.386	119.25
439.608	121.25
439.829	104.25
440.05	108.25
440.272	105.25
440.493	90.25
440.715	120.25
440.936	119.25
441.158	117.25
441.379	109.25
441.6	125.25
441.822	118.25
442.043	111.25
442.264	106.25
442.486	110.25
442.707	118.25
442.928	123.25
443.149	102.25
443.371	112.25
443.592	118.25
443.813	100.25
444.034	119.25
444.255	111.25
444.476	114.25
444.698	106.25
444.919	95.25
445.14	182.25
445.361	164.25
445.582	134.25
445.803	108.25
446.024	117.25
446.245	114.25
446.466	130.25
446.687	109.25
446.908	127.25
447.129	111.25
447.35	117.25
447.571	118.25
447.792	116.25
448.013	118.25
448.234	123.25
448.455	119.25
448.675	110.25
448.896	108.25
449.117	114.25
449.338	118.25
449.559	117.25
449.779	103.25
450	106.25
450.221	109.25
450.442	108.25
450.662	113.25
450.883	120.25
451.104	117.25
451.324	104.25
451.545	120.25
451.766	99.25
451.986	118.25
452.207	108.25
452.428	103.25
452.648	104.25
452.869	90.25
453.089	92.25
453.31	100.25
453.53	104.25
453.751	97.25
453.971	103.25
454.192	91.25
454.412	81.25
454.633	112.25
454.853	95.25
455.073	108.25
455.294	89.25
455.514	99.25
455.734	105.25
455.955	94.25
456.175	109.25
456.395	91.25
456.616	107.25
456.836	95.25
457.056	87.25
457.276	95.25
457.497	82.25
457.717	90.25
457.937	82.25
458.157	87.25
458.377	105.25
458.598	83.25
458.818	95.25
459.038	80.25
459.258	94.25
459.478	86.25
459.698	80.25
459.918	94.25
460.138	98.25
460.358	99.25
460.578	101.25
460.798	98.25
461.018	92.25
461.238	101.25
461.458	92.25
461.678	97.25
461.898	90.25
462.118	87.25
462.338	89.25
462.558	104.25
462.777	114.25
462.997	93.25
463.217	90.25
463.437	99.25
463.657	88.25
463.876	88.25
464.096	88.25
464.316	86.25
464.536	103.25
464.755	93.25
464.975	101.25
465.195	118.25
465.414	96.25
465.634	105.25
465.854	106.25
466.073	107.25
466.293	94.25
466.512	109.25
466.732	108.25
466.951	114.25
467.171	115.25
467.391	99.25
467.61	106.25
467.829	122.25
468.049	114.25
468.268	115.25
468.488	112.25
468.707	114.25
468.927	112.25
469.146	105.25
469.365	108.25
469.585	109.25
469.804	108.25
470.023	109.25
470.243	110.25
470.462	125.25
470.681	115.25
470.901	115.25
471.12	108.25
471.339	118.25
471.558	107.25
471.777	107.25
471.997	120.25
472.216	118.25
472.435	98.25
472.654	83.25
472.873	100.25
473.092	102.25
473.311	109.25
473.53	114.25
473.749	107.25
473.968	95.25
474.187	100.25
474.406	98.25
474.625	103.25
474.844	119.25
475.063	89.25
475.282	103.25
475.501	105.25
475.72	103.25
475.939	104.25
476.158	103.25
476.377	117.25
476.596	116.25
476.814	93.25
477.033	97.25
477.252	95.25
477.471	106.25
477.69	98.25
477.908	111.25
478.127	115.25
478.346	105.25
478.564	110.25
478.783	101.25
479.002	104.25
479.22	107.25
479.439	82.25
479.658	108.25
479.876	107.25
480.095	93.25
480.313	90.25
480.532	110.25
480.751	101.25
480.969	86.25
481.188	95.25
481.406	100.25
481.624	80.25
481.843	88.25
482.061	82.25
482.28	101.25
482.498	99.25
482.717	79.25
482.935	109.25
483.153	116.25
483.372	108.25
483.59	112.25
483.808	122.25
484.027	115.25
484.245	104.25
484.463	105.25
484.681	123.25
484.9	120.25
485.118	121.25
485.336	98.25
485.554	86.25
485.772	88.25
485.99	84.25
486.209	100.25
486.427	101.25
486.645	91.25
486.863	99.25
487.081	112.25
487.299	119.25
487.517	118.25
487.735	130.25
487.953	134.25
488.171	138.25
488.389	124.25
488.607	124.25
488.825	119.25
489.043	107.25
489.261	105.25
489.479	114.25
489.696	97.25
489.914	124.25
490.132	131.25
490.35	122.25
490.568	128.25
490.786	121.25
491.003	128.25
491.221	136.25
491.439	143.25
491.657	131.25
491.874	136.25
492.092	152.25
492.31	172.25
492.527	156.25
492.745	141.25
492.963	136.25
493.18	126.25
493.398	124.25
493.615	121.25
493.833	126.25
494.05	128.25
494.268	135.25
494.485	142.25
494.703	127.25
494.92	128.25
495.138	116.25
495.355	122.25
495.573	132.25
495.79	126.25
496.008	112.25
496.225	124.25
496.442	128.25
496.66	127.25
496.877	104.25
497.094	130.25
497.312	119.25
497.529	115.25
497.746	109.25
497.963	101.25
498.181	118.25
498.398	103.25
498.615	107.25
498.832	96.25
499.049	97.25
499.267	99.25
499.484	107.25
499.701	109.25
499.918	98.25
500.135	114.25
500.352	116.25
500.569	118.25
500.786	114.25
501.003	127.25
501.22	118.25
501.437	103.25
501.654	105.25
501.871	104.25
502.088	105.25
502.305	105.25
502.522	107.25
502.739	123.25
502.956	107.25
503.172	101.25
503.389	110.25
503.606	111.25
503.823	109.25
504.04	103.25
504.256	98.25
504.473	90.25
504.69	97.25
504.907	102.25
505.123	100.25
505.34	94.25
505.557	112.25
505.773	100.25
505.99	103.25
506.207	122.25
506.423	104.25
506.64	110.25
506.856	116.25
507.073	110.25
507.289	108.25
507.506	102.25
507.722	110.25
507.939	113.25
508.155	118.25
508.372	106.25
508.588	96.25
508.805	93.25
509.021	90.25
509.238	100.25
509.454	88.25
509.67	101.25
509.887	95.25
510.103	95.25
510.319	104.25
510.536	86.25
510.752	94.25
510.968	94.25
511.184	91.25
511.401	94.25
511.617	83.25
511.833	91.25
512.049	92.25
512.265	80.25
512.481	88.25
512.698	85.25
512.914	94.25
513.13	88.25
513.346	92.25
513.562	84.25
