Data from Zn(NO3)2Standard.Agarose3%.GreenCap.LampEnergy5.5.E.O_HRD10591_15-02-22-768.txt Node
Date: Mon Jul 22 15:02:22 EDT 2019
User: cochatt
Spectrometer: HR+D1059
Trigger mode: 1
Integration Time (sec): 1.000000E-1
Scans to average: 1
Electric dark correction enabled: true
Nonlinearity correction enabled: false
Boxcar width: 0
XAxis mode: Wavelengths
Number of Pixels in Spectrum: 2048
>>>>>Begin Spectral Data<<<<<
223.165	-24.44
223.4	-24.44
223.635	-24.44
223.869	-14.44
224.104	-17.44
224.338	-18.44
224.573	-6.44
224.808	-22.44
225.042	0.56
225.277	-5.44
225.511	3.56
225.746	-0.44
225.98	7.56
226.215	6.56
226.449	21.56
226.683	13.56
226.918	21.56
227.152	34.56
227.387	33.56
227.621	32.56
227.856	41.56
228.09	48.56
228.324	50.56
228.559	68.56
228.793	66.56
229.027	71.56
229.262	65.56
229.496	68.56
229.73	82.56
229.964	76.56
230.199	79.56
230.433	61.56
230.667	80.56
230.901	77.56
231.136	84.56
231.37	68.56
231.604	80.56
231.838	72.56
232.072	69.56
232.306	82.56
232.541	97.56
232.775	87.56
233.009	74.56
233.243	76.56
233.477	71.56
233.711	82.56
233.945	84.56
234.179	78.56
234.413	84.56
234.647	76.56
234.881	89.56
235.115	69.56
235.349	71.56
235.583	76.56
235.817	83.56
236.051	87.56
236.285	69.56
236.519	84.56
236.753	73.56
236.987	64.56
237.221	67.56
237.455	63.56
237.689	77.56
237.922	94.56
238.156	78.56
238.39	74.56
238.624	93.56
238.858	69.56
239.091	65.56
239.325	62.56
239.559	76.56
239.793	79.56
240.027	85.56
240.26	100.56
240.494	72.56
240.728	82.56
240.961	73.56
241.195	59.56
241.429	69.56
241.662	72.56
241.896	66.56
242.13	73.56
242.363	78.56
242.597	86.56
242.83	84.56
243.064	84.56
243.298	87.56
243.531	77.56
243.765	74.56
243.998	75.56
244.232	85.56
244.465	93.56
244.699	75.56
244.932	73.56
245.166	65.56
245.399	75.56
245.633	79.56
245.866	85.56
246.099	85.56
246.333	91.56
246.566	76.56
246.8	81.56
247.033	84.56
247.266	76.56
247.5	89.56
247.733	82.56
247.966	84.56
248.2	95.56
248.433	88.56
248.666	71.56
248.899	83.56
249.133	71.56
249.366	75.56
249.599	70.56
249.832	84.56
250.066	87.56
250.299	71.56
250.532	81.56
250.765	95.56
250.998	83.56
251.231	83.56
251.465	88.56
251.698	75.56
251.931	66.56
252.164	69.56
252.397	73.56
252.63	91.56
252.863	78.56
253.096	89.56
253.329	92.56
253.562	85.56
253.795	82.56
254.028	77.56
254.261	87.56
254.494	70.56
254.727	84.56
254.96	85.56
255.193	71.56
255.426	90.56
255.659	82.56
255.892	82.56
256.124	82.56
256.357	92.56
256.59	91.56
256.823	90.56
257.056	75.56
257.289	76.56
257.521	90.56
257.754	80.56
257.987	77.56
258.22	86.56
258.452	78.56
258.685	83.56
258.918	87.56
259.151	79.56
259.383	86.56
259.616	81.56
259.849	65.56
260.081	67.56
260.314	95.56
260.547	84.56
260.779	85.56
261.012	83.56
261.244	75.56
261.477	83.56
261.71	94.56
261.942	83.56
262.175	71.56
262.407	67.56
262.64	70.56
262.872	85.56
263.105	90.56
263.337	89.56
263.57	78.56
263.802	82.56
264.035	75.56
264.267	87.56
264.499	85.56
264.732	96.56
264.964	86.56
265.197	82.56
265.429	91.56
265.661	78.56
265.894	74.56
266.126	78.56
266.358	84.56
266.591	90.56
266.823	92.56
267.055	82.56
267.287	97.56
267.52	91.56
267.752	92.56
267.984	84.56
268.216	67.56
268.448	82.56
268.681	86.56
268.913	80.56
269.145	79.56
269.377	91.56
269.609	77.56
269.841	71.56
270.073	93.56
270.306	75.56
270.538	77.56
270.77	93.56
271.002	95.56
271.234	87.56
271.466	73.56
271.698	92.56
271.93	83.56
272.162	76.56
272.394	75.56
272.626	75.56
272.858	78.56
273.09	89.56
273.322	87.56
273.553	81.56
273.785	75.56
274.017	92.56
274.249	86.56
274.481	76.56
274.713	61.56
274.945	77.56
275.176	81.56
275.408	90.56
275.64	74.56
275.872	71.56
276.104	85.56
276.335	86.56
276.567	80.56
276.799	81.56
277.031	76.56
277.262	92.56
277.494	91.56
277.726	97.56
277.957	77.56
278.189	83.56
278.421	78.56
278.652	79.56
278.884	75.56
279.115	84.56
279.347	80.56
279.579	81.56
279.81	73.56
280.042	91.56
280.273	83.56
280.505	77.56
280.736	76.56
280.968	85.56
281.199	94.56
281.431	85.56
281.662	76.56
281.894	89.56
282.125	88.56
282.356	91.56
282.588	92.56
282.819	99.56
283.051	84.56
283.282	80.56
283.513	92.56
283.745	87.56
283.976	78.56
284.207	85.56
284.439	81.56
284.67	77.56
284.901	88.56
285.132	88.56
285.364	87.56
285.595	76.56
285.826	82.56
286.057	88.56
286.288	90.56
286.52	90.56
286.751	91.56
286.982	77.56
287.213	82.56
287.444	83.56
287.675	86.56
287.906	89.56
288.138	74.56
288.369	79.56
288.6	86.56
288.831	92.56
289.062	94.56
289.293	83.56
289.524	93.56
289.755	92.56
289.986	87.56
290.217	78.56
290.448	88.56
290.679	84.56
290.91	84.56
291.141	92.56
291.371	90.56
291.602	92.56
291.833	90.56
292.064	86.56
292.295	74.56
292.526	86.56
292.757	90.56
292.987	78.56
293.218	87.56
293.449	78.56
293.68	85.56
293.91	108.56
294.141	86.56
294.372	85.56
294.603	96.56
294.833	82.56
295.064	61.56
295.295	77.56
295.525	88.56
295.756	86.56
295.987	91.56
296.217	83.56
296.448	90.56
296.679	86.56
296.909	86.56
297.14	78.56
297.37	89.56
297.601	94.56
297.831	75.56
298.062	65.56
298.292	83.56
298.523	86.56
298.753	74.56
298.984	82.56
299.214	83.56
299.445	83.56
299.675	102.56
299.905	93.56
300.136	80.56
300.366	80.56
300.597	70.56
300.827	66.56
301.057	73.56
301.288	83.56
301.518	84.56
301.748	86.56
301.979	77.56
302.209	82.56
302.439	88.56
302.669	84.56
302.9	80.56
303.13	80.56
303.36	81.56
303.59	76.56
303.82	78.56
304.051	101.56
304.281	93.56
304.511	82.56
304.741	70.56
304.971	71.56
305.201	98.56
305.431	81.56
305.661	80.56
305.891	77.56
306.121	82.56
306.352	93.56
306.582	94.56
306.812	90.56
307.042	84.56
307.272	72.56
307.502	86.56
307.731	95.56
307.961	89.56
308.191	84.56
308.421	76.56
308.651	78.56
308.881	91.56
309.111	81.56
309.341	82.56
309.571	86.56
309.8	82.56
310.03	89.56
310.26	87.56
310.49	81.56
310.72	84.56
310.949	77.56
311.179	80.56
311.409	94.56
311.639	89.56
311.868	91.56
312.098	84.56
312.328	94.56
312.557	88.56
312.787	80.56
313.017	78.56
313.246	84.56
313.476	90.56
313.706	77.56
313.935	87.56
314.165	72.56
314.394	90.56
314.624	79.56
314.853	94.56
315.083	82.56
315.312	84.56
315.542	76.56
315.771	92.56
316.001	98.56
316.23	89.56
316.46	79.56
316.689	84.56
316.919	71.56
317.148	74.56
317.377	86.56
317.607	75.56
317.836	71.56
318.065	86.56
318.295	71.56
318.524	84.56
318.753	74.56
318.983	79.56
319.212	84.56
319.441	89.56
319.67	85.56
319.9	88.56
320.129	86.56
320.358	84.56
320.587	87.56
320.816	77.56
321.046	94.56
321.275	95.56
321.504	84.56
321.733	90.56
321.962	82.56
322.191	87.56
322.42	76.56
322.649	76.56
322.878	72.56
323.108	101.56
323.337	92.56
323.566	94.56
323.795	74.56
324.024	93.56
324.253	86.56
324.482	81.56
324.71	89.56
324.939	105.56
325.168	86.56
325.397	84.56
325.626	78.56
325.855	85.56
326.084	85.56
326.313	82.56
326.542	90.56
326.77	82.56
326.999	68.56
327.228	88.56
327.457	91.56
327.686	81.56
327.914	93.56
328.143	90.56
328.372	84.56
328.6	98.56
328.829	90.56
329.058	85.56
329.287	85.56
329.515	85.56
329.744	83.56
329.972	75.56
330.201	80.56
330.43	68.56
330.658	74.56
330.887	91.56
331.115	76.56
331.344	83.56
331.572	77.56
331.801	87.56
332.03	81.56
332.258	89.56
332.486	78.56
332.715	68.56
332.943	81.56
333.172	81.56
333.4	83.56
333.629	74.56
333.857	67.56
334.085	86.56
334.314	77.56
334.542	80.56
334.771	88.56
334.999	84.56
335.227	89.56
335.455	77.56
335.684	98.56
335.912	73.56
336.14	83.56
336.369	82.56
336.597	73.56
336.825	87.56
337.053	87.56
337.281	89.56
337.51	73.56
337.738	73.56
337.966	70.56
338.194	79.56
338.422	78.56
338.65	91.56
338.878	89.56
339.106	88.56
339.334	87.56
339.562	87.56
339.79	84.56
340.018	76.56
340.246	88.56
340.474	73.56
340.702	76.56
340.93	78.56
341.158	88.56
341.386	91.56
341.614	84.56
341.842	69.56
342.07	89.56
342.298	96.56
342.526	86.56
342.754	70.56
342.981	89.56
343.209	84.56
343.437	87.56
343.665	74.56
343.893	84.56
344.12	85.56
344.348	70.56
344.576	86.56
344.804	82.56
345.031	69.56
345.259	74.56
345.487	79.56
345.714	75.56
345.942	76.56
346.17	84.56
346.397	75.56
346.625	71.56
346.853	77.56
347.08	64.56
347.308	76.56
347.535	71.56
347.763	107.56
347.99	82.56
348.218	106.56
348.445	91.56
348.673	88.56
348.9	82.56
349.128	82.56
349.355	88.56
349.583	85.56
349.81	83.56
350.037	98.56
350.265	81.56
350.492	77.56
350.72	87.56
350.947	86.56
351.174	80.56
351.402	90.56
351.629	81.56
351.856	78.56
352.083	83.56
352.311	87.56
352.538	83.56
352.765	86.56
352.992	65.56
353.22	72.56
353.447	72.56
353.674	81.56
353.901	93.56
354.128	96.56
354.355	73.56
354.583	75.56
354.81	95.56
355.037	87.56
355.264	97.56
355.491	93.56
355.718	79.56
355.945	82.56
356.172	67.56
356.399	72.56
356.626	83.56
356.853	83.56
357.08	97.56
357.307	85.56
357.534	81.56
357.761	92.56
357.988	88.56
358.215	84.56
358.441	73.56
358.668	89.56
358.895	90.56
359.122	85.56
359.349	94.56
359.576	89.56
359.802	85.56
360.029	72.56
360.256	83.56
360.483	76.56
360.709	72.56
360.936	91.56
361.163	82.56
361.39	74.56
361.616	89.56
361.843	84.56
362.07	92.56
362.296	97.56
362.523	82.56
362.749	84.56
362.976	81.56
363.203	75.56
363.429	77.56
363.656	72.56
363.882	71.56
364.109	75.56
364.335	80.56
364.562	77.56
364.788	78.56
365.015	77.56
365.241	75.56
365.468	70.56
365.694	87.56
365.92	80.56
366.147	84.56
366.373	76.56
366.599	85.56
366.826	75.56
367.052	80.56
367.278	94.56
367.505	91.56
367.731	92.56
367.957	102.56
368.184	78.56
368.41	86.56
368.636	81.56
368.862	86.56
369.089	80.56
369.315	87.56
369.541	93.56
369.767	70.56
369.993	99.56
370.219	83.56
370.445	81.56
370.672	72.56
370.898	88.56
371.124	82.56
371.35	83.56
371.576	76.56
371.802	72.56
372.028	88.56
372.254	70.56
372.48	74.56
372.706	98.56
372.932	81.56
373.158	90.56
373.384	86.56
373.61	73.56
373.835	89.56
374.061	83.56
374.287	74.56
374.513	75.56
374.739	72.56
374.965	80.56
375.191	81.56
375.416	80.56
375.642	82.56
375.868	88.56
376.094	78.56
376.319	83.56
376.545	66.56
376.771	75.56
376.997	66.56
377.222	89.56
377.448	104.56
377.674	78.56
377.899	81.56
378.125	78.56
378.35	84.56
378.576	84.56
378.802	77.56
379.027	85.56
379.253	76.56
379.478	93.56
379.704	85.56
379.929	91.56
380.155	90.56
380.38	80.56
380.606	83.56
380.831	95.56
381.057	76.56
381.282	85.56
381.507	76.56
381.733	82.56
381.958	74.56
382.184	83.56
382.409	80.56
382.634	75.56
382.86	87.56
383.085	83.56
383.31	82.56
383.535	90.56
383.761	71.56
383.986	87.56
384.211	86.56
384.436	82.56
384.662	74.56
384.887	89.56
385.112	83.56
385.337	88.56
385.562	75.56
385.787	62.56
386.013	90.56
386.238	76.56
386.463	78.56
386.688	99.56
386.913	87.56
387.138	76.56
387.363	89.56
387.588	102.56
387.813	81.56
388.038	65.56
388.263	86.56
388.488	81.56
388.713	75.56
388.938	73.56
389.163	88.56
389.387	70.56
389.612	104.56
389.837	70.56
390.062	51.56
390.287	80.56
390.512	75.56
390.736	89.56
390.961	88.56
391.186	92.56
391.411	78.56
391.636	80.56
391.86	77.56
392.085	93.56
392.31	82.56
392.534	82.56
392.759	81.56
392.984	84.56
393.208	81.56
393.433	77.56
393.658	84.56
393.882	84.56
394.107	83.56
394.331	87.56
394.556	82.56
394.78	82.56
395.005	95.56
395.229	78.56
395.454	90.56
395.678	85.56
395.903	84.56
396.127	91.56
396.352	85.56
396.576	82.56
396.801	75.56
397.025	71.56
397.249	76.56
397.474	83.56
397.698	65.56
397.922	82.56
398.147	76.56
398.371	83.56
398.595	77.56
398.82	81.56
399.044	82.56
399.268	75.56
399.492	75.56
399.717	81.56
399.941	79.56
400.165	72.56
400.389	75.56
400.613	83.56
400.837	85.56
401.062	85.56
401.286	93.56
401.51	86.56
401.734	69.56
401.958	94.56
402.182	87.56
402.406	92.56
402.63	75.56
402.854	87.56
403.078	86.56
403.302	79.56
403.526	82.56
403.75	79.56
403.974	82.56
404.198	73.56
404.422	104.56
404.645	90.56
404.869	85.56
405.093	80.56
405.317	92.56
405.541	91.56
405.765	87.56
405.988	94.56
406.212	88.56
406.436	77.56
406.66	73.56
406.883	98.56
407.107	95.56
407.331	84.56
407.555	88.56
407.778	83.56
408.002	69.56
408.226	82.56
408.449	86.56
408.673	102.56
408.896	90.56
409.12	82.56
409.344	82.56
409.567	91.56
409.791	78.56
410.014	90.56
410.238	77.56
410.461	75.56
410.685	90.56
410.908	84.56
411.132	86.56
411.355	75.56
411.578	79.56
411.802	86.56
412.025	82.56
412.249	81.56
412.472	88.56
412.695	98.56
412.919	69.56
413.142	80.56
413.365	87.56
413.589	95.56
413.812	77.56
414.035	87.56
414.258	92.56
414.482	81.56
414.705	92.56
414.928	84.56
415.151	77.56
415.374	90.56
415.597	102.56
415.821	84.56
416.044	85.56
416.267	72.56
416.49	83.56
416.713	90.56
416.936	83.56
417.159	86.56
417.382	81.56
417.605	88.56
417.828	82.56
418.051	88.56
418.274	82.56
418.497	82.56
418.72	97.56
418.943	98.56
419.166	81.56
419.389	80.56
419.611	81.56
419.834	88.56
420.057	93.56
420.28	100.56
420.503	83.56
420.726	83.56
420.948	91.56
421.171	77.56
421.394	99.56
421.617	78.56
421.839	75.56
422.062	90.56
422.285	90.56
422.507	92.56
422.73	75.56
422.953	95.56
423.175	85.56
423.398	94.56
423.621	97.56
423.843	74.56
424.066	91.56
424.288	100.56
424.511	98.56
424.733	93.56
424.956	78.56
425.178	87.56
425.401	87.56
425.623	77.56
425.846	84.56
426.068	92.56
426.291	91.56
426.513	89.56
426.735	109.56
426.958	100.56
427.18	88.56
427.402	86.56
427.625	76.56
427.847	77.56
428.069	85.56
428.292	73.56
428.514	85.56
428.736	80.56
428.958	87.56
429.181	86.56
429.403	86.56
429.625	84.56
429.847	76.56
430.069	86.56
430.292	102.56
430.514	94.56
430.736	94.56
430.958	81.56
431.18	97.56
431.402	88.56
431.624	83.56
431.846	62.56
432.068	83.56
432.29	76.56
432.512	83.56
432.734	88.56
432.956	88.56
433.178	92.56
433.4	101.56
433.622	99.56
433.844	85.56
434.066	97.56
434.287	86.56
434.509	82.56
434.731	81.56
434.953	81.56
435.175	78.56
435.397	93.56
435.618	88.56
435.84	85.56
436.062	86.56
436.284	68.56
436.505	88.56
436.727	82.56
436.949	86.56
437.17	100.56
437.392	93.56
437.614	96.56
437.835	88.56
438.057	87.56
438.278	84.56
438.5	96.56
438.721	88.56
438.943	89.56
439.165	97.56
439.386	73.56
439.608	87.56
439.829	97.56
440.05	89.56
440.272	88.56
440.493	91.56
440.715	90.56
440.936	83.56
441.158	86.56
441.379	84.56
441.6	94.56
441.822	98.56
442.043	95.56
442.264	76.56
442.486	86.56
442.707	71.56
442.928	94.56
443.149	92.56
443.371	88.56
443.592	81.56
443.813	84.56
444.034	102.56
444.255	78.56
444.476	94.56
444.698	92.56
444.919	91.56
445.14	228.56
445.361	136.56
445.582	86.56
445.803	82.56
446.024	93.56
446.245	97.56
446.466	88.56
446.687	89.56
446.908	90.56
447.129	85.56
447.35	91.56
447.571	92.56
447.792	92.56
448.013	82.56
448.234	78.56
448.455	80.56
448.675	93.56
448.896	82.56
449.117	93.56
449.338	89.56
449.559	95.56
449.779	88.56
450	100.56
450.221	110.56
450.442	93.56
450.662	87.56
450.883	78.56
451.104	76.56
451.324	89.56
451.545	89.56
451.766	85.56
451.986	90.56
452.207	88.56
452.428	93.56
452.648	89.56
452.869	84.56
453.089	92.56
453.31	80.56
453.53	101.56
453.751	84.56
453.971	78.56
454.192	91.56
454.412	92.56
454.633	77.56
454.853	85.56
455.073	91.56
455.294	88.56
455.514	101.56
455.734	95.56
455.955	84.56
456.175	81.56
456.395	92.56
456.616	84.56
456.836	95.56
457.056	84.56
457.276	78.56
457.497	96.56
457.717	82.56
457.937	78.56
458.157	95.56
458.377	99.56
458.598	99.56
458.818	88.56
459.038	73.56
459.258	65.56
459.478	84.56
459.698	88.56
459.918	76.56
460.138	99.56
460.358	98.56
460.578	93.56
460.798	94.56
461.018	77.56
461.238	73.56
461.458	77.56
461.678	86.56
461.898	84.56
462.118	88.56
462.338	94.56
462.558	78.56
462.777	82.56
462.997	102.56
463.217	88.56
463.437	84.56
463.657	86.56
463.876	78.56
464.096	88.56
464.316	86.56
464.536	86.56
464.755	81.56
464.975	96.56
465.195	83.56
465.414	79.56
465.634	86.56
465.854	81.56
466.073	92.56
466.293	82.56
466.512	87.56
466.732	93.56
466.951	89.56
467.171	99.56
467.391	100.56
467.61	98.56
467.829	106.56
468.049	88.56
468.268	94.56
468.488	87.56
468.707	82.56
468.927	87.56
469.146	91.56
469.365	92.56
469.585	91.56
469.804	94.56
470.023	86.56
470.243	100.56
470.462	83.56
470.681	88.56
470.901	86.56
471.12	84.56
471.339	85.56
471.558	93.56
471.777	80.56
471.997	89.56
472.216	90.56
472.435	79.56
472.654	77.56
472.873	85.56
473.092	83.56
473.311	101.56
473.53	97.56
473.749	72.56
473.968	93.56
474.187	98.56
474.406	77.56
474.625	88.56
474.844	90.56
475.063	81.56
475.282	87.56
475.501	99.56
475.72	85.56
475.939	94.56
476.158	87.56
476.377	72.56
476.596	82.56
476.814	78.56
477.033	91.56
477.252	77.56
477.471	88.56
477.69	82.56
477.908	94.56
478.127	108.56
478.346	96.56
478.564	93.56
478.783	85.56
479.002	88.56
479.22	93.56
479.439	92.56
479.658	84.56
479.876	84.56
480.095	75.56
480.313	84.56
480.532	86.56
480.751	79.56
480.969	100.56
481.188	89.56
481.406	68.56
481.624	78.56
481.843	85.56
482.061	83.56
482.28	73.56
482.498	85.56
482.717	87.56
482.935	84.56
483.153	90.56
483.372	98.56
483.59	97.56
483.808	97.56
484.027	92.56
484.245	91.56
484.463	90.56
484.681	83.56
484.9	92.56
485.118	88.56
485.336	86.56
485.554	77.56
485.772	89.56
485.99	80.56
486.209	91.56
486.427	89.56
486.645	91.56
486.863	89.56
487.081	102.56
487.299	76.56
487.517	94.56
487.735	91.56
487.953	95.56
488.171	103.56
488.389	94.56
488.607	96.56
488.825	88.56
489.043	78.56
489.261	104.56
489.479	84.56
489.696	84.56
489.914	92.56
490.132	90.56
490.35	93.56
490.568	96.56
490.786	89.56
491.003	101.56
491.221	100.56
491.439	109.56
491.657	97.56
491.874	104.56
492.092	109.56
492.31	98.56
492.527	105.56
492.745	94.56
492.963	102.56
493.18	109.56
493.398	89.56
493.615	98.56
493.833	97.56
494.05	95.56
494.268	85.56
494.485	97.56
494.703	108.56
494.92	100.56
495.138	91.56
495.355	104.56
495.573	99.56
495.79	100.56
496.008	89.56
496.225	92.56
496.442	108.56
496.66	98.56
496.877	104.56
497.094	108.56
497.312	95.56
497.529	94.56
497.746	101.56
497.963	104.56
498.181	80.56
498.398	86.56
498.615	82.56
498.832	89.56
499.049	104.56
499.267	109.56
499.484	91.56
499.701	75.56
499.918	87.56
500.135	86.56
500.352	97.56
500.569	90.56
500.786	96.56
501.003	82.56
501.22	96.56
501.437	95.56
501.654	86.56
501.871	81.56
502.088	88.56
502.305	81.56
502.522	88.56
502.739	97.56
502.956	100.56
503.172	84.56
503.389	73.56
503.606	87.56
503.823	78.56
504.04	89.56
504.256	96.56
504.473	92.56
504.69	93.56
504.907	101.56
505.123	92.56
505.34	95.56
505.557	80.56
505.773	98.56
505.99	101.56
506.207	85.56
506.423	95.56
506.64	75.56
506.856	100.56
507.073	101.56
507.289	79.56
507.506	84.56
507.722	104.56
507.939	90.56
508.155	84.56
508.372	89.56
508.588	89.56
508.805	73.56
509.021	91.56
509.238	93.56
509.454	89.56
509.67	85.56
509.887	79.56
510.103	89.56
510.319	79.56
510.536	73.56
510.752	88.56
510.968	82.56
511.184	90.56
511.401	92.56
511.617	97.56
511.833	86.56
512.049	90.56
512.265	94.56
512.481	92.56
512.698	87.56
512.914	88.56
513.13	103.56
513.346	89.56
513.562	77.56
513.778	87.56
513.994	86.56
514.21	98.56
514.426	92.56
514.642	78.56
514.858	85.56
515.074	82.56
515.29	97.56
515.506	79.56
515.721	80.56
515.937	72.56
516.153	74.56
516.369	78.56
516.585	90.56
516.801	86.56
517.016	99.56
517.232	75.56
517.448	87.56
517.664	88.56
517.879	92.56
518.095	99.56
518.311	96.56
518.527	82.56
