Data from Zn(NO3)2Standard.Agarose3%.GreenCap.LampEnergy5.5.E.O_HRD10591_15-00-49-768.txt Node
Date: Mon Jul 22 15:00:49 EDT 2019
User: cochatt
Spectrometer: HR+D1059
Trigger mode: 1
Integration Time (sec): 1.000000E-1
Scans to average: 1
Electric dark correction enabled: true
Nonlinearity correction enabled: false
Boxcar width: 0
XAxis mode: Wavelengths
Number of Pixels in Spectrum: 2048
>>>>>Begin Spectral Data<<<<<
223.165	-10.44
223.4	-10.44
223.635	-10.44
223.869	-13.44
224.104	-22.44
224.338	-16.44
224.573	-20.44
224.808	0.56
225.042	-27.44
225.277	-0.44
225.511	9.56
225.746	4.56
225.98	-2.44
226.215	16.56
226.449	8.56
226.683	22.56
226.918	27.56
227.152	23.56
227.387	34.56
227.621	41.56
227.856	42.56
228.09	44.56
228.324	50.56
228.559	56.56
228.793	46.56
229.027	63.56
229.262	50.56
229.496	77.56
229.73	69.56
229.964	84.56
230.199	74.56
230.433	82.56
230.667	81.56
230.901	73.56
231.136	75.56
231.37	85.56
231.604	74.56
231.838	84.56
232.072	61.56
232.306	80.56
232.541	78.56
232.775	84.56
233.009	85.56
233.243	87.56
233.477	77.56
233.711	77.56
233.945	80.56
234.179	72.56
234.413	89.56
234.647	76.56
234.881	82.56
235.115	80.56
235.349	75.56
235.583	77.56
235.817	70.56
236.051	72.56
236.285	60.56
236.519	83.56
236.753	87.56
236.987	82.56
237.221	92.56
237.455	83.56
237.689	79.56
237.922	69.56
238.156	66.56
238.39	68.56
238.624	70.56
238.858	73.56
239.091	84.56
239.325	79.56
239.559	76.56
239.793	85.56
240.027	82.56
240.26	74.56
240.494	73.56
240.728	74.56
240.961	72.56
241.195	66.56
241.429	70.56
241.662	83.56
241.896	83.56
242.13	73.56
242.363	71.56
242.597	82.56
242.83	83.56
243.064	73.56
243.298	75.56
243.531	70.56
243.765	78.56
243.998	77.56
244.232	72.56
244.465	69.56
244.699	67.56
244.932	77.56
245.166	68.56
245.399	77.56
245.633	69.56
245.866	72.56
246.099	82.56
246.333	75.56
246.566	75.56
246.8	74.56
247.033	83.56
247.266	77.56
247.5	71.56
247.733	79.56
247.966	79.56
248.2	72.56
248.433	71.56
248.666	73.56
248.899	78.56
249.133	75.56
249.366	85.56
249.599	81.56
249.832	71.56
250.066	75.56
250.299	67.56
250.532	67.56
250.765	86.56
250.998	84.56
251.231	90.56
251.465	71.56
251.698	81.56
251.931	65.56
252.164	71.56
252.397	83.56
252.63	83.56
252.863	75.56
253.096	67.56
253.329	80.56
253.562	70.56
253.795	74.56
254.028	83.56
254.261	85.56
254.494	67.56
254.727	77.56
254.96	77.56
255.193	79.56
255.426	70.56
255.659	79.56
255.892	92.56
256.124	74.56
256.357	71.56
256.59	74.56
256.823	72.56
257.056	86.56
257.289	73.56
257.521	83.56
257.754	83.56
257.987	77.56
258.22	76.56
258.452	87.56
258.685	51.56
258.918	75.56
259.151	84.56
259.383	80.56
259.616	70.56
259.849	96.56
260.081	95.56
260.314	77.56
260.547	95.56
260.779	86.56
261.012	76.56
261.244	88.56
261.477	80.56
261.71	81.56
261.942	75.56
262.175	72.56
262.407	75.56
262.64	83.56
262.872	79.56
263.105	85.56
263.337	86.56
263.57	82.56
263.802	73.56
264.035	70.56
264.267	77.56
264.499	76.56
264.732	82.56
264.964	74.56
265.197	67.56
265.429	75.56
265.661	87.56
265.894	74.56
266.126	88.56
266.358	96.56
266.591	89.56
266.823	79.56
267.055	86.56
267.287	75.56
267.52	91.56
267.752	77.56
267.984	87.56
268.216	68.56
268.448	96.56
268.681	79.56
268.913	82.56
269.145	87.56
269.377	70.56
269.609	85.56
269.841	74.56
270.073	89.56
270.306	84.56
270.538	77.56
270.77	79.56
271.002	72.56
271.234	87.56
271.466	75.56
271.698	83.56
271.93	87.56
272.162	81.56
272.394	85.56
272.626	76.56
272.858	75.56
273.09	89.56
273.322	89.56
273.553	94.56
273.785	92.56
274.017	75.56
274.249	81.56
274.481	87.56
274.713	88.56
274.945	83.56
275.176	92.56
275.408	81.56
275.64	71.56
275.872	84.56
276.104	76.56
276.335	75.56
276.567	68.56
276.799	84.56
277.031	82.56
277.262	77.56
277.494	84.56
277.726	87.56
277.957	82.56
278.189	77.56
278.421	84.56
278.652	87.56
278.884	82.56
279.115	67.56
279.347	76.56
279.579	75.56
279.81	76.56
280.042	86.56
280.273	76.56
280.505	66.56
280.736	89.56
280.968	82.56
281.199	80.56
281.431	89.56
281.662	85.56
281.894	89.56
282.125	85.56
282.356	89.56
282.588	71.56
282.819	85.56
283.051	96.56
283.282	85.56
283.513	85.56
283.745	74.56
283.976	80.56
284.207	77.56
284.439	89.56
284.67	90.56
284.901	83.56
285.132	83.56
285.364	87.56
285.595	86.56
285.826	98.56
286.057	78.56
286.288	85.56
286.52	87.56
286.751	65.56
286.982	93.56
287.213	85.56
287.444	102.56
287.675	73.56
287.906	88.56
288.138	62.56
288.369	79.56
288.6	83.56
288.831	83.56
289.062	95.56
289.293	88.56
289.524	81.56
289.755	81.56
289.986	76.56
290.217	82.56
290.448	68.56
290.679	84.56
290.91	77.56
291.141	78.56
291.371	91.56
291.602	91.56
291.833	76.56
292.064	69.56
292.295	80.56
292.526	84.56
292.757	74.56
292.987	84.56
293.218	98.56
293.449	93.56
293.68	87.56
293.91	69.56
294.141	86.56
294.372	78.56
294.603	88.56
294.833	88.56
295.064	81.56
295.295	78.56
295.525	89.56
295.756	88.56
295.987	78.56
296.217	76.56
296.448	75.56
296.679	91.56
296.909	80.56
297.14	71.56
297.37	89.56
297.601	95.56
297.831	92.56
298.062	95.56
298.292	76.56
298.523	81.56
298.753	83.56
298.984	97.56
299.214	75.56
299.445	85.56
299.675	93.56
299.905	84.56
300.136	87.56
300.366	76.56
300.597	76.56
300.827	83.56
301.057	75.56
301.288	73.56
301.518	75.56
301.748	85.56
301.979	95.56
302.209	86.56
302.439	87.56
302.669	86.56
302.9	87.56
303.13	79.56
303.36	83.56
303.59	77.56
303.82	93.56
304.051	84.56
304.281	90.56
304.511	80.56
304.741	82.56
304.971	88.56
305.201	99.56
305.431	90.56
305.661	84.56
305.891	77.56
306.121	76.56
306.352	68.56
306.582	79.56
306.812	81.56
307.042	90.56
307.272	95.56
307.502	80.56
307.731	76.56
307.961	79.56
308.191	79.56
308.421	84.56
308.651	76.56
308.881	94.56
309.111	72.56
309.341	81.56
309.571	95.56
309.8	83.56
310.03	91.56
310.26	91.56
310.49	80.56
310.72	81.56
310.949	83.56
311.179	76.56
311.409	89.56
311.639	96.56
311.868	81.56
312.098	66.56
312.328	87.56
312.557	82.56
312.787	86.56
313.017	81.56
313.246	103.56
313.476	95.56
313.706	94.56
313.935	87.56
314.165	84.56
314.394	76.56
314.624	83.56
314.853	83.56
315.083	71.56
315.312	79.56
315.542	85.56
315.771	91.56
316.001	88.56
316.23	88.56
316.46	85.56
316.689	83.56
316.919	83.56
317.148	95.56
317.377	87.56
317.607	90.56
317.836	79.56
318.065	84.56
318.295	83.56
318.524	77.56
318.753	80.56
318.983	71.56
319.212	73.56
319.441	77.56
319.67	88.56
319.9	91.56
320.129	85.56
320.358	81.56
320.587	80.56
320.816	69.56
321.046	86.56
321.275	100.56
321.504	87.56
321.733	81.56
321.962	89.56
322.191	95.56
322.42	74.56
322.649	81.56
322.878	87.56
323.108	92.56
323.337	77.56
323.566	100.56
323.795	93.56
324.024	94.56
324.253	81.56
324.482	91.56
324.71	80.56
324.939	85.56
325.168	91.56
325.397	99.56
325.626	92.56
325.855	77.56
326.084	93.56
326.313	85.56
326.542	86.56
326.77	77.56
326.999	87.56
327.228	72.56
327.457	84.56
327.686	89.56
327.914	77.56
328.143	88.56
328.372	77.56
328.6	84.56
328.829	79.56
329.058	77.56
329.287	94.56
329.515	81.56
329.744	89.56
329.972	99.56
330.201	92.56
330.43	82.56
330.658	84.56
330.887	73.56
331.115	90.56
331.344	82.56
331.572	77.56
331.801	94.56
332.03	91.56
332.258	99.56
332.486	82.56
332.715	71.56
332.943	81.56
333.172	87.56
333.4	87.56
333.629	86.56
333.857	77.56
334.085	83.56
334.314	78.56
334.542	89.56
334.771	91.56
334.999	77.56
335.227	74.56
335.455	95.56
335.684	93.56
335.912	73.56
336.14	76.56
336.369	71.56
336.597	88.56
336.825	80.56
337.053	82.56
337.281	77.56
337.51	94.56
337.738	72.56
337.966	79.56
338.194	86.56
338.422	81.56
338.65	75.56
338.878	67.56
339.106	88.56
339.334	95.56
339.562	83.56
339.79	84.56
340.018	92.56
340.246	84.56
340.474	77.56
340.702	80.56
340.93	83.56
341.158	72.56
341.386	76.56
341.614	84.56
341.842	84.56
342.07	92.56
342.298	77.56
342.526	70.56
342.754	84.56
342.981	66.56
343.209	73.56
343.437	87.56
343.665	76.56
343.893	70.56
344.12	94.56
344.348	80.56
344.576	75.56
344.804	89.56
345.031	78.56
345.259	69.56
345.487	95.56
345.714	63.56
345.942	85.56
346.17	78.56
346.397	87.56
346.625	80.56
346.853	93.56
347.08	92.56
347.308	72.56
347.535	75.56
347.763	83.56
347.99	101.56
348.218	92.56
348.445	80.56
348.673	71.56
348.9	84.56
349.128	87.56
349.355	71.56
349.583	91.56
349.81	88.56
350.037	83.56
350.265	86.56
350.492	67.56
350.72	87.56
350.947	82.56
351.174	75.56
351.402	81.56
351.629	99.56
351.856	90.56
352.083	73.56
352.311	82.56
352.538	83.56
352.765	83.56
352.992	88.56
353.22	85.56
353.447	93.56
353.674	78.56
353.901	87.56
354.128	88.56
354.355	90.56
354.583	97.56
354.81	90.56
355.037	71.56
355.264	83.56
355.491	69.56
355.718	79.56
355.945	77.56
356.172	92.56
356.399	78.56
356.626	82.56
356.853	75.56
357.08	77.56
357.307	83.56
357.534	79.56
357.761	85.56
357.988	79.56
358.215	89.56
358.441	82.56
358.668	75.56
358.895	74.56
359.122	92.56
359.349	97.56
359.576	85.56
359.802	92.56
360.029	78.56
360.256	86.56
360.483	86.56
360.709	82.56
360.936	93.56
361.163	96.56
361.39	81.56
361.616	90.56
361.843	69.56
362.07	87.56
362.296	84.56
362.523	88.56
362.749	72.56
362.976	86.56
363.203	97.56
363.429	80.56
363.656	88.56
363.882	86.56
364.109	79.56
364.335	91.56
364.562	95.56
364.788	82.56
365.015	72.56
365.241	82.56
365.468	92.56
365.694	76.56
365.92	90.56
366.147	78.56
366.373	80.56
366.599	77.56
366.826	80.56
367.052	84.56
367.278	83.56
367.505	78.56
367.731	83.56
367.957	93.56
368.184	83.56
368.41	81.56
368.636	91.56
368.862	98.56
369.089	72.56
369.315	88.56
369.541	87.56
369.767	88.56
369.993	86.56
370.219	80.56
370.445	89.56
370.672	91.56
370.898	73.56
371.124	72.56
371.35	82.56
371.576	101.56
371.802	79.56
372.028	85.56
372.254	77.56
372.48	77.56
372.706	78.56
372.932	72.56
373.158	79.56
373.384	90.56
373.61	74.56
373.835	72.56
374.061	76.56
374.287	100.56
374.513	82.56
374.739	94.56
374.965	77.56
375.191	81.56
375.416	89.56
375.642	88.56
375.868	91.56
376.094	78.56
376.319	87.56
376.545	85.56
376.771	81.56
376.997	87.56
377.222	98.56
377.448	85.56
377.674	81.56
377.899	76.56
378.125	83.56
378.35	85.56
378.576	80.56
378.802	85.56
379.027	78.56
379.253	81.56
379.478	75.56
379.704	73.56
379.929	76.56
380.155	91.56
380.38	89.56
380.606	63.56
380.831	75.56
381.057	81.56
381.282	87.56
381.507	89.56
381.733	95.56
381.958	86.56
382.184	71.56
382.409	83.56
382.634	95.56
382.86	86.56
383.085	87.56
383.31	82.56
383.535	86.56
383.761	91.56
383.986	83.56
384.211	93.56
384.436	80.56
384.662	80.56
384.887	78.56
385.112	60.56
385.337	72.56
385.562	84.56
385.787	74.56
386.013	79.56
386.238	76.56
386.463	76.56
386.688	69.56
386.913	90.56
387.138	95.56
387.363	88.56
387.588	80.56
387.813	84.56
388.038	87.56
388.263	85.56
388.488	79.56
388.713	74.56
388.938	82.56
389.163	92.56
389.387	82.56
389.612	92.56
389.837	88.56
390.062	76.56
390.287	83.56
390.512	75.56
390.736	92.56
390.961	95.56
391.186	74.56
391.411	80.56
391.636	68.56
391.86	71.56
392.085	106.56
392.31	87.56
392.534	86.56
392.759	71.56
392.984	83.56
393.208	79.56
393.433	75.56
393.658	74.56
393.882	77.56
394.107	87.56
394.331	78.56
394.556	74.56
394.78	69.56
395.005	76.56
395.229	89.56
395.454	67.56
395.678	96.56
395.903	91.56
396.127	82.56
396.352	94.56
396.576	81.56
396.801	76.56
397.025	90.56
397.249	83.56
397.474	92.56
397.698	90.56
397.922	92.56
398.147	86.56
398.371	69.56
398.595	92.56
398.82	91.56
399.044	78.56
399.268	77.56
399.492	83.56
399.717	68.56
399.941	101.56
400.165	89.56
400.389	74.56
400.613	85.56
400.837	82.56
401.062	71.56
401.286	83.56
401.51	78.56
401.734	71.56
401.958	90.56
402.182	85.56
402.406	73.56
402.63	70.56
402.854	84.56
403.078	84.56
403.302	92.56
403.526	87.56
403.75	77.56
403.974	101.56
404.198	73.56
404.422	80.56
404.645	74.56
404.869	80.56
405.093	64.56
405.317	74.56
405.541	76.56
405.765	87.56
405.988	78.56
406.212	79.56
406.436	79.56
406.66	73.56
406.883	89.56
407.107	74.56
407.331	59.56
407.555	85.56
407.778	77.56
408.002	85.56
408.226	92.56
408.449	82.56
408.673	82.56
408.896	59.56
409.12	83.56
409.344	79.56
409.567	75.56
409.791	74.56
410.014	87.56
410.238	89.56
410.461	95.56
410.685	89.56
410.908	80.56
411.132	85.56
411.355	72.56
411.578	81.56
411.802	81.56
412.025	73.56
412.249	90.56
412.472	83.56
412.695	86.56
412.919	100.56
413.142	76.56
413.365	85.56
413.589	72.56
413.812	83.56
414.035	96.56
414.258	80.56
414.482	77.56
414.705	81.56
414.928	90.56
415.151	74.56
415.374	88.56
415.597	87.56
415.821	94.56
416.044	79.56
416.267	107.56
416.49	84.56
416.713	89.56
416.936	81.56
417.159	83.56
417.382	98.56
417.605	84.56
417.828	83.56
418.051	83.56
418.274	80.56
418.497	89.56
418.72	84.56
418.943	84.56
419.166	94.56
419.389	91.56
419.611	95.56
419.834	80.56
420.057	84.56
420.28	96.56
420.503	92.56
420.726	95.56
420.948	82.56
421.171	93.56
421.394	90.56
421.617	103.56
421.839	83.56
422.062	98.56
422.285	86.56
422.507	84.56
422.73	95.56
422.953	87.56
423.175	82.56
423.398	84.56
423.621	94.56
423.843	99.56
424.066	90.56
424.288	87.56
424.511	92.56
424.733	107.56
424.956	89.56
425.178	72.56
425.401	89.56
425.623	100.56
425.846	84.56
426.068	92.56
426.291	89.56
426.513	75.56
426.735	95.56
426.958	89.56
427.18	82.56
427.402	92.56
427.625	88.56
427.847	83.56
428.069	77.56
428.292	92.56
428.514	93.56
428.736	84.56
428.958	97.56
429.181	77.56
429.403	88.56
429.625	89.56
429.847	97.56
430.069	90.56
430.292	96.56
430.514	96.56
430.736	86.56
430.958	101.56
431.18	86.56
431.402	87.56
431.624	84.56
431.846	73.56
432.068	88.56
432.29	95.56
432.512	84.56
432.734	84.56
432.956	88.56
433.178	95.56
433.4	94.56
433.622	98.56
433.844	98.56
434.066	87.56
434.287	88.56
434.509	75.56
434.731	63.56
434.953	87.56
435.175	82.56
435.397	96.56
435.618	88.56
435.84	79.56
436.062	82.56
436.284	88.56
436.505	89.56
436.727	107.56
436.949	74.56
437.17	71.56
437.392	89.56
437.614	99.56
437.835	82.56
438.057	66.56
438.278	82.56
438.5	101.56
438.721	71.56
438.943	97.56
439.165	90.56
439.386	77.56
439.608	79.56
439.829	76.56
440.05	79.56
440.272	86.56
440.493	86.56
440.715	76.56
440.936	86.56
441.158	84.56
441.379	90.56
441.6	113.56
441.822	105.56
442.043	73.56
442.264	71.56
442.486	90.56
442.707	75.56
442.928	78.56
443.149	85.56
443.371	95.56
443.592	83.56
443.813	75.56
444.034	73.56
444.255	86.56
444.476	89.56
444.698	81.56
444.919	77.56
445.14	187.56
445.361	133.56
445.582	107.56
445.803	97.56
446.024	82.56
446.245	99.56
446.466	84.56
446.687	76.56
446.908	88.56
447.129	88.56
447.35	84.56
447.571	83.56
447.792	97.56
448.013	91.56
448.234	83.56
448.455	83.56
448.675	79.56
448.896	87.56
449.117	95.56
449.338	89.56
449.559	75.56
449.779	88.56
450	81.56
450.221	83.56
450.442	91.56
450.662	96.56
450.883	74.56
451.104	82.56
451.324	90.56
451.545	82.56
451.766	85.56
451.986	94.56
452.207	85.56
452.428	98.56
452.648	89.56
452.869	80.56
453.089	91.56
453.31	88.56
453.53	90.56
453.751	88.56
453.971	84.56
454.192	82.56
454.412	86.56
454.633	87.56
454.853	81.56
455.073	78.56
455.294	96.56
455.514	86.56
455.734	88.56
455.955	95.56
456.175	87.56
456.395	96.56
456.616	97.56
456.836	84.56
457.056	82.56
457.276	99.56
457.497	87.56
457.717	104.56
457.937	71.56
458.157	89.56
458.377	84.56
458.598	82.56
458.818	93.56
459.038	86.56
459.258	89.56
459.478	87.56
459.698	85.56
459.918	91.56
460.138	92.56
460.358	93.56
460.578	85.56
460.798	72.56
461.018	86.56
461.238	80.56
461.458	88.56
461.678	88.56
461.898	85.56
462.118	75.56
462.338	100.56
462.558	81.56
462.777	77.56
462.997	80.56
463.217	87.56
463.437	93.56
463.657	83.56
463.876	74.56
464.096	77.56
464.316	75.56
464.536	82.56
464.755	99.56
464.975	92.56
465.195	83.56
465.414	80.56
465.634	88.56
465.854	82.56
466.073	86.56
466.293	83.56
466.512	74.56
466.732	75.56
466.951	75.56
467.171	94.56
467.391	95.56
467.61	101.56
467.829	76.56
468.049	74.56
468.268	90.56
468.488	75.56
468.707	91.56
468.927	99.56
469.146	93.56
469.365	108.56
469.585	96.56
469.804	91.56
470.023	93.56
470.243	90.56
470.462	84.56
470.681	95.56
470.901	85.56
471.12	93.56
471.339	111.56
471.558	80.56
471.777	88.56
471.997	92.56
472.216	98.56
472.435	75.56
472.654	90.56
472.873	91.56
473.092	72.56
473.311	80.56
473.53	65.56
473.749	86.56
473.968	91.56
474.187	84.56
474.406	97.56
474.625	93.56
474.844	95.56
475.063	80.56
475.282	81.56
475.501	74.56
475.72	83.56
475.939	72.56
476.158	81.56
476.377	93.56
476.596	94.56
476.814	91.56
477.033	83.56
477.252	75.56
477.471	78.56
477.69	89.56
477.908	78.56
478.127	89.56
478.346	92.56
478.564	70.56
478.783	95.56
479.002	89.56
479.22	86.56
479.439	100.56
479.658	93.56
479.876	80.56
480.095	70.56
480.313	89.56
480.532	89.56
480.751	81.56
480.969	85.56
481.188	80.56
481.406	84.56
481.624	92.56
481.843	69.56
482.061	85.56
482.28	97.56
482.498	89.56
482.717	87.56
482.935	88.56
483.153	101.56
483.372	99.56
483.59	89.56
483.808	82.56
484.027	102.56
484.245	83.56
484.463	92.56
484.681	97.56
484.9	91.56
485.118	99.56
485.336	89.56
485.554	97.56
485.772	82.56
485.99	83.56
486.209	75.56
486.427	88.56
486.645	81.56
486.863	92.56
487.081	90.56
487.299	94.56
487.517	105.56
487.735	103.56
487.953	96.56
488.171	93.56
488.389	89.56
488.607	87.56
488.825	89.56
489.043	93.56
489.261	103.56
489.479	103.56
489.696	99.56
489.914	76.56
490.132	101.56
490.35	89.56
490.568	77.56
490.786	93.56
491.003	90.56
491.221	99.56
491.439	105.56
491.657	91.56
491.874	100.56
492.092	101.56
492.31	92.56
492.527	89.56
492.745	104.56
492.963	92.56
493.18	107.56
493.398	105.56
493.615	82.56
493.833	72.56
494.05	97.56
494.268	96.56
494.485	93.56
494.703	87.56
494.92	89.56
495.138	107.56
495.355	84.56
495.573	88.56
495.79	109.56
496.008	93.56
496.225	106.56
496.442	106.56
496.66	102.56
496.877	93.56
497.094	97.56
497.312	99.56
497.529	81.56
497.746	69.56
497.963	98.56
498.181	79.56
498.398	77.56
498.615	92.56
498.832	77.56
499.049	85.56
499.267	72.56
499.484	87.56
499.701	74.56
499.918	91.56
500.135	84.56
500.352	86.56
500.569	93.56
500.786	89.56
501.003	101.56
501.22	96.56
501.437	89.56
501.654	79.56
501.871	85.56
502.088	90.56
502.305	90.56
502.522	94.56
502.739	94.56
502.956	90.56
503.172	84.56
503.389	76.56
503.606	73.56
503.823	87.56
504.04	96.56
504.256	107.56
504.473	85.56
504.69	78.56
504.907	95.56
505.123	100.56
505.34	95.56
505.557	82.56
505.773	87.56
505.99	90.56
506.207	97.56
506.423	93.56
506.64	84.56
506.856	88.56
507.073	74.56
507.289	91.56
507.506	76.56
507.722	84.56
507.939	98.56
508.155	91.56
508.372	79.56
508.588	89.56
508.805	84.56
509.021	90.56
509.238	76.56
509.454	80.56
509.67	76.56
509.887	77.56
510.103	83.56
510.319	95.56
510.536	83.56
510.752	83.56
510.968	83.56
511.184	85.56
511.401	74.56
511.617	77.56
511.833	96.56
512.049	78.56
512.265	89.56
512.481	80.56
512.698	75.56
512.914	83.56
513.13	83.56
513.346	77.56
513.562	90.56
513.778	83.56
513.994	88.56
514.21	91.56
514.426	75.56
514.642	93.56
514.858	97.56
515.074	89.56
515.29	73.56
515.506	80.56
515.721	90.56
515.937	84.56
516.153	88.56
516.369	73.56
516.585	84.56
516.801	81.56
517.016	76.56
517.232	83.56
517.448	81.56
517.664	90.56
517.879	92.56
518.095	93.56
518.311	84.56
518.527	89.56
518.742	81.56
