Data from Zn(NO3)2Standard.Agarose3%.GreenCap.LampEnergy10E.O_HRD10591_15-07-35-945.txt Node
Date: Mon Jul 22 15:07:35 EDT 2019
User: cochatt
Spectrometer: HR+D1059
Trigger mode: 1
Integration Time (sec): 1.000000E-1
Scans to average: 1
Electric dark correction enabled: true
Nonlinearity correction enabled: false
Boxcar width: 0
XAxis mode: Wavelengths
Number of Pixels in Spectrum: 2048
>>>>>Begin Spectral Data<<<<<
223.165	-13.75
223.4	-13.75
223.635	-13.75
223.869	-16.75
224.104	-9.75
224.338	-8.75
224.573	-13.75
224.808	-4.75
225.042	-4.75
225.277	-7.75
225.511	-5.75
225.746	2.25
225.98	-1.75
226.215	-5.75
226.449	6.25
226.683	28.25
226.918	15.25
227.152	41.25
227.387	36.25
227.621	28.25
227.856	41.25
228.09	41.25
228.324	52.25
228.559	66.25
228.793	64.25
229.027	53.25
229.262	56.25
229.496	66.25
229.73	67.25
229.964	71.25
230.199	69.25
230.433	79.25
230.667	88.25
230.901	76.25
231.136	65.25
231.37	70.25
231.604	80.25
231.838	75.25
232.072	89.25
232.306	80.25
232.541	82.25
232.775	86.25
233.009	63.25
233.243	93.25
233.477	78.25
233.711	83.25
233.945	79.25
234.179	97.25
234.413	76.25
234.647	82.25
234.881	77.25
235.115	78.25
235.349	82.25
235.583	83.25
235.817	70.25
236.051	76.25
236.285	87.25
236.519	82.25
236.753	85.25
236.987	86.25
237.221	83.25
237.455	79.25
237.689	87.25
237.922	76.25
238.156	75.25
238.39	79.25
238.624	91.25
238.858	85.25
239.091	70.25
239.325	81.25
239.559	79.25
239.793	65.25
240.027	83.25
240.26	69.25
240.494	85.25
240.728	74.25
240.961	75.25
241.195	68.25
241.429	72.25
241.662	80.25
241.896	92.25
242.13	84.25
242.363	87.25
242.597	76.25
242.83	79.25
243.064	79.25
243.298	70.25
243.531	90.25
243.765	76.25
243.998	82.25
244.232	79.25
244.465	89.25
244.699	76.25
244.932	76.25
245.166	88.25
245.399	84.25
245.633	85.25
245.866	76.25
246.099	62.25
246.333	70.25
246.566	80.25
246.8	79.25
247.033	89.25
247.266	77.25
247.5	79.25
247.733	90.25
247.966	89.25
248.2	88.25
248.433	87.25
248.666	84.25
248.899	76.25
249.133	85.25
249.366	90.25
249.599	77.25
249.832	84.25
250.066	62.25
250.299	69.25
250.532	85.25
250.765	83.25
250.998	88.25
251.231	81.25
251.465	66.25
251.698	67.25
251.931	92.25
252.164	73.25
252.397	83.25
252.63	89.25
252.863	100.25
253.096	87.25
253.329	90.25
253.562	78.25
253.795	75.25
254.028	100.25
254.261	72.25
254.494	67.25
254.727	77.25
254.96	94.25
255.193	77.25
255.426	76.25
255.659	83.25
255.892	73.25
256.124	84.25
256.357	95.25
256.59	86.25
256.823	84.25
257.056	76.25
257.289	82.25
257.521	84.25
257.754	77.25
257.987	75.25
258.22	81.25
258.452	84.25
258.685	75.25
258.918	71.25
259.151	90.25
259.383	77.25
259.616	96.25
259.849	76.25
260.081	72.25
260.314	82.25
260.547	93.25
260.779	76.25
261.012	88.25
261.244	87.25
261.477	90.25
261.71	80.25
261.942	102.25
262.175	85.25
262.407	94.25
262.64	86.25
262.872	80.25
263.105	100.25
263.337	85.25
263.57	80.25
263.802	93.25
264.035	89.25
264.267	88.25
264.499	91.25
264.732	82.25
264.964	76.25
265.197	81.25
265.429	82.25
265.661	83.25
265.894	85.25
266.126	76.25
266.358	87.25
266.591	86.25
266.823	83.25
267.055	77.25
267.287	86.25
267.52	99.25
267.752	86.25
267.984	86.25
268.216	91.25
268.448	92.25
268.681	72.25
268.913	90.25
269.145	79.25
269.377	86.25
269.609	80.25
269.841	80.25
270.073	83.25
270.306	83.25
270.538	86.25
270.77	84.25
271.002	79.25
271.234	90.25
271.466	98.25
271.698	78.25
271.93	84.25
272.162	73.25
272.394	89.25
272.626	79.25
272.858	93.25
273.09	85.25
273.322	94.25
273.553	81.25
273.785	86.25
274.017	86.25
274.249	70.25
274.481	79.25
274.713	90.25
274.945	94.25
275.176	90.25
275.408	90.25
275.64	92.25
275.872	88.25
276.104	95.25
276.335	103.25
276.567	91.25
276.799	77.25
277.031	68.25
277.262	94.25
277.494	82.25
277.726	86.25
277.957	88.25
278.189	74.25
278.421	86.25
278.652	102.25
278.884	103.25
279.115	90.25
279.347	92.25
279.579	74.25
279.81	77.25
280.042	91.25
280.273	95.25
280.505	81.25
280.736	89.25
280.968	87.25
281.199	80.25
281.431	83.25
281.662	97.25
281.894	82.25
282.125	85.25
282.356	92.25
282.588	91.25
282.819	84.25
283.051	100.25
283.282	70.25
283.513	90.25
283.745	90.25
283.976	82.25
284.207	91.25
284.439	85.25
284.67	78.25
284.901	78.25
285.132	83.25
285.364	86.25
285.595	80.25
285.826	87.25
286.057	78.25
286.288	86.25
286.52	77.25
286.751	85.25
286.982	87.25
287.213	100.25
287.444	94.25
287.675	77.25
287.906	90.25
288.138	78.25
288.369	84.25
288.6	76.25
288.831	83.25
289.062	98.25
289.293	78.25
289.524	73.25
289.755	79.25
289.986	74.25
290.217	79.25
290.448	93.25
290.679	80.25
290.91	88.25
291.141	83.25
291.371	91.25
291.602	88.25
291.833	92.25
292.064	90.25
292.295	78.25
292.526	77.25
292.757	83.25
292.987	85.25
293.218	82.25
293.449	90.25
293.68	91.25
293.91	94.25
294.141	94.25
294.372	91.25
294.603	83.25
294.833	84.25
295.064	86.25
295.295	95.25
295.525	95.25
295.756	81.25
295.987	70.25
296.217	78.25
296.448	90.25
296.679	99.25
296.909	98.25
297.14	77.25
297.37	90.25
297.601	82.25
297.831	96.25
298.062	84.25
298.292	85.25
298.523	79.25
298.753	75.25
298.984	82.25
299.214	104.25
299.445	82.25
299.675	91.25
299.905	86.25
300.136	101.25
300.366	94.25
300.597	86.25
300.827	92.25
301.057	109.25
301.288	79.25
301.518	88.25
301.748	92.25
301.979	84.25
302.209	75.25
302.439	77.25
302.669	77.25
302.9	84.25
303.13	85.25
303.36	86.25
303.59	89.25
303.82	92.25
304.051	87.25
304.281	82.25
304.511	87.25
304.741	66.25
304.971	86.25
305.201	88.25
305.431	101.25
305.661	93.25
305.891	91.25
306.121	78.25
306.352	75.25
306.582	89.25
306.812	76.25
307.042	77.25
307.272	78.25
307.502	86.25
307.731	87.25
307.961	76.25
308.191	89.25
308.421	94.25
308.651	90.25
308.881	101.25
309.111	96.25
309.341	87.25
309.571	82.25
309.8	80.25
310.03	79.25
310.26	79.25
310.49	98.25
310.72	97.25
310.949	81.25
311.179	93.25
311.409	85.25
311.639	101.25
311.868	90.25
312.098	87.25
312.328	76.25
312.557	77.25
312.787	89.25
313.017	84.25
313.246	93.25
313.476	87.25
313.706	89.25
313.935	72.25
314.165	86.25
314.394	86.25
314.624	85.25
314.853	89.25
315.083	81.25
315.312	81.25
315.542	97.25
315.771	78.25
316.001	87.25
316.23	89.25
316.46	87.25
316.689	95.25
316.919	87.25
317.148	100.25
317.377	78.25
317.607	100.25
317.836	83.25
318.065	87.25
318.295	83.25
318.524	88.25
318.753	91.25
318.983	90.25
319.212	80.25
319.441	81.25
319.67	84.25
319.9	87.25
320.129	83.25
320.358	80.25
320.587	84.25
320.816	88.25
321.046	90.25
321.275	92.25
321.504	94.25
321.733	92.25
321.962	96.25
322.191	84.25
322.42	86.25
322.649	87.25
322.878	99.25
323.108	84.25
323.337	91.25
323.566	87.25
323.795	99.25
324.024	95.25
324.253	88.25
324.482	90.25
324.71	88.25
324.939	86.25
325.168	85.25
325.397	98.25
325.626	72.25
325.855	78.25
326.084	78.25
326.313	99.25
326.542	88.25
326.77	92.25
326.999	82.25
327.228	100.25
327.457	81.25
327.686	90.25
327.914	90.25
328.143	103.25
328.372	90.25
328.6	100.25
328.829	100.25
329.058	103.25
329.287	82.25
329.515	78.25
329.744	79.25
329.972	93.25
330.201	84.25
330.43	87.25
330.658	84.25
330.887	89.25
331.115	74.25
331.344	86.25
331.572	84.25
331.801	79.25
332.03	86.25
332.258	95.25
332.486	80.25
332.715	94.25
332.943	84.25
333.172	92.25
333.4	78.25
333.629	77.25
333.857	96.25
334.085	88.25
334.314	88.25
334.542	79.25
334.771	88.25
334.999	84.25
335.227	84.25
335.455	86.25
335.684	75.25
335.912	93.25
336.14	74.25
336.369	91.25
336.597	81.25
336.825	84.25
337.053	90.25
337.281	93.25
337.51	91.25
337.738	86.25
337.966	92.25
338.194	87.25
338.422	92.25
338.65	92.25
338.878	94.25
339.106	91.25
339.334	82.25
339.562	85.25
339.79	96.25
340.018	91.25
340.246	95.25
340.474	91.25
340.702	86.25
340.93	85.25
341.158	91.25
341.386	95.25
341.614	108.25
341.842	84.25
342.07	79.25
342.298	100.25
342.526	89.25
342.754	78.25
342.981	78.25
343.209	79.25
343.437	72.25
343.665	67.25
343.893	87.25
344.12	85.25
344.348	84.25
344.576	101.25
344.804	93.25
345.031	81.25
345.259	96.25
345.487	71.25
345.714	78.25
345.942	79.25
346.17	86.25
346.397	101.25
346.625	78.25
346.853	85.25
347.08	92.25
347.308	98.25
347.535	95.25
347.763	87.25
347.99	80.25
348.218	90.25
348.445	83.25
348.673	74.25
348.9	79.25
349.128	85.25
349.355	87.25
349.583	80.25
349.81	96.25
350.037	100.25
350.265	84.25
350.492	95.25
350.72	85.25
350.947	86.25
351.174	93.25
351.402	91.25
351.629	81.25
351.856	86.25
352.083	78.25
352.311	89.25
352.538	76.25
352.765	74.25
352.992	82.25
353.22	87.25
353.447	93.25
353.674	82.25
353.901	94.25
354.128	102.25
354.355	72.25
354.583	82.25
354.81	92.25
355.037	84.25
355.264	76.25
355.491	87.25
355.718	101.25
355.945	85.25
356.172	91.25
356.399	62.25
356.626	75.25
356.853	89.25
357.08	92.25
357.307	91.25
357.534	70.25
357.761	82.25
357.988	93.25
358.215	80.25
358.441	88.25
358.668	71.25
358.895	85.25
359.122	85.25
359.349	93.25
359.576	83.25
359.802	85.25
360.029	79.25
360.256	92.25
360.483	74.25
360.709	76.25
360.936	104.25
361.163	94.25
361.39	87.25
361.616	94.25
361.843	91.25
362.07	89.25
362.296	80.25
362.523	77.25
362.749	69.25
362.976	102.25
363.203	93.25
363.429	92.25
363.656	83.25
363.882	86.25
364.109	76.25
364.335	95.25
364.562	87.25
364.788	84.25
365.015	83.25
365.241	92.25
365.468	79.25
365.694	89.25
365.92	83.25
366.147	84.25
366.373	79.25
366.599	80.25
366.826	76.25
367.052	75.25
367.278	95.25
367.505	107.25
367.731	89.25
367.957	86.25
368.184	89.25
368.41	80.25
368.636	82.25
368.862	96.25
369.089	71.25
369.315	87.25
369.541	96.25
369.767	91.25
369.993	95.25
370.219	102.25
370.445	80.25
370.672	94.25
370.898	70.25
371.124	85.25
371.35	91.25
371.576	88.25
371.802	78.25
372.028	83.25
372.254	75.25
372.48	90.25
372.706	82.25
372.932	85.25
373.158	95.25
373.384	105.25
373.61	88.25
373.835	81.25
374.061	104.25
374.287	90.25
374.513	95.25
374.739	94.25
374.965	82.25
375.191	87.25
375.416	89.25
375.642	93.25
375.868	98.25
376.094	99.25
376.319	77.25
376.545	79.25
376.771	80.25
376.997	98.25
377.222	86.25
377.448	101.25
377.674	90.25
377.899	93.25
378.125	97.25
378.35	88.25
378.576	90.25
378.802	96.25
379.027	75.25
379.253	79.25
379.478	86.25
379.704	102.25
379.929	90.25
380.155	91.25
380.38	91.25
380.606	91.25
380.831	93.25
381.057	90.25
381.282	94.25
381.507	84.25
381.733	81.25
381.958	98.25
382.184	75.25
382.409	95.25
382.634	81.25
382.86	81.25
383.085	79.25
383.31	92.25
383.535	83.25
383.761	85.25
383.986	93.25
384.211	88.25
384.436	86.25
384.662	96.25
384.887	90.25
385.112	94.25
385.337	84.25
385.562	94.25
385.787	92.25
386.013	86.25
386.238	84.25
386.463	86.25
386.688	91.25
386.913	94.25
387.138	97.25
387.363	96.25
387.588	102.25
387.813	89.25
388.038	87.25
388.263	98.25
388.488	103.25
388.713	92.25
388.938	100.25
389.163	101.25
389.387	100.25
389.612	89.25
389.837	94.25
390.062	88.25
390.287	86.25
390.512	84.25
390.736	90.25
390.961	82.25
391.186	95.25
391.411	99.25
391.636	120.25
391.86	108.25
392.085	108.25
392.31	96.25
392.534	90.25
392.759	85.25
392.984	96.25
393.208	78.25
393.433	94.25
393.658	87.25
393.882	85.25
394.107	89.25
394.331	95.25
394.556	96.25
394.78	84.25
395.005	88.25
395.229	80.25
395.454	98.25
395.678	89.25
395.903	94.25
396.127	102.25
396.352	103.25
396.576	103.25
396.801	89.25
397.025	85.25
397.249	103.25
397.474	96.25
397.698	88.25
397.922	105.25
398.147	102.25
398.371	95.25
398.595	108.25
398.82	76.25
399.044	102.25
399.268	98.25
399.492	99.25
399.717	88.25
399.941	98.25
400.165	83.25
400.389	98.25
400.613	87.25
400.837	92.25
401.062	91.25
401.286	106.25
401.51	98.25
401.734	90.25
401.958	106.25
402.182	93.25
402.406	101.25
402.63	97.25
402.854	85.25
403.078	106.25
403.302	94.25
403.526	90.25
403.75	101.25
403.974	101.25
404.198	103.25
404.422	105.25
404.645	107.25
404.869	88.25
405.093	88.25
405.317	98.25
405.541	101.25
405.765	90.25
405.988	105.25
406.212	99.25
406.436	99.25
406.66	90.25
406.883	100.25
407.107	109.25
407.331	94.25
407.555	115.25
407.778	102.25
408.002	100.25
408.226	110.25
408.449	83.25
408.673	111.25
408.896	84.25
409.12	107.25
409.344	91.25
409.567	115.25
409.791	97.25
410.014	111.25
410.238	93.25
410.461	96.25
410.685	107.25
410.908	104.25
411.132	104.25
411.355	93.25
411.578	104.25
411.802	100.25
412.025	101.25
412.249	100.25
412.472	95.25
412.695	101.25
412.919	87.25
413.142	112.25
413.365	120.25
413.589	105.25
413.812	106.25
414.035	98.25
414.258	103.25
414.482	98.25
414.705	98.25
414.928	87.25
415.151	97.25
415.374	99.25
415.597	114.25
415.821	90.25
416.044	90.25
416.267	106.25
416.49	107.25
416.713	107.25
416.936	106.25
417.159	110.25
417.382	109.25
417.605	98.25
417.828	107.25
418.051	105.25
418.274	109.25
418.497	121.25
418.72	110.25
418.943	107.25
419.166	112.25
419.389	126.25
419.611	93.25
419.834	105.25
420.057	121.25
420.28	94.25
420.503	99.25
420.726	96.25
420.948	97.25
421.171	123.25
421.394	117.25
421.617	112.25
421.839	100.25
422.062	118.25
422.285	107.25
422.507	111.25
422.73	108.25
422.953	104.25
423.175	101.25
423.398	120.25
423.621	98.25
423.843	104.25
424.066	135.25
424.288	109.25
424.511	109.25
424.733	114.25
424.956	100.25
425.178	119.25
425.401	101.25
425.623	98.25
425.846	104.25
426.068	118.25
426.291	109.25
426.513	95.25
426.735	113.25
426.958	100.25
427.18	102.25
427.402	97.25
427.625	114.25
427.847	107.25
428.069	97.25
428.292	115.25
428.514	107.25
428.736	107.25
428.958	108.25
429.181	112.25
429.403	107.25
429.625	103.25
429.847	107.25
430.069	109.25
430.292	112.25
430.514	103.25
430.736	103.25
430.958	99.25
431.18	104.25
431.402	104.25
431.624	100.25
431.846	99.25
432.068	87.25
432.29	91.25
432.512	96.25
432.734	103.25
432.956	111.25
433.178	108.25
433.4	110.25
433.622	121.25
433.844	95.25
434.066	106.25
434.287	93.25
434.509	103.25
434.731	90.25
434.953	100.25
435.175	95.25
435.397	104.25
435.618	102.25
435.84	95.25
436.062	93.25
436.284	106.25
436.505	96.25
436.727	95.25
436.949	90.25
437.17	96.25
437.392	109.25
437.614	115.25
437.835	98.25
438.057	99.25
438.278	97.25
438.5	107.25
438.721	115.25
438.943	117.25
439.165	111.25
439.386	105.25
439.608	120.25
439.829	116.25
440.05	119.25
440.272	126.25
440.493	121.25
440.715	111.25
440.936	122.25
441.158	123.25
441.379	129.25
441.6	124.25
441.822	126.25
442.043	118.25
442.264	100.25
442.486	95.25
442.707	129.25
442.928	128.25
443.149	102.25
443.371	110.25
443.592	125.25
443.813	114.25
444.034	119.25
444.255	114.25
444.476	97.25
444.698	114.25
444.919	110.25
445.14	234.25
445.361	161.25
445.582	126.25
445.803	114.25
446.024	112.25
446.245	130.25
446.466	124.25
446.687	107.25
446.908	122.25
447.129	126.25
447.35	109.25
447.571	112.25
447.792	102.25
448.013	115.25
448.234	114.25
448.455	104.25
448.675	117.25
448.896	104.25
449.117	106.25
449.338	102.25
449.559	109.25
449.779	110.25
450	112.25
450.221	117.25
450.442	104.25
450.662	104.25
450.883	90.25
451.104	105.25
451.324	106.25
451.545	106.25
451.766	106.25
451.986	103.25
452.207	115.25
452.428	111.25
452.648	106.25
452.869	114.25
453.089	99.25
453.31	79.25
453.53	98.25
453.751	95.25
453.971	91.25
454.192	103.25
454.412	103.25
454.633	108.25
454.853	102.25
455.073	102.25
455.294	95.25
455.514	109.25
455.734	110.25
455.955	115.25
456.175	111.25
456.395	106.25
456.616	85.25
456.836	116.25
457.056	94.25
457.276	90.25
457.497	111.25
457.717	104.25
457.937	85.25
458.157	93.25
458.377	98.25
458.598	95.25
458.818	89.25
459.038	93.25
459.258	77.25
459.478	80.25
459.698	110.25
459.918	101.25
460.138	91.25
460.358	102.25
460.578	106.25
460.798	91.25
461.018	103.25
461.238	81.25
461.458	99.25
461.678	98.25
461.898	104.25
462.118	101.25
462.338	96.25
462.558	107.25
462.777	99.25
462.997	118.25
463.217	101.25
463.437	108.25
463.657	100.25
463.876	91.25
464.096	104.25
464.316	89.25
464.536	107.25
464.755	98.25
464.975	104.25
465.195	103.25
465.414	107.25
465.634	101.25
465.854	100.25
466.073	96.25
466.293	104.25
466.512	117.25
466.732	104.25
466.951	106.25
467.171	117.25
467.391	118.25
467.61	114.25
467.829	108.25
468.049	120.25
468.268	114.25
468.488	108.25
468.707	116.25
468.927	119.25
469.146	112.25
469.365	105.25
469.585	120.25
469.804	116.25
470.023	107.25
470.243	110.25
470.462	103.25
470.681	127.25
470.901	107.25
471.12	121.25
471.339	127.25
471.558	119.25
471.777	123.25
471.997	114.25
472.216	120.25
472.435	101.25
472.654	106.25
472.873	99.25
473.092	98.25
473.311	96.25
473.53	108.25
473.749	116.25
473.968	109.25
474.187	118.25
474.406	94.25
474.625	111.25
474.844	103.25
475.063	120.25
475.282	102.25
475.501	115.25
475.72	101.25
475.939	98.25
476.158	110.25
476.377	107.25
476.596	100.25
476.814	98.25
477.033	108.25
477.252	109.25
477.471	109.25
477.69	114.25
477.908	116.25
478.127	109.25
478.346	118.25
478.564	106.25
478.783	108.25
479.002	115.25
479.22	118.25
479.439	111.25
479.658	102.25
479.876	102.25
480.095	104.25
480.313	99.25
480.532	97.25
480.751	99.25
480.969	89.25
481.188	99.25
481.406	87.25
481.624	83.25
481.843	85.25
482.061	95.25
482.28	91.25
482.498	102.25
482.717	95.25
482.935	109.25
483.153	103.25
483.372	116.25
483.59	110.25
483.808	118.25
484.027	115.25
484.245	106.25
484.463	114.25
484.681	131.25
484.9	115.25
485.118	132.25
485.336	105.25
485.554	106.25
485.772	91.25
485.99	90.25
486.209	94.25
486.427	85.25
486.645	107.25
486.863	107.25
487.081	109.25
487.299	123.25
487.517	119.25
487.735	125.25
487.953	126.25
488.171	134.25
488.389	124.25
488.607	140.25
488.825	124.25
489.043	106.25
489.261	109.25
489.479	115.25
489.696	113.25
489.914	126.25
490.132	114.25
490.35	106.25
490.568	127.25
490.786	129.25
491.003	140.25
491.221	132.25
491.439	133.25
491.657	139.25
491.874	165.25
492.092	148.25
492.31	158.25
492.527	144.25
492.745	141.25
492.963	130.25
493.18	138.25
493.398	131.25
493.615	134.25
493.833	126.25
494.05	128.25
494.268	121.25
494.485	126.25
494.703	134.25
494.92	135.25
495.138	130.25
495.355	137.25
495.573	145.25
495.79	125.25
496.008	130.25
496.225	125.25
496.442	122.25
496.66	126.25
496.877	125.25
497.094	124.25
497.312	121.25
497.529	136.25
497.746	108.25
497.963	109.25
498.181	103.25
498.398	111.25
498.615	105.25
498.832	85.25
499.049	93.25
499.267	109.25
499.484	128.25
499.701	118.25
499.918	127.25
500.135	110.25
500.352	114.25
500.569	130.25
500.786	120.25
501.003	109.25
501.22	104.25
501.437	124.25
501.654	114.25
501.871	112.25
502.088	100.25
502.305	118.25
502.522	114.25
502.739	116.25
502.956	102.25
503.172	117.25
503.389	105.25
503.606	124.25
503.823	110.25
504.04	93.25
504.256	102.25
504.473	99.25
504.69	106.25
504.907	101.25
505.123	95.25
505.34	104.25
505.557	102.25
505.773	105.25
505.99	104.25
506.207	105.25
506.423	89.25
506.64	91.25
506.856	121.25
507.073	100.25
507.289	109.25
507.506	120.25
507.722	107.25
507.939	98.25
508.155	101.25
508.372	109.25
508.588	89.25
508.805	111.25
509.021	88.25
509.238	92.25
509.454	92.25
509.67	92.25
509.887	89.25
510.103	84.25
510.319	86.25
510.536	101.25
510.752	99.25
510.968	92.25
511.184	76.25
511.401	83.25
511.617	93.25
511.833	90.25
512.049	98.25
512.265	93.25
512.481	94.25
512.698	97.25
512.914	95.25
513.13	85.25
513.346	92.25
513.562	86.25
