Data from Zn(NO3)2Standard.Agarose3%.GreenCap.LampEnergy5.5.E.O_HRD10591_15-03-35-768.txt Node
Date: Mon Jul 22 15:03:35 EDT 2019
User: cochatt
Spectrometer: HR+D1059
Trigger mode: 1
Integration Time (sec): 1.000000E-1
Scans to average: 1
Electric dark correction enabled: true
Nonlinearity correction enabled: false
Boxcar width: 0
XAxis mode: Wavelengths
Number of Pixels in Spectrum: 2048
>>>>>Begin Spectral Data<<<<<
223.165	-25.25
223.4	-25.25
223.635	-25.25
223.869	-27.25
224.104	-15.25
224.338	-7.25
224.573	-13.25
224.808	-11.25
225.042	-8.25
225.277	-13.25
225.511	1.75
225.746	9.75
225.98	6.75
226.215	8.75
226.449	17.75
226.683	20.75
226.918	18.75
227.152	36.75
227.387	38.75
227.621	48.75
227.856	48.75
228.09	37.75
228.324	52.75
228.559	50.75
228.793	55.75
229.027	56.75
229.262	66.75
229.496	67.75
229.73	66.75
229.964	70.75
230.199	71.75
230.433	67.75
230.667	66.75
230.901	77.75
231.136	75.75
231.37	89.75
231.604	87.75
231.838	81.75
232.072	76.75
232.306	89.75
232.541	73.75
232.775	100.75
233.009	82.75
233.243	85.75
233.477	72.75
233.711	89.75
233.945	80.75
234.179	85.75
234.413	86.75
234.647	85.75
234.881	72.75
235.115	85.75
235.349	73.75
235.583	76.75
235.817	71.75
236.051	80.75
236.285	62.75
236.519	77.75
236.753	76.75
236.987	81.75
237.221	86.75
237.455	87.75
237.689	78.75
237.922	76.75
238.156	74.75
238.39	66.75
238.624	73.75
238.858	91.75
239.091	76.75
239.325	62.75
239.559	69.75
239.793	75.75
240.027	79.75
240.26	75.75
240.494	76.75
240.728	79.75
240.961	68.75
241.195	68.75
241.429	83.75
241.662	86.75
241.896	67.75
242.13	80.75
242.363	68.75
242.597	77.75
242.83	67.75
243.064	74.75
243.298	71.75
243.531	80.75
243.765	71.75
243.998	81.75
244.232	76.75
244.465	84.75
244.699	83.75
244.932	97.75
245.166	83.75
245.399	80.75
245.633	79.75
245.866	90.75
246.099	80.75
246.333	77.75
246.566	72.75
246.8	78.75
247.033	70.75
247.266	76.75
247.5	79.75
247.733	79.75
247.966	92.75
248.2	79.75
248.433	77.75
248.666	78.75
248.899	71.75
249.133	82.75
249.366	65.75
249.599	82.75
249.832	83.75
250.066	83.75
250.299	68.75
250.532	77.75
250.765	68.75
250.998	63.75
251.231	74.75
251.465	84.75
251.698	56.75
251.931	62.75
252.164	85.75
252.397	80.75
252.63	87.75
252.863	76.75
253.096	80.75
253.329	82.75
253.562	79.75
253.795	96.75
254.028	88.75
254.261	75.75
254.494	75.75
254.727	63.75
254.96	92.75
255.193	58.75
255.426	70.75
255.659	74.75
255.892	82.75
256.124	72.75
256.357	80.75
256.59	83.75
256.823	75.75
257.056	90.75
257.289	70.75
257.521	76.75
257.754	81.75
257.987	71.75
258.22	85.75
258.452	76.75
258.685	84.75
258.918	80.75
259.151	69.75
259.383	76.75
259.616	79.75
259.849	79.75
260.081	80.75
260.314	75.75
260.547	68.75
260.779	74.75
261.012	73.75
261.244	81.75
261.477	87.75
261.71	85.75
261.942	71.75
262.175	85.75
262.407	69.75
262.64	78.75
262.872	73.75
263.105	76.75
263.337	74.75
263.57	71.75
263.802	84.75
264.035	75.75
264.267	67.75
264.499	68.75
264.732	68.75
264.964	87.75
265.197	75.75
265.429	76.75
265.661	88.75
265.894	86.75
266.126	82.75
266.358	97.75
266.591	78.75
266.823	91.75
267.055	77.75
267.287	76.75
267.52	81.75
267.752	81.75
267.984	79.75
268.216	79.75
268.448	89.75
268.681	73.75
268.913	86.75
269.145	81.75
269.377	75.75
269.609	87.75
269.841	66.75
270.073	68.75
270.306	84.75
270.538	86.75
270.77	81.75
271.002	82.75
271.234	89.75
271.466	76.75
271.698	76.75
271.93	69.75
272.162	85.75
272.394	93.75
272.626	71.75
272.858	87.75
273.09	85.75
273.322	92.75
273.553	67.75
273.785	91.75
274.017	72.75
274.249	72.75
274.481	72.75
274.713	77.75
274.945	90.75
275.176	86.75
275.408	75.75
275.64	76.75
275.872	79.75
276.104	82.75
276.335	86.75
276.567	79.75
276.799	69.75
277.031	79.75
277.262	87.75
277.494	78.75
277.726	80.75
277.957	72.75
278.189	84.75
278.421	62.75
278.652	85.75
278.884	89.75
279.115	88.75
279.347	78.75
279.579	100.75
279.81	85.75
280.042	94.75
280.273	94.75
280.505	75.75
280.736	85.75
280.968	89.75
281.199	66.75
281.431	82.75
281.662	88.75
281.894	89.75
282.125	71.75
282.356	87.75
282.588	80.75
282.819	100.75
283.051	92.75
283.282	97.75
283.513	91.75
283.745	89.75
283.976	70.75
284.207	82.75
284.439	86.75
284.67	100.75
284.901	94.75
285.132	78.75
285.364	80.75
285.595	88.75
285.826	85.75
286.057	79.75
286.288	79.75
286.52	82.75
286.751	78.75
286.982	85.75
287.213	85.75
287.444	90.75
287.675	70.75
287.906	74.75
288.138	73.75
288.369	87.75
288.6	87.75
288.831	87.75
289.062	85.75
289.293	84.75
289.524	79.75
289.755	99.75
289.986	83.75
290.217	94.75
290.448	79.75
290.679	80.75
290.91	84.75
291.141	79.75
291.371	81.75
291.602	81.75
291.833	85.75
292.064	97.75
292.295	75.75
292.526	80.75
292.757	87.75
292.987	73.75
293.218	91.75
293.449	77.75
293.68	86.75
293.91	66.75
294.141	88.75
294.372	74.75
294.603	86.75
294.833	92.75
295.064	80.75
295.295	95.75
295.525	80.75
295.756	84.75
295.987	76.75
296.217	82.75
296.448	70.75
296.679	76.75
296.909	95.75
297.14	83.75
297.37	88.75
297.601	79.75
297.831	81.75
298.062	68.75
298.292	71.75
298.523	74.75
298.753	77.75
298.984	80.75
299.214	78.75
299.445	94.75
299.675	86.75
299.905	83.75
300.136	81.75
300.366	81.75
300.597	75.75
300.827	89.75
301.057	79.75
301.288	82.75
301.518	80.75
301.748	84.75
301.979	78.75
302.209	86.75
302.439	71.75
302.669	80.75
302.9	95.75
303.13	84.75
303.36	90.75
303.59	85.75
303.82	77.75
304.051	90.75
304.281	70.75
304.511	86.75
304.741	90.75
304.971	87.75
305.201	84.75
305.431	82.75
305.661	93.75
305.891	82.75
306.121	81.75
306.352	69.75
306.582	86.75
306.812	78.75
307.042	92.75
307.272	100.75
307.502	86.75
307.731	82.75
307.961	80.75
308.191	89.75
308.421	82.75
308.651	94.75
308.881	89.75
309.111	81.75
309.341	92.75
309.571	87.75
309.8	60.75
310.03	86.75
310.26	80.75
310.49	92.75
310.72	75.75
310.949	88.75
311.179	80.75
311.409	86.75
311.639	95.75
311.868	95.75
312.098	82.75
312.328	82.75
312.557	86.75
312.787	80.75
313.017	82.75
313.246	81.75
313.476	76.75
313.706	86.75
313.935	80.75
314.165	80.75
314.394	83.75
314.624	65.75
314.853	74.75
315.083	68.75
315.312	84.75
315.542	83.75
315.771	77.75
316.001	80.75
316.23	86.75
316.46	64.75
316.689	74.75
316.919	76.75
317.148	75.75
317.377	91.75
317.607	90.75
317.836	75.75
318.065	82.75
318.295	71.75
318.524	75.75
318.753	81.75
318.983	75.75
319.212	64.75
319.441	80.75
319.67	88.75
319.9	85.75
320.129	83.75
320.358	90.75
320.587	87.75
320.816	76.75
321.046	73.75
321.275	91.75
321.504	97.75
321.733	79.75
321.962	85.75
322.191	90.75
322.42	76.75
322.649	87.75
322.878	87.75
323.108	72.75
323.337	82.75
323.566	78.75
323.795	82.75
324.024	93.75
324.253	88.75
324.482	80.75
324.71	90.75
324.939	72.75
325.168	88.75
325.397	72.75
325.626	91.75
325.855	94.75
326.084	72.75
326.313	78.75
326.542	83.75
326.77	89.75
326.999	87.75
327.228	85.75
327.457	84.75
327.686	90.75
327.914	91.75
328.143	81.75
328.372	75.75
328.6	82.75
328.829	82.75
329.058	74.75
329.287	90.75
329.515	74.75
329.744	80.75
329.972	75.75
330.201	66.75
330.43	77.75
330.658	79.75
330.887	68.75
331.115	89.75
331.344	79.75
331.572	93.75
331.801	95.75
332.03	77.75
332.258	82.75
332.486	89.75
332.715	91.75
332.943	91.75
333.172	75.75
333.4	90.75
333.629	81.75
333.857	75.75
334.085	86.75
334.314	92.75
334.542	96.75
334.771	77.75
334.999	79.75
335.227	90.75
335.455	78.75
335.684	81.75
335.912	90.75
336.14	75.75
336.369	71.75
336.597	76.75
336.825	86.75
337.053	86.75
337.281	83.75
337.51	81.75
337.738	76.75
337.966	79.75
338.194	67.75
338.422	83.75
338.65	73.75
338.878	71.75
339.106	69.75
339.334	79.75
339.562	75.75
339.79	88.75
340.018	69.75
340.246	85.75
340.474	82.75
340.702	87.75
340.93	87.75
341.158	92.75
341.386	75.75
341.614	72.75
341.842	72.75
342.07	78.75
342.298	84.75
342.526	87.75
342.754	96.75
342.981	90.75
343.209	87.75
343.437	78.75
343.665	84.75
343.893	87.75
344.12	84.75
344.348	78.75
344.576	73.75
344.804	92.75
345.031	76.75
345.259	74.75
345.487	65.75
345.714	67.75
345.942	83.75
346.17	76.75
346.397	80.75
346.625	84.75
346.853	83.75
347.08	87.75
347.308	76.75
347.535	76.75
347.763	83.75
347.99	80.75
348.218	91.75
348.445	83.75
348.673	88.75
348.9	88.75
349.128	71.75
349.355	86.75
349.583	80.75
349.81	75.75
350.037	74.75
350.265	80.75
350.492	89.75
350.72	81.75
350.947	77.75
351.174	90.75
351.402	80.75
351.629	90.75
351.856	80.75
352.083	89.75
352.311	77.75
352.538	80.75
352.765	76.75
352.992	85.75
353.22	84.75
353.447	79.75
353.674	84.75
353.901	86.75
354.128	81.75
354.355	93.75
354.583	76.75
354.81	89.75
355.037	91.75
355.264	91.75
355.491	79.75
355.718	92.75
355.945	73.75
356.172	80.75
356.399	82.75
356.626	83.75
356.853	79.75
357.08	83.75
357.307	75.75
357.534	75.75
357.761	82.75
357.988	85.75
358.215	104.75
358.441	79.75
358.668	81.75
358.895	84.75
359.122	75.75
359.349	76.75
359.576	80.75
359.802	86.75
360.029	73.75
360.256	88.75
360.483	79.75
360.709	73.75
360.936	97.75
361.163	86.75
361.39	68.75
361.616	89.75
361.843	73.75
362.07	100.75
362.296	87.75
362.523	85.75
362.749	78.75
362.976	86.75
363.203	82.75
363.429	74.75
363.656	72.75
363.882	91.75
364.109	80.75
364.335	84.75
364.562	76.75
364.788	70.75
365.015	86.75
365.241	88.75
365.468	72.75
365.694	79.75
365.92	72.75
366.147	75.75
366.373	90.75
366.599	74.75
366.826	71.75
367.052	75.75
367.278	82.75
367.505	77.75
367.731	78.75
367.957	81.75
368.184	89.75
368.41	69.75
368.636	79.75
368.862	88.75
369.089	91.75
369.315	88.75
369.541	70.75
369.767	82.75
369.993	76.75
370.219	85.75
370.445	87.75
370.672	76.75
370.898	58.75
371.124	81.75
371.35	70.75
371.576	79.75
371.802	82.75
372.028	80.75
372.254	80.75
372.48	76.75
372.706	89.75
372.932	80.75
373.158	77.75
373.384	79.75
373.61	88.75
373.835	81.75
374.061	95.75
374.287	84.75
374.513	84.75
374.739	83.75
374.965	80.75
375.191	75.75
375.416	84.75
375.642	88.75
375.868	86.75
376.094	70.75
376.319	64.75
376.545	84.75
376.771	90.75
376.997	70.75
377.222	62.75
377.448	80.75
377.674	71.75
377.899	80.75
378.125	79.75
378.35	83.75
378.576	66.75
378.802	74.75
379.027	74.75
379.253	94.75
379.478	82.75
379.704	79.75
379.929	84.75
380.155	75.75
380.38	85.75
380.606	73.75
380.831	86.75
381.057	86.75
381.282	63.75
381.507	90.75
381.733	80.75
381.958	75.75
382.184	90.75
382.409	82.75
382.634	82.75
382.86	80.75
383.085	65.75
383.31	80.75
383.535	91.75
383.761	82.75
383.986	80.75
384.211	67.75
384.436	76.75
384.662	70.75
384.887	63.75
385.112	88.75
385.337	79.75
385.562	75.75
385.787	90.75
386.013	90.75
386.238	81.75
386.463	73.75
386.688	82.75
386.913	82.75
387.138	86.75
387.363	65.75
387.588	84.75
387.813	83.75
388.038	83.75
388.263	88.75
388.488	75.75
388.713	82.75
388.938	82.75
389.163	73.75
389.387	73.75
389.612	76.75
389.837	75.75
390.062	84.75
390.287	98.75
390.512	90.75
390.736	74.75
390.961	91.75
391.186	83.75
391.411	71.75
391.636	72.75
391.86	80.75
392.085	83.75
392.31	83.75
392.534	81.75
392.759	78.75
392.984	84.75
393.208	88.75
393.433	85.75
393.658	74.75
393.882	78.75
394.107	85.75
394.331	85.75
394.556	99.75
394.78	67.75
395.005	66.75
395.229	92.75
395.454	70.75
395.678	76.75
395.903	86.75
396.127	94.75
396.352	80.75
396.576	88.75
396.801	87.75
397.025	76.75
397.249	83.75
397.474	84.75
397.698	80.75
397.922	81.75
398.147	71.75
398.371	63.75
398.595	86.75
398.82	70.75
399.044	88.75
399.268	87.75
399.492	94.75
399.717	91.75
399.941	89.75
400.165	84.75
400.389	91.75
400.613	87.75
400.837	78.75
401.062	84.75
401.286	95.75
401.51	79.75
401.734	81.75
401.958	84.75
402.182	83.75
402.406	77.75
402.63	77.75
402.854	74.75
403.078	57.75
403.302	70.75
403.526	88.75
403.75	85.75
403.974	103.75
404.198	92.75
404.422	81.75
404.645	84.75
404.869	72.75
405.093	85.75
405.317	83.75
405.541	83.75
405.765	88.75
405.988	82.75
406.212	87.75
406.436	86.75
406.66	85.75
406.883	83.75
407.107	88.75
407.331	83.75
407.555	77.75
407.778	67.75
408.002	84.75
408.226	84.75
408.449	81.75
408.673	77.75
408.896	76.75
409.12	89.75
409.344	70.75
409.567	77.75
409.791	87.75
410.014	92.75
410.238	79.75
410.461	82.75
410.685	77.75
410.908	90.75
411.132	75.75
411.355	94.75
411.578	80.75
411.802	84.75
412.025	80.75
412.249	83.75
412.472	84.75
412.695	86.75
412.919	83.75
413.142	89.75
413.365	84.75
413.589	90.75
413.812	87.75
414.035	92.75
414.258	75.75
414.482	73.75
414.705	72.75
414.928	72.75
415.151	91.75
415.374	77.75
415.597	82.75
415.821	65.75
416.044	77.75
416.267	87.75
416.49	87.75
416.713	94.75
416.936	72.75
417.159	77.75
417.382	86.75
417.605	83.75
417.828	85.75
418.051	90.75
418.274	71.75
418.497	64.75
418.72	81.75
418.943	91.75
419.166	85.75
419.389	85.75
419.611	90.75
419.834	96.75
420.057	78.75
420.28	81.75
420.503	78.75
420.726	79.75
420.948	79.75
421.171	83.75
421.394	87.75
421.617	90.75
421.839	82.75
422.062	83.75
422.285	87.75
422.507	78.75
422.73	80.75
422.953	85.75
423.175	82.75
423.398	81.75
423.621	89.75
423.843	75.75
424.066	81.75
424.288	76.75
424.511	84.75
424.733	77.75
424.956	89.75
425.178	73.75
425.401	70.75
425.623	91.75
425.846	92.75
426.068	91.75
426.291	102.75
426.513	95.75
426.735	73.75
426.958	91.75
427.18	71.75
427.402	93.75
427.625	84.75
427.847	83.75
428.069	86.75
428.292	81.75
428.514	87.75
428.736	83.75
428.958	82.75
429.181	83.75
429.403	91.75
429.625	84.75
429.847	90.75
430.069	82.75
430.292	87.75
430.514	84.75
430.736	79.75
430.958	97.75
431.18	84.75
431.402	91.75
431.624	89.75
431.846	78.75
432.068	80.75
432.29	82.75
432.512	88.75
432.734	94.75
432.956	79.75
433.178	82.75
433.4	74.75
433.622	86.75
433.844	102.75
434.066	65.75
434.287	65.75
434.509	76.75
434.731	91.75
434.953	77.75
435.175	90.75
435.397	88.75
435.618	86.75
435.84	82.75
436.062	89.75
436.284	98.75
436.505	80.75
436.727	87.75
436.949	91.75
437.17	83.75
437.392	85.75
437.614	90.75
437.835	70.75
438.057	85.75
438.278	83.75
438.5	83.75
438.721	87.75
438.943	91.75
439.165	96.75
439.386	76.75
439.608	95.75
439.829	70.75
440.05	84.75
440.272	94.75
440.493	98.75
440.715	81.75
440.936	87.75
441.158	79.75
441.379	104.75
441.6	90.75
441.822	89.75
442.043	83.75
442.264	85.75
442.486	85.75
442.707	85.75
442.928	81.75
443.149	76.75
443.371	90.75
443.592	91.75
443.813	74.75
444.034	79.75
444.255	86.75
444.476	90.75
444.698	81.75
444.919	90.75
445.14	208.75
445.361	137.75
445.582	84.75
445.803	94.75
446.024	88.75
446.245	91.75
446.466	88.75
446.687	86.75
446.908	88.75
447.129	94.75
447.35	86.75
447.571	83.75
447.792	84.75
448.013	83.75
448.234	103.75
448.455	82.75
448.675	79.75
448.896	85.75
449.117	91.75
449.338	86.75
449.559	81.75
449.779	76.75
450	92.75
450.221	75.75
450.442	86.75
450.662	70.75
450.883	78.75
451.104	81.75
451.324	90.75
451.545	96.75
451.766	91.75
451.986	79.75
452.207	74.75
452.428	77.75
452.648	88.75
452.869	70.75
453.089	80.75
453.31	83.75
453.53	87.75
453.751	81.75
453.971	63.75
454.192	91.75
454.412	80.75
454.633	89.75
454.853	76.75
455.073	67.75
455.294	81.75
455.514	89.75
455.734	73.75
455.955	73.75
456.175	76.75
456.395	89.75
456.616	86.75
456.836	85.75
457.056	73.75
457.276	86.75
457.497	85.75
457.717	86.75
457.937	86.75
458.157	87.75
458.377	79.75
458.598	70.75
458.818	85.75
459.038	84.75
459.258	79.75
459.478	87.75
459.698	77.75
459.918	87.75
460.138	70.75
460.358	87.75
460.578	82.75
460.798	85.75
461.018	87.75
461.238	79.75
461.458	86.75
461.678	82.75
461.898	76.75
462.118	80.75
462.338	95.75
462.558	59.75
462.777	68.75
462.997	75.75
463.217	88.75
463.437	89.75
463.657	84.75
463.876	85.75
464.096	84.75
464.316	86.75
464.536	84.75
464.755	85.75
464.975	91.75
465.195	87.75
465.414	101.75
465.634	91.75
465.854	87.75
466.073	90.75
466.293	76.75
466.512	76.75
466.732	83.75
466.951	88.75
467.171	74.75
467.391	70.75
467.61	82.75
467.829	76.75
468.049	84.75
468.268	80.75
468.488	82.75
468.707	79.75
468.927	95.75
469.146	81.75
469.365	80.75
469.585	84.75
469.804	79.75
470.023	82.75
470.243	100.75
470.462	99.75
470.681	74.75
470.901	74.75
471.12	76.75
471.339	99.75
471.558	70.75
471.777	80.75
471.997	100.75
472.216	81.75
472.435	77.75
472.654	80.75
472.873	95.75
473.092	83.75
473.311	90.75
473.53	81.75
473.749	93.75
473.968	89.75
474.187	85.75
474.406	72.75
474.625	80.75
474.844	76.75
475.063	97.75
475.282	92.75
475.501	78.75
475.72	73.75
475.939	78.75
476.158	81.75
476.377	89.75
476.596	75.75
476.814	86.75
477.033	91.75
477.252	82.75
477.471	77.75
477.69	96.75
477.908	80.75
478.127	72.75
478.346	81.75
478.564	97.75
478.783	105.75
479.002	85.75
479.22	94.75
479.439	83.75
479.658	90.75
479.876	81.75
480.095	80.75
480.313	84.75
480.532	89.75
480.751	67.75
480.969	77.75
481.188	79.75
481.406	89.75
481.624	70.75
481.843	83.75
482.061	87.75
482.28	79.75
482.498	78.75
482.717	94.75
482.935	73.75
483.153	88.75
483.372	99.75
483.59	91.75
483.808	91.75
484.027	83.75
484.245	85.75
484.463	96.75
484.681	88.75
484.9	90.75
485.118	91.75
485.336	92.75
485.554	96.75
485.772	91.75
485.99	81.75
486.209	84.75
486.427	94.75
486.645	86.75
486.863	97.75
487.081	74.75
487.299	85.75
487.517	86.75
487.735	86.75
487.953	100.75
488.171	94.75
488.389	91.75
488.607	92.75
488.825	95.75
489.043	78.75
489.261	86.75
489.479	86.75
489.696	88.75
489.914	87.75
490.132	74.75
490.35	97.75
490.568	99.75
490.786	96.75
491.003	103.75
491.221	95.75
491.439	96.75
491.657	98.75
491.874	92.75
492.092	102.75
492.31	104.75
492.527	105.75
492.745	103.75
492.963	90.75
493.18	82.75
493.398	103.75
493.615	104.75
493.833	99.75
494.05	87.75
494.268	83.75
494.485	102.75
494.703	90.75
494.92	100.75
495.138	100.75
495.355	96.75
495.573	100.75
495.79	83.75
496.008	95.75
496.225	82.75
496.442	85.75
496.66	91.75
496.877	82.75
497.094	102.75
497.312	88.75
497.529	80.75
497.746	81.75
497.963	75.75
498.181	97.75
498.398	73.75
498.615	72.75
498.832	81.75
499.049	94.75
499.267	80.75
499.484	68.75
499.701	75.75
499.918	93.75
500.135	94.75
500.352	87.75
500.569	99.75
500.786	91.75
501.003	91.75
501.22	83.75
501.437	82.75
501.654	85.75
501.871	85.75
502.088	92.75
502.305	100.75
502.522	88.75
502.739	80.75
502.956	91.75
503.172	98.75
503.389	78.75
503.606	69.75
503.823	94.75
504.04	94.75
504.256	97.75
504.473	97.75
504.69	87.75
504.907	78.75
505.123	95.75
505.34	95.75
505.557	86.75
505.773	83.75
505.99	89.75
506.207	68.75
506.423	98.75
506.64	81.75
506.856	89.75
507.073	103.75
507.289	80.75
507.506	92.75
507.722	92.75
507.939	82.75
508.155	80.75
508.372	73.75
508.588	102.75
508.805	94.75
509.021	82.75
509.238	89.75
509.454	86.75
509.67	76.75
509.887	82.75
510.103	86.75
510.319	98.75
510.536	83.75
510.752	85.75
510.968	90.75
511.184	74.75
511.401	90.75
511.617	91.75
511.833	87.75
512.049	92.75
512.265	86.75
512.481	76.75
512.698	82.75
512.914	93.75
513.13	79.75
513.346	91.75
513.562	98.75
513.778	84.75
513.994	86.75
514.21	83.75
514.426	75.75
514.642	79.75
514.858	76.75
515.074	78.75
515.29	86.75
515.506	76.75
515.721	79.75
515.937	87.75
516.153	83.75
516.369	85.75
516.585	84.75
516.801	86.75
517.016	92.75
517.232	96.75
517.448	93.75
517.664	83.75
517.879	74.75
518.095	85.75
518.311	86.75
518.527	79.75
518.742	89.75
518.958	82.75
