Data from Zn(NO3)2Standard.Agarose3%.GreenCap.LampEnergy5.5.E.O_HRD10591_15-01-45-767.txt Node
Date: Mon Jul 22 15:01:45 EDT 2019
User: cochatt
Spectrometer: HR+D1059
Trigger mode: 1
Integration Time (sec): 1.000000E-1
Scans to average: 1
Electric dark correction enabled: true
Nonlinearity correction enabled: false
Boxcar width: 0
XAxis mode: Wavelengths
Number of Pixels in Spectrum: 2048
>>>>>Begin Spectral Data<<<<<
223.165	-15.38
223.4	-15.38
223.635	-15.38
223.869	-16.38
224.104	-18.38
224.338	-17.38
224.573	-16.38
224.808	-9.38
225.042	-16.38
225.277	-10.38
225.511	4.62
225.746	4.62
225.98	9.62
226.215	5.62
226.449	29.62
226.683	24.62
226.918	18.62
227.152	22.62
227.387	50.62
227.621	36.62
227.856	45.62
228.09	45.62
228.324	60.62
228.559	66.62
228.793	50.62
229.027	64.62
229.262	51.62
229.496	76.62
229.73	56.62
229.964	61.62
230.199	78.62
230.433	84.62
230.667	71.62
230.901	67.62
231.136	77.62
231.37	78.62
231.604	84.62
231.838	76.62
232.072	72.62
232.306	76.62
232.541	81.62
232.775	71.62
233.009	78.62
233.243	82.62
233.477	86.62
233.711	90.62
233.945	83.62
234.179	80.62
234.413	78.62
234.647	91.62
234.881	92.62
235.115	68.62
235.349	77.62
235.583	77.62
235.817	79.62
236.051	81.62
236.285	82.62
236.519	79.62
236.753	81.62
236.987	85.62
237.221	74.62
237.455	89.62
237.689	69.62
237.922	94.62
238.156	80.62
238.39	84.62
238.624	69.62
238.858	67.62
239.091	81.62
239.325	85.62
239.559	84.62
239.793	82.62
240.027	68.62
240.26	84.62
240.494	76.62
240.728	81.62
240.961	78.62
241.195	86.62
241.429	71.62
241.662	71.62
241.896	82.62
242.13	64.62
242.363	75.62
242.597	72.62
242.83	80.62
243.064	82.62
243.298	88.62
243.531	74.62
243.765	81.62
243.998	79.62
244.232	76.62
244.465	68.62
244.699	76.62
244.932	72.62
245.166	78.62
245.399	81.62
245.633	81.62
245.866	85.62
246.099	72.62
246.333	80.62
246.566	82.62
246.8	70.62
247.033	79.62
247.266	84.62
247.5	77.62
247.733	74.62
247.966	75.62
248.2	76.62
248.433	82.62
248.666	80.62
248.899	75.62
249.133	85.62
249.366	72.62
249.599	69.62
249.832	84.62
250.066	89.62
250.299	79.62
250.532	88.62
250.765	94.62
250.998	75.62
251.231	64.62
251.465	77.62
251.698	82.62
251.931	68.62
252.164	81.62
252.397	85.62
252.63	77.62
252.863	82.62
253.096	74.62
253.329	75.62
253.562	76.62
253.795	90.62
254.028	77.62
254.261	88.62
254.494	79.62
254.727	92.62
254.96	68.62
255.193	73.62
255.426	80.62
255.659	82.62
255.892	73.62
256.124	80.62
256.357	72.62
256.59	84.62
256.823	96.62
257.056	89.62
257.289	68.62
257.521	73.62
257.754	82.62
257.987	78.62
258.22	79.62
258.452	83.62
258.685	85.62
258.918	61.62
259.151	75.62
259.383	76.62
259.616	78.62
259.849	76.62
260.081	78.62
260.314	85.62
260.547	79.62
260.779	90.62
261.012	80.62
261.244	90.62
261.477	83.62
261.71	89.62
261.942	75.62
262.175	75.62
262.407	74.62
262.64	81.62
262.872	81.62
263.105	76.62
263.337	94.62
263.57	89.62
263.802	76.62
264.035	85.62
264.267	74.62
264.499	83.62
264.732	82.62
264.964	71.62
265.197	66.62
265.429	70.62
265.661	79.62
265.894	72.62
266.126	88.62
266.358	85.62
266.591	85.62
266.823	86.62
267.055	84.62
267.287	88.62
267.52	93.62
267.752	76.62
267.984	92.62
268.216	81.62
268.448	86.62
268.681	76.62
268.913	78.62
269.145	78.62
269.377	82.62
269.609	88.62
269.841	80.62
270.073	85.62
270.306	96.62
270.538	65.62
270.77	97.62
271.002	93.62
271.234	77.62
271.466	76.62
271.698	86.62
271.93	80.62
272.162	71.62
272.394	96.62
272.626	86.62
272.858	83.62
273.09	81.62
273.322	88.62
273.553	89.62
273.785	78.62
274.017	81.62
274.249	64.62
274.481	67.62
274.713	81.62
274.945	94.62
275.176	98.62
275.408	78.62
275.64	83.62
275.872	79.62
276.104	89.62
276.335	80.62
276.567	82.62
276.799	89.62
277.031	86.62
277.262	89.62
277.494	92.62
277.726	69.62
277.957	83.62
278.189	72.62
278.421	83.62
278.652	90.62
278.884	77.62
279.115	89.62
279.347	89.62
279.579	83.62
279.81	88.62
280.042	68.62
280.273	73.62
280.505	84.62
280.736	97.62
280.968	81.62
281.199	78.62
281.431	71.62
281.662	71.62
281.894	87.62
282.125	81.62
282.356	88.62
282.588	90.62
282.819	84.62
283.051	97.62
283.282	89.62
283.513	99.62
283.745	88.62
283.976	79.62
284.207	82.62
284.439	93.62
284.67	96.62
284.901	92.62
285.132	79.62
285.364	67.62
285.595	86.62
285.826	89.62
286.057	93.62
286.288	77.62
286.52	93.62
286.751	75.62
286.982	80.62
287.213	60.62
287.444	82.62
287.675	84.62
287.906	86.62
288.138	76.62
288.369	81.62
288.6	75.62
288.831	82.62
289.062	85.62
289.293	88.62
289.524	82.62
289.755	92.62
289.986	76.62
290.217	76.62
290.448	76.62
290.679	89.62
290.91	68.62
291.141	78.62
291.371	76.62
291.602	80.62
291.833	87.62
292.064	89.62
292.295	80.62
292.526	89.62
292.757	78.62
292.987	83.62
293.218	97.62
293.449	72.62
293.68	103.62
293.91	84.62
294.141	75.62
294.372	88.62
294.603	81.62
294.833	76.62
295.064	80.62
295.295	81.62
295.525	83.62
295.756	84.62
295.987	89.62
296.217	90.62
296.448	85.62
296.679	84.62
296.909	87.62
297.14	80.62
297.37	90.62
297.601	83.62
297.831	84.62
298.062	96.62
298.292	89.62
298.523	89.62
298.753	84.62
298.984	79.62
299.214	83.62
299.445	86.62
299.675	81.62
299.905	76.62
300.136	89.62
300.366	76.62
300.597	82.62
300.827	97.62
301.057	70.62
301.288	86.62
301.518	90.62
301.748	93.62
301.979	91.62
302.209	71.62
302.439	71.62
302.669	81.62
302.9	90.62
303.13	91.62
303.36	78.62
303.59	90.62
303.82	63.62
304.051	96.62
304.281	81.62
304.511	100.62
304.741	83.62
304.971	91.62
305.201	86.62
305.431	86.62
305.661	84.62
305.891	90.62
306.121	103.62
306.352	93.62
306.582	87.62
306.812	90.62
307.042	82.62
307.272	71.62
307.502	90.62
307.731	77.62
307.961	90.62
308.191	70.62
308.421	82.62
308.651	88.62
308.881	78.62
309.111	77.62
309.341	79.62
309.571	82.62
309.8	78.62
310.03	82.62
310.26	91.62
310.49	78.62
310.72	86.62
310.949	90.62
311.179	83.62
311.409	101.62
311.639	81.62
311.868	77.62
312.098	105.62
312.328	89.62
312.557	75.62
312.787	96.62
313.017	87.62
313.246	82.62
313.476	84.62
313.706	101.62
313.935	86.62
314.165	71.62
314.394	84.62
314.624	86.62
314.853	83.62
315.083	88.62
315.312	70.62
315.542	88.62
315.771	85.62
316.001	74.62
316.23	88.62
316.46	79.62
316.689	91.62
316.919	82.62
317.148	82.62
317.377	70.62
317.607	93.62
317.836	84.62
318.065	74.62
318.295	98.62
318.524	92.62
318.753	80.62
318.983	85.62
319.212	100.62
319.441	77.62
319.67	73.62
319.9	77.62
320.129	78.62
320.358	83.62
320.587	80.62
320.816	92.62
321.046	79.62
321.275	79.62
321.504	87.62
321.733	93.62
321.962	87.62
322.191	85.62
322.42	80.62
322.649	84.62
322.878	106.62
323.108	81.62
323.337	80.62
323.566	78.62
323.795	82.62
324.024	93.62
324.253	82.62
324.482	82.62
324.71	77.62
324.939	86.62
325.168	72.62
325.397	82.62
325.626	52.62
325.855	78.62
326.084	83.62
326.313	102.62
326.542	90.62
326.77	96.62
326.999	74.62
327.228	71.62
327.457	76.62
327.686	84.62
327.914	86.62
328.143	79.62
328.372	88.62
328.6	87.62
328.829	81.62
329.058	86.62
329.287	75.62
329.515	87.62
329.744	94.62
329.972	79.62
330.201	71.62
330.43	88.62
330.658	84.62
330.887	92.62
331.115	79.62
331.344	89.62
331.572	95.62
331.801	77.62
332.03	90.62
332.258	80.62
332.486	100.62
332.715	85.62
332.943	93.62
333.172	85.62
333.4	88.62
333.629	77.62
333.857	90.62
334.085	83.62
334.314	75.62
334.542	79.62
334.771	72.62
334.999	81.62
335.227	76.62
335.455	83.62
335.684	81.62
335.912	94.62
336.14	86.62
336.369	93.62
336.597	82.62
336.825	72.62
337.053	77.62
337.281	77.62
337.51	80.62
337.738	93.62
337.966	85.62
338.194	97.62
338.422	83.62
338.65	83.62
338.878	87.62
339.106	68.62
339.334	78.62
339.562	84.62
339.79	98.62
340.018	82.62
340.246	70.62
340.474	96.62
340.702	78.62
340.93	102.62
341.158	94.62
341.386	75.62
341.614	83.62
341.842	89.62
342.07	71.62
342.298	82.62
342.526	76.62
342.754	80.62
342.981	96.62
343.209	87.62
343.437	89.62
343.665	70.62
343.893	89.62
344.12	98.62
344.348	77.62
344.576	74.62
344.804	85.62
345.031	80.62
345.259	88.62
345.487	95.62
345.714	71.62
345.942	82.62
346.17	90.62
346.397	70.62
346.625	83.62
346.853	90.62
347.08	80.62
347.308	87.62
347.535	76.62
347.763	69.62
347.99	91.62
348.218	88.62
348.445	74.62
348.673	85.62
348.9	87.62
349.128	71.62
349.355	91.62
349.583	74.62
349.81	82.62
350.037	82.62
350.265	85.62
350.492	86.62
350.72	83.62
350.947	82.62
351.174	89.62
351.402	83.62
351.629	92.62
351.856	75.62
352.083	85.62
352.311	72.62
352.538	93.62
352.765	77.62
352.992	82.62
353.22	78.62
353.447	85.62
353.674	91.62
353.901	76.62
354.128	90.62
354.355	80.62
354.583	79.62
354.81	84.62
355.037	89.62
355.264	81.62
355.491	80.62
355.718	85.62
355.945	66.62
356.172	72.62
356.399	79.62
356.626	92.62
356.853	85.62
357.08	86.62
357.307	73.62
357.534	104.62
357.761	84.62
357.988	86.62
358.215	83.62
358.441	83.62
358.668	85.62
358.895	88.62
359.122	89.62
359.349	88.62
359.576	76.62
359.802	80.62
360.029	82.62
360.256	89.62
360.483	78.62
360.709	86.62
360.936	87.62
361.163	82.62
361.39	86.62
361.616	77.62
361.843	72.62
362.07	84.62
362.296	77.62
362.523	80.62
362.749	77.62
362.976	81.62
363.203	72.62
363.429	88.62
363.656	90.62
363.882	84.62
364.109	84.62
364.335	93.62
364.562	79.62
364.788	81.62
365.015	97.62
365.241	82.62
365.468	79.62
365.694	89.62
365.92	80.62
366.147	88.62
366.373	97.62
366.599	90.62
366.826	78.62
367.052	79.62
367.278	80.62
367.505	88.62
367.731	82.62
367.957	74.62
368.184	77.62
368.41	90.62
368.636	82.62
368.862	88.62
369.089	80.62
369.315	93.62
369.541	91.62
369.767	84.62
369.993	85.62
370.219	70.62
370.445	83.62
370.672	72.62
370.898	77.62
371.124	84.62
371.35	90.62
371.576	95.62
371.802	84.62
372.028	92.62
372.254	87.62
372.48	78.62
372.706	77.62
372.932	78.62
373.158	90.62
373.384	76.62
373.61	97.62
373.835	100.62
374.061	74.62
374.287	88.62
374.513	93.62
374.739	85.62
374.965	88.62
375.191	83.62
375.416	82.62
375.642	80.62
375.868	79.62
376.094	74.62
376.319	73.62
376.545	69.62
376.771	80.62
376.997	91.62
377.222	104.62
377.448	91.62
377.674	92.62
377.899	62.62
378.125	80.62
378.35	78.62
378.576	88.62
378.802	84.62
379.027	72.62
379.253	84.62
379.478	93.62
379.704	78.62
379.929	90.62
380.155	91.62
380.38	70.62
380.606	84.62
380.831	84.62
381.057	78.62
381.282	86.62
381.507	69.62
381.733	83.62
381.958	90.62
382.184	69.62
382.409	92.62
382.634	89.62
382.86	90.62
383.085	97.62
383.31	78.62
383.535	86.62
383.761	91.62
383.986	73.62
384.211	80.62
384.436	73.62
384.662	68.62
384.887	92.62
385.112	88.62
385.337	83.62
385.562	67.62
385.787	73.62
386.013	77.62
386.238	87.62
386.463	83.62
386.688	66.62
386.913	76.62
387.138	101.62
387.363	89.62
387.588	86.62
387.813	96.62
388.038	83.62
388.263	85.62
388.488	86.62
388.713	82.62
388.938	71.62
389.163	81.62
389.387	90.62
389.612	82.62
389.837	85.62
390.062	83.62
390.287	83.62
390.512	89.62
390.736	82.62
390.961	86.62
391.186	76.62
391.411	80.62
391.636	72.62
391.86	61.62
392.085	77.62
392.31	77.62
392.534	85.62
392.759	79.62
392.984	68.62
393.208	80.62
393.433	96.62
393.658	75.62
393.882	72.62
394.107	62.62
394.331	73.62
394.556	75.62
394.78	74.62
395.005	68.62
395.229	88.62
395.454	65.62
395.678	98.62
395.903	90.62
396.127	73.62
396.352	82.62
396.576	87.62
396.801	75.62
397.025	77.62
397.249	73.62
397.474	89.62
397.698	82.62
397.922	87.62
398.147	78.62
398.371	87.62
398.595	82.62
398.82	63.62
399.044	67.62
399.268	68.62
399.492	79.62
399.717	82.62
399.941	94.62
400.165	83.62
400.389	91.62
400.613	74.62
400.837	87.62
401.062	82.62
401.286	86.62
401.51	77.62
401.734	84.62
401.958	82.62
402.182	90.62
402.406	85.62
402.63	89.62
402.854	86.62
403.078	103.62
403.302	83.62
403.526	89.62
403.75	83.62
403.974	83.62
404.198	87.62
404.422	89.62
404.645	94.62
404.869	78.62
405.093	82.62
405.317	84.62
405.541	80.62
405.765	87.62
405.988	92.62
406.212	85.62
406.436	89.62
406.66	78.62
406.883	88.62
407.107	89.62
407.331	81.62
407.555	89.62
407.778	79.62
408.002	88.62
408.226	71.62
408.449	83.62
408.673	91.62
408.896	76.62
409.12	83.62
409.344	80.62
409.567	77.62
409.791	89.62
410.014	79.62
410.238	82.62
410.461	85.62
410.685	85.62
410.908	85.62
411.132	96.62
411.355	76.62
411.578	86.62
411.802	84.62
412.025	76.62
412.249	88.62
412.472	84.62
412.695	80.62
412.919	88.62
413.142	86.62
413.365	88.62
413.589	77.62
413.812	94.62
414.035	87.62
414.258	76.62
414.482	82.62
414.705	74.62
414.928	87.62
415.151	80.62
415.374	88.62
415.597	80.62
415.821	74.62
416.044	86.62
416.267	81.62
416.49	88.62
416.713	83.62
416.936	79.62
417.159	82.62
417.382	83.62
417.605	75.62
417.828	96.62
418.051	90.62
418.274	83.62
418.497	93.62
418.72	88.62
418.943	76.62
419.166	99.62
419.389	89.62
419.611	84.62
419.834	87.62
420.057	84.62
420.28	76.62
420.503	86.62
420.726	85.62
420.948	87.62
421.171	78.62
421.394	88.62
421.617	78.62
421.839	76.62
422.062	81.62
422.285	80.62
422.507	74.62
422.73	98.62
422.953	96.62
423.175	83.62
423.398	84.62
423.621	84.62
423.843	74.62
424.066	92.62
424.288	84.62
424.511	84.62
424.733	87.62
424.956	92.62
425.178	81.62
425.401	84.62
425.623	86.62
425.846	77.62
426.068	85.62
426.291	87.62
426.513	102.62
426.735	98.62
426.958	86.62
427.18	88.62
427.402	103.62
427.625	83.62
427.847	90.62
428.069	76.62
428.292	92.62
428.514	84.62
428.736	89.62
428.958	80.62
429.181	85.62
429.403	108.62
429.625	103.62
429.847	86.62
430.069	90.62
430.292	82.62
430.514	79.62
430.736	78.62
430.958	77.62
431.18	82.62
431.402	79.62
431.624	82.62
431.846	84.62
432.068	62.62
432.29	81.62
432.512	91.62
432.734	84.62
432.956	93.62
433.178	95.62
433.4	96.62
433.622	90.62
433.844	87.62
434.066	81.62
434.287	85.62
434.509	92.62
434.731	83.62
434.953	100.62
435.175	85.62
435.397	88.62
435.618	99.62
435.84	88.62
436.062	88.62
436.284	87.62
436.505	85.62
436.727	95.62
436.949	107.62
437.17	86.62
437.392	80.62
437.614	97.62
437.835	75.62
438.057	75.62
438.278	84.62
438.5	90.62
438.721	91.62
438.943	94.62
439.165	93.62
439.386	86.62
439.608	92.62
439.829	94.62
440.05	83.62
440.272	88.62
440.493	98.62
440.715	102.62
440.936	97.62
441.158	89.62
441.379	84.62
441.6	84.62
441.822	76.62
442.043	103.62
442.264	78.62
442.486	60.62
442.707	81.62
442.928	84.62
443.149	90.62
443.371	84.62
443.592	83.62
443.813	107.62
444.034	89.62
444.255	84.62
444.476	95.62
444.698	81.62
444.919	65.62
445.14	178.62
445.361	137.62
445.582	106.62
445.803	92.62
446.024	87.62
446.245	94.62
446.466	88.62
446.687	101.62
446.908	80.62
447.129	84.62
447.35	86.62
447.571	96.62
447.792	90.62
448.013	88.62
448.234	94.62
448.455	92.62
448.675	79.62
448.896	80.62
449.117	84.62
449.338	79.62
449.559	87.62
449.779	86.62
450	88.62
450.221	78.62
450.442	86.62
450.662	83.62
450.883	88.62
451.104	96.62
451.324	84.62
451.545	83.62
451.766	88.62
451.986	84.62
452.207	79.62
452.428	83.62
452.648	82.62
452.869	85.62
453.089	98.62
453.31	88.62
453.53	82.62
453.751	93.62
453.971	90.62
454.192	92.62
454.412	101.62
454.633	72.62
454.853	92.62
455.073	87.62
455.294	90.62
455.514	105.62
455.734	89.62
455.955	74.62
456.175	82.62
456.395	84.62
456.616	91.62
456.836	93.62
457.056	72.62
457.276	81.62
457.497	73.62
457.717	78.62
457.937	89.62
458.157	77.62
458.377	74.62
458.598	80.62
458.818	98.62
459.038	78.62
459.258	80.62
459.478	84.62
459.698	75.62
459.918	71.62
460.138	82.62
460.358	76.62
460.578	94.62
460.798	88.62
461.018	87.62
461.238	88.62
461.458	88.62
461.678	88.62
461.898	75.62
462.118	93.62
462.338	81.62
462.558	83.62
462.777	69.62
462.997	68.62
463.217	98.62
463.437	77.62
463.657	78.62
463.876	83.62
464.096	78.62
464.316	96.62
464.536	80.62
464.755	82.62
464.975	83.62
465.195	88.62
465.414	97.62
465.634	85.62
465.854	98.62
466.073	89.62
466.293	91.62
466.512	93.62
466.732	98.62
466.951	102.62
467.171	93.62
467.391	103.62
467.61	82.62
467.829	98.62
468.049	94.62
468.268	99.62
468.488	86.62
468.707	91.62
468.927	83.62
469.146	99.62
469.365	94.62
469.585	91.62
469.804	97.62
470.023	94.62
470.243	115.62
470.462	88.62
470.681	86.62
470.901	100.62
471.12	85.62
471.339	103.62
471.558	80.62
471.777	89.62
471.997	89.62
472.216	85.62
472.435	96.62
472.654	87.62
472.873	89.62
473.092	85.62
473.311	96.62
473.53	101.62
473.749	79.62
473.968	102.62
474.187	87.62
474.406	90.62
474.625	92.62
474.844	91.62
475.063	92.62
475.282	91.62
475.501	80.62
475.72	88.62
475.939	97.62
476.158	85.62
476.377	81.62
476.596	85.62
476.814	86.62
477.033	80.62
477.252	88.62
477.471	105.62
477.69	75.62
477.908	84.62
478.127	95.62
478.346	95.62
478.564	90.62
478.783	93.62
479.002	91.62
479.22	81.62
479.439	101.62
479.658	99.62
479.876	90.62
480.095	89.62
480.313	85.62
480.532	77.62
480.751	96.62
480.969	82.62
481.188	78.62
481.406	92.62
481.624	77.62
481.843	76.62
482.061	77.62
482.28	97.62
482.498	70.62
482.717	99.62
482.935	85.62
483.153	102.62
483.372	90.62
483.59	95.62
483.808	96.62
484.027	85.62
484.245	102.62
484.463	96.62
484.681	100.62
484.9	98.62
485.118	101.62
485.336	89.62
485.554	81.62
485.772	87.62
485.99	80.62
486.209	82.62
486.427	95.62
486.645	90.62
486.863	97.62
487.081	100.62
487.299	88.62
487.517	91.62
487.735	88.62
487.953	105.62
488.171	86.62
488.389	101.62
488.607	98.62
488.825	92.62
489.043	88.62
489.261	89.62
489.479	92.62
489.696	94.62
489.914	88.62
490.132	90.62
490.35	90.62
490.568	107.62
490.786	91.62
491.003	107.62
491.221	99.62
491.439	87.62
491.657	100.62
491.874	99.62
492.092	108.62
492.31	85.62
492.527	114.62
492.745	102.62
492.963	100.62
493.18	100.62
493.398	97.62
493.615	100.62
493.833	97.62
494.05	98.62
494.268	100.62
494.485	86.62
494.703	102.62
494.92	107.62
495.138	92.62
495.355	96.62
495.573	103.62
495.79	99.62
496.008	93.62
496.225	95.62
496.442	110.62
496.66	98.62
496.877	99.62
497.094	92.62
497.312	91.62
497.529	84.62
497.746	98.62
497.963	96.62
498.181	90.62
498.398	79.62
498.615	93.62
498.832	94.62
499.049	92.62
499.267	101.62
499.484	83.62
499.701	108.62
499.918	91.62
500.135	83.62
500.352	92.62
500.569	89.62
500.786	87.62
501.003	95.62
501.22	89.62
501.437	75.62
501.654	75.62
501.871	99.62
502.088	85.62
502.305	84.62
502.522	75.62
502.739	86.62
502.956	87.62
503.172	101.62
503.389	84.62
503.606	80.62
503.823	86.62
504.04	79.62
504.256	105.62
504.473	83.62
504.69	78.62
504.907	100.62
505.123	98.62
505.34	92.62
505.557	81.62
505.773	84.62
505.99	96.62
506.207	77.62
506.423	93.62
506.64	92.62
506.856	84.62
507.073	91.62
507.289	83.62
507.506	76.62
507.722	91.62
507.939	83.62
508.155	84.62
508.372	85.62
508.588	96.62
508.805	77.62
509.021	88.62
509.238	85.62
509.454	73.62
509.67	73.62
509.887	84.62
510.103	81.62
510.319	86.62
510.536	88.62
510.752	72.62
510.968	78.62
511.184	89.62
511.401	86.62
511.617	82.62
511.833	78.62
512.049	85.62
512.265	83.62
512.481	78.62
512.698	74.62
512.914	88.62
513.13	81.62
513.346	78.62
513.562	77.62
513.778	82.62
513.994	75.62
514.21	99.62
514.426	105.62
514.642	91.62
514.858	81.62
515.074	82.62
515.29	71.62
515.506	85.62
515.721	85.62
515.937	91.62
516.153	91.62
516.369	91.62
516.585	95.62
516.801	88.62
517.016	91.62
517.232	80.62
517.448	92.62
517.664	93.62
517.879	84.62
518.095	83.62
518.311	76.62
518.527	94.62
