Data from Zn(NO3)2Standard.Agarose3%.GreenCap.LampEnergy5.5.E.O_HRD10591_15-03-28-767.txt Node
Date: Mon Jul 22 15:03:28 EDT 2019
User: cochatt
Spectrometer: HR+D1059
Trigger mode: 1
Integration Time (sec): 1.000000E-1
Scans to average: 1
Electric dark correction enabled: true
Nonlinearity correction enabled: false
Boxcar width: 0
XAxis mode: Wavelengths
Number of Pixels in Spectrum: 2048
>>>>>Begin Spectral Data<<<<<
223.165	-12.94
223.4	-12.94
223.635	-12.94
223.869	-21.94
224.104	-15.94
224.338	-8.94
224.573	-16.94
224.808	3.06
225.042	3.06
225.277	-11.94
225.511	3.06
225.746	-7.94
225.98	1.06
226.215	7.06
226.449	21.06
226.683	13.06
226.918	21.06
227.152	24.06
227.387	28.06
227.621	42.06
227.856	42.06
228.09	39.06
228.324	51.06
228.559	37.06
228.793	57.06
229.027	68.06
229.262	56.06
229.496	56.06
229.73	72.06
229.964	73.06
230.199	76.06
230.433	76.06
230.667	70.06
230.901	90.06
231.136	77.06
231.37	83.06
231.604	83.06
231.838	88.06
232.072	76.06
232.306	90.06
232.541	79.06
232.775	79.06
233.009	77.06
233.243	84.06
233.477	72.06
233.711	91.06
233.945	86.06
234.179	69.06
234.413	79.06
234.647	78.06
234.881	80.06
235.115	69.06
235.349	74.06
235.583	74.06
235.817	75.06
236.051	72.06
236.285	84.06
236.519	84.06
236.753	71.06
236.987	87.06
237.221	84.06
237.455	83.06
237.689	75.06
237.922	65.06
238.156	69.06
238.39	79.06
238.624	68.06
238.858	67.06
239.091	81.06
239.325	76.06
239.559	68.06
239.793	64.06
240.027	89.06
240.26	74.06
240.494	73.06
240.728	68.06
240.961	73.06
241.195	97.06
241.429	83.06
241.662	72.06
241.896	75.06
242.13	67.06
242.363	70.06
242.597	75.06
242.83	75.06
243.064	82.06
243.298	87.06
243.531	71.06
243.765	75.06
243.998	75.06
244.232	78.06
244.465	83.06
244.699	86.06
244.932	67.06
245.166	83.06
245.399	70.06
245.633	83.06
245.866	82.06
246.099	85.06
246.333	59.06
246.566	85.06
246.8	88.06
247.033	79.06
247.266	88.06
247.5	75.06
247.733	68.06
247.966	73.06
248.2	80.06
248.433	79.06
248.666	81.06
248.899	81.06
249.133	74.06
249.366	69.06
249.599	75.06
249.832	83.06
250.066	92.06
250.299	93.06
250.532	75.06
250.765	64.06
250.998	84.06
251.231	75.06
251.465	66.06
251.698	73.06
251.931	68.06
252.164	78.06
252.397	81.06
252.63	80.06
252.863	65.06
253.096	88.06
253.329	79.06
253.562	82.06
253.795	78.06
254.028	77.06
254.261	73.06
254.494	74.06
254.727	88.06
254.96	81.06
255.193	73.06
255.426	78.06
255.659	73.06
255.892	82.06
256.124	74.06
256.357	73.06
256.59	98.06
256.823	72.06
257.056	79.06
257.289	64.06
257.521	69.06
257.754	84.06
257.987	84.06
258.22	82.06
258.452	91.06
258.685	84.06
258.918	94.06
259.151	71.06
259.383	81.06
259.616	78.06
259.849	75.06
260.081	77.06
260.314	92.06
260.547	81.06
260.779	87.06
261.012	67.06
261.244	72.06
261.477	93.06
261.71	85.06
261.942	68.06
262.175	87.06
262.407	71.06
262.64	79.06
262.872	71.06
263.105	73.06
263.337	88.06
263.57	86.06
263.802	72.06
264.035	70.06
264.267	72.06
264.499	70.06
264.732	78.06
264.964	85.06
265.197	96.06
265.429	81.06
265.661	86.06
265.894	85.06
266.126	76.06
266.358	95.06
266.591	94.06
266.823	85.06
267.055	70.06
267.287	74.06
267.52	68.06
267.752	88.06
267.984	72.06
268.216	88.06
268.448	90.06
268.681	70.06
268.913	80.06
269.145	66.06
269.377	77.06
269.609	88.06
269.841	95.06
270.073	92.06
270.306	85.06
270.538	76.06
270.77	89.06
271.002	97.06
271.234	84.06
271.466	86.06
271.698	96.06
271.93	84.06
272.162	89.06
272.394	83.06
272.626	75.06
272.858	82.06
273.09	92.06
273.322	75.06
273.553	84.06
273.785	86.06
274.017	90.06
274.249	84.06
274.481	78.06
274.713	78.06
274.945	76.06
275.176	88.06
275.408	82.06
275.64	79.06
275.872	88.06
276.104	82.06
276.335	93.06
276.567	81.06
276.799	76.06
277.031	92.06
277.262	84.06
277.494	90.06
277.726	87.06
277.957	74.06
278.189	73.06
278.421	84.06
278.652	69.06
278.884	83.06
279.115	91.06
279.347	97.06
279.579	90.06
279.81	87.06
280.042	76.06
280.273	85.06
280.505	75.06
280.736	83.06
280.968	82.06
281.199	86.06
281.431	72.06
281.662	77.06
281.894	92.06
282.125	92.06
282.356	91.06
282.588	88.06
282.819	86.06
283.051	75.06
283.282	78.06
283.513	97.06
283.745	64.06
283.976	93.06
284.207	78.06
284.439	83.06
284.67	73.06
284.901	77.06
285.132	78.06
285.364	75.06
285.595	106.06
285.826	82.06
286.057	73.06
286.288	74.06
286.52	92.06
286.751	79.06
286.982	77.06
287.213	76.06
287.444	86.06
287.675	81.06
287.906	83.06
288.138	74.06
288.369	96.06
288.6	89.06
288.831	95.06
289.062	91.06
289.293	80.06
289.524	88.06
289.755	92.06
289.986	73.06
290.217	89.06
290.448	88.06
290.679	92.06
290.91	90.06
291.141	83.06
291.371	84.06
291.602	89.06
291.833	69.06
292.064	84.06
292.295	68.06
292.526	86.06
292.757	88.06
292.987	88.06
293.218	80.06
293.449	91.06
293.68	85.06
293.91	84.06
294.141	74.06
294.372	83.06
294.603	81.06
294.833	84.06
295.064	81.06
295.295	78.06
295.525	76.06
295.756	88.06
295.987	68.06
296.217	77.06
296.448	84.06
296.679	89.06
296.909	74.06
297.14	84.06
297.37	92.06
297.601	89.06
297.831	74.06
298.062	86.06
298.292	74.06
298.523	90.06
298.753	79.06
298.984	85.06
299.214	91.06
299.445	78.06
299.675	63.06
299.905	76.06
300.136	94.06
300.366	80.06
300.597	85.06
300.827	78.06
301.057	81.06
301.288	77.06
301.518	82.06
301.748	90.06
301.979	91.06
302.209	86.06
302.439	76.06
302.669	99.06
302.9	102.06
303.13	79.06
303.36	81.06
303.59	95.06
303.82	84.06
304.051	81.06
304.281	72.06
304.511	90.06
304.741	99.06
304.971	81.06
305.201	75.06
305.431	77.06
305.661	89.06
305.891	89.06
306.121	85.06
306.352	73.06
306.582	83.06
306.812	90.06
307.042	83.06
307.272	79.06
307.502	92.06
307.731	76.06
307.961	85.06
308.191	95.06
308.421	64.06
308.651	77.06
308.881	98.06
309.111	80.06
309.341	91.06
309.571	74.06
309.8	85.06
310.03	85.06
310.26	77.06
310.49	93.06
310.72	84.06
310.949	81.06
311.179	79.06
311.409	84.06
311.639	74.06
311.868	83.06
312.098	88.06
312.328	88.06
312.557	89.06
312.787	79.06
313.017	80.06
313.246	72.06
313.476	97.06
313.706	87.06
313.935	85.06
314.165	80.06
314.394	85.06
314.624	99.06
314.853	103.06
315.083	69.06
315.312	82.06
315.542	89.06
315.771	78.06
316.001	74.06
316.23	97.06
316.46	80.06
316.689	82.06
316.919	79.06
317.148	76.06
317.377	80.06
317.607	78.06
317.836	82.06
318.065	91.06
318.295	86.06
318.524	81.06
318.753	76.06
318.983	83.06
319.212	80.06
319.441	95.06
319.67	77.06
319.9	69.06
320.129	91.06
320.358	77.06
320.587	88.06
320.816	77.06
321.046	98.06
321.275	95.06
321.504	85.06
321.733	54.06
321.962	87.06
322.191	91.06
322.42	63.06
322.649	97.06
322.878	93.06
323.108	75.06
323.337	83.06
323.566	76.06
323.795	96.06
324.024	80.06
324.253	73.06
324.482	83.06
324.71	73.06
324.939	83.06
325.168	79.06
325.397	88.06
325.626	81.06
325.855	79.06
326.084	76.06
326.313	75.06
326.542	78.06
326.77	87.06
326.999	91.06
327.228	88.06
327.457	75.06
327.686	88.06
327.914	85.06
328.143	82.06
328.372	83.06
328.6	88.06
328.829	91.06
329.058	81.06
329.287	81.06
329.515	77.06
329.744	78.06
329.972	73.06
330.201	86.06
330.43	88.06
330.658	94.06
330.887	72.06
331.115	77.06
331.344	96.06
331.572	91.06
331.801	62.06
332.03	81.06
332.258	93.06
332.486	82.06
332.715	84.06
332.943	78.06
333.172	85.06
333.4	84.06
333.629	91.06
333.857	78.06
334.085	68.06
334.314	85.06
334.542	62.06
334.771	73.06
334.999	77.06
335.227	85.06
335.455	90.06
335.684	81.06
335.912	80.06
336.14	81.06
336.369	102.06
336.597	82.06
336.825	84.06
337.053	78.06
337.281	84.06
337.51	77.06
337.738	98.06
337.966	73.06
338.194	85.06
338.422	78.06
338.65	77.06
338.878	89.06
339.106	86.06
339.334	97.06
339.562	82.06
339.79	87.06
340.018	93.06
340.246	74.06
340.474	81.06
340.702	88.06
340.93	80.06
341.158	73.06
341.386	88.06
341.614	92.06
341.842	91.06
342.07	84.06
342.298	82.06
342.526	74.06
342.754	81.06
342.981	80.06
343.209	91.06
343.437	79.06
343.665	83.06
343.893	74.06
344.12	89.06
344.348	67.06
344.576	90.06
344.804	82.06
345.031	88.06
345.259	81.06
345.487	78.06
345.714	88.06
345.942	78.06
346.17	81.06
346.397	84.06
346.625	82.06
346.853	86.06
347.08	78.06
347.308	83.06
347.535	85.06
347.763	91.06
347.99	70.06
348.218	87.06
348.445	74.06
348.673	89.06
348.9	83.06
349.128	75.06
349.355	77.06
349.583	65.06
349.81	87.06
350.037	77.06
350.265	89.06
350.492	70.06
350.72	87.06
350.947	87.06
351.174	83.06
351.402	72.06
351.629	84.06
351.856	73.06
352.083	85.06
352.311	87.06
352.538	83.06
352.765	92.06
352.992	82.06
353.22	81.06
353.447	79.06
353.674	98.06
353.901	82.06
354.128	72.06
354.355	81.06
354.583	92.06
354.81	81.06
355.037	94.06
355.264	96.06
355.491	79.06
355.718	82.06
355.945	90.06
356.172	71.06
356.399	76.06
356.626	85.06
356.853	72.06
357.08	85.06
357.307	78.06
357.534	54.06
357.761	83.06
357.988	85.06
358.215	81.06
358.441	90.06
358.668	78.06
358.895	76.06
359.122	87.06
359.349	77.06
359.576	84.06
359.802	80.06
360.029	81.06
360.256	91.06
360.483	88.06
360.709	68.06
360.936	91.06
361.163	87.06
361.39	85.06
361.616	78.06
361.843	80.06
362.07	82.06
362.296	64.06
362.523	84.06
362.749	84.06
362.976	76.06
363.203	95.06
363.429	90.06
363.656	88.06
363.882	84.06
364.109	77.06
364.335	84.06
364.562	92.06
364.788	81.06
365.015	80.06
365.241	87.06
365.468	81.06
365.694	87.06
365.92	75.06
366.147	71.06
366.373	73.06
366.599	70.06
366.826	73.06
367.052	91.06
367.278	78.06
367.505	75.06
367.731	82.06
367.957	92.06
368.184	83.06
368.41	86.06
368.636	88.06
368.862	91.06
369.089	81.06
369.315	84.06
369.541	75.06
369.767	91.06
369.993	64.06
370.219	87.06
370.445	76.06
370.672	88.06
370.898	85.06
371.124	83.06
371.35	74.06
371.576	83.06
371.802	90.06
372.028	82.06
372.254	91.06
372.48	69.06
372.706	81.06
372.932	75.06
373.158	81.06
373.384	73.06
373.61	94.06
373.835	81.06
374.061	78.06
374.287	79.06
374.513	88.06
374.739	71.06
374.965	85.06
375.191	81.06
375.416	79.06
375.642	90.06
375.868	96.06
376.094	91.06
376.319	86.06
376.545	82.06
376.771	84.06
376.997	93.06
377.222	81.06
377.448	78.06
377.674	90.06
377.899	70.06
378.125	77.06
378.35	81.06
378.576	93.06
378.802	89.06
379.027	77.06
379.253	85.06
379.478	88.06
379.704	94.06
379.929	91.06
380.155	77.06
380.38	74.06
380.606	83.06
380.831	79.06
381.057	85.06
381.282	75.06
381.507	84.06
381.733	76.06
381.958	73.06
382.184	72.06
382.409	77.06
382.634	66.06
382.86	68.06
383.085	92.06
383.31	84.06
383.535	67.06
383.761	74.06
383.986	82.06
384.211	68.06
384.436	79.06
384.662	74.06
384.887	66.06
385.112	87.06
385.337	76.06
385.562	66.06
385.787	81.06
386.013	84.06
386.238	90.06
386.463	74.06
386.688	85.06
386.913	75.06
387.138	72.06
387.363	80.06
387.588	74.06
387.813	87.06
388.038	82.06
388.263	79.06
388.488	67.06
388.713	77.06
388.938	79.06
389.163	76.06
389.387	81.06
389.612	87.06
389.837	79.06
390.062	79.06
390.287	79.06
390.512	82.06
390.736	77.06
390.961	87.06
391.186	88.06
391.411	84.06
391.636	76.06
391.86	75.06
392.085	80.06
392.31	75.06
392.534	80.06
392.759	82.06
392.984	72.06
393.208	72.06
393.433	73.06
393.658	88.06
393.882	84.06
394.107	77.06
394.331	89.06
394.556	82.06
394.78	78.06
395.005	93.06
395.229	83.06
395.454	77.06
395.678	64.06
395.903	95.06
396.127	82.06
396.352	72.06
396.576	87.06
396.801	68.06
397.025	74.06
397.249	94.06
397.474	102.06
397.698	96.06
397.922	86.06
398.147	89.06
398.371	72.06
398.595	88.06
398.82	77.06
399.044	87.06
399.268	89.06
399.492	81.06
399.717	79.06
399.941	79.06
400.165	84.06
400.389	87.06
400.613	88.06
400.837	81.06
401.062	77.06
401.286	91.06
401.51	80.06
401.734	79.06
401.958	80.06
402.182	84.06
402.406	80.06
402.63	68.06
402.854	95.06
403.078	70.06
403.302	82.06
403.526	86.06
403.75	89.06
403.974	68.06
404.198	85.06
404.422	87.06
404.645	86.06
404.869	86.06
405.093	85.06
405.317	75.06
405.541	96.06
405.765	80.06
405.988	100.06
406.212	85.06
406.436	73.06
406.66	84.06
406.883	88.06
407.107	88.06
407.331	70.06
407.555	72.06
407.778	87.06
408.002	90.06
408.226	87.06
408.449	82.06
408.673	85.06
408.896	95.06
409.12	85.06
409.344	85.06
409.567	87.06
409.791	73.06
410.014	82.06
410.238	94.06
410.461	76.06
410.685	100.06
410.908	86.06
411.132	93.06
411.355	99.06
411.578	74.06
411.802	89.06
412.025	77.06
412.249	91.06
412.472	74.06
412.695	73.06
412.919	76.06
413.142	92.06
413.365	74.06
413.589	93.06
413.812	81.06
414.035	86.06
414.258	81.06
414.482	75.06
414.705	87.06
414.928	95.06
415.151	97.06
415.374	90.06
415.597	75.06
415.821	85.06
416.044	90.06
416.267	86.06
416.49	89.06
416.713	86.06
416.936	104.06
417.159	98.06
417.382	81.06
417.605	94.06
417.828	97.06
418.051	83.06
418.274	86.06
418.497	100.06
418.72	79.06
418.943	96.06
419.166	83.06
419.389	92.06
419.611	93.06
419.834	88.06
420.057	82.06
420.28	83.06
420.503	101.06
420.726	101.06
420.948	95.06
421.171	88.06
421.394	94.06
421.617	87.06
421.839	96.06
422.062	85.06
422.285	81.06
422.507	99.06
422.73	88.06
422.953	97.06
423.175	95.06
423.398	90.06
423.621	86.06
423.843	85.06
424.066	78.06
424.288	91.06
424.511	90.06
424.733	83.06
424.956	94.06
425.178	89.06
425.401	93.06
425.623	96.06
425.846	99.06
426.068	92.06
426.291	100.06
426.513	87.06
426.735	84.06
426.958	87.06
427.18	97.06
427.402	91.06
427.625	86.06
427.847	76.06
428.069	82.06
428.292	75.06
428.514	91.06
428.736	73.06
428.958	91.06
429.181	98.06
429.403	84.06
429.625	80.06
429.847	90.06
430.069	105.06
430.292	93.06
430.514	85.06
430.736	90.06
430.958	88.06
431.18	90.06
431.402	85.06
431.624	89.06
431.846	78.06
432.068	77.06
432.29	89.06
432.512	78.06
432.734	91.06
432.956	80.06
433.178	91.06
433.4	94.06
433.622	85.06
433.844	85.06
434.066	79.06
434.287	92.06
434.509	77.06
434.731	71.06
434.953	86.06
435.175	79.06
435.397	84.06
435.618	88.06
435.84	75.06
436.062	85.06
436.284	96.06
436.505	71.06
436.727	85.06
436.949	84.06
437.17	92.06
437.392	83.06
437.614	88.06
437.835	95.06
438.057	67.06
438.278	89.06
438.5	91.06
438.721	76.06
438.943	88.06
439.165	89.06
439.386	113.06
439.608	93.06
439.829	87.06
440.05	91.06
440.272	78.06
440.493	93.06
440.715	89.06
440.936	81.06
441.158	97.06
441.379	84.06
441.6	88.06
441.822	89.06
442.043	75.06
442.264	96.06
442.486	90.06
442.707	80.06
442.928	88.06
443.149	84.06
443.371	98.06
443.592	77.06
443.813	94.06
444.034	100.06
444.255	94.06
444.476	94.06
444.698	88.06
444.919	91.06
445.14	203.06
445.361	157.06
445.582	97.06
445.803	86.06
446.024	99.06
446.245	73.06
446.466	104.06
446.687	87.06
446.908	101.06
447.129	102.06
447.35	96.06
447.571	95.06
447.792	92.06
448.013	95.06
448.234	99.06
448.455	91.06
448.675	98.06
448.896	96.06
449.117	89.06
449.338	77.06
449.559	86.06
449.779	91.06
450	84.06
450.221	87.06
450.442	91.06
450.662	99.06
450.883	88.06
451.104	86.06
451.324	82.06
451.545	100.06
451.766	109.06
451.986	83.06
452.207	82.06
452.428	85.06
452.648	87.06
452.869	76.06
453.089	85.06
453.31	83.06
453.53	88.06
453.751	89.06
453.971	85.06
454.192	84.06
454.412	85.06
454.633	90.06
454.853	84.06
455.073	80.06
455.294	100.06
455.514	91.06
455.734	91.06
455.955	91.06
456.175	92.06
456.395	82.06
456.616	77.06
456.836	87.06
457.056	87.06
457.276	81.06
457.497	62.06
457.717	103.06
457.937	85.06
458.157	71.06
458.377	76.06
458.598	83.06
458.818	86.06
459.038	84.06
459.258	86.06
459.478	76.06
459.698	73.06
459.918	83.06
460.138	69.06
460.358	74.06
460.578	76.06
460.798	91.06
461.018	85.06
461.238	85.06
461.458	76.06
461.678	78.06
461.898	80.06
462.118	86.06
462.338	80.06
462.558	85.06
462.777	93.06
462.997	86.06
463.217	67.06
463.437	88.06
463.657	86.06
463.876	86.06
464.096	85.06
464.316	68.06
464.536	82.06
464.755	91.06
464.975	95.06
465.195	83.06
465.414	71.06
465.634	75.06
465.854	81.06
466.073	86.06
466.293	96.06
466.512	81.06
466.732	94.06
466.951	105.06
467.171	87.06
467.391	75.06
467.61	82.06
467.829	84.06
468.049	89.06
468.268	83.06
468.488	79.06
468.707	92.06
468.927	94.06
469.146	94.06
469.365	98.06
469.585	97.06
469.804	93.06
470.023	95.06
470.243	99.06
470.462	86.06
470.681	89.06
470.901	76.06
471.12	89.06
471.339	80.06
471.558	86.06
471.777	102.06
471.997	99.06
472.216	93.06
472.435	98.06
472.654	89.06
472.873	72.06
473.092	76.06
473.311	82.06
473.53	82.06
473.749	84.06
473.968	99.06
474.187	83.06
474.406	91.06
474.625	100.06
474.844	90.06
475.063	82.06
475.282	92.06
475.501	78.06
475.72	98.06
475.939	93.06
476.158	77.06
476.377	86.06
476.596	65.06
476.814	92.06
477.033	87.06
477.252	82.06
477.471	69.06
477.69	77.06
477.908	93.06
478.127	83.06
478.346	85.06
478.564	98.06
478.783	80.06
479.002	96.06
479.22	82.06
479.439	97.06
479.658	89.06
479.876	102.06
480.095	91.06
480.313	84.06
480.532	100.06
480.751	80.06
480.969	101.06
481.188	87.06
481.406	82.06
481.624	82.06
481.843	79.06
482.061	84.06
482.28	92.06
482.498	96.06
482.717	77.06
482.935	93.06
483.153	98.06
483.372	87.06
483.59	76.06
483.808	97.06
484.027	81.06
484.245	90.06
484.463	93.06
484.681	105.06
484.9	90.06
485.118	90.06
485.336	85.06
485.554	81.06
485.772	85.06
485.99	81.06
486.209	92.06
486.427	103.06
486.645	94.06
486.863	79.06
487.081	85.06
487.299	82.06
487.517	88.06
487.735	92.06
487.953	101.06
488.171	106.06
488.389	98.06
488.607	92.06
488.825	86.06
489.043	83.06
489.261	85.06
489.479	95.06
489.696	102.06
489.914	90.06
490.132	86.06
490.35	104.06
490.568	96.06
490.786	95.06
491.003	95.06
491.221	106.06
491.439	112.06
491.657	106.06
491.874	100.06
492.092	100.06
492.31	112.06
492.527	98.06
492.745	100.06
492.963	116.06
493.18	117.06
493.398	96.06
493.615	96.06
493.833	100.06
494.05	94.06
494.268	96.06
494.485	87.06
494.703	91.06
494.92	96.06
495.138	99.06
495.355	98.06
495.573	108.06
495.79	99.06
496.008	98.06
496.225	92.06
496.442	92.06
496.66	95.06
496.877	96.06
497.094	114.06
497.312	99.06
497.529	90.06
497.746	107.06
497.963	107.06
498.181	91.06
498.398	102.06
498.615	91.06
498.832	85.06
499.049	90.06
499.267	97.06
499.484	93.06
499.701	89.06
499.918	99.06
500.135	92.06
500.352	93.06
500.569	108.06
500.786	91.06
501.003	75.06
501.22	84.06
501.437	106.06
501.654	91.06
501.871	87.06
502.088	97.06
502.305	89.06
502.522	96.06
502.739	88.06
502.956	95.06
503.172	94.06
503.389	91.06
503.606	89.06
503.823	74.06
504.04	80.06
504.256	75.06
504.473	80.06
504.69	88.06
504.907	84.06
505.123	78.06
505.34	87.06
505.557	100.06
505.773	76.06
505.99	79.06
506.207	98.06
506.423	83.06
506.64	97.06
506.856	101.06
507.073	89.06
507.289	90.06
507.506	84.06
507.722	80.06
507.939	90.06
508.155	85.06
508.372	101.06
508.588	84.06
508.805	70.06
509.021	87.06
509.238	73.06
509.454	97.06
509.67	88.06
509.887	77.06
510.103	75.06
510.319	88.06
510.536	86.06
510.752	89.06
510.968	85.06
511.184	85.06
511.401	85.06
511.617	86.06
511.833	75.06
512.049	94.06
512.265	76.06
512.481	77.06
512.698	80.06
512.914	70.06
513.13	100.06
513.346	76.06
513.562	92.06
513.778	81.06
513.994	88.06
514.21	80.06
514.426	75.06
514.642	96.06
514.858	76.06
515.074	71.06
515.29	77.06
515.506	75.06
515.721	82.06
515.937	86.06
516.153	75.06
516.369	76.06
516.585	76.06
516.801	81.06
517.016	90.06
517.232	84.06
517.448	93.06
517.664	88.06
517.879	85.06
518.095	88.06
518.311	100.06
518.527	70.06
518.742	71.06
