Data from Zn(NO3)2Standard.Agarose3%.GreenCap.LampEnergy5.5.E.O_HRD10591_15-03-46-769.txt Node
Date: Mon Jul 22 15:03:46 EDT 2019
User: cochatt
Spectrometer: HR+D1059
Trigger mode: 1
Integration Time (sec): 1.000000E-1
Scans to average: 1
Electric dark correction enabled: true
Nonlinearity correction enabled: false
Boxcar width: 0
XAxis mode: Wavelengths
Number of Pixels in Spectrum: 2048
>>>>>Begin Spectral Data<<<<<
223.165	-6.88
223.4	-6.88
223.635	-6.88
223.869	-11.88
224.104	-22.88
224.338	-9.88
224.573	-11.88
224.808	-20.88
225.042	-15.88
225.277	-13.88
225.511	-0.88
225.746	7.12
225.98	10.12
226.215	12.12
226.449	13.12
226.683	26.12
226.918	19.12
227.152	27.12
227.387	30.12
227.621	20.12
227.856	47.12
228.09	37.12
228.324	63.12
228.559	72.12
228.793	54.12
229.027	59.12
229.262	58.12
229.496	75.12
229.73	75.12
229.964	74.12
230.199	68.12
230.433	77.12
230.667	79.12
230.901	72.12
231.136	84.12
231.37	74.12
231.604	81.12
231.838	80.12
232.072	82.12
232.306	91.12
232.541	80.12
232.775	76.12
233.009	70.12
233.243	86.12
233.477	78.12
233.711	89.12
233.945	67.12
234.179	80.12
234.413	81.12
234.647	80.12
234.881	88.12
235.115	74.12
235.349	77.12
235.583	68.12
235.817	68.12
236.051	69.12
236.285	92.12
236.519	80.12
236.753	79.12
236.987	68.12
237.221	77.12
237.455	67.12
237.689	67.12
237.922	79.12
238.156	78.12
238.39	74.12
238.624	77.12
238.858	78.12
239.091	67.12
239.325	66.12
239.559	78.12
239.793	84.12
240.027	89.12
240.26	79.12
240.494	87.12
240.728	85.12
240.961	71.12
241.195	85.12
241.429	83.12
241.662	83.12
241.896	79.12
242.13	83.12
242.363	89.12
242.597	74.12
242.83	73.12
243.064	80.12
243.298	84.12
243.531	86.12
243.765	71.12
243.998	96.12
244.232	86.12
244.465	85.12
244.699	85.12
244.932	80.12
245.166	81.12
245.399	72.12
245.633	87.12
245.866	74.12
246.099	84.12
246.333	81.12
246.566	81.12
246.8	87.12
247.033	65.12
247.266	66.12
247.5	76.12
247.733	70.12
247.966	78.12
248.2	94.12
248.433	81.12
248.666	71.12
248.899	78.12
249.133	83.12
249.366	76.12
249.599	76.12
249.832	86.12
250.066	88.12
250.299	80.12
250.532	92.12
250.765	80.12
250.998	72.12
251.231	72.12
251.465	86.12
251.698	93.12
251.931	89.12
252.164	87.12
252.397	83.12
252.63	80.12
252.863	74.12
253.096	82.12
253.329	93.12
253.562	89.12
253.795	90.12
254.028	88.12
254.261	97.12
254.494	95.12
254.727	83.12
254.96	88.12
255.193	73.12
255.426	75.12
255.659	89.12
255.892	93.12
256.124	78.12
256.357	88.12
256.59	84.12
256.823	87.12
257.056	83.12
257.289	87.12
257.521	80.12
257.754	70.12
257.987	85.12
258.22	81.12
258.452	79.12
258.685	65.12
258.918	85.12
259.151	92.12
259.383	82.12
259.616	91.12
259.849	76.12
260.081	84.12
260.314	87.12
260.547	94.12
260.779	87.12
261.012	82.12
261.244	75.12
261.477	95.12
261.71	94.12
261.942	87.12
262.175	78.12
262.407	79.12
262.64	79.12
262.872	80.12
263.105	76.12
263.337	79.12
263.57	79.12
263.802	79.12
264.035	78.12
264.267	76.12
264.499	81.12
264.732	87.12
264.964	77.12
265.197	83.12
265.429	81.12
265.661	96.12
265.894	80.12
266.126	82.12
266.358	71.12
266.591	82.12
266.823	73.12
267.055	71.12
267.287	81.12
267.52	82.12
267.752	90.12
267.984	76.12
268.216	65.12
268.448	83.12
268.681	78.12
268.913	87.12
269.145	73.12
269.377	68.12
269.609	83.12
269.841	88.12
270.073	87.12
270.306	86.12
270.538	78.12
270.77	78.12
271.002	84.12
271.234	87.12
271.466	91.12
271.698	77.12
271.93	77.12
272.162	86.12
272.394	90.12
272.626	81.12
272.858	92.12
273.09	87.12
273.322	75.12
273.553	82.12
273.785	84.12
274.017	83.12
274.249	72.12
274.481	85.12
274.713	74.12
274.945	88.12
275.176	84.12
275.408	90.12
275.64	80.12
275.872	71.12
276.104	83.12
276.335	104.12
276.567	74.12
276.799	82.12
277.031	79.12
277.262	84.12
277.494	81.12
277.726	99.12
277.957	94.12
278.189	83.12
278.421	79.12
278.652	88.12
278.884	96.12
279.115	107.12
279.347	81.12
279.579	93.12
279.81	87.12
280.042	80.12
280.273	73.12
280.505	79.12
280.736	97.12
280.968	91.12
281.199	73.12
281.431	79.12
281.662	82.12
281.894	89.12
282.125	84.12
282.356	83.12
282.588	83.12
282.819	79.12
283.051	79.12
283.282	72.12
283.513	98.12
283.745	94.12
283.976	80.12
284.207	72.12
284.439	99.12
284.67	107.12
284.901	91.12
285.132	95.12
285.364	83.12
285.595	84.12
285.826	94.12
286.057	90.12
286.288	78.12
286.52	84.12
286.751	87.12
286.982	84.12
287.213	94.12
287.444	82.12
287.675	76.12
287.906	82.12
288.138	95.12
288.369	96.12
288.6	90.12
288.831	79.12
289.062	90.12
289.293	87.12
289.524	80.12
289.755	79.12
289.986	74.12
290.217	88.12
290.448	95.12
290.679	94.12
290.91	82.12
291.141	72.12
291.371	88.12
291.602	89.12
291.833	85.12
292.064	81.12
292.295	76.12
292.526	69.12
292.757	75.12
292.987	100.12
293.218	75.12
293.449	74.12
293.68	84.12
293.91	96.12
294.141	96.12
294.372	101.12
294.603	95.12
294.833	80.12
295.064	83.12
295.295	94.12
295.525	93.12
295.756	90.12
295.987	95.12
296.217	86.12
296.448	85.12
296.679	70.12
296.909	83.12
297.14	90.12
297.37	90.12
297.601	86.12
297.831	80.12
298.062	76.12
298.292	78.12
298.523	74.12
298.753	81.12
298.984	90.12
299.214	89.12
299.445	87.12
299.675	87.12
299.905	81.12
300.136	85.12
300.366	84.12
300.597	89.12
300.827	86.12
301.057	88.12
301.288	108.12
301.518	102.12
301.748	90.12
301.979	90.12
302.209	81.12
302.439	88.12
302.669	92.12
302.9	94.12
303.13	76.12
303.36	78.12
303.59	79.12
303.82	92.12
304.051	95.12
304.281	96.12
304.511	100.12
304.741	93.12
304.971	80.12
305.201	90.12
305.431	94.12
305.661	83.12
305.891	92.12
306.121	99.12
306.352	94.12
306.582	84.12
306.812	67.12
307.042	82.12
307.272	71.12
307.502	90.12
307.731	92.12
307.961	81.12
308.191	90.12
308.421	85.12
308.651	91.12
308.881	87.12
309.111	93.12
309.341	88.12
309.571	72.12
309.8	77.12
310.03	85.12
310.26	83.12
310.49	84.12
310.72	98.12
310.949	77.12
311.179	82.12
311.409	85.12
311.639	82.12
311.868	81.12
312.098	86.12
312.328	92.12
312.557	105.12
312.787	89.12
313.017	86.12
313.246	95.12
313.476	82.12
313.706	90.12
313.935	87.12
314.165	95.12
314.394	74.12
314.624	96.12
314.853	101.12
315.083	85.12
315.312	90.12
315.542	90.12
315.771	94.12
316.001	93.12
316.23	82.12
316.46	91.12
316.689	83.12
316.919	76.12
317.148	87.12
317.377	94.12
317.607	80.12
317.836	96.12
318.065	96.12
318.295	90.12
318.524	82.12
318.753	92.12
318.983	97.12
319.212	108.12
319.441	91.12
319.67	87.12
319.9	85.12
320.129	83.12
320.358	84.12
320.587	66.12
320.816	80.12
321.046	101.12
321.275	94.12
321.504	96.12
321.733	102.12
321.962	86.12
322.191	79.12
322.42	91.12
322.649	91.12
322.878	96.12
323.108	108.12
323.337	77.12
323.566	79.12
323.795	86.12
324.024	86.12
324.253	82.12
324.482	90.12
324.71	102.12
324.939	92.12
325.168	72.12
325.397	78.12
325.626	76.12
325.855	84.12
326.084	81.12
326.313	93.12
326.542	90.12
326.77	94.12
326.999	93.12
327.228	72.12
327.457	80.12
327.686	96.12
327.914	87.12
328.143	93.12
328.372	94.12
328.6	95.12
328.829	91.12
329.058	100.12
329.287	86.12
329.515	70.12
329.744	100.12
329.972	82.12
330.201	97.12
330.43	86.12
330.658	90.12
330.887	84.12
331.115	93.12
331.344	85.12
331.572	88.12
331.801	89.12
332.03	80.12
332.258	94.12
332.486	86.12
332.715	104.12
332.943	94.12
333.172	97.12
333.4	78.12
333.629	85.12
333.857	92.12
334.085	88.12
334.314	83.12
334.542	85.12
334.771	88.12
334.999	70.12
335.227	84.12
335.455	87.12
335.684	90.12
335.912	68.12
336.14	82.12
336.369	75.12
336.597	108.12
336.825	99.12
337.053	88.12
337.281	106.12
337.51	102.12
337.738	81.12
337.966	87.12
338.194	78.12
338.422	83.12
338.65	82.12
338.878	108.12
339.106	84.12
339.334	79.12
339.562	88.12
339.79	85.12
340.018	94.12
340.246	84.12
340.474	73.12
340.702	88.12
340.93	86.12
341.158	85.12
341.386	92.12
341.614	84.12
341.842	72.12
342.07	81.12
342.298	83.12
342.526	88.12
342.754	88.12
342.981	78.12
343.209	86.12
343.437	91.12
343.665	87.12
343.893	89.12
344.12	83.12
344.348	84.12
344.576	95.12
344.804	84.12
345.031	79.12
345.259	86.12
345.487	81.12
345.714	75.12
345.942	89.12
346.17	89.12
346.397	77.12
346.625	91.12
346.853	81.12
347.08	94.12
347.308	82.12
347.535	80.12
347.763	88.12
347.99	77.12
348.218	85.12
348.445	82.12
348.673	83.12
348.9	90.12
349.128	89.12
349.355	90.12
349.583	95.12
349.81	82.12
350.037	96.12
350.265	80.12
350.492	95.12
350.72	84.12
350.947	80.12
351.174	87.12
351.402	83.12
351.629	79.12
351.856	85.12
352.083	94.12
352.311	88.12
352.538	78.12
352.765	88.12
352.992	92.12
353.22	86.12
353.447	82.12
353.674	84.12
353.901	82.12
354.128	90.12
354.355	80.12
354.583	74.12
354.81	85.12
355.037	94.12
355.264	88.12
355.491	78.12
355.718	77.12
355.945	78.12
356.172	77.12
356.399	93.12
356.626	80.12
356.853	85.12
357.08	80.12
357.307	92.12
357.534	88.12
357.761	92.12
357.988	91.12
358.215	86.12
358.441	80.12
358.668	84.12
358.895	95.12
359.122	81.12
359.349	78.12
359.576	87.12
359.802	76.12
360.029	90.12
360.256	73.12
360.483	77.12
360.709	98.12
360.936	101.12
361.163	86.12
361.39	87.12
361.616	86.12
361.843	91.12
362.07	90.12
362.296	96.12
362.523	88.12
362.749	91.12
362.976	98.12
363.203	86.12
363.429	104.12
363.656	86.12
363.882	83.12
364.109	86.12
364.335	82.12
364.562	80.12
364.788	96.12
365.015	82.12
365.241	87.12
365.468	94.12
365.694	90.12
365.92	87.12
366.147	88.12
366.373	88.12
366.599	89.12
366.826	76.12
367.052	79.12
367.278	79.12
367.505	84.12
367.731	85.12
367.957	78.12
368.184	90.12
368.41	84.12
368.636	86.12
368.862	85.12
369.089	84.12
369.315	73.12
369.541	85.12
369.767	89.12
369.993	96.12
370.219	76.12
370.445	101.12
370.672	85.12
370.898	79.12
371.124	92.12
371.35	90.12
371.576	86.12
371.802	92.12
372.028	71.12
372.254	76.12
372.48	81.12
372.706	90.12
372.932	96.12
373.158	86.12
373.384	84.12
373.61	84.12
373.835	84.12
374.061	87.12
374.287	99.12
374.513	85.12
374.739	76.12
374.965	75.12
375.191	95.12
375.416	80.12
375.642	81.12
375.868	91.12
376.094	75.12
376.319	82.12
376.545	95.12
376.771	96.12
376.997	95.12
377.222	93.12
377.448	95.12
377.674	83.12
377.899	91.12
378.125	103.12
378.35	97.12
378.576	87.12
378.802	86.12
379.027	91.12
379.253	102.12
379.478	80.12
379.704	86.12
379.929	87.12
380.155	69.12
380.38	91.12
380.606	85.12
380.831	79.12
381.057	89.12
381.282	91.12
381.507	83.12
381.733	86.12
381.958	84.12
382.184	67.12
382.409	91.12
382.634	95.12
382.86	84.12
383.085	98.12
383.31	95.12
383.535	87.12
383.761	85.12
383.986	83.12
384.211	101.12
384.436	70.12
384.662	90.12
384.887	93.12
385.112	75.12
385.337	80.12
385.562	88.12
385.787	79.12
386.013	95.12
386.238	84.12
386.463	74.12
386.688	79.12
386.913	92.12
387.138	83.12
387.363	95.12
387.588	78.12
387.813	85.12
388.038	98.12
388.263	82.12
388.488	85.12
388.713	78.12
388.938	86.12
389.163	85.12
389.387	87.12
389.612	93.12
389.837	82.12
390.062	94.12
390.287	85.12
390.512	80.12
390.736	86.12
390.961	75.12
391.186	86.12
391.411	84.12
391.636	89.12
391.86	93.12
392.085	84.12
392.31	97.12
392.534	93.12
392.759	75.12
392.984	84.12
393.208	90.12
393.433	83.12
393.658	79.12
393.882	71.12
394.107	78.12
394.331	84.12
394.556	92.12
394.78	88.12
395.005	92.12
395.229	91.12
395.454	94.12
395.678	84.12
395.903	91.12
396.127	100.12
396.352	82.12
396.576	82.12
396.801	83.12
397.025	96.12
397.249	79.12
397.474	86.12
397.698	86.12
397.922	86.12
398.147	86.12
398.371	81.12
398.595	80.12
398.82	86.12
399.044	78.12
399.268	91.12
399.492	86.12
399.717	94.12
399.941	87.12
400.165	94.12
400.389	92.12
400.613	83.12
400.837	107.12
401.062	94.12
401.286	87.12
401.51	76.12
401.734	94.12
401.958	78.12
402.182	85.12
402.406	84.12
402.63	89.12
402.854	82.12
403.078	86.12
403.302	82.12
403.526	91.12
403.75	85.12
403.974	73.12
404.198	86.12
404.422	98.12
404.645	92.12
404.869	96.12
405.093	97.12
405.317	86.12
405.541	95.12
405.765	86.12
405.988	80.12
406.212	90.12
406.436	92.12
406.66	87.12
406.883	96.12
407.107	85.12
407.331	94.12
407.555	84.12
407.778	76.12
408.002	86.12
408.226	91.12
408.449	94.12
408.673	86.12
408.896	78.12
409.12	78.12
409.344	87.12
409.567	88.12
409.791	84.12
410.014	76.12
410.238	90.12
410.461	78.12
410.685	74.12
410.908	85.12
411.132	103.12
411.355	78.12
411.578	82.12
411.802	74.12
412.025	89.12
412.249	86.12
412.472	83.12
412.695	66.12
412.919	67.12
413.142	82.12
413.365	86.12
413.589	99.12
413.812	100.12
414.035	102.12
414.258	84.12
414.482	92.12
414.705	86.12
414.928	94.12
415.151	82.12
415.374	76.12
415.597	91.12
415.821	95.12
416.044	102.12
416.267	102.12
416.49	97.12
416.713	74.12
416.936	92.12
417.159	97.12
417.382	94.12
417.605	89.12
417.828	72.12
418.051	97.12
418.274	89.12
418.497	105.12
418.72	89.12
418.943	99.12
419.166	93.12
419.389	82.12
419.611	108.12
419.834	89.12
420.057	99.12
420.28	77.12
420.503	82.12
420.726	103.12
420.948	86.12
421.171	89.12
421.394	102.12
421.617	79.12
421.839	85.12
422.062	76.12
422.285	94.12
422.507	100.12
422.73	84.12
422.953	77.12
423.175	104.12
423.398	96.12
423.621	89.12
423.843	88.12
424.066	94.12
424.288	93.12
424.511	104.12
424.733	95.12
424.956	81.12
425.178	86.12
425.401	92.12
425.623	103.12
425.846	90.12
426.068	85.12
426.291	74.12
426.513	87.12
426.735	100.12
426.958	86.12
427.18	79.12
427.402	92.12
427.625	95.12
427.847	101.12
428.069	98.12
428.292	93.12
428.514	96.12
428.736	108.12
428.958	88.12
429.181	98.12
429.403	91.12
429.625	90.12
429.847	98.12
430.069	94.12
430.292	98.12
430.514	86.12
430.736	76.12
430.958	78.12
431.18	86.12
431.402	85.12
431.624	91.12
431.846	83.12
432.068	96.12
432.29	76.12
432.512	94.12
432.734	83.12
432.956	96.12
433.178	97.12
433.4	85.12
433.622	104.12
433.844	92.12
434.066	82.12
434.287	71.12
434.509	89.12
434.731	85.12
434.953	101.12
435.175	88.12
435.397	83.12
435.618	94.12
435.84	82.12
436.062	84.12
436.284	90.12
436.505	94.12
436.727	80.12
436.949	84.12
437.17	88.12
437.392	89.12
437.614	94.12
437.835	92.12
438.057	86.12
438.278	90.12
438.5	103.12
438.721	94.12
438.943	97.12
439.165	105.12
439.386	98.12
439.608	79.12
439.829	81.12
440.05	103.12
440.272	95.12
440.493	85.12
440.715	83.12
440.936	112.12
441.158	98.12
441.379	90.12
441.6	104.12
441.822	103.12
442.043	86.12
442.264	87.12
442.486	78.12
442.707	89.12
442.928	87.12
443.149	99.12
443.371	88.12
443.592	100.12
443.813	97.12
444.034	86.12
444.255	99.12
444.476	98.12
444.698	77.12
444.919	101.12
445.14	226.12
445.361	143.12
445.582	91.12
445.803	100.12
446.024	95.12
446.245	93.12
446.466	106.12
446.687	96.12
446.908	87.12
447.129	80.12
447.35	87.12
447.571	82.12
447.792	88.12
448.013	95.12
448.234	97.12
448.455	92.12
448.675	105.12
448.896	89.12
449.117	100.12
449.338	86.12
449.559	98.12
449.779	90.12
450	94.12
450.221	101.12
450.442	108.12
450.662	86.12
450.883	96.12
451.104	91.12
451.324	88.12
451.545	87.12
451.766	91.12
451.986	85.12
452.207	103.12
452.428	107.12
452.648	91.12
452.869	93.12
453.089	94.12
453.31	86.12
453.53	101.12
453.751	67.12
453.971	86.12
454.192	85.12
454.412	83.12
454.633	77.12
454.853	82.12
455.073	87.12
455.294	88.12
455.514	92.12
455.734	89.12
455.955	88.12
456.175	75.12
456.395	78.12
456.616	86.12
456.836	79.12
457.056	68.12
457.276	90.12
457.497	90.12
457.717	87.12
457.937	79.12
458.157	80.12
458.377	96.12
458.598	86.12
458.818	77.12
459.038	74.12
459.258	74.12
459.478	77.12
459.698	81.12
459.918	96.12
460.138	98.12
460.358	96.12
460.578	79.12
460.798	85.12
461.018	79.12
461.238	100.12
461.458	98.12
461.678	89.12
461.898	94.12
462.118	86.12
462.338	78.12
462.558	76.12
462.777	91.12
462.997	76.12
463.217	88.12
463.437	84.12
463.657	88.12
463.876	93.12
464.096	77.12
464.316	97.12
464.536	85.12
464.755	83.12
464.975	86.12
465.195	80.12
465.414	86.12
465.634	87.12
465.854	95.12
466.073	95.12
466.293	99.12
466.512	89.12
466.732	76.12
466.951	107.12
467.171	78.12
467.391	89.12
467.61	81.12
467.829	92.12
468.049	87.12
468.268	99.12
468.488	92.12
468.707	91.12
468.927	93.12
469.146	83.12
469.365	85.12
469.585	86.12
469.804	98.12
470.023	88.12
470.243	98.12
470.462	96.12
470.681	96.12
470.901	91.12
471.12	81.12
471.339	95.12
471.558	87.12
471.777	98.12
471.997	90.12
472.216	95.12
472.435	106.12
472.654	86.12
472.873	88.12
473.092	88.12
473.311	76.12
473.53	77.12
473.749	107.12
473.968	78.12
474.187	77.12
474.406	80.12
474.625	87.12
474.844	105.12
475.063	89.12
475.282	86.12
475.501	88.12
475.72	104.12
475.939	99.12
476.158	88.12
476.377	102.12
476.596	87.12
476.814	77.12
477.033	92.12
477.252	80.12
477.471	86.12
477.69	91.12
477.908	86.12
478.127	96.12
478.346	91.12
478.564	100.12
478.783	84.12
479.002	93.12
479.22	91.12
479.439	91.12
479.658	90.12
479.876	83.12
480.095	83.12
480.313	85.12
480.532	94.12
480.751	80.12
480.969	78.12
481.188	82.12
481.406	83.12
481.624	88.12
481.843	86.12
482.061	76.12
482.28	91.12
482.498	81.12
482.717	84.12
482.935	85.12
483.153	83.12
483.372	104.12
483.59	89.12
483.808	85.12
484.027	83.12
484.245	87.12
484.463	103.12
484.681	91.12
484.9	94.12
485.118	76.12
485.336	89.12
485.554	82.12
485.772	90.12
485.99	96.12
486.209	82.12
486.427	84.12
486.645	71.12
486.863	83.12
487.081	94.12
487.299	94.12
487.517	99.12
487.735	85.12
487.953	106.12
488.171	110.12
488.389	109.12
488.607	106.12
488.825	99.12
489.043	90.12
489.261	89.12
489.479	93.12
489.696	86.12
489.914	85.12
490.132	90.12
490.35	84.12
490.568	91.12
490.786	95.12
491.003	96.12
491.221	88.12
491.439	101.12
491.657	102.12
491.874	106.12
492.092	109.12
492.31	106.12
492.527	95.12
492.745	94.12
492.963	99.12
493.18	109.12
493.398	95.12
493.615	103.12
493.833	96.12
494.05	104.12
494.268	115.12
494.485	101.12
494.703	98.12
494.92	98.12
495.138	115.12
495.355	89.12
495.573	95.12
495.79	113.12
496.008	90.12
496.225	106.12
496.442	107.12
496.66	100.12
496.877	95.12
497.094	109.12
497.312	87.12
497.529	97.12
497.746	98.12
497.963	79.12
498.181	92.12
498.398	78.12
498.615	79.12
498.832	92.12
499.049	93.12
499.267	78.12
499.484	75.12
499.701	87.12
499.918	81.12
500.135	84.12
500.352	84.12
500.569	111.12
500.786	105.12
501.003	98.12
501.22	101.12
501.437	92.12
501.654	90.12
501.871	84.12
502.088	102.12
502.305	90.12
502.522	91.12
502.739	103.12
502.956	87.12
503.172	97.12
503.389	99.12
503.606	79.12
503.823	88.12
504.04	106.12
504.256	103.12
504.473	77.12
504.69	89.12
504.907	95.12
505.123	85.12
505.34	99.12
505.557	102.12
505.773	86.12
505.99	88.12
506.207	87.12
506.423	83.12
506.64	94.12
506.856	84.12
507.073	94.12
507.289	86.12
507.506	87.12
507.722	82.12
507.939	73.12
508.155	95.12
508.372	84.12
508.588	90.12
508.805	94.12
509.021	87.12
509.238	93.12
509.454	81.12
509.67	81.12
509.887	83.12
510.103	100.12
510.319	70.12
510.536	102.12
510.752	94.12
510.968	86.12
511.184	83.12
511.401	84.12
511.617	86.12
511.833	87.12
512.049	78.12
512.265	100.12
512.481	84.12
512.698	86.12
512.914	102.12
513.13	89.12
513.346	90.12
513.562	77.12
513.778	95.12
513.994	83.12
514.21	93.12
514.426	100.12
514.642	92.12
514.858	83.12
515.074	85.12
515.29	93.12
515.506	62.12
515.721	76.12
515.937	89.12
516.153	92.12
516.369	80.12
516.585	83.12
516.801	77.12
517.016	79.12
517.232	94.12
517.448	82.12
517.664	80.12
517.879	84.12
