Data from Zn(NO3)2Standard.Agarose3%.GreenCap.LampEnergy10E.O_HRD10591_15-07-14-943.txt Node
Date: Mon Jul 22 15:07:14 EDT 2019
User: cochatt
Spectrometer: HR+D1059
Trigger mode: 1
Integration Time (sec): 1.000000E-1
Scans to average: 1
Electric dark correction enabled: true
Nonlinearity correction enabled: false
Boxcar width: 0
XAxis mode: Wavelengths
Number of Pixels in Spectrum: 2048
>>>>>Begin Spectral Data<<<<<
223.165	-10.69
223.4	-10.69
223.635	-10.69
223.869	-19.69
224.104	-17.69
224.338	-12.69
224.573	-10.69
224.808	-12.69
225.042	-12.69
225.277	-2.69
225.511	7.31
225.746	-1.69
225.98	-1.69
226.215	12.31
226.449	22.31
226.683	10.31
226.918	20.31
227.152	30.31
227.387	37.31
227.621	40.31
227.856	54.31
228.09	51.31
228.324	58.31
228.559	57.31
228.793	55.31
229.027	56.31
229.262	69.31
229.496	48.31
229.73	43.31
229.964	69.31
230.199	80.31
230.433	81.31
230.667	75.31
230.901	86.31
231.136	73.31
231.37	73.31
231.604	83.31
231.838	93.31
232.072	84.31
232.306	96.31
232.541	85.31
232.775	89.31
233.009	79.31
233.243	85.31
233.477	93.31
233.711	90.31
233.945	79.31
234.179	87.31
234.413	76.31
234.647	80.31
234.881	79.31
235.115	93.31
235.349	75.31
235.583	80.31
235.817	69.31
236.051	71.31
236.285	84.31
236.519	72.31
236.753	84.31
236.987	72.31
237.221	81.31
237.455	87.31
237.689	74.31
237.922	82.31
238.156	78.31
238.39	70.31
238.624	73.31
238.858	80.31
239.091	88.31
239.325	85.31
239.559	90.31
239.793	74.31
240.027	72.31
240.26	67.31
240.494	91.31
240.728	65.31
240.961	70.31
241.195	87.31
241.429	81.31
241.662	61.31
241.896	88.31
242.13	70.31
242.363	92.31
242.597	79.31
242.83	74.31
243.064	65.31
243.298	78.31
243.531	79.31
243.765	76.31
243.998	86.31
244.232	69.31
244.465	86.31
244.699	82.31
244.932	84.31
245.166	90.31
245.399	86.31
245.633	85.31
245.866	96.31
246.099	81.31
246.333	72.31
246.566	86.31
246.8	80.31
247.033	69.31
247.266	90.31
247.5	87.31
247.733	88.31
247.966	83.31
248.2	78.31
248.433	71.31
248.666	84.31
248.899	85.31
249.133	80.31
249.366	87.31
249.599	81.31
249.832	78.31
250.066	102.31
250.299	73.31
250.532	86.31
250.765	83.31
250.998	67.31
251.231	81.31
251.465	71.31
251.698	86.31
251.931	89.31
252.164	82.31
252.397	87.31
252.63	93.31
252.863	88.31
253.096	64.31
253.329	86.31
253.562	74.31
253.795	70.31
254.028	74.31
254.261	80.31
254.494	80.31
254.727	101.31
254.96	77.31
255.193	74.31
255.426	89.31
255.659	81.31
255.892	87.31
256.124	75.31
256.357	78.31
256.59	72.31
256.823	89.31
257.056	81.31
257.289	86.31
257.521	81.31
257.754	90.31
257.987	77.31
258.22	87.31
258.452	79.31
258.685	78.31
258.918	83.31
259.151	97.31
259.383	88.31
259.616	90.31
259.849	89.31
260.081	89.31
260.314	88.31
260.547	89.31
260.779	63.31
261.012	72.31
261.244	75.31
261.477	90.31
261.71	85.31
261.942	78.31
262.175	90.31
262.407	81.31
262.64	69.31
262.872	92.31
263.105	87.31
263.337	86.31
263.57	83.31
263.802	87.31
264.035	91.31
264.267	84.31
264.499	77.31
264.732	89.31
264.964	79.31
265.197	68.31
265.429	97.31
265.661	88.31
265.894	81.31
266.126	74.31
266.358	93.31
266.591	84.31
266.823	81.31
267.055	81.31
267.287	84.31
267.52	95.31
267.752	87.31
267.984	86.31
268.216	96.31
268.448	81.31
268.681	91.31
268.913	85.31
269.145	89.31
269.377	78.31
269.609	85.31
269.841	87.31
270.073	85.31
270.306	79.31
270.538	69.31
270.77	83.31
271.002	85.31
271.234	86.31
271.466	93.31
271.698	89.31
271.93	69.31
272.162	72.31
272.394	92.31
272.626	83.31
272.858	90.31
273.09	93.31
273.322	89.31
273.553	81.31
273.785	82.31
274.017	82.31
274.249	95.31
274.481	91.31
274.713	82.31
274.945	79.31
275.176	84.31
275.408	83.31
275.64	94.31
275.872	69.31
276.104	79.31
276.335	86.31
276.567	81.31
276.799	93.31
277.031	90.31
277.262	83.31
277.494	93.31
277.726	88.31
277.957	75.31
278.189	86.31
278.421	88.31
278.652	93.31
278.884	75.31
279.115	88.31
279.347	90.31
279.579	72.31
279.81	88.31
280.042	90.31
280.273	71.31
280.505	81.31
280.736	90.31
280.968	95.31
281.199	97.31
281.431	88.31
281.662	79.31
281.894	85.31
282.125	91.31
282.356	84.31
282.588	87.31
282.819	85.31
283.051	89.31
283.282	89.31
283.513	91.31
283.745	71.31
283.976	87.31
284.207	89.31
284.439	99.31
284.67	85.31
284.901	93.31
285.132	82.31
285.364	94.31
285.595	81.31
285.826	94.31
286.057	91.31
286.288	90.31
286.52	80.31
286.751	81.31
286.982	97.31
287.213	80.31
287.444	85.31
287.675	81.31
287.906	79.31
288.138	88.31
288.369	92.31
288.6	89.31
288.831	74.31
289.062	98.31
289.293	96.31
289.524	82.31
289.755	82.31
289.986	90.31
290.217	91.31
290.448	96.31
290.679	105.31
290.91	89.31
291.141	87.31
291.371	74.31
291.602	85.31
291.833	86.31
292.064	91.31
292.295	75.31
292.526	89.31
292.757	85.31
292.987	80.31
293.218	87.31
293.449	88.31
293.68	81.31
293.91	73.31
294.141	81.31
294.372	79.31
294.603	94.31
294.833	96.31
295.064	84.31
295.295	90.31
295.525	78.31
295.756	74.31
295.987	103.31
296.217	89.31
296.448	89.31
296.679	104.31
296.909	93.31
297.14	78.31
297.37	94.31
297.601	84.31
297.831	94.31
298.062	84.31
298.292	88.31
298.523	101.31
298.753	81.31
298.984	86.31
299.214	80.31
299.445	89.31
299.675	102.31
299.905	92.31
300.136	95.31
300.366	87.31
300.597	91.31
300.827	82.31
301.057	75.31
301.288	98.31
301.518	86.31
301.748	91.31
301.979	89.31
302.209	94.31
302.439	106.31
302.669	74.31
302.9	95.31
303.13	95.31
303.36	91.31
303.59	63.31
303.82	89.31
304.051	81.31
304.281	97.31
304.511	93.31
304.741	82.31
304.971	80.31
305.201	77.31
305.431	116.31
305.661	80.31
305.891	81.31
306.121	87.31
306.352	78.31
306.582	84.31
306.812	95.31
307.042	88.31
307.272	81.31
307.502	88.31
307.731	83.31
307.961	97.31
308.191	91.31
308.421	80.31
308.651	87.31
308.881	96.31
309.111	87.31
309.341	95.31
309.571	79.31
309.8	90.31
310.03	94.31
310.26	94.31
310.49	88.31
310.72	91.31
310.949	89.31
311.179	95.31
311.409	84.31
311.639	95.31
311.868	78.31
312.098	89.31
312.328	86.31
312.557	81.31
312.787	87.31
313.017	84.31
313.246	81.31
313.476	88.31
313.706	110.31
313.935	106.31
314.165	85.31
314.394	83.31
314.624	84.31
314.853	86.31
315.083	74.31
315.312	85.31
315.542	96.31
315.771	87.31
316.001	75.31
316.23	89.31
316.46	85.31
316.689	85.31
316.919	81.31
317.148	86.31
317.377	86.31
317.607	95.31
317.836	99.31
318.065	87.31
318.295	93.31
318.524	76.31
318.753	86.31
318.983	81.31
319.212	99.31
319.441	95.31
319.67	85.31
319.9	88.31
320.129	92.31
320.358	90.31
320.587	95.31
320.816	88.31
321.046	79.31
321.275	89.31
321.504	88.31
321.733	89.31
321.962	82.31
322.191	72.31
322.42	78.31
322.649	96.31
322.878	81.31
323.108	95.31
323.337	97.31
323.566	94.31
323.795	82.31
324.024	95.31
324.253	90.31
324.482	92.31
324.71	102.31
324.939	86.31
325.168	103.31
325.397	79.31
325.626	91.31
325.855	91.31
326.084	97.31
326.313	86.31
326.542	92.31
326.77	89.31
326.999	81.31
327.228	95.31
327.457	105.31
327.686	86.31
327.914	92.31
328.143	94.31
328.372	80.31
328.6	104.31
328.829	89.31
329.058	94.31
329.287	92.31
329.515	98.31
329.744	90.31
329.972	96.31
330.201	99.31
330.43	84.31
330.658	78.31
330.887	86.31
331.115	88.31
331.344	87.31
331.572	77.31
331.801	81.31
332.03	92.31
332.258	84.31
332.486	84.31
332.715	84.31
332.943	96.31
333.172	73.31
333.4	94.31
333.629	105.31
333.857	92.31
334.085	79.31
334.314	83.31
334.542	89.31
334.771	85.31
334.999	87.31
335.227	95.31
335.455	75.31
335.684	87.31
335.912	80.31
336.14	86.31
336.369	82.31
336.597	81.31
336.825	81.31
337.053	84.31
337.281	78.31
337.51	87.31
337.738	78.31
337.966	94.31
338.194	95.31
338.422	94.31
338.65	88.31
338.878	87.31
339.106	76.31
339.334	96.31
339.562	76.31
339.79	82.31
340.018	94.31
340.246	81.31
340.474	77.31
340.702	83.31
340.93	86.31
341.158	92.31
341.386	73.31
341.614	75.31
341.842	90.31
342.07	77.31
342.298	89.31
342.526	94.31
342.754	85.31
342.981	77.31
343.209	81.31
343.437	99.31
343.665	90.31
343.893	89.31
344.12	88.31
344.348	80.31
344.576	83.31
344.804	103.31
345.031	89.31
345.259	102.31
345.487	93.31
345.714	97.31
345.942	94.31
346.17	96.31
346.397	95.31
346.625	99.31
346.853	84.31
347.08	96.31
347.308	84.31
347.535	87.31
347.763	91.31
347.99	97.31
348.218	81.31
348.445	95.31
348.673	97.31
348.9	84.31
349.128	82.31
349.355	94.31
349.583	79.31
349.81	74.31
350.037	90.31
350.265	90.31
350.492	76.31
350.72	79.31
350.947	85.31
351.174	101.31
351.402	95.31
351.629	95.31
351.856	87.31
352.083	98.31
352.311	70.31
352.538	87.31
352.765	84.31
352.992	93.31
353.22	89.31
353.447	96.31
353.674	81.31
353.901	90.31
354.128	78.31
354.355	78.31
354.583	84.31
354.81	88.31
355.037	101.31
355.264	79.31
355.491	71.31
355.718	91.31
355.945	89.31
356.172	86.31
356.399	83.31
356.626	70.31
356.853	74.31
357.08	75.31
357.307	81.31
357.534	88.31
357.761	92.31
357.988	90.31
358.215	81.31
358.441	87.31
358.668	96.31
358.895	88.31
359.122	82.31
359.349	80.31
359.576	94.31
359.802	92.31
360.029	108.31
360.256	79.31
360.483	89.31
360.709	84.31
360.936	90.31
361.163	92.31
361.39	87.31
361.616	99.31
361.843	76.31
362.07	85.31
362.296	82.31
362.523	94.31
362.749	97.31
362.976	82.31
363.203	82.31
363.429	76.31
363.656	88.31
363.882	84.31
364.109	90.31
364.335	78.31
364.562	80.31
364.788	82.31
365.015	87.31
365.241	79.31
365.468	84.31
365.694	96.31
365.92	99.31
366.147	86.31
366.373	81.31
366.599	100.31
366.826	80.31
367.052	79.31
367.278	99.31
367.505	87.31
367.731	95.31
367.957	74.31
368.184	93.31
368.41	103.31
368.636	85.31
368.862	80.31
369.089	94.31
369.315	85.31
369.541	96.31
369.767	91.31
369.993	88.31
370.219	83.31
370.445	101.31
370.672	98.31
370.898	86.31
371.124	89.31
371.35	92.31
371.576	93.31
371.802	77.31
372.028	102.31
372.254	87.31
372.48	84.31
372.706	89.31
372.932	90.31
373.158	84.31
373.384	85.31
373.61	89.31
373.835	84.31
374.061	90.31
374.287	80.31
374.513	81.31
374.739	101.31
374.965	79.31
375.191	78.31
375.416	115.31
375.642	78.31
375.868	97.31
376.094	88.31
376.319	71.31
376.545	79.31
376.771	104.31
376.997	98.31
377.222	80.31
377.448	91.31
377.674	77.31
377.899	88.31
378.125	92.31
378.35	103.31
378.576	91.31
378.802	94.31
379.027	92.31
379.253	91.31
379.478	88.31
379.704	98.31
379.929	95.31
380.155	81.31
380.38	96.31
380.606	88.31
380.831	93.31
381.057	93.31
381.282	92.31
381.507	90.31
381.733	93.31
381.958	95.31
382.184	95.31
382.409	92.31
382.634	98.31
382.86	91.31
383.085	96.31
383.31	91.31
383.535	81.31
383.761	102.31
383.986	94.31
384.211	96.31
384.436	85.31
384.662	99.31
384.887	99.31
385.112	88.31
385.337	83.31
385.562	94.31
385.787	97.31
386.013	95.31
386.238	92.31
386.463	91.31
386.688	88.31
386.913	86.31
387.138	95.31
387.363	77.31
387.588	91.31
387.813	94.31
388.038	84.31
388.263	98.31
388.488	94.31
388.713	100.31
388.938	89.31
389.163	105.31
389.387	92.31
389.612	85.31
389.837	94.31
390.062	104.31
390.287	88.31
390.512	82.31
390.736	97.31
390.961	88.31
391.186	85.31
391.411	99.31
391.636	91.31
391.86	95.31
392.085	88.31
392.31	94.31
392.534	98.31
392.759	85.31
392.984	94.31
393.208	96.31
393.433	93.31
393.658	95.31
393.882	103.31
394.107	105.31
394.331	99.31
394.556	95.31
394.78	93.31
395.005	102.31
395.229	88.31
395.454	90.31
395.678	100.31
395.903	90.31
396.127	92.31
396.352	105.31
396.576	89.31
396.801	100.31
397.025	100.31
397.249	103.31
397.474	95.31
397.698	108.31
397.922	81.31
398.147	102.31
398.371	83.31
398.595	88.31
398.82	101.31
399.044	80.31
399.268	77.31
399.492	107.31
399.717	89.31
399.941	96.31
400.165	96.31
400.389	101.31
400.613	93.31
400.837	96.31
401.062	107.31
401.286	101.31
401.51	103.31
401.734	108.31
401.958	106.31
402.182	97.31
402.406	95.31
402.63	108.31
402.854	91.31
403.078	95.31
403.302	101.31
403.526	96.31
403.75	87.31
403.974	86.31
404.198	106.31
404.422	102.31
404.645	101.31
404.869	107.31
405.093	108.31
405.317	93.31
405.541	107.31
405.765	101.31
405.988	93.31
406.212	100.31
406.436	103.31
406.66	99.31
406.883	87.31
407.107	109.31
407.331	95.31
407.555	95.31
407.778	100.31
408.002	102.31
408.226	97.31
408.449	100.31
408.673	92.31
408.896	99.31
409.12	119.31
409.344	108.31
409.567	120.31
409.791	100.31
410.014	104.31
410.238	106.31
410.461	89.31
410.685	106.31
410.908	96.31
411.132	95.31
411.355	106.31
411.578	107.31
411.802	100.31
412.025	104.31
412.249	90.31
412.472	103.31
412.695	98.31
412.919	102.31
413.142	108.31
413.365	90.31
413.589	108.31
413.812	104.31
414.035	110.31
414.258	101.31
414.482	115.31
414.705	111.31
414.928	107.31
415.151	87.31
415.374	101.31
415.597	107.31
415.821	113.31
416.044	85.31
416.267	94.31
416.49	102.31
416.713	104.31
416.936	105.31
417.159	110.31
417.382	104.31
417.605	92.31
417.828	93.31
418.051	101.31
418.274	105.31
418.497	105.31
418.72	107.31
418.943	107.31
419.166	106.31
419.389	113.31
419.611	111.31
419.834	114.31
420.057	115.31
420.28	108.31
420.503	113.31
420.726	97.31
420.948	102.31
421.171	104.31
421.394	110.31
421.617	115.31
421.839	120.31
422.062	121.31
422.285	103.31
422.507	106.31
422.73	112.31
422.953	96.31
423.175	90.31
423.398	111.31
423.621	96.31
423.843	101.31
424.066	125.31
424.288	120.31
424.511	113.31
424.733	127.31
424.956	102.31
425.178	89.31
425.401	110.31
425.623	118.31
425.846	116.31
426.068	103.31
426.291	112.31
426.513	104.31
426.735	111.31
426.958	103.31
427.18	110.31
427.402	100.31
427.625	122.31
427.847	101.31
428.069	98.31
428.292	107.31
428.514	87.31
428.736	118.31
428.958	102.31
429.181	110.31
429.403	110.31
429.625	96.31
429.847	104.31
430.069	109.31
430.292	120.31
430.514	99.31
430.736	106.31
430.958	101.31
431.18	108.31
431.402	127.31
431.624	91.31
431.846	117.31
432.068	91.31
432.29	103.31
432.512	100.31
432.734	93.31
432.956	108.31
433.178	101.31
433.4	103.31
433.622	109.31
433.844	98.31
434.066	96.31
434.287	99.31
434.509	81.31
434.731	91.31
434.953	103.31
435.175	91.31
435.397	109.31
435.618	104.31
435.84	87.31
436.062	104.31
436.284	104.31
436.505	94.31
436.727	107.31
436.949	113.31
437.17	113.31
437.392	94.31
437.614	118.31
437.835	101.31
438.057	101.31
438.278	105.31
438.5	89.31
438.721	136.31
438.943	117.31
439.165	109.31
439.386	109.31
439.608	98.31
439.829	103.31
440.05	117.31
440.272	101.31
440.493	101.31
440.715	106.31
440.936	97.31
441.158	107.31
441.379	107.31
441.6	126.31
441.822	110.31
442.043	117.31
442.264	104.31
442.486	113.31
442.707	104.31
442.928	102.31
443.149	106.31
443.371	109.31
443.592	109.31
443.813	104.31
444.034	126.31
444.255	116.31
444.476	103.31
444.698	97.31
444.919	120.31
445.14	222.31
445.361	169.31
445.582	122.31
445.803	118.31
446.024	117.31
446.245	120.31
446.466	120.31
446.687	111.31
446.908	132.31
447.129	119.31
447.35	117.31
447.571	119.31
447.792	124.31
448.013	113.31
448.234	112.31
448.455	116.31
448.675	100.31
448.896	127.31
449.117	107.31
449.338	104.31
449.559	121.31
449.779	117.31
450	122.31
450.221	118.31
450.442	124.31
450.662	109.31
450.883	105.31
451.104	104.31
451.324	110.31
451.545	101.31
451.766	102.31
451.986	105.31
452.207	106.31
452.428	106.31
452.648	111.31
452.869	105.31
453.089	103.31
453.31	120.31
453.53	97.31
453.751	95.31
453.971	112.31
454.192	103.31
454.412	96.31
454.633	103.31
454.853	112.31
455.073	114.31
455.294	102.31
455.514	120.31
455.734	113.31
455.955	108.31
456.175	103.31
456.395	108.31
456.616	96.31
456.836	91.31
457.056	108.31
457.276	108.31
457.497	99.31
457.717	87.31
457.937	89.31
458.157	99.31
458.377	98.31
458.598	95.31
458.818	91.31
459.038	76.31
459.258	79.31
459.478	90.31
459.698	97.31
459.918	84.31
460.138	96.31
460.358	98.31
460.578	113.31
460.798	93.31
461.018	112.31
461.238	121.31
461.458	119.31
461.678	104.31
461.898	101.31
462.118	101.31
462.338	104.31
462.558	102.31
462.777	104.31
462.997	94.31
463.217	76.31
463.437	95.31
463.657	91.31
463.876	94.31
464.096	96.31
464.316	106.31
464.536	90.31
464.755	100.31
464.975	113.31
465.195	102.31
465.414	108.31
465.634	107.31
465.854	88.31
466.073	112.31
466.293	109.31
466.512	122.31
466.732	111.31
466.951	104.31
467.171	98.31
467.391	124.31
467.61	109.31
467.829	106.31
468.049	109.31
468.268	97.31
468.488	129.31
468.707	115.31
468.927	119.31
469.146	122.31
469.365	112.31
469.585	108.31
469.804	105.31
470.023	115.31
470.243	118.31
470.462	118.31
470.681	115.31
470.901	123.31
471.12	113.31
471.339	108.31
471.558	106.31
471.777	114.31
471.997	116.31
472.216	99.31
472.435	115.31
472.654	99.31
472.873	116.31
473.092	95.31
473.311	114.31
473.53	103.31
473.749	91.31
473.968	110.31
474.187	107.31
474.406	112.31
474.625	107.31
474.844	111.31
475.063	113.31
475.282	111.31
475.501	99.31
475.72	112.31
475.939	110.31
476.158	115.31
476.377	112.31
476.596	106.31
476.814	111.31
477.033	96.31
477.252	106.31
477.471	117.31
477.69	98.31
477.908	120.31
478.127	115.31
478.346	115.31
478.564	107.31
478.783	121.31
479.002	110.31
479.22	111.31
479.439	117.31
479.658	105.31
479.876	104.31
480.095	97.31
480.313	91.31
480.532	89.31
480.751	91.31
480.969	87.31
481.188	102.31
481.406	88.31
481.624	82.31
481.843	96.31
482.061	87.31
482.28	83.31
482.498	97.31
482.717	99.31
482.935	97.31
483.153	116.31
483.372	121.31
483.59	127.31
483.808	119.31
484.027	112.31
484.245	120.31
484.463	117.31
484.681	128.31
484.9	113.31
485.118	115.31
485.336	98.31
485.554	93.31
485.772	91.31
485.99	101.31
486.209	111.31
486.427	94.31
486.645	100.31
486.863	105.31
487.081	111.31
487.299	102.31
487.517	98.31
487.735	117.31
487.953	138.31
488.171	128.31
488.389	113.31
488.607	131.31
488.825	116.31
489.043	120.31
489.261	100.31
489.479	115.31
489.696	105.31
489.914	111.31
490.132	103.31
490.35	116.31
490.568	124.31
490.786	112.31
491.003	135.31
491.221	134.31
491.439	141.31
491.657	134.31
491.874	162.31
492.092	153.31
492.31	170.31
492.527	137.31
492.745	135.31
492.963	135.31
493.18	141.31
493.398	131.31
493.615	133.31
493.833	125.31
494.05	136.31
494.268	133.31
494.485	141.31
494.703	127.31
494.92	127.31
495.138	134.31
495.355	136.31
495.573	142.31
495.79	116.31
496.008	128.31
496.225	112.31
496.442	134.31
496.66	133.31
496.877	125.31
497.094	139.31
497.312	119.31
497.529	125.31
497.746	130.31
497.963	112.31
498.181	100.31
498.398	101.31
498.615	115.31
498.832	99.31
499.049	101.31
499.267	115.31
499.484	100.31
499.701	108.31
499.918	105.31
500.135	113.31
500.352	117.31
500.569	119.31
500.786	110.31
501.003	99.31
501.22	110.31
501.437	114.31
501.654	109.31
501.871	106.31
502.088	112.31
502.305	110.31
502.522	103.31
502.739	121.31
502.956	116.31
503.172	109.31
503.389	109.31
503.606	110.31
503.823	97.31
504.04	123.31
504.256	118.31
504.473	111.31
504.69	101.31
504.907	119.31
505.123	108.31
505.34	108.31
505.557	105.31
505.773	109.31
505.99	115.31
506.207	122.31
506.423	104.31
506.64	93.31
506.856	103.31
507.073	109.31
507.289	109.31
507.506	91.31
507.722	100.31
507.939	95.31
508.155	106.31
508.372	102.31
508.588	93.31
508.805	92.31
509.021	100.31
509.238	108.31
509.454	99.31
509.67	77.31
509.887	101.31
510.103	95.31
510.319	72.31
510.536	86.31
510.752	95.31
510.968	88.31
511.184	87.31
511.401	87.31
511.617	90.31
511.833	94.31
512.049	80.31
512.265	100.31
512.481	98.31
512.698	104.31
512.914	104.31
513.13	93.31
513.346	87.31
