Data from Zn(NO3)2Standard.Agarose3%.GreenCap.LampEnergy5.5.E.O_HRD10591_15-01-08-768.txt Node
Date: Mon Jul 22 15:01:08 EDT 2019
User: cochatt
Spectrometer: HR+D1059
Trigger mode: 1
Integration Time (sec): 1.000000E-1
Scans to average: 1
Electric dark correction enabled: true
Nonlinearity correction enabled: false
Boxcar width: 0
XAxis mode: Wavelengths
Number of Pixels in Spectrum: 2048
>>>>>Begin Spectral Data<<<<<
223.165	-12.62
223.4	-12.62
223.635	-12.62
223.869	-8.62
224.104	-22.62
224.338	-12.62
224.573	-28.62
224.808	-5.62
225.042	4.38
225.277	-11.62
225.511	0.38
225.746	9.38
225.98	-4.62
226.215	14.38
226.449	12.38
226.683	29.38
226.918	21.38
227.152	15.38
227.387	27.38
227.621	37.38
227.856	40.38
228.09	46.38
228.324	56.38
228.559	63.38
228.793	68.38
229.027	62.38
229.262	71.38
229.496	71.38
229.73	73.38
229.964	69.38
230.199	74.38
230.433	67.38
230.667	77.38
230.901	75.38
231.136	88.38
231.37	85.38
231.604	79.38
231.838	93.38
232.072	80.38
232.306	70.38
232.541	56.38
232.775	89.38
233.009	97.38
233.243	75.38
233.477	86.38
233.711	96.38
233.945	80.38
234.179	80.38
234.413	81.38
234.647	90.38
234.881	95.38
235.115	87.38
235.349	79.38
235.583	84.38
235.817	80.38
236.051	93.38
236.285	76.38
236.519	76.38
236.753	81.38
236.987	83.38
237.221	77.38
237.455	77.38
237.689	86.38
237.922	89.38
238.156	79.38
238.39	72.38
238.624	70.38
238.858	67.38
239.091	72.38
239.325	89.38
239.559	71.38
239.793	83.38
240.027	61.38
240.26	82.38
240.494	82.38
240.728	74.38
240.961	76.38
241.195	71.38
241.429	73.38
241.662	67.38
241.896	77.38
242.13	72.38
242.363	71.38
242.597	91.38
242.83	74.38
243.064	67.38
243.298	75.38
243.531	67.38
243.765	74.38
243.998	81.38
244.232	86.38
244.465	87.38
244.699	83.38
244.932	83.38
245.166	89.38
245.399	89.38
245.633	77.38
245.866	68.38
246.099	86.38
246.333	91.38
246.566	88.38
246.8	83.38
247.033	80.38
247.266	76.38
247.5	70.38
247.733	87.38
247.966	73.38
248.2	65.38
248.433	89.38
248.666	72.38
248.899	89.38
249.133	77.38
249.366	72.38
249.599	81.38
249.832	79.38
250.066	71.38
250.299	87.38
250.532	86.38
250.765	73.38
250.998	76.38
251.231	80.38
251.465	55.38
251.698	78.38
251.931	86.38
252.164	81.38
252.397	75.38
252.63	78.38
252.863	76.38
253.096	71.38
253.329	96.38
253.562	78.38
253.795	71.38
254.028	79.38
254.261	68.38
254.494	85.38
254.727	86.38
254.96	59.38
255.193	76.38
255.426	75.38
255.659	79.38
255.892	98.38
256.124	93.38
256.357	81.38
256.59	85.38
256.823	93.38
257.056	73.38
257.289	75.38
257.521	85.38
257.754	84.38
257.987	86.38
258.22	85.38
258.452	81.38
258.685	81.38
258.918	72.38
259.151	85.38
259.383	79.38
259.616	75.38
259.849	104.38
260.081	85.38
260.314	87.38
260.547	81.38
260.779	87.38
261.012	78.38
261.244	77.38
261.477	89.38
261.71	80.38
261.942	78.38
262.175	71.38
262.407	83.38
262.64	81.38
262.872	85.38
263.105	81.38
263.337	91.38
263.57	93.38
263.802	72.38
264.035	80.38
264.267	73.38
264.499	86.38
264.732	73.38
264.964	67.38
265.197	91.38
265.429	76.38
265.661	90.38
265.894	94.38
266.126	87.38
266.358	90.38
266.591	93.38
266.823	75.38
267.055	95.38
267.287	81.38
267.52	93.38
267.752	80.38
267.984	76.38
268.216	91.38
268.448	87.38
268.681	87.38
268.913	82.38
269.145	77.38
269.377	85.38
269.609	87.38
269.841	82.38
270.073	74.38
270.306	89.38
270.538	85.38
270.77	82.38
271.002	82.38
271.234	84.38
271.466	99.38
271.698	97.38
271.93	90.38
272.162	74.38
272.394	101.38
272.626	81.38
272.858	86.38
273.09	78.38
273.322	73.38
273.553	84.38
273.785	81.38
274.017	79.38
274.249	85.38
274.481	91.38
274.713	76.38
274.945	89.38
275.176	83.38
275.408	85.38
275.64	82.38
275.872	76.38
276.104	79.38
276.335	82.38
276.567	91.38
276.799	72.38
277.031	75.38
277.262	77.38
277.494	89.38
277.726	61.38
277.957	85.38
278.189	76.38
278.421	102.38
278.652	79.38
278.884	79.38
279.115	91.38
279.347	93.38
279.579	89.38
279.81	88.38
280.042	81.38
280.273	89.38
280.505	94.38
280.736	90.38
280.968	96.38
281.199	93.38
281.431	80.38
281.662	85.38
281.894	87.38
282.125	91.38
282.356	97.38
282.588	93.38
282.819	96.38
283.051	82.38
283.282	102.38
283.513	89.38
283.745	92.38
283.976	89.38
284.207	74.38
284.439	74.38
284.67	88.38
284.901	85.38
285.132	101.38
285.364	78.38
285.595	87.38
285.826	86.38
286.057	90.38
286.288	87.38
286.52	70.38
286.751	80.38
286.982	85.38
287.213	83.38
287.444	91.38
287.675	95.38
287.906	81.38
288.138	83.38
288.369	79.38
288.6	89.38
288.831	82.38
289.062	101.38
289.293	99.38
289.524	91.38
289.755	64.38
289.986	82.38
290.217	85.38
290.448	79.38
290.679	94.38
290.91	106.38
291.141	87.38
291.371	93.38
291.602	79.38
291.833	71.38
292.064	82.38
292.295	89.38
292.526	84.38
292.757	95.38
292.987	91.38
293.218	90.38
293.449	85.38
293.68	72.38
293.91	84.38
294.141	77.38
294.372	84.38
294.603	83.38
294.833	93.38
295.064	86.38
295.295	92.38
295.525	93.38
295.756	85.38
295.987	102.38
296.217	71.38
296.448	91.38
296.679	76.38
296.909	95.38
297.14	99.38
297.37	97.38
297.601	80.38
297.831	81.38
298.062	95.38
298.292	70.38
298.523	83.38
298.753	87.38
298.984	88.38
299.214	86.38
299.445	104.38
299.675	99.38
299.905	92.38
300.136	84.38
300.366	85.38
300.597	72.38
300.827	79.38
301.057	89.38
301.288	89.38
301.518	81.38
301.748	90.38
301.979	84.38
302.209	92.38
302.439	83.38
302.669	84.38
302.9	67.38
303.13	83.38
303.36	102.38
303.59	85.38
303.82	77.38
304.051	97.38
304.281	91.38
304.511	91.38
304.741	72.38
304.971	87.38
305.201	84.38
305.431	86.38
305.661	92.38
305.891	89.38
306.121	73.38
306.352	81.38
306.582	92.38
306.812	87.38
307.042	72.38
307.272	92.38
307.502	90.38
307.731	84.38
307.961	85.38
308.191	88.38
308.421	86.38
308.651	100.38
308.881	82.38
309.111	90.38
309.341	99.38
309.571	86.38
309.8	80.38
310.03	94.38
310.26	90.38
310.49	81.38
310.72	77.38
310.949	83.38
311.179	97.38
311.409	87.38
311.639	90.38
311.868	95.38
312.098	81.38
312.328	91.38
312.557	85.38
312.787	85.38
313.017	70.38
313.246	78.38
313.476	100.38
313.706	97.38
313.935	81.38
314.165	84.38
314.394	79.38
314.624	89.38
314.853	88.38
315.083	107.38
315.312	96.38
315.542	88.38
315.771	85.38
316.001	87.38
316.23	81.38
316.46	83.38
316.689	77.38
316.919	92.38
317.148	96.38
317.377	91.38
317.607	91.38
317.836	89.38
318.065	64.38
318.295	92.38
318.524	87.38
318.753	90.38
318.983	82.38
319.212	82.38
319.441	106.38
319.67	73.38
319.9	84.38
320.129	101.38
320.358	85.38
320.587	85.38
320.816	79.38
321.046	73.38
321.275	93.38
321.504	82.38
321.733	86.38
321.962	88.38
322.191	98.38
322.42	92.38
322.649	84.38
322.878	79.38
323.108	82.38
323.337	83.38
323.566	92.38
323.795	96.38
324.024	82.38
324.253	92.38
324.482	94.38
324.71	89.38
324.939	105.38
325.168	95.38
325.397	69.38
325.626	97.38
325.855	73.38
326.084	73.38
326.313	87.38
326.542	91.38
326.77	67.38
326.999	82.38
327.228	88.38
327.457	89.38
327.686	108.38
327.914	93.38
328.143	83.38
328.372	91.38
328.6	90.38
328.829	87.38
329.058	72.38
329.287	81.38
329.515	99.38
329.744	99.38
329.972	80.38
330.201	84.38
330.43	87.38
330.658	96.38
330.887	84.38
331.115	79.38
331.344	81.38
331.572	84.38
331.801	77.38
332.03	103.38
332.258	83.38
332.486	97.38
332.715	102.38
332.943	84.38
333.172	100.38
333.4	89.38
333.629	83.38
333.857	93.38
334.085	101.38
334.314	87.38
334.542	88.38
334.771	76.38
334.999	72.38
335.227	87.38
335.455	84.38
335.684	88.38
335.912	76.38
336.14	89.38
336.369	89.38
336.597	72.38
336.825	80.38
337.053	70.38
337.281	86.38
337.51	105.38
337.738	80.38
337.966	84.38
338.194	78.38
338.422	77.38
338.65	86.38
338.878	93.38
339.106	94.38
339.334	72.38
339.562	75.38
339.79	100.38
340.018	92.38
340.246	93.38
340.474	88.38
340.702	79.38
340.93	89.38
341.158	89.38
341.386	91.38
341.614	82.38
341.842	96.38
342.07	78.38
342.298	87.38
342.526	88.38
342.754	83.38
342.981	78.38
343.209	86.38
343.437	84.38
343.665	85.38
343.893	91.38
344.12	87.38
344.348	81.38
344.576	90.38
344.804	85.38
345.031	77.38
345.259	81.38
345.487	93.38
345.714	75.38
345.942	83.38
346.17	90.38
346.397	88.38
346.625	96.38
346.853	97.38
347.08	83.38
347.308	78.38
347.535	74.38
347.763	79.38
347.99	101.38
348.218	91.38
348.445	86.38
348.673	101.38
348.9	86.38
349.128	89.38
349.355	88.38
349.583	96.38
349.81	85.38
350.037	89.38
350.265	95.38
350.492	91.38
350.72	93.38
350.947	93.38
351.174	100.38
351.402	91.38
351.629	78.38
351.856	84.38
352.083	79.38
352.311	83.38
352.538	95.38
352.765	94.38
352.992	72.38
353.22	91.38
353.447	80.38
353.674	95.38
353.901	78.38
354.128	92.38
354.355	85.38
354.583	85.38
354.81	93.38
355.037	73.38
355.264	84.38
355.491	83.38
355.718	74.38
355.945	79.38
356.172	87.38
356.399	75.38
356.626	91.38
356.853	82.38
357.08	74.38
357.307	81.38
357.534	94.38
357.761	84.38
357.988	99.38
358.215	90.38
358.441	86.38
358.668	89.38
358.895	77.38
359.122	87.38
359.349	79.38
359.576	80.38
359.802	90.38
360.029	87.38
360.256	88.38
360.483	100.38
360.709	94.38
360.936	78.38
361.163	78.38
361.39	74.38
361.616	78.38
361.843	86.38
362.07	95.38
362.296	86.38
362.523	97.38
362.749	97.38
362.976	80.38
363.203	91.38
363.429	93.38
363.656	78.38
363.882	80.38
364.109	90.38
364.335	89.38
364.562	78.38
364.788	87.38
365.015	88.38
365.241	74.38
365.468	91.38
365.694	76.38
365.92	95.38
366.147	85.38
366.373	83.38
366.599	71.38
366.826	85.38
367.052	82.38
367.278	89.38
367.505	84.38
367.731	103.38
367.957	93.38
368.184	76.38
368.41	84.38
368.636	95.38
368.862	86.38
369.089	90.38
369.315	78.38
369.541	92.38
369.767	95.38
369.993	97.38
370.219	97.38
370.445	85.38
370.672	83.38
370.898	86.38
371.124	84.38
371.35	76.38
371.576	84.38
371.802	87.38
372.028	87.38
372.254	84.38
372.48	97.38
372.706	82.38
372.932	90.38
373.158	82.38
373.384	90.38
373.61	89.38
373.835	86.38
374.061	88.38
374.287	95.38
374.513	92.38
374.739	85.38
374.965	80.38
375.191	85.38
375.416	94.38
375.642	87.38
375.868	71.38
376.094	88.38
376.319	71.38
376.545	89.38
376.771	89.38
376.997	63.38
377.222	74.38
377.448	81.38
377.674	85.38
377.899	91.38
378.125	76.38
378.35	99.38
378.576	91.38
378.802	85.38
379.027	98.38
379.253	88.38
379.478	85.38
379.704	81.38
379.929	84.38
380.155	76.38
380.38	83.38
380.606	85.38
380.831	83.38
381.057	83.38
381.282	81.38
381.507	88.38
381.733	94.38
381.958	71.38
382.184	76.38
382.409	92.38
382.634	79.38
382.86	95.38
383.085	74.38
383.31	74.38
383.535	92.38
383.761	86.38
383.986	97.38
384.211	83.38
384.436	77.38
384.662	81.38
384.887	97.38
385.112	75.38
385.337	79.38
385.562	83.38
385.787	98.38
386.013	85.38
386.238	89.38
386.463	76.38
386.688	85.38
386.913	87.38
387.138	90.38
387.363	89.38
387.588	86.38
387.813	92.38
388.038	76.38
388.263	87.38
388.488	73.38
388.713	81.38
388.938	83.38
389.163	84.38
389.387	73.38
389.612	89.38
389.837	87.38
390.062	80.38
390.287	85.38
390.512	86.38
390.736	96.38
390.961	76.38
391.186	77.38
391.411	89.38
391.636	87.38
391.86	84.38
392.085	90.38
392.31	86.38
392.534	93.38
392.759	94.38
392.984	94.38
393.208	82.38
393.433	93.38
393.658	86.38
393.882	89.38
394.107	80.38
394.331	79.38
394.556	81.38
394.78	86.38
395.005	95.38
395.229	88.38
395.454	91.38
395.678	80.38
395.903	92.38
396.127	88.38
396.352	81.38
396.576	86.38
396.801	87.38
397.025	72.38
397.249	89.38
397.474	94.38
397.698	88.38
397.922	93.38
398.147	84.38
398.371	103.38
398.595	86.38
398.82	87.38
399.044	92.38
399.268	76.38
399.492	89.38
399.717	78.38
399.941	93.38
400.165	91.38
400.389	80.38
400.613	102.38
400.837	85.38
401.062	88.38
401.286	87.38
401.51	88.38
401.734	81.38
401.958	87.38
402.182	82.38
402.406	103.38
402.63	83.38
402.854	73.38
403.078	86.38
403.302	101.38
403.526	89.38
403.75	92.38
403.974	86.38
404.198	89.38
404.422	93.38
404.645	75.38
404.869	81.38
405.093	94.38
405.317	77.38
405.541	90.38
405.765	91.38
405.988	96.38
406.212	92.38
406.436	78.38
406.66	94.38
406.883	96.38
407.107	73.38
407.331	70.38
407.555	90.38
407.778	87.38
408.002	89.38
408.226	86.38
408.449	74.38
408.673	90.38
408.896	104.38
409.12	91.38
409.344	80.38
409.567	92.38
409.791	92.38
410.014	89.38
410.238	94.38
410.461	86.38
410.685	87.38
410.908	80.38
411.132	81.38
411.355	88.38
411.578	86.38
411.802	88.38
412.025	86.38
412.249	86.38
412.472	73.38
412.695	78.38
412.919	84.38
413.142	86.38
413.365	90.38
413.589	96.38
413.812	98.38
414.035	89.38
414.258	96.38
414.482	97.38
414.705	95.38
414.928	100.38
415.151	106.38
415.374	96.38
415.597	102.38
415.821	78.38
416.044	82.38
416.267	83.38
416.49	103.38
416.713	87.38
416.936	94.38
417.159	94.38
417.382	96.38
417.605	82.38
417.828	89.38
418.051	94.38
418.274	85.38
418.497	79.38
418.72	87.38
418.943	83.38
419.166	80.38
419.389	79.38
419.611	88.38
419.834	81.38
420.057	82.38
420.28	100.38
420.503	82.38
420.726	87.38
420.948	90.38
421.171	95.38
421.394	87.38
421.617	75.38
421.839	99.38
422.062	85.38
422.285	81.38
422.507	81.38
422.73	81.38
422.953	78.38
423.175	80.38
423.398	105.38
423.621	89.38
423.843	92.38
424.066	105.38
424.288	87.38
424.511	105.38
424.733	94.38
424.956	87.38
425.178	91.38
425.401	101.38
425.623	89.38
425.846	88.38
426.068	101.38
426.291	80.38
426.513	98.38
426.735	104.38
426.958	91.38
427.18	91.38
427.402	86.38
427.625	97.38
427.847	83.38
428.069	92.38
428.292	91.38
428.514	77.38
428.736	92.38
428.958	105.38
429.181	96.38
429.403	80.38
429.625	85.38
429.847	85.38
430.069	85.38
430.292	88.38
430.514	91.38
430.736	89.38
430.958	91.38
431.18	74.38
431.402	103.38
431.624	96.38
431.846	85.38
432.068	89.38
432.29	77.38
432.512	81.38
432.734	96.38
432.956	104.38
433.178	99.38
433.4	97.38
433.622	89.38
433.844	98.38
434.066	97.38
434.287	88.38
434.509	74.38
434.731	90.38
434.953	85.38
435.175	90.38
435.397	88.38
435.618	91.38
435.84	83.38
436.062	82.38
436.284	90.38
436.505	89.38
436.727	86.38
436.949	92.38
437.17	87.38
437.392	83.38
437.614	89.38
437.835	93.38
438.057	91.38
438.278	85.38
438.5	88.38
438.721	92.38
438.943	91.38
439.165	88.38
439.386	97.38
439.608	91.38
439.829	87.38
440.05	96.38
440.272	88.38
440.493	91.38
440.715	90.38
440.936	85.38
441.158	94.38
441.379	82.38
441.6	97.38
441.822	88.38
442.043	96.38
442.264	91.38
442.486	79.38
442.707	76.38
442.928	100.38
443.149	87.38
443.371	96.38
443.592	80.38
443.813	94.38
444.034	77.38
444.255	88.38
444.476	103.38
444.698	96.38
444.919	96.38
445.14	174.38
445.361	130.38
445.582	97.38
445.803	95.38
446.024	104.38
446.245	89.38
446.466	106.38
446.687	84.38
446.908	86.38
447.129	105.38
447.35	92.38
447.571	74.38
447.792	84.38
448.013	102.38
448.234	89.38
448.455	81.38
448.675	96.38
448.896	94.38
449.117	77.38
449.338	100.38
449.559	90.38
449.779	96.38
450	88.38
450.221	79.38
450.442	96.38
450.662	102.38
450.883	80.38
451.104	90.38
451.324	91.38
451.545	81.38
451.766	85.38
451.986	97.38
452.207	97.38
452.428	83.38
452.648	101.38
452.869	95.38
453.089	88.38
453.31	90.38
453.53	85.38
453.751	88.38
453.971	76.38
454.192	91.38
454.412	72.38
454.633	100.38
454.853	82.38
455.073	83.38
455.294	80.38
455.514	85.38
455.734	95.38
455.955	87.38
456.175	95.38
456.395	91.38
456.616	96.38
456.836	87.38
457.056	81.38
457.276	83.38
457.497	91.38
457.717	83.38
457.937	96.38
458.157	89.38
458.377	74.38
458.598	86.38
458.818	91.38
459.038	92.38
459.258	85.38
459.478	87.38
459.698	89.38
459.918	98.38
460.138	97.38
460.358	99.38
460.578	88.38
460.798	90.38
461.018	70.38
461.238	88.38
461.458	85.38
461.678	87.38
461.898	76.38
462.118	87.38
462.338	82.38
462.558	95.38
462.777	108.38
462.997	90.38
463.217	77.38
463.437	88.38
463.657	81.38
463.876	95.38
464.096	87.38
464.316	77.38
464.536	91.38
464.755	93.38
464.975	86.38
465.195	86.38
465.414	82.38
465.634	87.38
465.854	76.38
466.073	84.38
466.293	64.38
466.512	83.38
466.732	93.38
466.951	91.38
467.171	79.38
467.391	95.38
467.61	83.38
467.829	79.38
468.049	94.38
468.268	89.38
468.488	82.38
468.707	76.38
468.927	85.38
469.146	89.38
469.365	94.38
469.585	102.38
469.804	91.38
470.023	94.38
470.243	93.38
470.462	101.38
470.681	94.38
470.901	103.38
471.12	106.38
471.339	94.38
471.558	86.38
471.777	97.38
471.997	99.38
472.216	97.38
472.435	87.38
472.654	86.38
472.873	94.38
473.092	77.38
473.311	89.38
473.53	77.38
473.749	89.38
473.968	95.38
474.187	75.38
474.406	83.38
474.625	89.38
474.844	99.38
475.063	94.38
475.282	89.38
475.501	93.38
475.72	99.38
475.939	80.38
476.158	75.38
476.377	91.38
476.596	102.38
476.814	93.38
477.033	91.38
477.252	84.38
477.471	89.38
477.69	81.38
477.908	90.38
478.127	105.38
478.346	97.38
478.564	90.38
478.783	84.38
479.002	93.38
479.22	80.38
479.439	95.38
479.658	97.38
479.876	94.38
480.095	86.38
480.313	81.38
480.532	87.38
480.751	88.38
480.969	88.38
481.188	70.38
481.406	87.38
481.624	92.38
481.843	79.38
482.061	93.38
482.28	86.38
482.498	75.38
482.717	85.38
482.935	92.38
483.153	94.38
483.372	90.38
483.59	96.38
483.808	88.38
484.027	85.38
484.245	89.38
484.463	88.38
484.681	89.38
484.9	98.38
485.118	102.38
485.336	76.38
485.554	85.38
485.772	82.38
485.99	87.38
486.209	78.38
486.427	87.38
486.645	88.38
486.863	80.38
487.081	111.38
487.299	112.38
487.517	94.38
487.735	95.38
487.953	107.38
488.171	90.38
488.389	99.38
488.607	92.38
488.825	94.38
489.043	92.38
489.261	89.38
489.479	99.38
489.696	85.38
489.914	89.38
490.132	88.38
490.35	96.38
490.568	99.38
490.786	92.38
491.003	86.38
491.221	95.38
491.439	108.38
491.657	102.38
491.874	104.38
492.092	113.38
492.31	107.38
492.527	109.38
492.745	100.38
492.963	116.38
493.18	94.38
493.398	106.38
493.615	108.38
493.833	107.38
494.05	94.38
494.268	98.38
494.485	113.38
494.703	95.38
494.92	110.38
495.138	95.38
495.355	77.38
495.573	101.38
495.79	94.38
496.008	99.38
496.225	91.38
496.442	100.38
496.66	102.38
496.877	97.38
497.094	86.38
497.312	83.38
497.529	106.38
497.746	93.38
497.963	89.38
498.181	80.38
498.398	105.38
498.615	86.38
498.832	104.38
499.049	94.38
499.267	85.38
499.484	90.38
499.701	104.38
499.918	99.38
500.135	95.38
500.352	97.38
500.569	96.38
500.786	104.38
501.003	97.38
501.22	100.38
501.437	92.38
501.654	98.38
501.871	89.38
502.088	89.38
502.305	97.38
502.522	98.38
502.739	81.38
502.956	104.38
503.172	87.38
503.389	96.38
503.606	97.38
503.823	86.38
504.04	86.38
504.256	96.38
504.473	92.38
504.69	89.38
504.907	100.38
505.123	94.38
505.34	95.38
505.557	88.38
505.773	99.38
505.99	73.38
506.207	100.38
506.423	94.38
506.64	104.38
506.856	101.38
507.073	81.38
507.289	88.38
507.506	95.38
507.722	95.38
507.939	91.38
508.155	77.38
508.372	103.38
508.588	93.38
508.805	84.38
509.021	96.38
509.238	97.38
509.454	85.38
509.67	86.38
509.887	88.38
510.103	76.38
510.319	91.38
510.536	83.38
510.752	82.38
510.968	90.38
511.184	88.38
511.401	79.38
511.617	80.38
511.833	94.38
512.049	100.38
512.265	77.38
512.481	91.38
512.698	85.38
512.914	92.38
513.13	75.38
513.346	81.38
513.562	94.38
513.778	83.38
513.994	87.38
514.21	88.38
514.426	75.38
514.642	95.38
514.858	90.38
515.074	81.38
515.29	100.38
515.506	96.38
515.721	98.38
515.937	88.38
516.153	92.38
516.369	87.38
516.585	95.38
516.801	92.38
517.016	84.38
517.232	81.38
517.448	89.38
517.664	93.38
517.879	92.38
518.095	90.38
