Data from Zn(NO3)2Standard.Agarose3%.GreenCap.LampEnergy10E.O_HRD10591_15-09-12-952.txt Node
Date: Mon Jul 22 15:09:12 EDT 2019
User: cochatt
Spectrometer: HR+D1059
Trigger mode: 1
Integration Time (sec): 1.000000E-1
Scans to average: 1
Electric dark correction enabled: true
Nonlinearity correction enabled: false
Boxcar width: 0
XAxis mode: Wavelengths
Number of Pixels in Spectrum: 2048
>>>>>Begin Spectral Data<<<<<
223.165	-10.31
223.4	-10.31
223.635	-10.31
223.869	-17.31
224.104	-20.31
224.338	-8.31
224.573	-24.31
224.808	-13.31
225.042	-10.31
225.277	-2.31
225.511	-3.31
225.746	14.69
225.98	-1.31
226.215	11.69
226.449	13.69
226.683	13.69
226.918	26.69
227.152	30.69
227.387	35.69
227.621	35.69
227.856	52.69
228.09	44.69
228.324	51.69
228.559	59.69
228.793	54.69
229.027	53.69
229.262	59.69
229.496	61.69
229.73	49.69
229.964	68.69
230.199	74.69
230.433	69.69
230.667	81.69
230.901	82.69
231.136	73.69
231.37	81.69
231.604	76.69
231.838	76.69
232.072	86.69
232.306	86.69
232.541	80.69
232.775	82.69
233.009	81.69
233.243	70.69
233.477	97.69
233.711	74.69
233.945	69.69
234.179	72.69
234.413	90.69
234.647	88.69
234.881	81.69
235.115	91.69
235.349	71.69
235.583	93.69
235.817	81.69
236.051	79.69
236.285	70.69
236.519	88.69
236.753	82.69
236.987	78.69
237.221	71.69
237.455	70.69
237.689	78.69
237.922	78.69
238.156	75.69
238.39	83.69
238.624	90.69
238.858	73.69
239.091	72.69
239.325	75.69
239.559	82.69
239.793	83.69
240.027	61.69
240.26	60.69
240.494	80.69
240.728	74.69
240.961	75.69
241.195	91.69
241.429	80.69
241.662	67.69
241.896	80.69
242.13	60.69
242.363	89.69
242.597	83.69
242.83	74.69
243.064	73.69
243.298	86.69
243.531	76.69
243.765	89.69
243.998	89.69
244.232	81.69
244.465	82.69
244.699	75.69
244.932	75.69
245.166	81.69
245.399	84.69
245.633	83.69
245.866	71.69
246.099	79.69
246.333	83.69
246.566	82.69
246.8	77.69
247.033	87.69
247.266	70.69
247.5	56.69
247.733	83.69
247.966	68.69
248.2	81.69
248.433	76.69
248.666	77.69
248.899	66.69
249.133	94.69
249.366	99.69
249.599	78.69
249.832	69.69
250.066	85.69
250.299	70.69
250.532	78.69
250.765	70.69
250.998	74.69
251.231	90.69
251.465	95.69
251.698	83.69
251.931	84.69
252.164	79.69
252.397	82.69
252.63	87.69
252.863	76.69
253.096	84.69
253.329	73.69
253.562	89.69
253.795	88.69
254.028	82.69
254.261	79.69
254.494	75.69
254.727	88.69
254.96	99.69
255.193	77.69
255.426	78.69
255.659	83.69
255.892	77.69
256.124	87.69
256.357	91.69
256.59	88.69
256.823	80.69
257.056	89.69
257.289	88.69
257.521	76.69
257.754	80.69
257.987	82.69
258.22	94.69
258.452	74.69
258.685	76.69
258.918	76.69
259.151	77.69
259.383	97.69
259.616	92.69
259.849	82.69
260.081	84.69
260.314	83.69
260.547	85.69
260.779	72.69
261.012	86.69
261.244	76.69
261.477	85.69
261.71	77.69
261.942	77.69
262.175	87.69
262.407	82.69
262.64	82.69
262.872	69.69
263.105	93.69
263.337	80.69
263.57	76.69
263.802	88.69
264.035	75.69
264.267	73.69
264.499	85.69
264.732	76.69
264.964	76.69
265.197	92.69
265.429	76.69
265.661	81.69
265.894	86.69
266.126	79.69
266.358	93.69
266.591	88.69
266.823	70.69
267.055	90.69
267.287	74.69
267.52	78.69
267.752	80.69
267.984	89.69
268.216	68.69
268.448	82.69
268.681	78.69
268.913	72.69
269.145	90.69
269.377	79.69
269.609	74.69
269.841	71.69
270.073	73.69
270.306	90.69
270.538	76.69
270.77	76.69
271.002	86.69
271.234	88.69
271.466	92.69
271.698	85.69
271.93	90.69
272.162	80.69
272.394	93.69
272.626	86.69
272.858	83.69
273.09	79.69
273.322	80.69
273.553	81.69
273.785	81.69
274.017	71.69
274.249	76.69
274.481	80.69
274.713	71.69
274.945	70.69
275.176	77.69
275.408	79.69
275.64	65.69
275.872	66.69
276.104	78.69
276.335	83.69
276.567	77.69
276.799	76.69
277.031	67.69
277.262	94.69
277.494	77.69
277.726	99.69
277.957	77.69
278.189	86.69
278.421	89.69
278.652	87.69
278.884	78.69
279.115	68.69
279.347	78.69
279.579	69.69
279.81	69.69
280.042	77.69
280.273	86.69
280.505	77.69
280.736	84.69
280.968	78.69
281.199	79.69
281.431	91.69
281.662	79.69
281.894	88.69
282.125	78.69
282.356	76.69
282.588	84.69
282.819	90.69
283.051	94.69
283.282	74.69
283.513	82.69
283.745	90.69
283.976	81.69
284.207	81.69
284.439	74.69
284.67	88.69
284.901	93.69
285.132	88.69
285.364	91.69
285.595	87.69
285.826	83.69
286.057	83.69
286.288	96.69
286.52	91.69
286.751	74.69
286.982	82.69
287.213	95.69
287.444	87.69
287.675	78.69
287.906	96.69
288.138	78.69
288.369	94.69
288.6	98.69
288.831	83.69
289.062	91.69
289.293	75.69
289.524	84.69
289.755	59.69
289.986	88.69
290.217	92.69
290.448	86.69
290.679	89.69
290.91	83.69
291.141	76.69
291.371	78.69
291.602	81.69
291.833	82.69
292.064	81.69
292.295	96.69
292.526	88.69
292.757	81.69
292.987	76.69
293.218	76.69
293.449	75.69
293.68	82.69
293.91	83.69
294.141	87.69
294.372	70.69
294.603	104.69
294.833	95.69
295.064	87.69
295.295	85.69
295.525	76.69
295.756	80.69
295.987	84.69
296.217	82.69
296.448	77.69
296.679	94.69
296.909	89.69
297.14	85.69
297.37	82.69
297.601	83.69
297.831	78.69
298.062	100.69
298.292	84.69
298.523	84.69
298.753	74.69
298.984	95.69
299.214	76.69
299.445	87.69
299.675	86.69
299.905	86.69
300.136	86.69
300.366	88.69
300.597	91.69
300.827	88.69
301.057	64.69
301.288	88.69
301.518	85.69
301.748	83.69
301.979	78.69
302.209	105.69
302.439	95.69
302.669	79.69
302.9	86.69
303.13	92.69
303.36	85.69
303.59	78.69
303.82	84.69
304.051	63.69
304.281	77.69
304.511	93.69
304.741	78.69
304.971	79.69
305.201	75.69
305.431	83.69
305.661	92.69
305.891	100.69
306.121	90.69
306.352	79.69
306.582	73.69
306.812	84.69
307.042	88.69
307.272	76.69
307.502	74.69
307.731	80.69
307.961	77.69
308.191	82.69
308.421	85.69
308.651	86.69
308.881	82.69
309.111	74.69
309.341	88.69
309.571	67.69
309.8	67.69
310.03	70.69
310.26	90.69
310.49	83.69
310.72	91.69
310.949	84.69
311.179	85.69
311.409	73.69
311.639	76.69
311.868	95.69
312.098	85.69
312.328	92.69
312.557	84.69
312.787	91.69
313.017	76.69
313.246	81.69
313.476	82.69
313.706	76.69
313.935	87.69
314.165	72.69
314.394	90.69
314.624	87.69
314.853	75.69
315.083	90.69
315.312	74.69
315.542	79.69
315.771	90.69
316.001	80.69
316.23	87.69
316.46	84.69
316.689	78.69
316.919	101.69
317.148	76.69
317.377	88.69
317.607	71.69
317.836	81.69
318.065	76.69
318.295	86.69
318.524	93.69
318.753	75.69
318.983	78.69
319.212	87.69
319.441	81.69
319.67	89.69
319.9	83.69
320.129	91.69
320.358	93.69
320.587	93.69
320.816	99.69
321.046	82.69
321.275	100.69
321.504	88.69
321.733	86.69
321.962	75.69
322.191	95.69
322.42	88.69
322.649	86.69
322.878	83.69
323.108	85.69
323.337	95.69
323.566	89.69
323.795	81.69
324.024	93.69
324.253	84.69
324.482	85.69
324.71	101.69
324.939	80.69
325.168	98.69
325.397	78.69
325.626	87.69
325.855	83.69
326.084	85.69
326.313	89.69
326.542	84.69
326.77	86.69
326.999	78.69
327.228	77.69
327.457	93.69
327.686	84.69
327.914	91.69
328.143	91.69
328.372	81.69
328.6	81.69
328.829	82.69
329.058	89.69
329.287	93.69
329.515	79.69
329.744	81.69
329.972	78.69
330.201	87.69
330.43	89.69
330.658	90.69
330.887	81.69
331.115	76.69
331.344	91.69
331.572	95.69
331.801	82.69
332.03	84.69
332.258	84.69
332.486	79.69
332.715	87.69
332.943	92.69
333.172	85.69
333.4	96.69
333.629	74.69
333.857	73.69
334.085	89.69
334.314	88.69
334.542	79.69
334.771	87.69
334.999	87.69
335.227	88.69
335.455	84.69
335.684	88.69
335.912	68.69
336.14	82.69
336.369	84.69
336.597	81.69
336.825	88.69
337.053	84.69
337.281	74.69
337.51	82.69
337.738	96.69
337.966	72.69
338.194	85.69
338.422	78.69
338.65	78.69
338.878	78.69
339.106	85.69
339.334	89.69
339.562	69.69
339.79	76.69
340.018	78.69
340.246	75.69
340.474	92.69
340.702	78.69
340.93	76.69
341.158	76.69
341.386	81.69
341.614	92.69
341.842	100.69
342.07	71.69
342.298	92.69
342.526	84.69
342.754	86.69
342.981	91.69
343.209	66.69
343.437	72.69
343.665	81.69
343.893	101.69
344.12	86.69
344.348	76.69
344.576	90.69
344.804	92.69
345.031	85.69
345.259	87.69
345.487	83.69
345.714	89.69
345.942	76.69
346.17	82.69
346.397	97.69
346.625	92.69
346.853	88.69
347.08	79.69
347.308	93.69
347.535	81.69
347.763	98.69
347.99	89.69
348.218	78.69
348.445	93.69
348.673	81.69
348.9	80.69
349.128	89.69
349.355	83.69
349.583	86.69
349.81	91.69
350.037	83.69
350.265	78.69
350.492	79.69
350.72	82.69
350.947	71.69
351.174	90.69
351.402	70.69
351.629	84.69
351.856	76.69
352.083	85.69
352.311	92.69
352.538	64.69
352.765	83.69
352.992	87.69
353.22	90.69
353.447	94.69
353.674	90.69
353.901	93.69
354.128	81.69
354.355	84.69
354.583	91.69
354.81	82.69
355.037	87.69
355.264	85.69
355.491	84.69
355.718	87.69
355.945	77.69
356.172	75.69
356.399	84.69
356.626	85.69
356.853	94.69
357.08	82.69
357.307	62.69
357.534	78.69
357.761	92.69
357.988	78.69
358.215	91.69
358.441	99.69
358.668	91.69
358.895	80.69
359.122	89.69
359.349	75.69
359.576	77.69
359.802	83.69
360.029	99.69
360.256	89.69
360.483	77.69
360.709	88.69
360.936	98.69
361.163	88.69
361.39	81.69
361.616	99.69
361.843	82.69
362.07	86.69
362.296	74.69
362.523	76.69
362.749	92.69
362.976	83.69
363.203	98.69
363.429	92.69
363.656	95.69
363.882	86.69
364.109	76.69
364.335	80.69
364.562	82.69
364.788	81.69
365.015	93.69
365.241	77.69
365.468	92.69
365.694	68.69
365.92	95.69
366.147	73.69
366.373	103.69
366.599	74.69
366.826	94.69
367.052	79.69
367.278	85.69
367.505	77.69
367.731	97.69
367.957	92.69
368.184	69.69
368.41	99.69
368.636	87.69
368.862	79.69
369.089	109.69
369.315	83.69
369.541	76.69
369.767	92.69
369.993	83.69
370.219	83.69
370.445	77.69
370.672	78.69
370.898	85.69
371.124	96.69
371.35	91.69
371.576	84.69
371.802	81.69
372.028	81.69
372.254	75.69
372.48	82.69
372.706	84.69
372.932	86.69
373.158	84.69
373.384	91.69
373.61	98.69
373.835	80.69
374.061	87.69
374.287	80.69
374.513	86.69
374.739	100.69
374.965	79.69
375.191	87.69
375.416	91.69
375.642	93.69
375.868	79.69
376.094	85.69
376.319	82.69
376.545	81.69
376.771	85.69
376.997	91.69
377.222	85.69
377.448	94.69
377.674	86.69
377.899	80.69
378.125	74.69
378.35	91.69
378.576	92.69
378.802	85.69
379.027	101.69
379.253	87.69
379.478	86.69
379.704	87.69
379.929	87.69
380.155	87.69
380.38	75.69
380.606	80.69
380.831	94.69
381.057	105.69
381.282	87.69
381.507	87.69
381.733	91.69
381.958	86.69
382.184	84.69
382.409	94.69
382.634	105.69
382.86	97.69
383.085	92.69
383.31	86.69
383.535	93.69
383.761	80.69
383.986	75.69
384.211	84.69
384.436	65.69
384.662	98.69
384.887	81.69
385.112	89.69
385.337	96.69
385.562	83.69
385.787	88.69
386.013	92.69
386.238	87.69
386.463	88.69
386.688	100.69
386.913	72.69
387.138	77.69
387.363	93.69
387.588	93.69
387.813	96.69
388.038	91.69
388.263	105.69
388.488	88.69
388.713	79.69
388.938	112.69
389.163	96.69
389.387	92.69
389.612	96.69
389.837	83.69
390.062	90.69
390.287	97.69
390.512	86.69
390.736	94.69
390.961	100.69
391.186	85.69
391.411	89.69
391.636	84.69
391.86	94.69
392.085	89.69
392.31	92.69
392.534	91.69
392.759	96.69
392.984	90.69
393.208	89.69
393.433	89.69
393.658	99.69
393.882	84.69
394.107	103.69
394.331	88.69
394.556	93.69
394.78	83.69
395.005	83.69
395.229	88.69
395.454	90.69
395.678	85.69
395.903	93.69
396.127	87.69
396.352	96.69
396.576	99.69
396.801	107.69
397.025	97.69
397.249	106.69
397.474	86.69
397.698	105.69
397.922	89.69
398.147	98.69
398.371	103.69
398.595	100.69
398.82	103.69
399.044	92.69
399.268	88.69
399.492	81.69
399.717	100.69
399.941	102.69
400.165	89.69
400.389	97.69
400.613	83.69
400.837	88.69
401.062	101.69
401.286	97.69
401.51	93.69
401.734	104.69
401.958	93.69
402.182	98.69
402.406	92.69
402.63	97.69
402.854	101.69
403.078	97.69
403.302	103.69
403.526	108.69
403.75	93.69
403.974	90.69
404.198	85.69
404.422	103.69
404.645	96.69
404.869	88.69
405.093	84.69
405.317	97.69
405.541	96.69
405.765	99.69
405.988	106.69
406.212	116.69
406.436	98.69
406.66	94.69
406.883	84.69
407.107	105.69
407.331	105.69
407.555	102.69
407.778	97.69
408.002	105.69
408.226	85.69
408.449	91.69
408.673	101.69
408.896	99.69
409.12	106.69
409.344	99.69
409.567	100.69
409.791	103.69
410.014	90.69
410.238	97.69
410.461	97.69
410.685	95.69
410.908	115.69
411.132	89.69
411.355	93.69
411.578	100.69
411.802	103.69
412.025	87.69
412.249	96.69
412.472	97.69
412.695	109.69
412.919	98.69
413.142	98.69
413.365	120.69
413.589	112.69
413.812	86.69
414.035	101.69
414.258	80.69
414.482	115.69
414.705	102.69
414.928	93.69
415.151	100.69
415.374	109.69
415.597	98.69
415.821	113.69
416.044	98.69
416.267	96.69
416.49	104.69
416.713	99.69
416.936	106.69
417.159	93.69
417.382	113.69
417.605	104.69
417.828	109.69
418.051	105.69
418.274	93.69
418.497	101.69
418.72	120.69
418.943	105.69
419.166	103.69
419.389	99.69
419.611	102.69
419.834	109.69
420.057	115.69
420.28	110.69
420.503	112.69
420.726	103.69
420.948	106.69
421.171	103.69
421.394	119.69
421.617	120.69
421.839	100.69
422.062	99.69
422.285	101.69
422.507	109.69
422.73	115.69
422.953	105.69
423.175	106.69
423.398	103.69
423.621	114.69
423.843	117.69
424.066	113.69
424.288	123.69
424.511	114.69
424.733	123.69
424.956	106.69
425.178	116.69
425.401	107.69
425.623	105.69
425.846	97.69
426.068	110.69
426.291	84.69
426.513	101.69
426.735	104.69
426.958	108.69
427.18	101.69
427.402	96.69
427.625	106.69
427.847	112.69
428.069	118.69
428.292	86.69
428.514	101.69
428.736	103.69
428.958	99.69
429.181	108.69
429.403	108.69
429.625	108.69
429.847	106.69
430.069	108.69
430.292	105.69
430.514	98.69
430.736	99.69
430.958	95.69
431.18	110.69
431.402	118.69
431.624	98.69
431.846	89.69
432.068	102.69
432.29	78.69
432.512	101.69
432.734	97.69
432.956	114.69
433.178	106.69
433.4	95.69
433.622	119.69
433.844	116.69
434.066	99.69
434.287	85.69
434.509	92.69
434.731	98.69
434.953	101.69
435.175	109.69
435.397	112.69
435.618	98.69
435.84	88.69
436.062	79.69
436.284	106.69
436.505	111.69
436.727	112.69
436.949	101.69
437.17	104.69
437.392	108.69
437.614	92.69
437.835	107.69
438.057	107.69
438.278	112.69
438.5	114.69
438.721	97.69
438.943	117.69
439.165	112.69
439.386	121.69
439.608	125.69
439.829	115.69
440.05	118.69
440.272	107.69
440.493	109.69
440.715	127.69
440.936	112.69
441.158	112.69
441.379	119.69
441.6	118.69
441.822	111.69
442.043	124.69
442.264	123.69
442.486	116.69
442.707	121.69
442.928	95.69
443.149	116.69
443.371	104.69
443.592	118.69
443.813	95.69
444.034	97.69
444.255	108.69
444.476	124.69
444.698	105.69
444.919	116.69
445.14	223.69
445.361	160.69
445.582	128.69
445.803	115.69
446.024	127.69
446.245	116.69
446.466	117.69
446.687	125.69
446.908	109.69
447.129	113.69
447.35	97.69
447.571	126.69
447.792	112.69
448.013	101.69
448.234	109.69
448.455	116.69
448.675	118.69
448.896	100.69
449.117	102.69
449.338	124.69
449.559	109.69
449.779	114.69
450	126.69
450.221	112.69
450.442	109.69
450.662	107.69
450.883	117.69
451.104	130.69
451.324	110.69
451.545	105.69
451.766	82.69
451.986	108.69
452.207	102.69
452.428	101.69
452.648	107.69
452.869	105.69
453.089	94.69
453.31	92.69
453.53	84.69
453.751	85.69
453.971	96.69
454.192	98.69
454.412	98.69
454.633	90.69
454.853	103.69
455.073	90.69
455.294	94.69
455.514	117.69
455.734	109.69
455.955	97.69
456.175	110.69
456.395	96.69
456.616	111.69
456.836	96.69
457.056	102.69
457.276	100.69
457.497	86.69
457.717	89.69
457.937	96.69
458.157	89.69
458.377	96.69
458.598	90.69
458.818	89.69
459.038	89.69
459.258	86.69
459.478	82.69
459.698	90.69
459.918	90.69
460.138	98.69
460.358	92.69
460.578	89.69
460.798	96.69
461.018	105.69
461.238	106.69
461.458	108.69
461.678	90.69
461.898	93.69
462.118	100.69
462.338	101.69
462.558	100.69
462.777	84.69
462.997	82.69
463.217	89.69
463.437	81.69
463.657	88.69
463.876	107.69
464.096	81.69
464.316	88.69
464.536	92.69
464.755	102.69
464.975	93.69
465.195	92.69
465.414	94.69
465.634	93.69
465.854	110.69
466.073	97.69
466.293	88.69
466.512	99.69
466.732	117.69
466.951	112.69
467.171	112.69
467.391	115.69
467.61	97.69
467.829	110.69
468.049	97.69
468.268	91.69
468.488	105.69
468.707	116.69
468.927	111.69
469.146	118.69
469.365	96.69
469.585	114.69
469.804	118.69
470.023	106.69
470.243	125.69
470.462	108.69
470.681	112.69
470.901	114.69
471.12	118.69
471.339	122.69
471.558	100.69
471.777	120.69
471.997	112.69
472.216	102.69
472.435	100.69
472.654	85.69
472.873	113.69
473.092	105.69
473.311	93.69
473.53	106.69
473.749	95.69
473.968	121.69
474.187	115.69
474.406	98.69
474.625	94.69
474.844	96.69
475.063	99.69
475.282	98.69
475.501	106.69
475.72	103.69
475.939	114.69
476.158	120.69
476.377	107.69
476.596	118.69
476.814	88.69
477.033	89.69
477.252	114.69
477.471	96.69
477.69	123.69
477.908	122.69
478.127	117.69
478.346	112.69
478.564	95.69
478.783	117.69
479.002	105.69
479.22	97.69
479.439	121.69
479.658	104.69
479.876	104.69
480.095	92.69
480.313	100.69
480.532	101.69
480.751	100.69
480.969	81.69
481.188	90.69
481.406	94.69
481.624	80.69
481.843	75.69
482.061	96.69
482.28	92.69
482.498	104.69
482.717	78.69
482.935	101.69
483.153	109.69
483.372	112.69
483.59	113.69
483.808	92.69
484.027	128.69
484.245	111.69
484.463	125.69
484.681	134.69
484.9	118.69
485.118	113.69
485.336	95.69
485.554	89.69
485.772	90.69
485.99	81.69
486.209	91.69
486.427	100.69
486.645	105.69
486.863	107.69
487.081	111.69
487.299	96.69
487.517	104.69
487.735	133.69
487.953	134.69
488.171	130.69
488.389	116.69
488.607	111.69
488.825	117.69
489.043	99.69
489.261	108.69
489.479	118.69
489.696	113.69
489.914	104.69
490.132	123.69
490.35	124.69
490.568	119.69
490.786	124.69
491.003	130.69
491.221	133.69
491.439	133.69
491.657	152.69
491.874	146.69
492.092	161.69
492.31	164.69
492.527	152.69
492.745	149.69
492.963	129.69
493.18	136.69
493.398	128.69
493.615	137.69
493.833	150.69
494.05	127.69
494.268	133.69
494.485	120.69
494.703	116.69
494.92	125.69
495.138	117.69
495.355	135.69
495.573	140.69
495.79	130.69
496.008	135.69
496.225	121.69
496.442	132.69
496.66	147.69
496.877	121.69
497.094	113.69
497.312	119.69
497.529	126.69
497.746	125.69
497.963	115.69
498.181	120.69
498.398	98.69
498.615	100.69
498.832	88.69
499.049	113.69
499.267	100.69
499.484	104.69
499.701	107.69
499.918	114.69
500.135	112.69
500.352	114.69
500.569	116.69
500.786	115.69
501.003	131.69
501.22	105.69
501.437	112.69
501.654	113.69
501.871	116.69
502.088	103.69
502.305	94.69
502.522	101.69
502.739	98.69
502.956	115.69
503.172	98.69
503.389	114.69
503.606	122.69
503.823	108.69
504.04	117.69
504.256	96.69
504.473	113.69
504.69	100.69
504.907	112.69
505.123	103.69
505.34	119.69
505.557	94.69
505.773	101.69
505.99	109.69
506.207	97.69
506.423	98.69
506.64	96.69
506.856	108.69
507.073	104.69
507.289	84.69
507.506	90.69
507.722	98.69
507.939	115.69
508.155	107.69
508.372	102.69
508.588	101.69
508.805	104.69
509.021	105.69
509.238	97.69
509.454	104.69
509.67	85.69
509.887	85.69
510.103	90.69
510.319	89.69
510.536	71.69
510.752	75.69
510.968	88.69
511.184	83.69
511.401	78.69
511.617	90.69
511.833	93.69
512.049	81.69
512.265	113.69
512.481	87.69
512.698	97.69
512.914	100.69
513.13	87.69
513.346	91.69
513.562	81.69
513.778	86.69
513.994	97.69
514.21	91.69
514.426	98.69
