Data from Zn(NO3)2Standard.Agarose3%.GreenCap.LampEnergy10E.O_HRD10591_15-06-22-942.txt Node
Date: Mon Jul 22 15:06:22 EDT 2019
User: cochatt
Spectrometer: HR+D1059
Trigger mode: 1
Integration Time (sec): 1.000000E-1
Scans to average: 1
Electric dark correction enabled: true
Nonlinearity correction enabled: false
Boxcar width: 0
XAxis mode: Wavelengths
Number of Pixels in Spectrum: 2048
>>>>>Begin Spectral Data<<<<<
223.165	-35.31
223.4	-35.31
223.635	-35.31
223.869	-10.31
224.104	-24.31
224.338	-13.31
224.573	-15.31
224.808	-3.31
225.042	-2.31
225.277	-8.31
225.511	-5.31
225.746	7.69
225.98	2.69
226.215	11.69
226.449	16.69
226.683	14.69
226.918	27.69
227.152	36.69
227.387	18.69
227.621	22.69
227.856	20.69
228.09	38.69
228.324	44.69
228.559	43.69
228.793	52.69
229.027	60.69
229.262	52.69
229.496	75.69
229.73	86.69
229.964	68.69
230.199	71.69
230.433	94.69
230.667	78.69
230.901	76.69
231.136	85.69
231.37	70.69
231.604	68.69
231.838	79.69
232.072	76.69
232.306	82.69
232.541	83.69
232.775	75.69
233.009	69.69
233.243	88.69
233.477	83.69
233.711	90.69
233.945	94.69
234.179	86.69
234.413	88.69
234.647	89.69
234.881	76.69
235.115	71.69
235.349	80.69
235.583	79.69
235.817	70.69
236.051	75.69
236.285	72.69
236.519	73.69
236.753	70.69
236.987	97.69
237.221	80.69
237.455	83.69
237.689	65.69
237.922	63.69
238.156	80.69
238.39	71.69
238.624	70.69
238.858	86.69
239.091	61.69
239.325	76.69
239.559	79.69
239.793	76.69
240.027	75.69
240.26	79.69
240.494	76.69
240.728	77.69
240.961	58.69
241.195	66.69
241.429	79.69
241.662	63.69
241.896	74.69
242.13	62.69
242.363	69.69
242.597	77.69
242.83	83.69
243.064	72.69
243.298	61.69
243.531	73.69
243.765	83.69
243.998	94.69
244.232	85.69
244.465	82.69
244.699	78.69
244.932	83.69
245.166	81.69
245.399	91.69
245.633	67.69
245.866	91.69
246.099	78.69
246.333	71.69
246.566	77.69
246.8	68.69
247.033	83.69
247.266	82.69
247.5	74.69
247.733	75.69
247.966	69.69
248.2	74.69
248.433	87.69
248.666	64.69
248.899	81.69
249.133	65.69
249.366	84.69
249.599	67.69
249.832	74.69
250.066	70.69
250.299	67.69
250.532	81.69
250.765	72.69
250.998	66.69
251.231	74.69
251.465	84.69
251.698	92.69
251.931	82.69
252.164	70.69
252.397	70.69
252.63	80.69
252.863	88.69
253.096	73.69
253.329	85.69
253.562	73.69
253.795	80.69
254.028	72.69
254.261	71.69
254.494	71.69
254.727	80.69
254.96	78.69
255.193	74.69
255.426	70.69
255.659	73.69
255.892	97.69
256.124	83.69
256.357	67.69
256.59	81.69
256.823	62.69
257.056	80.69
257.289	76.69
257.521	75.69
257.754	79.69
257.987	78.69
258.22	82.69
258.452	74.69
258.685	78.69
258.918	71.69
259.151	75.69
259.383	72.69
259.616	75.69
259.849	81.69
260.081	81.69
260.314	76.69
260.547	86.69
260.779	83.69
261.012	81.69
261.244	82.69
261.477	79.69
261.71	82.69
261.942	81.69
262.175	94.69
262.407	76.69
262.64	63.69
262.872	76.69
263.105	74.69
263.337	73.69
263.57	87.69
263.802	75.69
264.035	82.69
264.267	83.69
264.499	80.69
264.732	90.69
264.964	93.69
265.197	66.69
265.429	82.69
265.661	79.69
265.894	64.69
266.126	83.69
266.358	80.69
266.591	84.69
266.823	81.69
267.055	67.69
267.287	74.69
267.52	76.69
267.752	86.69
267.984	71.69
268.216	75.69
268.448	76.69
268.681	72.69
268.913	77.69
269.145	76.69
269.377	97.69
269.609	87.69
269.841	97.69
270.073	81.69
270.306	85.69
270.538	76.69
270.77	84.69
271.002	63.69
271.234	69.69
271.466	72.69
271.698	86.69
271.93	76.69
272.162	84.69
272.394	89.69
272.626	83.69
272.858	89.69
273.09	90.69
273.322	77.69
273.553	87.69
273.785	72.69
274.017	84.69
274.249	76.69
274.481	66.69
274.713	85.69
274.945	86.69
275.176	79.69
275.408	89.69
275.64	82.69
275.872	86.69
276.104	74.69
276.335	81.69
276.567	73.69
276.799	83.69
277.031	79.69
277.262	78.69
277.494	89.69
277.726	85.69
277.957	87.69
278.189	89.69
278.421	94.69
278.652	91.69
278.884	88.69
279.115	82.69
279.347	86.69
279.579	80.69
279.81	79.69
280.042	80.69
280.273	77.69
280.505	74.69
280.736	81.69
280.968	88.69
281.199	87.69
281.431	70.69
281.662	80.69
281.894	87.69
282.125	91.69
282.356	89.69
282.588	81.69
282.819	79.69
283.051	80.69
283.282	86.69
283.513	79.69
283.745	87.69
283.976	76.69
284.207	86.69
284.439	84.69
284.67	84.69
284.901	104.69
285.132	90.69
285.364	91.69
285.595	67.69
285.826	100.69
286.057	81.69
286.288	84.69
286.52	75.69
286.751	84.69
286.982	79.69
287.213	72.69
287.444	80.69
287.675	80.69
287.906	87.69
288.138	78.69
288.369	80.69
288.6	73.69
288.831	76.69
289.062	89.69
289.293	90.69
289.524	87.69
289.755	79.69
289.986	79.69
290.217	75.69
290.448	75.69
290.679	82.69
290.91	71.69
291.141	91.69
291.371	90.69
291.602	83.69
291.833	72.69
292.064	85.69
292.295	72.69
292.526	87.69
292.757	88.69
292.987	76.69
293.218	75.69
293.449	69.69
293.68	89.69
293.91	76.69
294.141	77.69
294.372	87.69
294.603	85.69
294.833	78.69
295.064	79.69
295.295	87.69
295.525	82.69
295.756	88.69
295.987	89.69
296.217	97.69
296.448	92.69
296.679	78.69
296.909	90.69
297.14	87.69
297.37	79.69
297.601	83.69
297.831	84.69
298.062	83.69
298.292	72.69
298.523	83.69
298.753	89.69
298.984	74.69
299.214	77.69
299.445	90.69
299.675	72.69
299.905	78.69
300.136	89.69
300.366	78.69
300.597	84.69
300.827	78.69
301.057	80.69
301.288	82.69
301.518	76.69
301.748	78.69
301.979	82.69
302.209	82.69
302.439	81.69
302.669	83.69
302.9	76.69
303.13	75.69
303.36	91.69
303.59	79.69
303.82	80.69
304.051	88.69
304.281	79.69
304.511	84.69
304.741	70.69
304.971	86.69
305.201	101.69
305.431	96.69
305.661	68.69
305.891	80.69
306.121	84.69
306.352	83.69
306.582	88.69
306.812	89.69
307.042	92.69
307.272	85.69
307.502	82.69
307.731	83.69
307.961	100.69
308.191	89.69
308.421	98.69
308.651	77.69
308.881	95.69
309.111	96.69
309.341	92.69
309.571	80.69
309.8	94.69
310.03	84.69
310.26	81.69
310.49	87.69
310.72	78.69
310.949	91.69
311.179	75.69
311.409	86.69
311.639	91.69
311.868	78.69
312.098	80.69
312.328	83.69
312.557	84.69
312.787	86.69
313.017	80.69
313.246	79.69
313.476	79.69
313.706	86.69
313.935	74.69
314.165	75.69
314.394	80.69
314.624	82.69
314.853	87.69
315.083	90.69
315.312	78.69
315.542	88.69
315.771	87.69
316.001	87.69
316.23	96.69
316.46	82.69
316.689	78.69
316.919	88.69
317.148	89.69
317.377	73.69
317.607	81.69
317.836	79.69
318.065	79.69
318.295	84.69
318.524	66.69
318.753	89.69
318.983	79.69
319.212	88.69
319.441	82.69
319.67	76.69
319.9	84.69
320.129	96.69
320.358	87.69
320.587	96.69
320.816	85.69
321.046	79.69
321.275	85.69
321.504	91.69
321.733	76.69
321.962	80.69
322.191	87.69
322.42	91.69
322.649	72.69
322.878	83.69
323.108	89.69
323.337	80.69
323.566	83.69
323.795	90.69
324.024	80.69
324.253	84.69
324.482	94.69
324.71	87.69
324.939	76.69
325.168	90.69
325.397	89.69
325.626	80.69
325.855	70.69
326.084	82.69
326.313	81.69
326.542	71.69
326.77	87.69
326.999	87.69
327.228	84.69
327.457	90.69
327.686	90.69
327.914	89.69
328.143	92.69
328.372	97.69
328.6	97.69
328.829	83.69
329.058	71.69
329.287	79.69
329.515	78.69
329.744	81.69
329.972	90.69
330.201	84.69
330.43	82.69
330.658	81.69
330.887	75.69
331.115	77.69
331.344	91.69
331.572	89.69
331.801	79.69
332.03	73.69
332.258	78.69
332.486	83.69
332.715	76.69
332.943	84.69
333.172	85.69
333.4	97.69
333.629	89.69
333.857	87.69
334.085	83.69
334.314	73.69
334.542	87.69
334.771	71.69
334.999	91.69
335.227	83.69
335.455	88.69
335.684	93.69
335.912	77.69
336.14	79.69
336.369	87.69
336.597	85.69
336.825	64.69
337.053	80.69
337.281	87.69
337.51	72.69
337.738	74.69
337.966	77.69
338.194	82.69
338.422	76.69
338.65	76.69
338.878	87.69
339.106	79.69
339.334	87.69
339.562	80.69
339.79	96.69
340.018	80.69
340.246	92.69
340.474	85.69
340.702	84.69
340.93	60.69
341.158	87.69
341.386	90.69
341.614	78.69
341.842	92.69
342.07	92.69
342.298	74.69
342.526	85.69
342.754	77.69
342.981	81.69
343.209	84.69
343.437	86.69
343.665	74.69
343.893	86.69
344.12	91.69
344.348	75.69
344.576	77.69
344.804	94.69
345.031	72.69
345.259	82.69
345.487	84.69
345.714	91.69
345.942	83.69
346.17	95.69
346.397	71.69
346.625	79.69
346.853	77.69
347.08	88.69
347.308	94.69
347.535	74.69
347.763	89.69
347.99	78.69
348.218	85.69
348.445	80.69
348.673	85.69
348.9	74.69
349.128	87.69
349.355	86.69
349.583	86.69
349.81	79.69
350.037	87.69
350.265	83.69
350.492	79.69
350.72	79.69
350.947	74.69
351.174	80.69
351.402	84.69
351.629	90.69
351.856	75.69
352.083	87.69
352.311	77.69
352.538	72.69
352.765	76.69
352.992	94.69
353.22	76.69
353.447	81.69
353.674	90.69
353.901	82.69
354.128	92.69
354.355	83.69
354.583	75.69
354.81	77.69
355.037	86.69
355.264	85.69
355.491	80.69
355.718	94.69
355.945	75.69
356.172	81.69
356.399	68.69
356.626	98.69
356.853	90.69
357.08	87.69
357.307	84.69
357.534	66.69
357.761	70.69
357.988	79.69
358.215	82.69
358.441	93.69
358.668	80.69
358.895	84.69
359.122	79.69
359.349	67.69
359.576	74.69
359.802	55.69
360.029	79.69
360.256	64.69
360.483	80.69
360.709	74.69
360.936	72.69
361.163	86.69
361.39	83.69
361.616	82.69
361.843	84.69
362.07	93.69
362.296	81.69
362.523	78.69
362.749	68.69
362.976	73.69
363.203	95.69
363.429	90.69
363.656	80.69
363.882	86.69
364.109	83.69
364.335	83.69
364.562	87.69
364.788	90.69
365.015	92.69
365.241	86.69
365.468	72.69
365.694	70.69
365.92	84.69
366.147	73.69
366.373	75.69
366.599	82.69
366.826	85.69
367.052	84.69
367.278	81.69
367.505	87.69
367.731	75.69
367.957	90.69
368.184	83.69
368.41	81.69
368.636	87.69
368.862	86.69
369.089	79.69
369.315	79.69
369.541	87.69
369.767	69.69
369.993	87.69
370.219	83.69
370.445	99.69
370.672	92.69
370.898	76.69
371.124	76.69
371.35	86.69
371.576	86.69
371.802	88.69
372.028	86.69
372.254	75.69
372.48	62.69
372.706	90.69
372.932	94.69
373.158	66.69
373.384	96.69
373.61	81.69
373.835	73.69
374.061	86.69
374.287	75.69
374.513	95.69
374.739	100.69
374.965	82.69
375.191	89.69
375.416	85.69
375.642	77.69
375.868	92.69
376.094	99.69
376.319	76.69
376.545	75.69
376.771	86.69
376.997	80.69
377.222	80.69
377.448	89.69
377.674	84.69
377.899	80.69
378.125	73.69
378.35	95.69
378.576	75.69
378.802	97.69
379.027	113.69
379.253	76.69
379.478	79.69
379.704	88.69
379.929	94.69
380.155	89.69
380.38	84.69
380.606	83.69
380.831	85.69
381.057	81.69
381.282	88.69
381.507	98.69
381.733	94.69
381.958	94.69
382.184	96.69
382.409	90.69
382.634	89.69
382.86	89.69
383.085	90.69
383.31	82.69
383.535	91.69
383.761	86.69
383.986	93.69
384.211	92.69
384.436	87.69
384.662	85.69
384.887	83.69
385.112	81.69
385.337	86.69
385.562	80.69
385.787	82.69
386.013	85.69
386.238	83.69
386.463	84.69
386.688	75.69
386.913	64.69
387.138	68.69
387.363	71.69
387.588	82.69
387.813	77.69
388.038	88.69
388.263	78.69
388.488	92.69
388.713	97.69
388.938	94.69
389.163	87.69
389.387	86.69
389.612	95.69
389.837	84.69
390.062	84.69
390.287	86.69
390.512	103.69
390.736	87.69
390.961	88.69
391.186	94.69
391.411	94.69
391.636	82.69
391.86	81.69
392.085	86.69
392.31	85.69
392.534	93.69
392.759	88.69
392.984	99.69
393.208	82.69
393.433	97.69
393.658	99.69
393.882	84.69
394.107	98.69
394.331	75.69
394.556	74.69
394.78	87.69
395.005	94.69
395.229	78.69
395.454	84.69
395.678	97.69
395.903	106.69
396.127	86.69
396.352	83.69
396.576	98.69
396.801	92.69
397.025	89.69
397.249	104.69
397.474	80.69
397.698	94.69
397.922	96.69
398.147	92.69
398.371	90.69
398.595	87.69
398.82	99.69
399.044	86.69
399.268	85.69
399.492	93.69
399.717	92.69
399.941	79.69
400.165	94.69
400.389	98.69
400.613	78.69
400.837	90.69
401.062	98.69
401.286	100.69
401.51	90.69
401.734	104.69
401.958	90.69
402.182	85.69
402.406	90.69
402.63	99.69
402.854	88.69
403.078	97.69
403.302	87.69
403.526	91.69
403.75	89.69
403.974	93.69
404.198	106.69
404.422	93.69
404.645	101.69
404.869	92.69
405.093	99.69
405.317	111.69
405.541	112.69
405.765	101.69
405.988	91.69
406.212	93.69
406.436	88.69
406.66	101.69
406.883	102.69
407.107	98.69
407.331	96.69
407.555	99.69
407.778	88.69
408.002	91.69
408.226	91.69
408.449	94.69
408.673	95.69
408.896	110.69
409.12	101.69
409.344	90.69
409.567	89.69
409.791	103.69
410.014	89.69
410.238	82.69
410.461	105.69
410.685	91.69
410.908	99.69
411.132	103.69
411.355	110.69
411.578	95.69
411.802	92.69
412.025	102.69
412.249	106.69
412.472	87.69
412.695	105.69
412.919	106.69
413.142	89.69
413.365	94.69
413.589	106.69
413.812	86.69
414.035	111.69
414.258	92.69
414.482	97.69
414.705	98.69
414.928	104.69
415.151	103.69
415.374	94.69
415.597	115.69
415.821	96.69
416.044	110.69
416.267	102.69
416.49	103.69
416.713	89.69
416.936	110.69
417.159	103.69
417.382	101.69
417.605	96.69
417.828	94.69
418.051	86.69
418.274	100.69
418.497	103.69
418.72	93.69
418.943	104.69
419.166	100.69
419.389	113.69
419.611	101.69
419.834	98.69
420.057	103.69
420.28	101.69
420.503	106.69
420.726	98.69
420.948	101.69
421.171	105.69
421.394	103.69
421.617	107.69
421.839	103.69
422.062	101.69
422.285	109.69
422.507	107.69
422.73	116.69
422.953	89.69
423.175	107.69
423.398	100.69
423.621	104.69
423.843	103.69
424.066	89.69
424.288	101.69
424.511	95.69
424.733	107.69
424.956	111.69
425.178	95.69
425.401	104.69
425.623	118.69
425.846	104.69
426.068	104.69
426.291	97.69
426.513	113.69
426.735	92.69
426.958	105.69
427.18	91.69
427.402	107.69
427.625	100.69
427.847	105.69
428.069	107.69
428.292	102.69
428.514	114.69
428.736	89.69
428.958	99.69
429.181	91.69
429.403	91.69
429.625	100.69
429.847	112.69
430.069	106.69
430.292	103.69
430.514	104.69
430.736	109.69
430.958	101.69
431.18	100.69
431.402	102.69
431.624	86.69
431.846	97.69
432.068	88.69
432.29	91.69
432.512	101.69
432.734	100.69
432.956	110.69
433.178	91.69
433.4	112.69
433.622	110.69
433.844	92.69
434.066	99.69
434.287	99.69
434.509	89.69
434.731	92.69
434.953	101.69
435.175	102.69
435.397	107.69
435.618	111.69
435.84	94.69
436.062	92.69
436.284	90.69
436.505	105.69
436.727	104.69
436.949	104.69
437.17	108.69
437.392	101.69
437.614	96.69
437.835	91.69
438.057	84.69
438.278	97.69
438.5	102.69
438.721	112.69
438.943	121.69
439.165	109.69
439.386	97.69
439.608	111.69
439.829	118.69
440.05	93.69
440.272	115.69
440.493	109.69
440.715	115.69
440.936	113.69
441.158	117.69
441.379	115.69
441.6	111.69
441.822	102.69
442.043	121.69
442.264	112.69
442.486	99.69
442.707	124.69
442.928	120.69
443.149	103.69
443.371	106.69
443.592	102.69
443.813	101.69
444.034	112.69
444.255	105.69
444.476	113.69
444.698	117.69
444.919	100.69
445.14	246.69
445.361	174.69
445.582	125.69
445.803	102.69
446.024	104.69
446.245	127.69
446.466	107.69
446.687	107.69
446.908	115.69
447.129	112.69
447.35	108.69
447.571	116.69
447.792	97.69
448.013	117.69
448.234	102.69
448.455	96.69
448.675	118.69
448.896	93.69
449.117	99.69
449.338	105.69
449.559	113.69
449.779	105.69
450	103.69
450.221	107.69
450.442	119.69
450.662	101.69
450.883	110.69
451.104	106.69
451.324	98.69
451.545	111.69
451.766	108.69
451.986	106.69
452.207	99.69
452.428	110.69
452.648	99.69
452.869	92.69
453.089	83.69
453.31	86.69
453.53	87.69
453.751	88.69
453.971	98.69
454.192	87.69
454.412	93.69
454.633	91.69
454.853	116.69
455.073	96.69
455.294	91.69
455.514	104.69
455.734	98.69
455.955	86.69
456.175	102.69
456.395	107.69
456.616	83.69
456.836	97.69
457.056	99.69
457.276	104.69
457.497	90.69
457.717	106.69
457.937	83.69
458.157	99.69
458.377	93.69
458.598	88.69
458.818	92.69
459.038	74.69
459.258	83.69
459.478	92.69
459.698	83.69
459.918	95.69
460.138	86.69
460.358	96.69
460.578	94.69
460.798	85.69
461.018	100.69
461.238	112.69
461.458	89.69
461.678	104.69
461.898	92.69
462.118	101.69
462.338	104.69
462.558	83.69
462.777	82.69
462.997	99.69
463.217	94.69
463.437	86.69
463.657	97.69
463.876	87.69
464.096	97.69
464.316	96.69
464.536	114.69
464.755	115.69
464.975	102.69
465.195	90.69
465.414	100.69
465.634	91.69
465.854	115.69
466.073	88.69
466.293	94.69
466.512	88.69
466.732	100.69
466.951	102.69
467.171	105.69
467.391	114.69
467.61	115.69
467.829	79.69
468.049	116.69
468.268	107.69
468.488	104.69
468.707	106.69
468.927	114.69
469.146	112.69
469.365	118.69
469.585	112.69
469.804	103.69
470.023	112.69
470.243	109.69
470.462	111.69
470.681	111.69
470.901	110.69
471.12	108.69
471.339	104.69
471.558	112.69
471.777	118.69
471.997	112.69
472.216	100.69
472.435	98.69
472.654	96.69
472.873	117.69
473.092	99.69
473.311	106.69
473.53	86.69
473.749	111.69
473.968	123.69
474.187	104.69
474.406	113.69
474.625	102.69
474.844	108.69
475.063	114.69
475.282	111.69
475.501	99.69
475.72	110.69
475.939	113.69
476.158	124.69
476.377	111.69
476.596	104.69
476.814	103.69
477.033	89.69
477.252	81.69
477.471	112.69
477.69	118.69
477.908	99.69
478.127	110.69
478.346	120.69
478.564	107.69
478.783	106.69
479.002	101.69
479.22	102.69
479.439	107.69
479.658	114.69
479.876	93.69
480.095	98.69
480.313	107.69
480.532	100.69
480.751	102.69
480.969	101.69
481.188	83.69
481.406	96.69
481.624	89.69
481.843	87.69
482.061	94.69
482.28	90.69
482.498	97.69
482.717	92.69
482.935	106.69
483.153	105.69
483.372	103.69
483.59	108.69
483.808	111.69
484.027	105.69
484.245	99.69
484.463	104.69
484.681	124.69
484.9	115.69
485.118	109.69
485.336	109.69
485.554	96.69
485.772	83.69
485.99	81.69
486.209	88.69
486.427	94.69
486.645	108.69
486.863	100.69
487.081	109.69
487.299	106.69
487.517	108.69
487.735	110.69
487.953	120.69
488.171	130.69
488.389	129.69
488.607	121.69
488.825	121.69
489.043	104.69
489.261	118.69
489.479	103.69
489.696	97.69
489.914	126.69
490.132	122.69
490.35	123.69
490.568	121.69
490.786	124.69
491.003	131.69
491.221	122.69
491.439	129.69
491.657	132.69
491.874	143.69
492.092	139.69
492.31	160.69
492.527	151.69
492.745	141.69
492.963	139.69
493.18	126.69
493.398	128.69
493.615	127.69
493.833	126.69
494.05	139.69
494.268	115.69
494.485	131.69
494.703	125.69
494.92	122.69
495.138	111.69
495.355	117.69
495.573	122.69
495.79	112.69
496.008	106.69
496.225	118.69
496.442	112.69
496.66	123.69
496.877	111.69
497.094	112.69
497.312	121.69
497.529	117.69
497.746	108.69
497.963	102.69
498.181	107.69
498.398	102.69
498.615	107.69
498.832	113.69
499.049	79.69
499.267	107.69
499.484	102.69
499.701	95.69
499.918	127.69
500.135	120.69
500.352	118.69
500.569	115.69
500.786	116.69
501.003	110.69
501.22	122.69
501.437	103.69
501.654	104.69
501.871	98.69
502.088	97.69
502.305	98.69
502.522	117.69
502.739	108.69
502.956	101.69
503.172	100.69
503.389	89.69
503.606	82.69
503.823	90.69
504.04	91.69
504.256	99.69
504.473	107.69
504.69	98.69
504.907	109.69
505.123	107.69
505.34	106.69
505.557	99.69
505.773	103.69
505.99	93.69
506.207	104.69
506.423	102.69
506.64	111.69
506.856	105.69
507.073	116.69
507.289	114.69
507.506	87.69
507.722	95.69
507.939	105.69
508.155	104.69
508.372	105.69
508.588	89.69
508.805	89.69
509.021	85.69
509.238	93.69
509.454	90.69
509.67	94.69
509.887	94.69
510.103	87.69
510.319	95.69
510.536	99.69
510.752	86.69
510.968	83.69
511.184	81.69
511.401	85.69
511.617	79.69
511.833	85.69
512.049	90.69
512.265	92.69
512.481	88.69
512.698	105.69
512.914	83.69
513.13	102.69
513.346	87.69
513.562	94.69
513.778	77.69
513.994	82.69
514.21	76.69
514.426	94.69
514.642	81.69
514.858	82.69
