Data from Zn(NO3)2Standard.Agarose3%.GreenCap.LampEnergy10E.O_HRD10591_15-08-56-951.txt Node
Date: Mon Jul 22 15:08:56 EDT 2019
User: cochatt
Spectrometer: HR+D1059
Trigger mode: 1
Integration Time (sec): 1.000000E-1
Scans to average: 1
Electric dark correction enabled: true
Nonlinearity correction enabled: false
Boxcar width: 0
XAxis mode: Wavelengths
Number of Pixels in Spectrum: 2048
>>>>>Begin Spectral Data<<<<<
223.165	-24.19
223.4	-24.19
223.635	-24.19
223.869	-23.19
224.104	-15.19
224.338	-23.19
224.573	-11.19
224.808	-20.19
225.042	-18.19
225.277	-0.19
225.511	-13.19
225.746	18.81
225.98	12.81
226.215	11.81
226.449	22.81
226.683	27.81
226.918	25.81
227.152	28.81
227.387	42.81
227.621	32.81
227.856	38.81
228.09	48.81
228.324	47.81
228.559	62.81
228.793	58.81
229.027	71.81
229.262	69.81
229.496	69.81
229.73	62.81
229.964	71.81
230.199	75.81
230.433	74.81
230.667	75.81
230.901	74.81
231.136	75.81
231.37	75.81
231.604	83.81
231.838	86.81
232.072	82.81
232.306	80.81
232.541	82.81
232.775	83.81
233.009	78.81
233.243	80.81
233.477	77.81
233.711	95.81
233.945	85.81
234.179	87.81
234.413	92.81
234.647	78.81
234.881	80.81
235.115	82.81
235.349	98.81
235.583	92.81
235.817	78.81
236.051	93.81
236.285	87.81
236.519	76.81
236.753	67.81
236.987	71.81
237.221	73.81
237.455	83.81
237.689	81.81
237.922	90.81
238.156	88.81
238.39	85.81
238.624	82.81
238.858	90.81
239.091	64.81
239.325	79.81
239.559	76.81
239.793	69.81
240.027	78.81
240.26	75.81
240.494	79.81
240.728	75.81
240.961	75.81
241.195	87.81
241.429	78.81
241.662	83.81
241.896	79.81
242.13	75.81
242.363	77.81
242.597	79.81
242.83	74.81
243.064	81.81
243.298	79.81
243.531	73.81
243.765	76.81
243.998	63.81
244.232	84.81
244.465	82.81
244.699	79.81
244.932	88.81
245.166	78.81
245.399	71.81
245.633	82.81
245.866	82.81
246.099	73.81
246.333	88.81
246.566	82.81
246.8	66.81
247.033	86.81
247.266	92.81
247.5	81.81
247.733	75.81
247.966	70.81
248.2	74.81
248.433	77.81
248.666	75.81
248.899	82.81
249.133	86.81
249.366	84.81
249.599	76.81
249.832	87.81
250.066	92.81
250.299	77.81
250.532	79.81
250.765	80.81
250.998	81.81
251.231	74.81
251.465	88.81
251.698	89.81
251.931	71.81
252.164	73.81
252.397	92.81
252.63	94.81
252.863	74.81
253.096	66.81
253.329	72.81
253.562	86.81
253.795	82.81
254.028	90.81
254.261	89.81
254.494	82.81
254.727	80.81
254.96	86.81
255.193	79.81
255.426	83.81
255.659	74.81
255.892	100.81
256.124	80.81
256.357	91.81
256.59	80.81
256.823	81.81
257.056	76.81
257.289	86.81
257.521	83.81
257.754	85.81
257.987	76.81
258.22	90.81
258.452	91.81
258.685	72.81
258.918	102.81
259.151	86.81
259.383	85.81
259.616	67.81
259.849	91.81
260.081	79.81
260.314	91.81
260.547	93.81
260.779	105.81
261.012	80.81
261.244	85.81
261.477	75.81
261.71	78.81
261.942	86.81
262.175	78.81
262.407	89.81
262.64	100.81
262.872	73.81
263.105	79.81
263.337	89.81
263.57	90.81
263.802	85.81
264.035	98.81
264.267	85.81
264.499	88.81
264.732	84.81
264.964	88.81
265.197	78.81
265.429	71.81
265.661	101.81
265.894	82.81
266.126	89.81
266.358	71.81
266.591	90.81
266.823	82.81
267.055	82.81
267.287	68.81
267.52	85.81
267.752	90.81
267.984	79.81
268.216	84.81
268.448	90.81
268.681	85.81
268.913	94.81
269.145	79.81
269.377	84.81
269.609	82.81
269.841	82.81
270.073	80.81
270.306	59.81
270.538	69.81
270.77	75.81
271.002	90.81
271.234	87.81
271.466	72.81
271.698	85.81
271.93	94.81
272.162	95.81
272.394	103.81
272.626	91.81
272.858	74.81
273.09	85.81
273.322	98.81
273.553	72.81
273.785	89.81
274.017	82.81
274.249	85.81
274.481	90.81
274.713	89.81
274.945	102.81
275.176	77.81
275.408	90.81
275.64	70.81
275.872	85.81
276.104	78.81
276.335	93.81
276.567	84.81
276.799	79.81
277.031	80.81
277.262	91.81
277.494	86.81
277.726	89.81
277.957	85.81
278.189	95.81
278.421	85.81
278.652	84.81
278.884	85.81
279.115	95.81
279.347	90.81
279.579	102.81
279.81	71.81
280.042	98.81
280.273	95.81
280.505	82.81
280.736	88.81
280.968	103.81
281.199	86.81
281.431	86.81
281.662	77.81
281.894	86.81
282.125	86.81
282.356	98.81
282.588	81.81
282.819	88.81
283.051	87.81
283.282	85.81
283.513	90.81
283.745	77.81
283.976	86.81
284.207	76.81
284.439	89.81
284.67	76.81
284.901	89.81
285.132	84.81
285.364	71.81
285.595	78.81
285.826	74.81
286.057	90.81
286.288	95.81
286.52	88.81
286.751	79.81
286.982	83.81
287.213	79.81
287.444	81.81
287.675	86.81
287.906	85.81
288.138	84.81
288.369	87.81
288.6	86.81
288.831	87.81
289.062	97.81
289.293	86.81
289.524	84.81
289.755	87.81
289.986	79.81
290.217	85.81
290.448	102.81
290.679	96.81
290.91	95.81
291.141	76.81
291.371	88.81
291.602	89.81
291.833	76.81
292.064	85.81
292.295	87.81
292.526	86.81
292.757	78.81
292.987	92.81
293.218	84.81
293.449	92.81
293.68	80.81
293.91	82.81
294.141	79.81
294.372	86.81
294.603	75.81
294.833	79.81
295.064	77.81
295.295	87.81
295.525	91.81
295.756	83.81
295.987	81.81
296.217	87.81
296.448	75.81
296.679	89.81
296.909	87.81
297.14	76.81
297.37	88.81
297.601	78.81
297.831	87.81
298.062	95.81
298.292	85.81
298.523	83.81
298.753	95.81
298.984	86.81
299.214	87.81
299.445	91.81
299.675	80.81
299.905	82.81
300.136	76.81
300.366	95.81
300.597	89.81
300.827	75.81
301.057	92.81
301.288	102.81
301.518	77.81
301.748	90.81
301.979	82.81
302.209	71.81
302.439	68.81
302.669	76.81
302.9	83.81
303.13	86.81
303.36	92.81
303.59	89.81
303.82	86.81
304.051	98.81
304.281	75.81
304.511	100.81
304.741	106.81
304.971	81.81
305.201	80.81
305.431	77.81
305.661	102.81
305.891	94.81
306.121	88.81
306.352	70.81
306.582	83.81
306.812	80.81
307.042	93.81
307.272	81.81
307.502	91.81
307.731	90.81
307.961	79.81
308.191	71.81
308.421	90.81
308.651	94.81
308.881	81.81
309.111	95.81
309.341	79.81
309.571	78.81
309.8	89.81
310.03	93.81
310.26	94.81
310.49	89.81
310.72	91.81
310.949	90.81
311.179	87.81
311.409	92.81
311.639	90.81
311.868	97.81
312.098	84.81
312.328	84.81
312.557	90.81
312.787	70.81
313.017	89.81
313.246	86.81
313.476	87.81
313.706	90.81
313.935	89.81
314.165	85.81
314.394	86.81
314.624	84.81
314.853	81.81
315.083	94.81
315.312	85.81
315.542	76.81
315.771	92.81
316.001	92.81
316.23	80.81
316.46	87.81
316.689	82.81
316.919	86.81
317.148	77.81
317.377	84.81
317.607	92.81
317.836	78.81
318.065	92.81
318.295	82.81
318.524	89.81
318.753	85.81
318.983	76.81
319.212	90.81
319.441	86.81
319.67	98.81
319.9	87.81
320.129	91.81
320.358	75.81
320.587	93.81
320.816	80.81
321.046	86.81
321.275	95.81
321.504	81.81
321.733	85.81
321.962	76.81
322.191	91.81
322.42	78.81
322.649	88.81
322.878	100.81
323.108	95.81
323.337	86.81
323.566	80.81
323.795	85.81
324.024	95.81
324.253	75.81
324.482	87.81
324.71	84.81
324.939	78.81
325.168	90.81
325.397	81.81
325.626	79.81
325.855	84.81
326.084	84.81
326.313	91.81
326.542	91.81
326.77	80.81
326.999	78.81
327.228	87.81
327.457	79.81
327.686	84.81
327.914	76.81
328.143	96.81
328.372	64.81
328.6	84.81
328.829	91.81
329.058	89.81
329.287	98.81
329.515	75.81
329.744	77.81
329.972	93.81
330.201	88.81
330.43	80.81
330.658	82.81
330.887	89.81
331.115	90.81
331.344	76.81
331.572	83.81
331.801	102.81
332.03	88.81
332.258	94.81
332.486	90.81
332.715	78.81
332.943	91.81
333.172	91.81
333.4	95.81
333.629	102.81
333.857	80.81
334.085	81.81
334.314	83.81
334.542	81.81
334.771	85.81
334.999	92.81
335.227	74.81
335.455	82.81
335.684	82.81
335.912	83.81
336.14	76.81
336.369	93.81
336.597	85.81
336.825	75.81
337.053	94.81
337.281	81.81
337.51	77.81
337.738	98.81
337.966	81.81
338.194	83.81
338.422	89.81
338.65	94.81
338.878	75.81
339.106	80.81
339.334	98.81
339.562	91.81
339.79	78.81
340.018	105.81
340.246	95.81
340.474	87.81
340.702	92.81
340.93	83.81
341.158	94.81
341.386	81.81
341.614	79.81
341.842	82.81
342.07	80.81
342.298	79.81
342.526	90.81
342.754	81.81
342.981	76.81
343.209	94.81
343.437	86.81
343.665	95.81
343.893	95.81
344.12	88.81
344.348	91.81
344.576	89.81
344.804	87.81
345.031	86.81
345.259	94.81
345.487	84.81
345.714	84.81
345.942	94.81
346.17	93.81
346.397	61.81
346.625	83.81
346.853	94.81
347.08	90.81
347.308	84.81
347.535	92.81
347.763	80.81
347.99	78.81
348.218	94.81
348.445	78.81
348.673	67.81
348.9	83.81
349.128	87.81
349.355	90.81
349.583	83.81
349.81	72.81
350.037	86.81
350.265	89.81
350.492	88.81
350.72	99.81
350.947	79.81
351.174	84.81
351.402	86.81
351.629	83.81
351.856	91.81
352.083	83.81
352.311	81.81
352.538	89.81
352.765	81.81
352.992	100.81
353.22	96.81
353.447	95.81
353.674	80.81
353.901	97.81
354.128	79.81
354.355	83.81
354.583	86.81
354.81	85.81
355.037	92.81
355.264	77.81
355.491	86.81
355.718	109.81
355.945	89.81
356.172	73.81
356.399	77.81
356.626	85.81
356.853	73.81
357.08	90.81
357.307	85.81
357.534	64.81
357.761	65.81
357.988	80.81
358.215	93.81
358.441	93.81
358.668	86.81
358.895	89.81
359.122	78.81
359.349	75.81
359.576	94.81
359.802	80.81
360.029	88.81
360.256	86.81
360.483	98.81
360.709	93.81
360.936	90.81
361.163	87.81
361.39	86.81
361.616	83.81
361.843	94.81
362.07	95.81
362.296	82.81
362.523	88.81
362.749	83.81
362.976	84.81
363.203	70.81
363.429	87.81
363.656	83.81
363.882	83.81
364.109	75.81
364.335	91.81
364.562	85.81
364.788	89.81
365.015	101.81
365.241	91.81
365.468	83.81
365.694	87.81
365.92	95.81
366.147	75.81
366.373	94.81
366.599	71.81
366.826	89.81
367.052	91.81
367.278	85.81
367.505	90.81
367.731	89.81
367.957	85.81
368.184	90.81
368.41	87.81
368.636	90.81
368.862	95.81
369.089	82.81
369.315	97.81
369.541	87.81
369.767	73.81
369.993	88.81
370.219	89.81
370.445	88.81
370.672	83.81
370.898	86.81
371.124	60.81
371.35	94.81
371.576	90.81
371.802	97.81
372.028	84.81
372.254	83.81
372.48	94.81
372.706	89.81
372.932	84.81
373.158	90.81
373.384	87.81
373.61	75.81
373.835	74.81
374.061	87.81
374.287	92.81
374.513	87.81
374.739	91.81
374.965	91.81
375.191	68.81
375.416	80.81
375.642	90.81
375.868	98.81
376.094	90.81
376.319	88.81
376.545	75.81
376.771	81.81
376.997	90.81
377.222	94.81
377.448	83.81
377.674	88.81
377.899	84.81
378.125	90.81
378.35	99.81
378.576	79.81
378.802	88.81
379.027	85.81
379.253	90.81
379.478	86.81
379.704	92.81
379.929	93.81
380.155	98.81
380.38	88.81
380.606	85.81
380.831	81.81
381.057	106.81
381.282	101.81
381.507	100.81
381.733	94.81
381.958	96.81
382.184	92.81
382.409	75.81
382.634	86.81
382.86	81.81
383.085	93.81
383.31	88.81
383.535	90.81
383.761	95.81
383.986	98.81
384.211	91.81
384.436	94.81
384.662	85.81
384.887	87.81
385.112	89.81
385.337	90.81
385.562	88.81
385.787	80.81
386.013	107.81
386.238	85.81
386.463	82.81
386.688	98.81
386.913	89.81
387.138	98.81
387.363	108.81
387.588	102.81
387.813	86.81
388.038	83.81
388.263	88.81
388.488	87.81
388.713	94.81
388.938	79.81
389.163	86.81
389.387	100.81
389.612	94.81
389.837	104.81
390.062	99.81
390.287	92.81
390.512	88.81
390.736	84.81
390.961	91.81
391.186	95.81
391.411	90.81
391.636	94.81
391.86	107.81
392.085	97.81
392.31	84.81
392.534	96.81
392.759	96.81
392.984	76.81
393.208	91.81
393.433	111.81
393.658	97.81
393.882	90.81
394.107	91.81
394.331	93.81
394.556	98.81
394.78	77.81
395.005	84.81
395.229	98.81
395.454	110.81
395.678	98.81
395.903	93.81
396.127	98.81
396.352	97.81
396.576	95.81
396.801	98.81
397.025	92.81
397.249	109.81
397.474	95.81
397.698	113.81
397.922	100.81
398.147	94.81
398.371	79.81
398.595	90.81
398.82	98.81
399.044	97.81
399.268	107.81
399.492	99.81
399.717	92.81
399.941	92.81
400.165	110.81
400.389	101.81
400.613	99.81
400.837	94.81
401.062	80.81
401.286	87.81
401.51	81.81
401.734	79.81
401.958	104.81
402.182	76.81
402.406	94.81
402.63	101.81
402.854	92.81
403.078	94.81
403.302	99.81
403.526	90.81
403.75	101.81
403.974	98.81
404.198	94.81
404.422	91.81
404.645	90.81
404.869	95.81
405.093	86.81
405.317	100.81
405.541	95.81
405.765	109.81
405.988	119.81
406.212	96.81
406.436	93.81
406.66	87.81
406.883	90.81
407.107	101.81
407.331	87.81
407.555	110.81
407.778	108.81
408.002	97.81
408.226	110.81
408.449	99.81
408.673	104.81
408.896	94.81
409.12	88.81
409.344	96.81
409.567	90.81
409.791	105.81
410.014	102.81
410.238	106.81
410.461	106.81
410.685	83.81
410.908	87.81
411.132	107.81
411.355	102.81
411.578	118.81
411.802	104.81
412.025	104.81
412.249	105.81
412.472	119.81
412.695	98.81
412.919	109.81
413.142	107.81
413.365	95.81
413.589	102.81
413.812	107.81
414.035	92.81
414.258	109.81
414.482	107.81
414.705	102.81
414.928	108.81
415.151	114.81
415.374	111.81
415.597	107.81
415.821	99.81
416.044	96.81
416.267	109.81
416.49	92.81
416.713	98.81
416.936	97.81
417.159	95.81
417.382	99.81
417.605	103.81
417.828	100.81
418.051	107.81
418.274	102.81
418.497	92.81
418.72	100.81
418.943	120.81
419.166	100.81
419.389	112.81
419.611	116.81
419.834	110.81
420.057	114.81
420.28	104.81
420.503	102.81
420.726	94.81
420.948	107.81
421.171	111.81
421.394	105.81
421.617	109.81
421.839	111.81
422.062	112.81
422.285	103.81
422.507	88.81
422.73	96.81
422.953	101.81
423.175	101.81
423.398	92.81
423.621	114.81
423.843	94.81
424.066	110.81
424.288	111.81
424.511	106.81
424.733	104.81
424.956	119.81
425.178	119.81
425.401	109.81
425.623	113.81
425.846	111.81
426.068	120.81
426.291	102.81
426.513	107.81
426.735	103.81
426.958	89.81
427.18	103.81
427.402	105.81
427.625	100.81
427.847	112.81
428.069	98.81
428.292	105.81
428.514	95.81
428.736	86.81
428.958	109.81
429.181	104.81
429.403	114.81
429.625	103.81
429.847	110.81
430.069	106.81
430.292	104.81
430.514	108.81
430.736	84.81
430.958	99.81
431.18	107.81
431.402	90.81
431.624	98.81
431.846	93.81
432.068	103.81
432.29	94.81
432.512	92.81
432.734	98.81
432.956	99.81
433.178	107.81
433.4	96.81
433.622	109.81
433.844	104.81
434.066	106.81
434.287	107.81
434.509	100.81
434.731	78.81
434.953	112.81
435.175	101.81
435.397	111.81
435.618	109.81
435.84	90.81
436.062	94.81
436.284	100.81
436.505	116.81
436.727	109.81
436.949	103.81
437.17	111.81
437.392	99.81
437.614	109.81
437.835	90.81
438.057	101.81
438.278	96.81
438.5	100.81
438.721	108.81
438.943	121.81
439.165	116.81
439.386	110.81
439.608	110.81
439.829	126.81
440.05	110.81
440.272	123.81
440.493	111.81
440.715	116.81
440.936	116.81
441.158	108.81
441.379	117.81
441.6	107.81
441.822	118.81
442.043	106.81
442.264	108.81
442.486	113.81
442.707	104.81
442.928	114.81
443.149	107.81
443.371	130.81
443.592	114.81
443.813	116.81
444.034	119.81
444.255	110.81
444.476	113.81
444.698	110.81
444.919	120.81
445.14	239.81
445.361	188.81
445.582	127.81
445.803	130.81
446.024	125.81
446.245	119.81
446.466	112.81
446.687	121.81
446.908	124.81
447.129	105.81
447.35	120.81
447.571	127.81
447.792	111.81
448.013	98.81
448.234	106.81
448.455	124.81
448.675	114.81
448.896	94.81
449.117	109.81
449.338	119.81
449.559	110.81
449.779	103.81
450	118.81
450.221	105.81
450.442	117.81
450.662	120.81
450.883	114.81
451.104	124.81
451.324	97.81
451.545	109.81
451.766	109.81
451.986	101.81
452.207	100.81
452.428	110.81
452.648	96.81
452.869	101.81
453.089	100.81
453.31	107.81
453.53	103.81
453.751	94.81
453.971	91.81
454.192	105.81
454.412	102.81
454.633	110.81
454.853	111.81
455.073	95.81
455.294	108.81
455.514	112.81
455.734	107.81
455.955	117.81
456.175	93.81
456.395	96.81
456.616	90.81
456.836	101.81
457.056	88.81
457.276	97.81
457.497	101.81
457.717	87.81
457.937	91.81
458.157	102.81
458.377	89.81
458.598	90.81
458.818	91.81
459.038	75.81
459.258	89.81
459.478	102.81
459.698	81.81
459.918	84.81
460.138	94.81
460.358	87.81
460.578	106.81
460.798	98.81
461.018	87.81
461.238	103.81
461.458	107.81
461.678	95.81
461.898	89.81
462.118	76.81
462.338	88.81
462.558	95.81
462.777	102.81
462.997	109.81
463.217	108.81
463.437	98.81
463.657	112.81
463.876	98.81
464.096	89.81
464.316	99.81
464.536	99.81
464.755	107.81
464.975	105.81
465.195	105.81
465.414	90.81
465.634	92.81
465.854	110.81
466.073	78.81
466.293	107.81
466.512	116.81
466.732	116.81
466.951	121.81
467.171	111.81
467.391	97.81
467.61	116.81
467.829	106.81
468.049	96.81
468.268	99.81
468.488	119.81
468.707	104.81
468.927	116.81
469.146	98.81
469.365	110.81
469.585	112.81
469.804	121.81
470.023	112.81
470.243	112.81
470.462	121.81
470.681	115.81
470.901	112.81
471.12	130.81
471.339	127.81
471.558	111.81
471.777	115.81
471.997	112.81
472.216	123.81
472.435	107.81
472.654	94.81
472.873	95.81
473.092	110.81
473.311	95.81
473.53	106.81
473.749	111.81
473.968	92.81
474.187	97.81
474.406	106.81
474.625	110.81
474.844	107.81
475.063	116.81
475.282	97.81
475.501	116.81
475.72	109.81
475.939	106.81
476.158	100.81
476.377	103.81
476.596	109.81
476.814	105.81
477.033	114.81
477.252	95.81
477.471	96.81
477.69	115.81
477.908	106.81
478.127	110.81
478.346	106.81
478.564	103.81
478.783	101.81
479.002	129.81
479.22	110.81
479.439	122.81
479.658	95.81
479.876	101.81
480.095	98.81
480.313	103.81
480.532	102.81
480.751	98.81
480.969	99.81
481.188	89.81
481.406	88.81
481.624	88.81
481.843	102.81
482.061	103.81
482.28	104.81
482.498	106.81
482.717	102.81
482.935	115.81
483.153	110.81
483.372	107.81
483.59	125.81
483.808	114.81
484.027	102.81
484.245	108.81
484.463	114.81
484.681	115.81
484.9	130.81
485.118	119.81
485.336	104.81
485.554	84.81
485.772	102.81
485.99	108.81
486.209	104.81
486.427	100.81
486.645	95.81
486.863	126.81
487.081	120.81
487.299	114.81
487.517	119.81
487.735	117.81
487.953	129.81
488.171	130.81
488.389	132.81
488.607	118.81
488.825	118.81
489.043	101.81
489.261	115.81
489.479	116.81
489.696	117.81
489.914	125.81
490.132	124.81
490.35	126.81
490.568	127.81
490.786	130.81
491.003	127.81
491.221	132.81
491.439	145.81
491.657	136.81
491.874	150.81
492.092	156.81
492.31	179.81
492.527	144.81
492.745	159.81
492.963	143.81
493.18	124.81
493.398	119.81
493.615	128.81
493.833	127.81
494.05	132.81
494.268	134.81
494.485	135.81
494.703	141.81
494.92	139.81
495.138	123.81
495.355	130.81
495.573	128.81
495.79	126.81
496.008	134.81
496.225	126.81
496.442	135.81
496.66	138.81
496.877	134.81
497.094	123.81
497.312	129.81
497.529	120.81
497.746	112.81
497.963	115.81
498.181	114.81
498.398	111.81
498.615	116.81
498.832	106.81
499.049	109.81
499.267	102.81
499.484	104.81
499.701	110.81
499.918	114.81
500.135	110.81
500.352	119.81
500.569	109.81
500.786	130.81
501.003	115.81
501.22	115.81
501.437	117.81
501.654	123.81
501.871	101.81
502.088	122.81
502.305	130.81
502.522	108.81
502.739	106.81
502.956	108.81
503.172	102.81
503.389	104.81
503.606	96.81
503.823	110.81
504.04	99.81
504.256	96.81
504.473	100.81
504.69	111.81
504.907	95.81
505.123	102.81
505.34	111.81
505.557	99.81
505.773	123.81
505.99	109.81
506.207	101.81
506.423	100.81
506.64	98.81
506.856	96.81
507.073	101.81
507.289	91.81
507.506	108.81
507.722	93.81
507.939	110.81
508.155	106.81
508.372	84.81
508.588	103.81
508.805	83.81
509.021	102.81
509.238	96.81
509.454	90.81
509.67	116.81
509.887	93.81
510.103	106.81
510.319	91.81
510.536	96.81
510.752	85.81
510.968	97.81
511.184	91.81
511.401	85.81
511.617	79.81
511.833	75.81
512.049	102.81
512.265	93.81
512.481	101.81
512.698	101.81
512.914	83.81
513.13	99.81
513.346	95.81
513.562	89.81
513.778	81.81
