Data from Zn(NO3)2Standard.Agarose3%.GreenCap.LampEnergy10E.O_HRD10591_15-06-23-942.txt Node
Date: Mon Jul 22 15:06:23 EDT 2019
User: cochatt
Spectrometer: HR+D1059
Trigger mode: 1
Integration Time (sec): 1.000000E-1
Scans to average: 1
Electric dark correction enabled: true
Nonlinearity correction enabled: false
Boxcar width: 0
XAxis mode: Wavelengths
Number of Pixels in Spectrum: 2048
>>>>>Begin Spectral Data<<<<<
223.165	-12.5
223.4	-12.5
223.635	-12.5
223.869	-7.5
224.104	-11.5
224.338	-26.5
224.573	-15.5
224.808	2.5
225.042	-4.5
225.277	7.5
225.511	-11.5
225.746	1.5
225.98	-2.5
226.215	1.5
226.449	6.5
226.683	9.5
226.918	26.5
227.152	36.5
227.387	30.5
227.621	32.5
227.856	32.5
228.09	33.5
228.324	46.5
228.559	72.5
228.793	54.5
229.027	51.5
229.262	66.5
229.496	64.5
229.73	68.5
229.964	69.5
230.199	69.5
230.433	71.5
230.667	81.5
230.901	69.5
231.136	71.5
231.37	84.5
231.604	85.5
231.838	80.5
232.072	78.5
232.306	77.5
232.541	85.5
232.775	85.5
233.009	78.5
233.243	84.5
233.477	65.5
233.711	86.5
233.945	77.5
234.179	74.5
234.413	65.5
234.647	76.5
234.881	63.5
235.115	81.5
235.349	72.5
235.583	77.5
235.817	77.5
236.051	87.5
236.285	73.5
236.519	86.5
236.753	70.5
236.987	72.5
237.221	64.5
237.455	77.5
237.689	80.5
237.922	79.5
238.156	81.5
238.39	69.5
238.624	79.5
238.858	66.5
239.091	76.5
239.325	86.5
239.559	58.5
239.793	79.5
240.027	90.5
240.26	78.5
240.494	79.5
240.728	64.5
240.961	75.5
241.195	85.5
241.429	63.5
241.662	66.5
241.896	62.5
242.13	75.5
242.363	76.5
242.597	70.5
242.83	70.5
243.064	70.5
243.298	90.5
243.531	77.5
243.765	67.5
243.998	66.5
244.232	67.5
244.465	82.5
244.699	72.5
244.932	85.5
245.166	72.5
245.399	74.5
245.633	79.5
245.866	65.5
246.099	91.5
246.333	72.5
246.566	70.5
246.8	81.5
247.033	74.5
247.266	70.5
247.5	81.5
247.733	92.5
247.966	87.5
248.2	71.5
248.433	70.5
248.666	78.5
248.899	81.5
249.133	74.5
249.366	81.5
249.599	66.5
249.832	73.5
250.066	79.5
250.299	75.5
250.532	69.5
250.765	70.5
250.998	90.5
251.231	86.5
251.465	80.5
251.698	70.5
251.931	85.5
252.164	87.5
252.397	82.5
252.63	63.5
252.863	89.5
253.096	72.5
253.329	82.5
253.562	81.5
253.795	88.5
254.028	80.5
254.261	75.5
254.494	75.5
254.727	81.5
254.96	63.5
255.193	81.5
255.426	77.5
255.659	72.5
255.892	80.5
256.124	80.5
256.357	73.5
256.59	81.5
256.823	72.5
257.056	85.5
257.289	75.5
257.521	85.5
257.754	84.5
257.987	71.5
258.22	79.5
258.452	98.5
258.685	74.5
258.918	79.5
259.151	75.5
259.383	77.5
259.616	67.5
259.849	67.5
260.081	78.5
260.314	86.5
260.547	81.5
260.779	71.5
261.012	85.5
261.244	92.5
261.477	83.5
261.71	74.5
261.942	93.5
262.175	72.5
262.407	77.5
262.64	73.5
262.872	81.5
263.105	104.5
263.337	72.5
263.57	78.5
263.802	72.5
264.035	99.5
264.267	83.5
264.499	77.5
264.732	75.5
264.964	96.5
265.197	80.5
265.429	89.5
265.661	81.5
265.894	76.5
266.126	82.5
266.358	83.5
266.591	91.5
266.823	92.5
267.055	79.5
267.287	88.5
267.52	70.5
267.752	79.5
267.984	80.5
268.216	74.5
268.448	66.5
268.681	72.5
268.913	85.5
269.145	74.5
269.377	91.5
269.609	81.5
269.841	85.5
270.073	79.5
270.306	81.5
270.538	84.5
270.77	88.5
271.002	91.5
271.234	77.5
271.466	90.5
271.698	79.5
271.93	78.5
272.162	82.5
272.394	92.5
272.626	82.5
272.858	81.5
273.09	75.5
273.322	85.5
273.553	79.5
273.785	79.5
274.017	70.5
274.249	79.5
274.481	85.5
274.713	83.5
274.945	83.5
275.176	72.5
275.408	93.5
275.64	86.5
275.872	86.5
276.104	80.5
276.335	75.5
276.567	76.5
276.799	85.5
277.031	77.5
277.262	91.5
277.494	78.5
277.726	81.5
277.957	72.5
278.189	67.5
278.421	77.5
278.652	78.5
278.884	90.5
279.115	94.5
279.347	91.5
279.579	81.5
279.81	79.5
280.042	79.5
280.273	75.5
280.505	81.5
280.736	82.5
280.968	81.5
281.199	93.5
281.431	81.5
281.662	82.5
281.894	70.5
282.125	81.5
282.356	71.5
282.588	87.5
282.819	90.5
283.051	69.5
283.282	96.5
283.513	86.5
283.745	83.5
283.976	75.5
284.207	86.5
284.439	85.5
284.67	82.5
284.901	81.5
285.132	84.5
285.364	81.5
285.595	74.5
285.826	82.5
286.057	87.5
286.288	81.5
286.52	69.5
286.751	71.5
286.982	74.5
287.213	66.5
287.444	84.5
287.675	88.5
287.906	98.5
288.138	75.5
288.369	80.5
288.6	75.5
288.831	83.5
289.062	87.5
289.293	75.5
289.524	80.5
289.755	94.5
289.986	71.5
290.217	81.5
290.448	93.5
290.679	92.5
290.91	93.5
291.141	85.5
291.371	80.5
291.602	92.5
291.833	93.5
292.064	85.5
292.295	82.5
292.526	66.5
292.757	61.5
292.987	82.5
293.218	74.5
293.449	88.5
293.68	85.5
293.91	79.5
294.141	84.5
294.372	88.5
294.603	74.5
294.833	83.5
295.064	74.5
295.295	73.5
295.525	89.5
295.756	84.5
295.987	86.5
296.217	86.5
296.448	68.5
296.679	81.5
296.909	85.5
297.14	75.5
297.37	87.5
297.601	81.5
297.831	81.5
298.062	83.5
298.292	69.5
298.523	91.5
298.753	66.5
298.984	75.5
299.214	81.5
299.445	101.5
299.675	82.5
299.905	82.5
300.136	70.5
300.366	75.5
300.597	93.5
300.827	82.5
301.057	86.5
301.288	86.5
301.518	79.5
301.748	80.5
301.979	70.5
302.209	87.5
302.439	87.5
302.669	89.5
302.9	93.5
303.13	75.5
303.36	90.5
303.59	91.5
303.82	93.5
304.051	72.5
304.281	87.5
304.511	92.5
304.741	85.5
304.971	79.5
305.201	83.5
305.431	88.5
305.661	68.5
305.891	71.5
306.121	82.5
306.352	81.5
306.582	83.5
306.812	82.5
307.042	79.5
307.272	83.5
307.502	84.5
307.731	93.5
307.961	77.5
308.191	67.5
308.421	72.5
308.651	101.5
308.881	75.5
309.111	81.5
309.341	82.5
309.571	91.5
309.8	74.5
310.03	73.5
310.26	85.5
310.49	90.5
310.72	78.5
310.949	91.5
311.179	71.5
311.409	79.5
311.639	78.5
311.868	86.5
312.098	78.5
312.328	89.5
312.557	73.5
312.787	80.5
313.017	76.5
313.246	84.5
313.476	85.5
313.706	87.5
313.935	79.5
314.165	93.5
314.394	82.5
314.624	79.5
314.853	87.5
315.083	87.5
315.312	83.5
315.542	78.5
315.771	87.5
316.001	84.5
316.23	97.5
316.46	90.5
316.689	89.5
316.919	82.5
317.148	84.5
317.377	74.5
317.607	73.5
317.836	89.5
318.065	79.5
318.295	91.5
318.524	87.5
318.753	93.5
318.983	86.5
319.212	80.5
319.441	86.5
319.67	92.5
319.9	83.5
320.129	87.5
320.358	100.5
320.587	84.5
320.816	99.5
321.046	86.5
321.275	67.5
321.504	89.5
321.733	74.5
321.962	83.5
322.191	85.5
322.42	89.5
322.649	82.5
322.878	89.5
323.108	79.5
323.337	79.5
323.566	82.5
323.795	90.5
324.024	81.5
324.253	74.5
324.482	88.5
324.71	87.5
324.939	82.5
325.168	80.5
325.397	85.5
325.626	90.5
325.855	87.5
326.084	74.5
326.313	92.5
326.542	89.5
326.77	80.5
326.999	82.5
327.228	88.5
327.457	99.5
327.686	83.5
327.914	97.5
328.143	95.5
328.372	73.5
328.6	81.5
328.829	81.5
329.058	83.5
329.287	86.5
329.515	80.5
329.744	75.5
329.972	86.5
330.201	79.5
330.43	83.5
330.658	78.5
330.887	81.5
331.115	82.5
331.344	89.5
331.572	86.5
331.801	82.5
332.03	97.5
332.258	92.5
332.486	72.5
332.715	87.5
332.943	79.5
333.172	93.5
333.4	76.5
333.629	74.5
333.857	71.5
334.085	91.5
334.314	77.5
334.542	70.5
334.771	91.5
334.999	79.5
335.227	86.5
335.455	84.5
335.684	72.5
335.912	86.5
336.14	95.5
336.369	80.5
336.597	70.5
336.825	81.5
337.053	86.5
337.281	85.5
337.51	89.5
337.738	81.5
337.966	89.5
338.194	80.5
338.422	68.5
338.65	88.5
338.878	83.5
339.106	71.5
339.334	83.5
339.562	90.5
339.79	84.5
340.018	91.5
340.246	87.5
340.474	87.5
340.702	73.5
340.93	81.5
341.158	82.5
341.386	81.5
341.614	74.5
341.842	85.5
342.07	79.5
342.298	89.5
342.526	95.5
342.754	83.5
342.981	78.5
343.209	85.5
343.437	88.5
343.665	75.5
343.893	86.5
344.12	81.5
344.348	86.5
344.576	64.5
344.804	81.5
345.031	68.5
345.259	89.5
345.487	72.5
345.714	85.5
345.942	82.5
346.17	81.5
346.397	75.5
346.625	82.5
346.853	79.5
347.08	78.5
347.308	91.5
347.535	87.5
347.763	80.5
347.99	80.5
348.218	89.5
348.445	88.5
348.673	86.5
348.9	69.5
349.128	84.5
349.355	88.5
349.583	86.5
349.81	78.5
350.037	85.5
350.265	78.5
350.492	86.5
350.72	90.5
350.947	90.5
351.174	83.5
351.402	78.5
351.629	74.5
351.856	73.5
352.083	86.5
352.311	81.5
352.538	70.5
352.765	86.5
352.992	82.5
353.22	76.5
353.447	78.5
353.674	97.5
353.901	87.5
354.128	82.5
354.355	67.5
354.583	89.5
354.81	72.5
355.037	80.5
355.264	93.5
355.491	82.5
355.718	83.5
355.945	85.5
356.172	84.5
356.399	81.5
356.626	75.5
356.853	89.5
357.08	85.5
357.307	86.5
357.534	76.5
357.761	89.5
357.988	78.5
358.215	102.5
358.441	79.5
358.668	90.5
358.895	84.5
359.122	95.5
359.349	75.5
359.576	75.5
359.802	73.5
360.029	83.5
360.256	86.5
360.483	88.5
360.709	78.5
360.936	95.5
361.163	87.5
361.39	79.5
361.616	90.5
361.843	85.5
362.07	86.5
362.296	75.5
362.523	78.5
362.749	83.5
362.976	84.5
363.203	92.5
363.429	68.5
363.656	81.5
363.882	75.5
364.109	92.5
364.335	90.5
364.562	88.5
364.788	91.5
365.015	70.5
365.241	73.5
365.468	71.5
365.694	80.5
365.92	79.5
366.147	93.5
366.373	87.5
366.599	91.5
366.826	82.5
367.052	65.5
367.278	79.5
367.505	90.5
367.731	75.5
367.957	84.5
368.184	85.5
368.41	90.5
368.636	85.5
368.862	86.5
369.089	89.5
369.315	85.5
369.541	96.5
369.767	88.5
369.993	85.5
370.219	78.5
370.445	81.5
370.672	74.5
370.898	82.5
371.124	78.5
371.35	97.5
371.576	75.5
371.802	92.5
372.028	81.5
372.254	85.5
372.48	74.5
372.706	86.5
372.932	74.5
373.158	97.5
373.384	78.5
373.61	87.5
373.835	91.5
374.061	96.5
374.287	85.5
374.513	81.5
374.739	86.5
374.965	85.5
375.191	64.5
375.416	84.5
375.642	80.5
375.868	83.5
376.094	97.5
376.319	89.5
376.545	72.5
376.771	85.5
376.997	73.5
377.222	70.5
377.448	83.5
377.674	85.5
377.899	94.5
378.125	92.5
378.35	101.5
378.576	77.5
378.802	83.5
379.027	85.5
379.253	86.5
379.478	93.5
379.704	79.5
379.929	90.5
380.155	90.5
380.38	73.5
380.606	63.5
380.831	75.5
381.057	97.5
381.282	87.5
381.507	97.5
381.733	98.5
381.958	95.5
382.184	87.5
382.409	77.5
382.634	92.5
382.86	82.5
383.085	80.5
383.31	69.5
383.535	80.5
383.761	86.5
383.986	96.5
384.211	82.5
384.436	82.5
384.662	82.5
384.887	98.5
385.112	85.5
385.337	81.5
385.562	89.5
385.787	81.5
386.013	85.5
386.238	72.5
386.463	101.5
386.688	88.5
386.913	93.5
387.138	88.5
387.363	88.5
387.588	86.5
387.813	94.5
388.038	95.5
388.263	73.5
388.488	73.5
388.713	91.5
388.938	86.5
389.163	81.5
389.387	85.5
389.612	87.5
389.837	82.5
390.062	94.5
390.287	82.5
390.512	87.5
390.736	98.5
390.961	88.5
391.186	82.5
391.411	83.5
391.636	112.5
391.86	81.5
392.085	100.5
392.31	96.5
392.534	87.5
392.759	91.5
392.984	83.5
393.208	87.5
393.433	102.5
393.658	97.5
393.882	93.5
394.107	96.5
394.331	95.5
394.556	83.5
394.78	78.5
395.005	107.5
395.229	81.5
395.454	72.5
395.678	89.5
395.903	92.5
396.127	88.5
396.352	96.5
396.576	86.5
396.801	81.5
397.025	84.5
397.249	90.5
397.474	109.5
397.698	86.5
397.922	68.5
398.147	83.5
398.371	83.5
398.595	84.5
398.82	87.5
399.044	81.5
399.268	99.5
399.492	103.5
399.717	102.5
399.941	73.5
400.165	87.5
400.389	99.5
400.613	73.5
400.837	92.5
401.062	82.5
401.286	97.5
401.51	82.5
401.734	87.5
401.958	78.5
402.182	91.5
402.406	87.5
402.63	81.5
402.854	83.5
403.078	98.5
403.302	89.5
403.526	91.5
403.75	88.5
403.974	97.5
404.198	77.5
404.422	86.5
404.645	95.5
404.869	94.5
405.093	84.5
405.317	88.5
405.541	96.5
405.765	99.5
405.988	96.5
406.212	100.5
406.436	88.5
406.66	112.5
406.883	94.5
407.107	85.5
407.331	97.5
407.555	83.5
407.778	98.5
408.002	93.5
408.226	91.5
408.449	98.5
408.673	89.5
408.896	91.5
409.12	80.5
409.344	94.5
409.567	97.5
409.791	99.5
410.014	102.5
410.238	106.5
410.461	103.5
410.685	103.5
410.908	89.5
411.132	92.5
411.355	93.5
411.578	97.5
411.802	97.5
412.025	93.5
412.249	111.5
412.472	109.5
412.695	95.5
412.919	101.5
413.142	109.5
413.365	95.5
413.589	101.5
413.812	92.5
414.035	105.5
414.258	104.5
414.482	93.5
414.705	104.5
414.928	96.5
415.151	106.5
415.374	83.5
415.597	97.5
415.821	92.5
416.044	95.5
416.267	92.5
416.49	110.5
416.713	89.5
416.936	94.5
417.159	96.5
417.382	92.5
417.605	92.5
417.828	101.5
418.051	98.5
418.274	85.5
418.497	110.5
418.72	97.5
418.943	101.5
419.166	89.5
419.389	111.5
419.611	99.5
419.834	94.5
420.057	90.5
420.28	98.5
420.503	104.5
420.726	98.5
420.948	105.5
421.171	118.5
421.394	92.5
421.617	112.5
421.839	99.5
422.062	105.5
422.285	113.5
422.507	95.5
422.73	93.5
422.953	94.5
423.175	99.5
423.398	112.5
423.621	99.5
423.843	104.5
424.066	100.5
424.288	100.5
424.511	93.5
424.733	106.5
424.956	119.5
425.178	104.5
425.401	103.5
425.623	104.5
425.846	109.5
426.068	97.5
426.291	106.5
426.513	103.5
426.735	109.5
426.958	96.5
427.18	115.5
427.402	112.5
427.625	98.5
427.847	102.5
428.069	97.5
428.292	93.5
428.514	98.5
428.736	92.5
428.958	101.5
429.181	115.5
429.403	89.5
429.625	97.5
429.847	95.5
430.069	83.5
430.292	100.5
430.514	95.5
430.736	103.5
430.958	104.5
431.18	93.5
431.402	88.5
431.624	81.5
431.846	101.5
432.068	90.5
432.29	83.5
432.512	96.5
432.734	99.5
432.956	105.5
433.178	106.5
433.4	95.5
433.622	100.5
433.844	105.5
434.066	93.5
434.287	82.5
434.509	74.5
434.731	88.5
434.953	88.5
435.175	98.5
435.397	99.5
435.618	79.5
435.84	90.5
436.062	113.5
436.284	87.5
436.505	89.5
436.727	101.5
436.949	106.5
437.17	103.5
437.392	89.5
437.614	91.5
437.835	102.5
438.057	68.5
438.278	96.5
438.5	86.5
438.721	104.5
438.943	117.5
439.165	101.5
439.386	112.5
439.608	91.5
439.829	99.5
440.05	115.5
440.272	101.5
440.493	104.5
440.715	106.5
440.936	106.5
441.158	112.5
441.379	109.5
441.6	113.5
441.822	115.5
442.043	98.5
442.264	102.5
442.486	105.5
442.707	110.5
442.928	109.5
443.149	117.5
443.371	113.5
443.592	100.5
443.813	87.5
444.034	89.5
444.255	116.5
444.476	103.5
444.698	114.5
444.919	98.5
445.14	233.5
445.361	167.5
445.582	127.5
445.803	134.5
446.024	116.5
446.245	118.5
446.466	109.5
446.687	101.5
446.908	118.5
447.129	117.5
447.35	102.5
447.571	110.5
447.792	115.5
448.013	111.5
448.234	101.5
448.455	109.5
448.675	117.5
448.896	102.5
449.117	121.5
449.338	123.5
449.559	117.5
449.779	103.5
450	100.5
450.221	90.5
450.442	110.5
450.662	121.5
450.883	111.5
451.104	103.5
451.324	111.5
451.545	108.5
451.766	109.5
451.986	103.5
452.207	100.5
452.428	97.5
452.648	99.5
452.869	93.5
453.089	82.5
453.31	81.5
453.53	92.5
453.751	90.5
453.971	95.5
454.192	98.5
454.412	93.5
454.633	107.5
454.853	100.5
455.073	81.5
455.294	102.5
455.514	107.5
455.734	99.5
455.955	96.5
456.175	81.5
456.395	90.5
456.616	98.5
456.836	100.5
457.056	93.5
457.276	87.5
457.497	82.5
457.717	103.5
457.937	93.5
458.157	96.5
458.377	94.5
458.598	93.5
458.818	81.5
459.038	81.5
459.258	75.5
459.478	90.5
459.698	74.5
459.918	85.5
460.138	85.5
460.358	100.5
460.578	89.5
460.798	86.5
461.018	93.5
461.238	98.5
461.458	96.5
461.678	97.5
461.898	88.5
462.118	99.5
462.338	98.5
462.558	108.5
462.777	92.5
462.997	85.5
463.217	97.5
463.437	97.5
463.657	85.5
463.876	89.5
464.096	93.5
464.316	100.5
464.536	98.5
464.755	94.5
464.975	89.5
465.195	89.5
465.414	93.5
465.634	100.5
465.854	102.5
466.073	101.5
466.293	102.5
466.512	106.5
466.732	101.5
466.951	95.5
467.171	106.5
467.391	103.5
467.61	98.5
467.829	111.5
468.049	96.5
468.268	107.5
468.488	115.5
468.707	103.5
468.927	93.5
469.146	99.5
469.365	94.5
469.585	95.5
469.804	97.5
470.023	98.5
470.243	109.5
470.462	110.5
470.681	117.5
470.901	106.5
471.12	109.5
471.339	119.5
471.558	109.5
471.777	105.5
471.997	115.5
472.216	94.5
472.435	99.5
472.654	82.5
472.873	99.5
473.092	104.5
473.311	104.5
473.53	99.5
473.749	103.5
473.968	112.5
474.187	107.5
474.406	119.5
474.625	105.5
474.844	100.5
475.063	106.5
475.282	104.5
475.501	121.5
475.72	110.5
475.939	111.5
476.158	102.5
476.377	91.5
476.596	109.5
476.814	109.5
477.033	82.5
477.252	94.5
477.471	105.5
477.69	96.5
477.908	118.5
478.127	105.5
478.346	99.5
478.564	90.5
478.783	102.5
479.002	114.5
479.22	105.5
479.439	100.5
479.658	102.5
479.876	95.5
480.095	109.5
480.313	99.5
480.532	105.5
480.751	112.5
480.969	93.5
481.188	78.5
481.406	100.5
481.624	87.5
481.843	82.5
482.061	90.5
482.28	103.5
482.498	98.5
482.717	87.5
482.935	91.5
483.153	105.5
483.372	121.5
483.59	110.5
483.808	104.5
484.027	102.5
484.245	107.5
484.463	100.5
484.681	122.5
484.9	106.5
485.118	112.5
485.336	106.5
485.554	94.5
485.772	89.5
485.99	92.5
486.209	95.5
486.427	101.5
486.645	104.5
486.863	107.5
487.081	102.5
487.299	96.5
487.517	110.5
487.735	112.5
487.953	132.5
488.171	138.5
488.389	120.5
488.607	117.5
488.825	93.5
489.043	105.5
489.261	110.5
489.479	113.5
489.696	105.5
489.914	109.5
490.132	113.5
490.35	107.5
490.568	123.5
490.786	119.5
491.003	129.5
491.221	123.5
491.439	129.5
491.657	127.5
491.874	139.5
492.092	148.5
492.31	139.5
492.527	143.5
492.745	142.5
492.963	134.5
493.18	152.5
493.398	122.5
493.615	133.5
493.833	125.5
494.05	112.5
494.268	134.5
494.485	118.5
494.703	128.5
494.92	115.5
495.138	125.5
495.355	126.5
495.573	122.5
495.79	127.5
496.008	135.5
496.225	106.5
496.442	123.5
496.66	118.5
496.877	125.5
497.094	129.5
497.312	121.5
497.529	132.5
497.746	113.5
497.963	113.5
498.181	114.5
498.398	100.5
498.615	104.5
498.832	101.5
499.049	94.5
499.267	106.5
499.484	113.5
499.701	117.5
499.918	111.5
500.135	98.5
500.352	100.5
500.569	104.5
500.786	112.5
501.003	102.5
501.22	115.5
501.437	104.5
501.654	101.5
501.871	93.5
502.088	111.5
502.305	103.5
502.522	125.5
502.739	97.5
502.956	111.5
503.172	114.5
503.389	100.5
503.606	97.5
503.823	93.5
504.04	97.5
504.256	105.5
504.473	87.5
504.69	90.5
504.907	117.5
505.123	77.5
505.34	99.5
505.557	95.5
505.773	91.5
505.99	109.5
506.207	101.5
506.423	100.5
506.64	107.5
506.856	93.5
507.073	106.5
507.289	81.5
507.506	89.5
507.722	101.5
507.939	102.5
508.155	100.5
508.372	109.5
508.588	86.5
508.805	91.5
509.021	107.5
509.238	104.5
509.454	79.5
509.67	70.5
509.887	84.5
510.103	85.5
510.319	96.5
510.536	79.5
510.752	89.5
510.968	79.5
511.184	88.5
511.401	83.5
511.617	86.5
511.833	85.5
512.049	83.5
512.265	86.5
512.481	89.5
512.698	103.5
512.914	88.5
513.13	89.5
513.346	97.5
513.562	82.5
513.778	89.5
513.994	80.5
514.21	70.5
514.426	93.5
514.642	77.5
514.858	91.5
515.074	80.5
515.29	83.5
515.506	95.5
515.721	82.5
515.937	94.5
516.153	79.5
516.369	77.5
516.585	82.5
516.801	90.5
517.016	102.5
517.232	90.5
517.448	75.5
517.664	83.5
517.879	97.5
518.095	88.5
518.311	72.5
518.527	88.5
518.742	90.5
518.958	77.5
519.173	83.5
519.389	94.5
519.605	101.5
519.82	77.5
520.036	89.5
520.251	85.5
520.467	88.5
520.682	83.5
520.898	95.5
521.113	90.5
521.329	89.5
521.544	70.5
521.76	77.5
521.975	74.5
522.19	96.5
522.406	101.5
522.621	83.5
522.836	103.5
523.052	102.5
523.267	91.5
523.482	91.5
523.698	97.5
523.913	79.5
524.128	109.5
524.343	116.5
524.559	107.5
524.774	90.5
524.989	104.5
525.204	99.5
525.419	96.5
525.634	98.5
525.849	81.5
526.064	114.5
526.28	97.5
526.495	89.5
526.71	89.5
526.925	81.5
527.14	80.5
527.355	89.5
527.57	85.5
527.785	85.5
527.999	89.5
528.214	86.5
528.429	95.5
528.644	101.5
528.859	85.5
529.074	104.5
529.289	103.5
529.503	129.5
529.718	109.5
529.933	98.5
530.148	89.5
530.363	81.5
530.577	83.5
530.792	85.5
531.007	73.5
531.221	80.5
531.436	71.5
531.651	88.5
531.865	86.5
532.08	85.5
532.295	85.5
532.509	91.5
532.724	85.5
532.938	72.5
533.153	84.5
533.367	108.5
533.582	109.5
533.796	93.5
534.011	104.5
534.225	87.5
534.44	75.5
534.654	96.5
534.868	95.5
535.083	92.5
535.297	88.5
