Data from Zn(NO3)2Standard.Agarose3%.GreenCap.LampEnergy5.5.E.O_HRD10591_15-02-32-768.txt Node
Date: Mon Jul 22 15:02:32 EDT 2019
User: cochatt
Spectrometer: HR+D1059
Trigger mode: 1
Integration Time (sec): 1.000000E-1
Scans to average: 1
Electric dark correction enabled: true
Nonlinearity correction enabled: false
Boxcar width: 0
XAxis mode: Wavelengths
Number of Pixels in Spectrum: 2048
>>>>>Begin Spectral Data<<<<<
223.165	-23.88
223.4	-23.88
223.635	-23.88
223.869	-12.88
224.104	-26.88
224.338	-6.88
224.573	-19.88
224.808	-18.88
225.042	-6.88
225.277	-4.88
225.511	24.12
225.746	-5.88
225.98	6.12
226.215	11.12
226.449	12.12
226.683	20.12
226.918	25.12
227.152	28.12
227.387	37.12
227.621	46.12
227.856	37.12
228.09	48.12
228.324	44.12
228.559	67.12
228.793	50.12
229.027	64.12
229.262	79.12
229.496	57.12
229.73	77.12
229.964	74.12
230.199	85.12
230.433	79.12
230.667	76.12
230.901	76.12
231.136	89.12
231.37	85.12
231.604	73.12
231.838	80.12
232.072	83.12
232.306	84.12
232.541	81.12
232.775	77.12
233.009	71.12
233.243	73.12
233.477	85.12
233.711	74.12
233.945	73.12
234.179	70.12
234.413	77.12
234.647	82.12
234.881	82.12
235.115	79.12
235.349	83.12
235.583	74.12
235.817	66.12
236.051	82.12
236.285	82.12
236.519	80.12
236.753	92.12
236.987	71.12
237.221	79.12
237.455	69.12
237.689	68.12
237.922	80.12
238.156	79.12
238.39	77.12
238.624	73.12
238.858	78.12
239.091	85.12
239.325	71.12
239.559	80.12
239.793	74.12
240.027	83.12
240.26	77.12
240.494	65.12
240.728	74.12
240.961	75.12
241.195	73.12
241.429	74.12
241.662	67.12
241.896	74.12
242.13	74.12
242.363	72.12
242.597	65.12
242.83	73.12
243.064	87.12
243.298	89.12
243.531	73.12
243.765	72.12
243.998	83.12
244.232	70.12
244.465	79.12
244.699	75.12
244.932	72.12
245.166	84.12
245.399	74.12
245.633	79.12
245.866	71.12
246.099	71.12
246.333	77.12
246.566	74.12
246.8	58.12
247.033	75.12
247.266	72.12
247.5	72.12
247.733	86.12
247.966	76.12
248.2	80.12
248.433	75.12
248.666	76.12
248.899	70.12
249.133	79.12
249.366	86.12
249.599	74.12
249.832	76.12
250.066	76.12
250.299	85.12
250.532	81.12
250.765	81.12
250.998	75.12
251.231	82.12
251.465	73.12
251.698	72.12
251.931	83.12
252.164	94.12
252.397	79.12
252.63	80.12
252.863	89.12
253.096	79.12
253.329	78.12
253.562	82.12
253.795	76.12
254.028	79.12
254.261	81.12
254.494	84.12
254.727	78.12
254.96	77.12
255.193	77.12
255.426	78.12
255.659	73.12
255.892	76.12
256.124	75.12
256.357	77.12
256.59	79.12
256.823	85.12
257.056	71.12
257.289	80.12
257.521	76.12
257.754	57.12
257.987	80.12
258.22	71.12
258.452	84.12
258.685	82.12
258.918	77.12
259.151	73.12
259.383	78.12
259.616	84.12
259.849	83.12
260.081	74.12
260.314	87.12
260.547	87.12
260.779	84.12
261.012	65.12
261.244	70.12
261.477	82.12
261.71	74.12
261.942	66.12
262.175	76.12
262.407	76.12
262.64	77.12
262.872	84.12
263.105	80.12
263.337	96.12
263.57	82.12
263.802	74.12
264.035	82.12
264.267	77.12
264.499	84.12
264.732	86.12
264.964	80.12
265.197	89.12
265.429	82.12
265.661	79.12
265.894	82.12
266.126	84.12
266.358	80.12
266.591	74.12
266.823	83.12
267.055	79.12
267.287	72.12
267.52	81.12
267.752	88.12
267.984	87.12
268.216	69.12
268.448	85.12
268.681	87.12
268.913	87.12
269.145	66.12
269.377	78.12
269.609	83.12
269.841	86.12
270.073	77.12
270.306	79.12
270.538	71.12
270.77	77.12
271.002	86.12
271.234	73.12
271.466	81.12
271.698	82.12
271.93	81.12
272.162	67.12
272.394	91.12
272.626	87.12
272.858	83.12
273.09	87.12
273.322	87.12
273.553	74.12
273.785	82.12
274.017	77.12
274.249	86.12
274.481	82.12
274.713	81.12
274.945	85.12
275.176	88.12
275.408	96.12
275.64	86.12
275.872	78.12
276.104	87.12
276.335	76.12
276.567	82.12
276.799	74.12
277.031	74.12
277.262	96.12
277.494	99.12
277.726	73.12
277.957	90.12
278.189	83.12
278.421	77.12
278.652	81.12
278.884	94.12
279.115	90.12
279.347	75.12
279.579	95.12
279.81	71.12
280.042	74.12
280.273	70.12
280.505	69.12
280.736	93.12
280.968	77.12
281.199	77.12
281.431	80.12
281.662	86.12
281.894	88.12
282.125	86.12
282.356	89.12
282.588	72.12
282.819	70.12
283.051	86.12
283.282	87.12
283.513	94.12
283.745	86.12
283.976	83.12
284.207	95.12
284.439	84.12
284.67	76.12
284.901	82.12
285.132	87.12
285.364	79.12
285.595	85.12
285.826	81.12
286.057	81.12
286.288	82.12
286.52	84.12
286.751	83.12
286.982	94.12
287.213	89.12
287.444	94.12
287.675	73.12
287.906	88.12
288.138	92.12
288.369	89.12
288.6	76.12
288.831	84.12
289.062	87.12
289.293	84.12
289.524	81.12
289.755	87.12
289.986	85.12
290.217	88.12
290.448	81.12
290.679	92.12
290.91	85.12
291.141	87.12
291.371	82.12
291.602	81.12
291.833	75.12
292.064	83.12
292.295	68.12
292.526	86.12
292.757	72.12
292.987	82.12
293.218	77.12
293.449	89.12
293.68	79.12
293.91	84.12
294.141	87.12
294.372	75.12
294.603	80.12
294.833	77.12
295.064	85.12
295.295	89.12
295.525	84.12
295.756	92.12
295.987	84.12
296.217	88.12
296.448	88.12
296.679	70.12
296.909	88.12
297.14	76.12
297.37	83.12
297.601	82.12
297.831	71.12
298.062	93.12
298.292	86.12
298.523	78.12
298.753	84.12
298.984	88.12
299.214	92.12
299.445	94.12
299.675	89.12
299.905	74.12
300.136	84.12
300.366	80.12
300.597	79.12
300.827	81.12
301.057	86.12
301.288	90.12
301.518	87.12
301.748	87.12
301.979	90.12
302.209	76.12
302.439	81.12
302.669	74.12
302.9	82.12
303.13	87.12
303.36	85.12
303.59	88.12
303.82	74.12
304.051	75.12
304.281	72.12
304.511	82.12
304.741	80.12
304.971	88.12
305.201	84.12
305.431	71.12
305.661	74.12
305.891	88.12
306.121	86.12
306.352	79.12
306.582	82.12
306.812	78.12
307.042	85.12
307.272	89.12
307.502	96.12
307.731	94.12
307.961	96.12
308.191	79.12
308.421	88.12
308.651	72.12
308.881	86.12
309.111	75.12
309.341	70.12
309.571	76.12
309.8	73.12
310.03	79.12
310.26	97.12
310.49	83.12
310.72	89.12
310.949	83.12
311.179	86.12
311.409	84.12
311.639	86.12
311.868	96.12
312.098	95.12
312.328	83.12
312.557	69.12
312.787	97.12
313.017	90.12
313.246	83.12
313.476	87.12
313.706	96.12
313.935	100.12
314.165	80.12
314.394	90.12
314.624	96.12
314.853	84.12
315.083	75.12
315.312	79.12
315.542	88.12
315.771	86.12
316.001	83.12
316.23	89.12
316.46	71.12
316.689	73.12
316.919	83.12
317.148	77.12
317.377	77.12
317.607	98.12
317.836	83.12
318.065	68.12
318.295	97.12
318.524	82.12
318.753	89.12
318.983	76.12
319.212	95.12
319.441	77.12
319.67	101.12
319.9	75.12
320.129	83.12
320.358	81.12
320.587	90.12
320.816	82.12
321.046	84.12
321.275	93.12
321.504	82.12
321.733	76.12
321.962	85.12
322.191	84.12
322.42	80.12
322.649	76.12
322.878	89.12
323.108	98.12
323.337	82.12
323.566	85.12
323.795	91.12
324.024	90.12
324.253	91.12
324.482	88.12
324.71	86.12
324.939	81.12
325.168	96.12
325.397	98.12
325.626	89.12
325.855	92.12
326.084	98.12
326.313	77.12
326.542	84.12
326.77	99.12
326.999	69.12
327.228	89.12
327.457	81.12
327.686	90.12
327.914	85.12
328.143	82.12
328.372	83.12
328.6	91.12
328.829	73.12
329.058	92.12
329.287	91.12
329.515	81.12
329.744	96.12
329.972	82.12
330.201	100.12
330.43	90.12
330.658	93.12
330.887	82.12
331.115	84.12
331.344	88.12
331.572	81.12
331.801	100.12
332.03	77.12
332.258	96.12
332.486	77.12
332.715	84.12
332.943	77.12
333.172	81.12
333.4	79.12
333.629	73.12
333.857	85.12
334.085	89.12
334.314	87.12
334.542	68.12
334.771	83.12
334.999	84.12
335.227	81.12
335.455	70.12
335.684	83.12
335.912	87.12
336.14	92.12
336.369	77.12
336.597	82.12
336.825	77.12
337.053	81.12
337.281	89.12
337.51	82.12
337.738	110.12
337.966	92.12
338.194	88.12
338.422	78.12
338.65	91.12
338.878	84.12
339.106	98.12
339.334	89.12
339.562	77.12
339.79	90.12
340.018	81.12
340.246	85.12
340.474	85.12
340.702	92.12
340.93	94.12
341.158	73.12
341.386	67.12
341.614	81.12
341.842	90.12
342.07	84.12
342.298	90.12
342.526	90.12
342.754	89.12
342.981	72.12
343.209	83.12
343.437	81.12
343.665	83.12
343.893	77.12
344.12	93.12
344.348	91.12
344.576	87.12
344.804	100.12
345.031	67.12
345.259	89.12
345.487	70.12
345.714	92.12
345.942	92.12
346.17	82.12
346.397	84.12
346.625	84.12
346.853	83.12
347.08	74.12
347.308	83.12
347.535	75.12
347.763	77.12
347.99	94.12
348.218	81.12
348.445	69.12
348.673	92.12
348.9	86.12
349.128	89.12
349.355	80.12
349.583	84.12
349.81	86.12
350.037	89.12
350.265	95.12
350.492	95.12
350.72	76.12
350.947	80.12
351.174	71.12
351.402	81.12
351.629	68.12
351.856	79.12
352.083	80.12
352.311	82.12
352.538	80.12
352.765	65.12
352.992	73.12
353.22	83.12
353.447	84.12
353.674	96.12
353.901	88.12
354.128	83.12
354.355	83.12
354.583	77.12
354.81	67.12
355.037	81.12
355.264	106.12
355.491	80.12
355.718	83.12
355.945	83.12
356.172	74.12
356.399	96.12
356.626	83.12
356.853	75.12
357.08	89.12
357.307	79.12
357.534	87.12
357.761	91.12
357.988	80.12
358.215	87.12
358.441	80.12
358.668	86.12
358.895	81.12
359.122	85.12
359.349	78.12
359.576	79.12
359.802	81.12
360.029	89.12
360.256	90.12
360.483	91.12
360.709	80.12
360.936	81.12
361.163	72.12
361.39	79.12
361.616	95.12
361.843	84.12
362.07	84.12
362.296	92.12
362.523	82.12
362.749	78.12
362.976	92.12
363.203	97.12
363.429	80.12
363.656	83.12
363.882	81.12
364.109	76.12
364.335	80.12
364.562	87.12
364.788	80.12
365.015	76.12
365.241	77.12
365.468	76.12
365.694	84.12
365.92	81.12
366.147	75.12
366.373	81.12
366.599	84.12
366.826	88.12
367.052	83.12
367.278	87.12
367.505	77.12
367.731	101.12
367.957	85.12
368.184	87.12
368.41	80.12
368.636	93.12
368.862	89.12
369.089	102.12
369.315	84.12
369.541	76.12
369.767	96.12
369.993	100.12
370.219	76.12
370.445	90.12
370.672	89.12
370.898	90.12
371.124	85.12
371.35	82.12
371.576	99.12
371.802	73.12
372.028	85.12
372.254	83.12
372.48	75.12
372.706	94.12
372.932	82.12
373.158	79.12
373.384	83.12
373.61	72.12
373.835	87.12
374.061	81.12
374.287	92.12
374.513	75.12
374.739	85.12
374.965	85.12
375.191	82.12
375.416	88.12
375.642	85.12
375.868	84.12
376.094	85.12
376.319	73.12
376.545	78.12
376.771	80.12
376.997	79.12
377.222	61.12
377.448	91.12
377.674	71.12
377.899	72.12
378.125	91.12
378.35	80.12
378.576	85.12
378.802	94.12
379.027	92.12
379.253	83.12
379.478	84.12
379.704	86.12
379.929	83.12
380.155	81.12
380.38	85.12
380.606	76.12
380.831	65.12
381.057	86.12
381.282	75.12
381.507	82.12
381.733	99.12
381.958	93.12
382.184	78.12
382.409	77.12
382.634	76.12
382.86	72.12
383.085	82.12
383.31	75.12
383.535	72.12
383.761	81.12
383.986	90.12
384.211	84.12
384.436	104.12
384.662	75.12
384.887	85.12
385.112	87.12
385.337	86.12
385.562	77.12
385.787	80.12
386.013	98.12
386.238	87.12
386.463	79.12
386.688	85.12
386.913	71.12
387.138	78.12
387.363	83.12
387.588	93.12
387.813	88.12
388.038	88.12
388.263	82.12
388.488	74.12
388.713	93.12
388.938	75.12
389.163	87.12
389.387	79.12
389.612	80.12
389.837	83.12
390.062	86.12
390.287	87.12
390.512	81.12
390.736	86.12
390.961	91.12
391.186	77.12
391.411	80.12
391.636	88.12
391.86	71.12
392.085	83.12
392.31	68.12
392.534	87.12
392.759	88.12
392.984	82.12
393.208	72.12
393.433	83.12
393.658	74.12
393.882	84.12
394.107	83.12
394.331	84.12
394.556	84.12
394.78	74.12
395.005	95.12
395.229	83.12
395.454	84.12
395.678	80.12
395.903	91.12
396.127	77.12
396.352	84.12
396.576	87.12
396.801	85.12
397.025	84.12
397.249	97.12
397.474	85.12
397.698	89.12
397.922	78.12
398.147	81.12
398.371	83.12
398.595	85.12
398.82	84.12
399.044	75.12
399.268	97.12
399.492	89.12
399.717	78.12
399.941	77.12
400.165	96.12
400.389	96.12
400.613	84.12
400.837	76.12
401.062	81.12
401.286	79.12
401.51	72.12
401.734	85.12
401.958	82.12
402.182	72.12
402.406	79.12
402.63	73.12
402.854	90.12
403.078	89.12
403.302	69.12
403.526	82.12
403.75	87.12
403.974	85.12
404.198	83.12
404.422	82.12
404.645	92.12
404.869	90.12
405.093	85.12
405.317	80.12
405.541	83.12
405.765	77.12
405.988	77.12
406.212	90.12
406.436	88.12
406.66	103.12
406.883	81.12
407.107	83.12
407.331	88.12
407.555	88.12
407.778	79.12
408.002	79.12
408.226	81.12
408.449	83.12
408.673	87.12
408.896	91.12
409.12	79.12
409.344	87.12
409.567	108.12
409.791	81.12
410.014	85.12
410.238	80.12
410.461	77.12
410.685	82.12
410.908	101.12
411.132	77.12
411.355	82.12
411.578	90.12
411.802	78.12
412.025	91.12
412.249	86.12
412.472	84.12
412.695	96.12
412.919	107.12
413.142	92.12
413.365	78.12
413.589	89.12
413.812	79.12
414.035	78.12
414.258	97.12
414.482	88.12
414.705	77.12
414.928	96.12
415.151	79.12
415.374	90.12
415.597	79.12
415.821	83.12
416.044	101.12
416.267	99.12
416.49	96.12
416.713	94.12
416.936	96.12
417.159	84.12
417.382	94.12
417.605	97.12
417.828	91.12
418.051	87.12
418.274	92.12
418.497	85.12
418.72	69.12
418.943	95.12
419.166	87.12
419.389	91.12
419.611	97.12
419.834	96.12
420.057	100.12
420.28	79.12
420.503	79.12
420.726	100.12
420.948	85.12
421.171	100.12
421.394	85.12
421.617	81.12
421.839	99.12
422.062	77.12
422.285	75.12
422.507	89.12
422.73	91.12
422.953	86.12
423.175	89.12
423.398	88.12
423.621	95.12
423.843	98.12
424.066	81.12
424.288	95.12
424.511	97.12
424.733	90.12
424.956	87.12
425.178	75.12
425.401	74.12
425.623	83.12
425.846	73.12
426.068	99.12
426.291	85.12
426.513	97.12
426.735	99.12
426.958	99.12
427.18	84.12
427.402	94.12
427.625	89.12
427.847	83.12
428.069	87.12
428.292	96.12
428.514	83.12
428.736	83.12
428.958	86.12
429.181	83.12
429.403	89.12
429.625	101.12
429.847	86.12
430.069	87.12
430.292	86.12
430.514	78.12
430.736	87.12
430.958	97.12
431.18	78.12
431.402	83.12
431.624	94.12
431.846	88.12
432.068	77.12
432.29	92.12
432.512	91.12
432.734	83.12
432.956	89.12
433.178	90.12
433.4	86.12
433.622	88.12
433.844	87.12
434.066	88.12
434.287	93.12
434.509	90.12
434.731	89.12
434.953	80.12
435.175	80.12
435.397	84.12
435.618	77.12
435.84	66.12
436.062	82.12
436.284	95.12
436.505	88.12
436.727	88.12
436.949	89.12
437.17	92.12
437.392	83.12
437.614	106.12
437.835	89.12
438.057	81.12
438.278	85.12
438.5	90.12
438.721	84.12
438.943	95.12
439.165	88.12
439.386	87.12
439.608	97.12
439.829	102.12
440.05	85.12
440.272	87.12
440.493	86.12
440.715	91.12
440.936	95.12
441.158	99.12
441.379	90.12
441.6	87.12
441.822	98.12
442.043	84.12
442.264	85.12
442.486	88.12
442.707	88.12
442.928	94.12
443.149	91.12
443.371	95.12
443.592	82.12
443.813	86.12
444.034	84.12
444.255	81.12
444.476	92.12
444.698	78.12
444.919	94.12
445.14	208.12
445.361	140.12
445.582	89.12
445.803	88.12
446.024	74.12
446.245	91.12
446.466	80.12
446.687	90.12
446.908	102.12
447.129	92.12
447.35	91.12
447.571	94.12
447.792	99.12
448.013	100.12
448.234	90.12
448.455	81.12
448.675	89.12
448.896	88.12
449.117	92.12
449.338	81.12
449.559	87.12
449.779	101.12
450	86.12
450.221	75.12
450.442	88.12
450.662	99.12
450.883	79.12
451.104	88.12
451.324	96.12
451.545	82.12
451.766	99.12
451.986	82.12
452.207	85.12
452.428	97.12
452.648	84.12
452.869	82.12
453.089	89.12
453.31	80.12
453.53	82.12
453.751	92.12
453.971	82.12
454.192	74.12
454.412	92.12
454.633	83.12
454.853	83.12
455.073	95.12
455.294	99.12
455.514	92.12
455.734	89.12
455.955	78.12
456.175	86.12
456.395	82.12
456.616	82.12
456.836	86.12
457.056	88.12
457.276	82.12
457.497	69.12
457.717	69.12
457.937	70.12
458.157	79.12
458.377	74.12
458.598	68.12
458.818	82.12
459.038	86.12
459.258	87.12
459.478	75.12
459.698	80.12
459.918	71.12
460.138	73.12
460.358	99.12
460.578	78.12
460.798	80.12
461.018	86.12
461.238	85.12
461.458	81.12
461.678	82.12
461.898	74.12
462.118	97.12
462.338	77.12
462.558	84.12
462.777	85.12
462.997	84.12
463.217	88.12
463.437	80.12
463.657	93.12
463.876	87.12
464.096	77.12
464.316	82.12
464.536	82.12
464.755	92.12
464.975	77.12
465.195	74.12
465.414	85.12
465.634	95.12
465.854	81.12
466.073	75.12
466.293	87.12
466.512	84.12
466.732	92.12
466.951	99.12
467.171	76.12
467.391	91.12
467.61	87.12
467.829	89.12
468.049	103.12
468.268	96.12
468.488	92.12
468.707	93.12
468.927	105.12
469.146	88.12
469.365	79.12
469.585	98.12
469.804	82.12
470.023	81.12
470.243	83.12
470.462	78.12
470.681	83.12
470.901	96.12
471.12	92.12
471.339	88.12
471.558	92.12
471.777	88.12
471.997	78.12
472.216	97.12
472.435	75.12
472.654	74.12
472.873	88.12
473.092	87.12
473.311	92.12
473.53	91.12
473.749	97.12
473.968	55.12
474.187	80.12
474.406	88.12
474.625	85.12
474.844	94.12
475.063	92.12
475.282	92.12
475.501	83.12
475.72	92.12
475.939	89.12
476.158	92.12
476.377	92.12
476.596	70.12
476.814	82.12
477.033	96.12
477.252	95.12
477.471	81.12
477.69	92.12
477.908	78.12
478.127	80.12
478.346	98.12
478.564	86.12
478.783	99.12
479.002	91.12
479.22	85.12
479.439	93.12
479.658	90.12
479.876	92.12
480.095	84.12
480.313	84.12
480.532	81.12
480.751	64.12
480.969	62.12
481.188	92.12
481.406	81.12
481.624	73.12
481.843	91.12
482.061	72.12
482.28	84.12
482.498	92.12
482.717	80.12
482.935	95.12
483.153	85.12
483.372	89.12
483.59	95.12
483.808	89.12
484.027	84.12
484.245	80.12
484.463	93.12
484.681	87.12
484.9	103.12
485.118	92.12
485.336	85.12
485.554	95.12
485.772	82.12
485.99	85.12
486.209	83.12
486.427	86.12
486.645	80.12
486.863	81.12
487.081	77.12
487.299	81.12
487.517	87.12
487.735	100.12
487.953	90.12
488.171	91.12
488.389	102.12
488.607	96.12
488.825	91.12
489.043	71.12
489.261	86.12
489.479	92.12
489.696	96.12
489.914	98.12
490.132	69.12
490.35	102.12
490.568	81.12
490.786	108.12
491.003	95.12
491.221	83.12
491.439	96.12
491.657	95.12
491.874	106.12
492.092	106.12
492.31	120.12
492.527	105.12
492.745	86.12
492.963	98.12
493.18	88.12
493.398	105.12
493.615	94.12
493.833	102.12
494.05	97.12
494.268	102.12
494.485	80.12
494.703	88.12
494.92	89.12
495.138	90.12
495.355	100.12
495.573	101.12
495.79	100.12
496.008	83.12
496.225	102.12
496.442	85.12
496.66	102.12
496.877	87.12
497.094	80.12
497.312	100.12
497.529	98.12
497.746	92.12
497.963	90.12
498.181	84.12
498.398	95.12
498.615	89.12
498.832	89.12
499.049	81.12
499.267	92.12
499.484	79.12
499.701	100.12
499.918	91.12
500.135	90.12
500.352	90.12
500.569	90.12
500.786	103.12
501.003	99.12
501.22	95.12
501.437	91.12
501.654	91.12
501.871	101.12
502.088	105.12
502.305	100.12
502.522	87.12
502.739	83.12
502.956	83.12
503.172	76.12
503.389	68.12
503.606	93.12
503.823	79.12
504.04	92.12
504.256	86.12
504.473	87.12
504.69	74.12
504.907	92.12
505.123	87.12
505.34	101.12
505.557	87.12
505.773	85.12
505.99	83.12
506.207	87.12
506.423	75.12
506.64	101.12
506.856	61.12
507.073	87.12
507.289	77.12
507.506	92.12
507.722	92.12
507.939	86.12
508.155	90.12
508.372	85.12
508.588	86.12
508.805	87.12
509.021	89.12
509.238	79.12
509.454	87.12
509.67	84.12
509.887	83.12
510.103	94.12
510.319	85.12
510.536	84.12
510.752	87.12
510.968	69.12
511.184	77.12
511.401	85.12
511.617	75.12
511.833	80.12
512.049	81.12
512.265	76.12
512.481	82.12
512.698	83.12
512.914	92.12
513.13	94.12
513.346	85.12
513.562	74.12
513.778	90.12
513.994	77.12
514.21	83.12
514.426	78.12
514.642	81.12
514.858	81.12
515.074	80.12
515.29	96.12
515.506	85.12
515.721	83.12
515.937	68.12
516.153	76.12
516.369	78.12
516.585	83.12
516.801	72.12
517.016	94.12
517.232	81.12
517.448	81.12
517.664	77.12
517.879	86.12
518.095	92.12
518.311	86.12
518.527	71.12
518.742	95.12
