Data from Zn(NO3)2Standard.Agarose3%.GreenCap.LampEnergy5.5.E.O_HRD10591_15-01-47-768.txt Node
Date: Mon Jul 22 15:01:47 EDT 2019
User: cochatt
Spectrometer: HR+D1059
Trigger mode: 1
Integration Time (sec): 1.000000E-1
Scans to average: 1
Electric dark correction enabled: true
Nonlinearity correction enabled: false
Boxcar width: 0
XAxis mode: Wavelengths
Number of Pixels in Spectrum: 2048
>>>>>Begin Spectral Data<<<<<
223.165	-26.12
223.4	-26.12
223.635	-26.12
223.869	-9.12
224.104	-7.12
224.338	-2.12
224.573	-17.12
224.808	-18.12
225.042	-17.12
225.277	-17.12
225.511	-1.12
225.746	1.88
225.98	8.88
226.215	12.88
226.449	15.88
226.683	19.88
226.918	25.88
227.152	29.88
227.387	43.88
227.621	30.88
227.856	27.88
228.09	44.88
228.324	54.88
228.559	74.88
228.793	60.88
229.027	72.88
229.262	70.88
229.496	65.88
229.73	62.88
229.964	71.88
230.199	84.88
230.433	60.88
230.667	73.88
230.901	76.88
231.136	79.88
231.37	84.88
231.604	85.88
231.838	84.88
232.072	90.88
232.306	88.88
232.541	82.88
232.775	90.88
233.009	92.88
233.243	83.88
233.477	95.88
233.711	78.88
233.945	80.88
234.179	77.88
234.413	78.88
234.647	81.88
234.881	88.88
235.115	83.88
235.349	102.88
235.583	87.88
235.817	69.88
236.051	76.88
236.285	72.88
236.519	79.88
236.753	85.88
236.987	85.88
237.221	93.88
237.455	83.88
237.689	74.88
237.922	78.88
238.156	70.88
238.39	73.88
238.624	79.88
238.858	72.88
239.091	69.88
239.325	69.88
239.559	72.88
239.793	71.88
240.027	70.88
240.26	84.88
240.494	61.88
240.728	90.88
240.961	65.88
241.195	73.88
241.429	74.88
241.662	63.88
241.896	78.88
242.13	71.88
242.363	70.88
242.597	61.88
242.83	66.88
243.064	86.88
243.298	76.88
243.531	84.88
243.765	71.88
243.998	82.88
244.232	86.88
244.465	86.88
244.699	84.88
244.932	69.88
245.166	79.88
245.399	77.88
245.633	73.88
245.866	76.88
246.099	90.88
246.333	80.88
246.566	78.88
246.8	61.88
247.033	76.88
247.266	71.88
247.5	73.88
247.733	76.88
247.966	79.88
248.2	73.88
248.433	68.88
248.666	78.88
248.899	79.88
249.133	83.88
249.366	82.88
249.599	83.88
249.832	62.88
250.066	89.88
250.299	88.88
250.532	84.88
250.765	77.88
250.998	74.88
251.231	68.88
251.465	81.88
251.698	71.88
251.931	72.88
252.164	74.88
252.397	89.88
252.63	72.88
252.863	77.88
253.096	84.88
253.329	81.88
253.562	83.88
253.795	85.88
254.028	83.88
254.261	84.88
254.494	76.88
254.727	71.88
254.96	81.88
255.193	71.88
255.426	71.88
255.659	79.88
255.892	87.88
256.124	83.88
256.357	78.88
256.59	75.88
256.823	76.88
257.056	78.88
257.289	79.88
257.521	87.88
257.754	77.88
257.987	67.88
258.22	88.88
258.452	76.88
258.685	83.88
258.918	81.88
259.151	79.88
259.383	79.88
259.616	74.88
259.849	85.88
260.081	81.88
260.314	83.88
260.547	63.88
260.779	79.88
261.012	86.88
261.244	72.88
261.477	80.88
261.71	84.88
261.942	83.88
262.175	88.88
262.407	80.88
262.64	68.88
262.872	82.88
263.105	75.88
263.337	84.88
263.57	72.88
263.802	82.88
264.035	70.88
264.267	72.88
264.499	86.88
264.732	78.88
264.964	72.88
265.197	69.88
265.429	89.88
265.661	87.88
265.894	75.88
266.126	69.88
266.358	88.88
266.591	81.88
266.823	92.88
267.055	82.88
267.287	68.88
267.52	77.88
267.752	88.88
267.984	94.88
268.216	93.88
268.448	94.88
268.681	74.88
268.913	83.88
269.145	85.88
269.377	94.88
269.609	82.88
269.841	85.88
270.073	86.88
270.306	75.88
270.538	85.88
270.77	81.88
271.002	79.88
271.234	98.88
271.466	86.88
271.698	90.88
271.93	82.88
272.162	89.88
272.394	78.88
272.626	81.88
272.858	85.88
273.09	81.88
273.322	85.88
273.553	76.88
273.785	70.88
274.017	75.88
274.249	84.88
274.481	86.88
274.713	83.88
274.945	89.88
275.176	79.88
275.408	81.88
275.64	82.88
275.872	77.88
276.104	76.88
276.335	80.88
276.567	84.88
276.799	100.88
277.031	80.88
277.262	72.88
277.494	81.88
277.726	98.88
277.957	73.88
278.189	85.88
278.421	91.88
278.652	73.88
278.884	78.88
279.115	88.88
279.347	77.88
279.579	78.88
279.81	81.88
280.042	74.88
280.273	93.88
280.505	94.88
280.736	82.88
280.968	91.88
281.199	107.88
281.431	74.88
281.662	96.88
281.894	83.88
282.125	85.88
282.356	82.88
282.588	83.88
282.819	87.88
283.051	89.88
283.282	102.88
283.513	97.88
283.745	78.88
283.976	78.88
284.207	72.88
284.439	105.88
284.67	79.88
284.901	87.88
285.132	96.88
285.364	69.88
285.595	84.88
285.826	85.88
286.057	91.88
286.288	80.88
286.52	85.88
286.751	86.88
286.982	84.88
287.213	87.88
287.444	85.88
287.675	90.88
287.906	91.88
288.138	90.88
288.369	80.88
288.6	90.88
288.831	92.88
289.062	77.88
289.293	94.88
289.524	80.88
289.755	69.88
289.986	97.88
290.217	87.88
290.448	86.88
290.679	78.88
290.91	84.88
291.141	82.88
291.371	77.88
291.602	74.88
291.833	78.88
292.064	87.88
292.295	78.88
292.526	88.88
292.757	76.88
292.987	93.88
293.218	76.88
293.449	83.88
293.68	73.88
293.91	77.88
294.141	69.88
294.372	92.88
294.603	77.88
294.833	101.88
295.064	85.88
295.295	94.88
295.525	80.88
295.756	91.88
295.987	74.88
296.217	85.88
296.448	77.88
296.679	78.88
296.909	81.88
297.14	91.88
297.37	91.88
297.601	82.88
297.831	84.88
298.062	86.88
298.292	93.88
298.523	74.88
298.753	78.88
298.984	82.88
299.214	82.88
299.445	85.88
299.675	90.88
299.905	88.88
300.136	103.88
300.366	86.88
300.597	84.88
300.827	91.88
301.057	83.88
301.288	92.88
301.518	88.88
301.748	86.88
301.979	86.88
302.209	82.88
302.439	70.88
302.669	78.88
302.9	91.88
303.13	96.88
303.36	78.88
303.59	88.88
303.82	76.88
304.051	95.88
304.281	91.88
304.511	87.88
304.741	96.88
304.971	73.88
305.201	102.88
305.431	90.88
305.661	92.88
305.891	84.88
306.121	83.88
306.352	84.88
306.582	90.88
306.812	84.88
307.042	97.88
307.272	87.88
307.502	79.88
307.731	71.88
307.961	83.88
308.191	81.88
308.421	81.88
308.651	79.88
308.881	85.88
309.111	104.88
309.341	88.88
309.571	84.88
309.8	98.88
310.03	87.88
310.26	93.88
310.49	93.88
310.72	78.88
310.949	81.88
311.179	93.88
311.409	78.88
311.639	90.88
311.868	85.88
312.098	81.88
312.328	91.88
312.557	74.88
312.787	85.88
313.017	97.88
313.246	79.88
313.476	77.88
313.706	89.88
313.935	86.88
314.165	88.88
314.394	94.88
314.624	85.88
314.853	81.88
315.083	95.88
315.312	88.88
315.542	86.88
315.771	94.88
316.001	78.88
316.23	76.88
316.46	84.88
316.689	80.88
316.919	90.88
317.148	93.88
317.377	92.88
317.607	79.88
317.836	80.88
318.065	89.88
318.295	94.88
318.524	93.88
318.753	98.88
318.983	78.88
319.212	82.88
319.441	84.88
319.67	85.88
319.9	94.88
320.129	82.88
320.358	76.88
320.587	70.88
320.816	75.88
321.046	87.88
321.275	84.88
321.504	97.88
321.733	81.88
321.962	79.88
322.191	103.88
322.42	88.88
322.649	81.88
322.878	83.88
323.108	86.88
323.337	84.88
323.566	77.88
323.795	86.88
324.024	78.88
324.253	83.88
324.482	92.88
324.71	86.88
324.939	91.88
325.168	70.88
325.397	102.88
325.626	86.88
325.855	87.88
326.084	88.88
326.313	87.88
326.542	73.88
326.77	85.88
326.999	79.88
327.228	78.88
327.457	72.88
327.686	94.88
327.914	77.88
328.143	82.88
328.372	73.88
328.6	80.88
328.829	79.88
329.058	82.88
329.287	75.88
329.515	83.88
329.744	87.88
329.972	72.88
330.201	80.88
330.43	86.88
330.658	87.88
330.887	90.88
331.115	81.88
331.344	71.88
331.572	89.88
331.801	82.88
332.03	86.88
332.258	95.88
332.486	90.88
332.715	83.88
332.943	71.88
333.172	85.88
333.4	71.88
333.629	72.88
333.857	99.88
334.085	91.88
334.314	84.88
334.542	86.88
334.771	76.88
334.999	83.88
335.227	83.88
335.455	89.88
335.684	90.88
335.912	100.88
336.14	89.88
336.369	81.88
336.597	81.88
336.825	85.88
337.053	78.88
337.281	65.88
337.51	83.88
337.738	75.88
337.966	94.88
338.194	90.88
338.422	91.88
338.65	77.88
338.878	86.88
339.106	82.88
339.334	79.88
339.562	76.88
339.79	77.88
340.018	73.88
340.246	78.88
340.474	78.88
340.702	81.88
340.93	78.88
341.158	83.88
341.386	74.88
341.614	87.88
341.842	85.88
342.07	83.88
342.298	82.88
342.526	70.88
342.754	82.88
342.981	78.88
343.209	79.88
343.437	90.88
343.665	74.88
343.893	71.88
344.12	87.88
344.348	86.88
344.576	85.88
344.804	82.88
345.031	87.88
345.259	83.88
345.487	93.88
345.714	89.88
345.942	74.88
346.17	85.88
346.397	82.88
346.625	82.88
346.853	74.88
347.08	83.88
347.308	71.88
347.535	78.88
347.763	85.88
347.99	89.88
348.218	95.88
348.445	79.88
348.673	86.88
348.9	67.88
349.128	72.88
349.355	86.88
349.583	90.88
349.81	82.88
350.037	83.88
350.265	77.88
350.492	79.88
350.72	76.88
350.947	77.88
351.174	87.88
351.402	86.88
351.629	86.88
351.856	99.88
352.083	86.88
352.311	80.88
352.538	70.88
352.765	78.88
352.992	84.88
353.22	78.88
353.447	81.88
353.674	94.88
353.901	86.88
354.128	87.88
354.355	84.88
354.583	82.88
354.81	89.88
355.037	73.88
355.264	85.88
355.491	83.88
355.718	90.88
355.945	79.88
356.172	75.88
356.399	81.88
356.626	66.88
356.853	76.88
357.08	82.88
357.307	87.88
357.534	83.88
357.761	79.88
357.988	83.88
358.215	87.88
358.441	80.88
358.668	85.88
358.895	77.88
359.122	80.88
359.349	75.88
359.576	84.88
359.802	89.88
360.029	89.88
360.256	87.88
360.483	87.88
360.709	80.88
360.936	83.88
361.163	77.88
361.39	79.88
361.616	77.88
361.843	85.88
362.07	84.88
362.296	87.88
362.523	98.88
362.749	83.88
362.976	86.88
363.203	94.88
363.429	84.88
363.656	88.88
363.882	86.88
364.109	86.88
364.335	81.88
364.562	74.88
364.788	75.88
365.015	70.88
365.241	82.88
365.468	83.88
365.694	78.88
365.92	86.88
366.147	75.88
366.373	78.88
366.599	94.88
366.826	83.88
367.052	90.88
367.278	101.88
367.505	76.88
367.731	91.88
367.957	86.88
368.184	94.88
368.41	85.88
368.636	89.88
368.862	86.88
369.089	76.88
369.315	88.88
369.541	79.88
369.767	79.88
369.993	74.88
370.219	87.88
370.445	80.88
370.672	71.88
370.898	84.88
371.124	88.88
371.35	74.88
371.576	85.88
371.802	107.88
372.028	92.88
372.254	79.88
372.48	85.88
372.706	84.88
372.932	80.88
373.158	90.88
373.384	79.88
373.61	83.88
373.835	77.88
374.061	73.88
374.287	79.88
374.513	79.88
374.739	80.88
374.965	95.88
375.191	84.88
375.416	77.88
375.642	94.88
375.868	85.88
376.094	86.88
376.319	89.88
376.545	85.88
376.771	84.88
376.997	79.88
377.222	79.88
377.448	86.88
377.674	76.88
377.899	96.88
378.125	83.88
378.35	83.88
378.576	94.88
378.802	94.88
379.027	74.88
379.253	86.88
379.478	90.88
379.704	88.88
379.929	74.88
380.155	84.88
380.38	68.88
380.606	91.88
380.831	77.88
381.057	91.88
381.282	78.88
381.507	68.88
381.733	84.88
381.958	87.88
382.184	87.88
382.409	99.88
382.634	82.88
382.86	94.88
383.085	93.88
383.31	82.88
383.535	90.88
383.761	79.88
383.986	87.88
384.211	78.88
384.436	68.88
384.662	93.88
384.887	79.88
385.112	92.88
385.337	81.88
385.562	83.88
385.787	100.88
386.013	96.88
386.238	79.88
386.463	76.88
386.688	75.88
386.913	86.88
387.138	89.88
387.363	98.88
387.588	82.88
387.813	77.88
388.038	79.88
388.263	94.88
388.488	75.88
388.713	89.88
388.938	82.88
389.163	77.88
389.387	74.88
389.612	90.88
389.837	89.88
390.062	90.88
390.287	74.88
390.512	84.88
390.736	84.88
390.961	85.88
391.186	92.88
391.411	96.88
391.636	74.88
391.86	68.88
392.085	73.88
392.31	90.88
392.534	76.88
392.759	85.88
392.984	78.88
393.208	73.88
393.433	87.88
393.658	84.88
393.882	85.88
394.107	81.88
394.331	91.88
394.556	91.88
394.78	86.88
395.005	93.88
395.229	79.88
395.454	98.88
395.678	92.88
395.903	59.88
396.127	75.88
396.352	77.88
396.576	92.88
396.801	88.88
397.025	90.88
397.249	87.88
397.474	80.88
397.698	86.88
397.922	73.88
398.147	77.88
398.371	78.88
398.595	84.88
398.82	74.88
399.044	87.88
399.268	99.88
399.492	78.88
399.717	76.88
399.941	93.88
400.165	82.88
400.389	92.88
400.613	81.88
400.837	89.88
401.062	71.88
401.286	82.88
401.51	90.88
401.734	94.88
401.958	95.88
402.182	90.88
402.406	97.88
402.63	95.88
402.854	83.88
403.078	81.88
403.302	92.88
403.526	92.88
403.75	85.88
403.974	67.88
404.198	87.88
404.422	75.88
404.645	87.88
404.869	77.88
405.093	69.88
405.317	98.88
405.541	88.88
405.765	105.88
405.988	91.88
406.212	85.88
406.436	91.88
406.66	74.88
406.883	85.88
407.107	87.88
407.331	75.88
407.555	82.88
407.778	95.88
408.002	77.88
408.226	110.88
408.449	77.88
408.673	86.88
408.896	90.88
409.12	88.88
409.344	97.88
409.567	102.88
409.791	81.88
410.014	88.88
410.238	94.88
410.461	85.88
410.685	76.88
410.908	69.88
411.132	92.88
411.355	89.88
411.578	83.88
411.802	81.88
412.025	78.88
412.249	85.88
412.472	91.88
412.695	86.88
412.919	83.88
413.142	78.88
413.365	69.88
413.589	87.88
413.812	78.88
414.035	82.88
414.258	86.88
414.482	92.88
414.705	73.88
414.928	96.88
415.151	95.88
415.374	89.88
415.597	92.88
415.821	96.88
416.044	73.88
416.267	88.88
416.49	102.88
416.713	93.88
416.936	85.88
417.159	78.88
417.382	83.88
417.605	88.88
417.828	89.88
418.051	91.88
418.274	107.88
418.497	86.88
418.72	77.88
418.943	92.88
419.166	81.88
419.389	88.88
419.611	75.88
419.834	91.88
420.057	104.88
420.28	89.88
420.503	85.88
420.726	86.88
420.948	82.88
421.171	90.88
421.394	94.88
421.617	81.88
421.839	95.88
422.062	95.88
422.285	89.88
422.507	85.88
422.73	84.88
422.953	76.88
423.175	91.88
423.398	89.88
423.621	105.88
423.843	92.88
424.066	83.88
424.288	79.88
424.511	89.88
424.733	72.88
424.956	88.88
425.178	90.88
425.401	105.88
425.623	90.88
425.846	91.88
426.068	82.88
426.291	85.88
426.513	94.88
426.735	96.88
426.958	80.88
427.18	89.88
427.402	85.88
427.625	91.88
427.847	90.88
428.069	91.88
428.292	73.88
428.514	85.88
428.736	82.88
428.958	89.88
429.181	85.88
429.403	93.88
429.625	78.88
429.847	94.88
430.069	98.88
430.292	89.88
430.514	99.88
430.736	86.88
430.958	99.88
431.18	88.88
431.402	86.88
431.624	97.88
431.846	100.88
432.068	72.88
432.29	80.88
432.512	95.88
432.734	83.88
432.956	94.88
433.178	94.88
433.4	87.88
433.622	99.88
433.844	101.88
434.066	91.88
434.287	99.88
434.509	77.88
434.731	79.88
434.953	101.88
435.175	97.88
435.397	70.88
435.618	92.88
435.84	67.88
436.062	78.88
436.284	88.88
436.505	89.88
436.727	92.88
436.949	102.88
437.17	86.88
437.392	70.88
437.614	80.88
437.835	81.88
438.057	93.88
438.278	80.88
438.5	87.88
438.721	85.88
438.943	101.88
439.165	92.88
439.386	89.88
439.608	99.88
439.829	87.88
440.05	98.88
440.272	78.88
440.493	92.88
440.715	101.88
440.936	97.88
441.158	95.88
441.379	93.88
441.6	84.88
441.822	97.88
442.043	98.88
442.264	91.88
442.486	103.88
442.707	106.88
442.928	85.88
443.149	91.88
443.371	95.88
443.592	83.88
443.813	86.88
444.034	85.88
444.255	72.88
444.476	89.88
444.698	91.88
444.919	90.88
445.14	180.88
445.361	141.88
445.582	94.88
445.803	90.88
446.024	95.88
446.245	89.88
446.466	90.88
446.687	93.88
446.908	92.88
447.129	103.88
447.35	88.88
447.571	88.88
447.792	92.88
448.013	77.88
448.234	89.88
448.455	106.88
448.675	82.88
448.896	100.88
449.117	105.88
449.338	98.88
449.559	96.88
449.779	90.88
450	85.88
450.221	83.88
450.442	93.88
450.662	84.88
450.883	92.88
451.104	90.88
451.324	100.88
451.545	84.88
451.766	79.88
451.986	73.88
452.207	113.88
452.428	80.88
452.648	103.88
452.869	104.88
453.089	95.88
453.31	87.88
453.53	77.88
453.751	91.88
453.971	85.88
454.192	84.88
454.412	88.88
454.633	87.88
454.853	87.88
455.073	97.88
455.294	97.88
455.514	78.88
455.734	86.88
455.955	84.88
456.175	82.88
456.395	76.88
456.616	89.88
456.836	95.88
457.056	86.88
457.276	86.88
457.497	78.88
457.717	79.88
457.937	92.88
458.157	83.88
458.377	83.88
458.598	89.88
458.818	84.88
459.038	91.88
459.258	88.88
459.478	78.88
459.698	82.88
459.918	85.88
460.138	81.88
460.358	85.88
460.578	87.88
460.798	91.88
461.018	84.88
461.238	93.88
461.458	84.88
461.678	98.88
461.898	94.88
462.118	85.88
462.338	78.88
462.558	99.88
462.777	87.88
462.997	87.88
463.217	87.88
463.437	85.88
463.657	83.88
463.876	98.88
464.096	81.88
464.316	77.88
464.536	93.88
464.755	103.88
464.975	86.88
465.195	88.88
465.414	94.88
465.634	89.88
465.854	87.88
466.073	81.88
466.293	99.88
466.512	85.88
466.732	80.88
466.951	100.88
467.171	101.88
467.391	83.88
467.61	89.88
467.829	85.88
468.049	99.88
468.268	98.88
468.488	95.88
468.707	89.88
468.927	85.88
469.146	97.88
469.365	89.88
469.585	85.88
469.804	100.88
470.023	85.88
470.243	86.88
470.462	86.88
470.681	97.88
470.901	91.88
471.12	95.88
471.339	95.88
471.558	85.88
471.777	103.88
471.997	81.88
472.216	104.88
472.435	103.88
472.654	89.88
472.873	97.88
473.092	81.88
473.311	101.88
473.53	91.88
473.749	87.88
473.968	88.88
474.187	81.88
474.406	81.88
474.625	96.88
474.844	100.88
475.063	96.88
475.282	75.88
475.501	84.88
475.72	95.88
475.939	92.88
476.158	85.88
476.377	92.88
476.596	87.88
476.814	103.88
477.033	91.88
477.252	95.88
477.471	89.88
477.69	97.88
477.908	102.88
478.127	92.88
478.346	94.88
478.564	82.88
478.783	95.88
479.002	98.88
479.22	89.88
479.439	91.88
479.658	102.88
479.876	85.88
480.095	89.88
480.313	78.88
480.532	91.88
480.751	95.88
480.969	100.88
481.188	86.88
481.406	86.88
481.624	79.88
481.843	108.88
482.061	89.88
482.28	102.88
482.498	96.88
482.717	86.88
482.935	84.88
483.153	97.88
483.372	89.88
483.59	92.88
483.808	99.88
484.027	93.88
484.245	90.88
484.463	86.88
484.681	86.88
484.9	96.88
485.118	91.88
485.336	84.88
485.554	95.88
485.772	92.88
485.99	100.88
486.209	83.88
486.427	80.88
486.645	89.88
486.863	76.88
487.081	87.88
487.299	92.88
487.517	97.88
487.735	98.88
487.953	103.88
488.171	109.88
488.389	81.88
488.607	92.88
488.825	88.88
489.043	89.88
489.261	84.88
489.479	100.88
489.696	85.88
489.914	73.88
490.132	100.88
490.35	105.88
490.568	100.88
490.786	89.88
491.003	106.88
491.221	99.88
491.439	102.88
491.657	93.88
491.874	99.88
492.092	98.88
492.31	115.88
492.527	109.88
492.745	87.88
492.963	110.88
493.18	126.88
493.398	110.88
493.615	103.88
493.833	93.88
494.05	113.88
494.268	97.88
494.485	102.88
494.703	90.88
494.92	105.88
495.138	102.88
495.355	83.88
495.573	95.88
495.79	108.88
496.008	111.88
496.225	98.88
496.442	118.88
496.66	89.88
496.877	83.88
497.094	92.88
497.312	100.88
497.529	90.88
497.746	95.88
497.963	94.88
498.181	94.88
498.398	100.88
498.615	90.88
498.832	94.88
499.049	80.88
499.267	117.88
499.484	97.88
499.701	83.88
499.918	100.88
500.135	90.88
500.352	96.88
500.569	92.88
500.786	90.88
501.003	101.88
501.22	89.88
501.437	87.88
501.654	87.88
501.871	86.88
502.088	99.88
502.305	102.88
502.522	77.88
502.739	84.88
502.956	87.88
503.172	91.88
503.389	89.88
503.606	89.88
503.823	79.88
504.04	91.88
504.256	79.88
504.473	106.88
504.69	102.88
504.907	97.88
505.123	81.88
505.34	94.88
505.557	93.88
505.773	96.88
505.99	76.88
506.207	74.88
506.423	81.88
506.64	76.88
506.856	90.88
507.073	94.88
507.289	95.88
507.506	93.88
507.722	89.88
507.939	100.88
508.155	91.88
508.372	89.88
508.588	98.88
508.805	78.88
509.021	81.88
509.238	89.88
509.454	95.88
509.67	98.88
509.887	79.88
510.103	86.88
510.319	90.88
510.536	95.88
510.752	88.88
510.968	86.88
511.184	91.88
511.401	93.88
511.617	80.88
511.833	86.88
512.049	85.88
512.265	85.88
512.481	87.88
512.698	99.88
512.914	89.88
513.13	87.88
513.346	88.88
513.562	98.88
513.778	84.88
513.994	98.88
514.21	77.88
514.426	102.88
514.642	89.88
514.858	90.88
515.074	76.88
515.29	97.88
515.506	85.88
515.721	71.88
515.937	87.88
516.153	72.88
516.369	91.88
516.585	78.88
516.801	89.88
517.016	89.88
517.232	84.88
517.448	105.88
517.664	76.88
517.879	84.88
518.095	71.88
518.311	76.88
