Data from Zn(NO3)2Standard.Agarose3%.GreenCap.LampEnergy5.5.E.O_HRD10591_15-02-40-767.txt Node
Date: Mon Jul 22 15:02:40 EDT 2019
User: cochatt
Spectrometer: HR+D1059
Trigger mode: 1
Integration Time (sec): 1.000000E-1
Scans to average: 1
Electric dark correction enabled: true
Nonlinearity correction enabled: false
Boxcar width: 0
XAxis mode: Wavelengths
Number of Pixels in Spectrum: 2048
>>>>>Begin Spectral Data<<<<<
223.165	-13.25
223.4	-13.25
223.635	-13.25
223.869	-12.25
224.104	-19.25
224.338	-22.25
224.573	-19.25
224.808	-26.25
225.042	-11.25
225.277	-0.25
225.511	16.75
225.746	8.75
225.98	8.75
226.215	0.75
226.449	14.75
226.683	18.75
226.918	23.75
227.152	31.75
227.387	37.75
227.621	35.75
227.856	42.75
228.09	51.75
228.324	42.75
228.559	42.75
228.793	50.75
229.027	61.75
229.262	46.75
229.496	70.75
229.73	69.75
229.964	74.75
230.199	65.75
230.433	63.75
230.667	75.75
230.901	63.75
231.136	74.75
231.37	55.75
231.604	81.75
231.838	76.75
232.072	87.75
232.306	89.75
232.541	79.75
232.775	75.75
233.009	82.75
233.243	82.75
233.477	88.75
233.711	81.75
233.945	78.75
234.179	85.75
234.413	80.75
234.647	86.75
234.881	85.75
235.115	68.75
235.349	74.75
235.583	72.75
235.817	74.75
236.051	67.75
236.285	77.75
236.519	78.75
236.753	86.75
236.987	83.75
237.221	81.75
237.455	75.75
237.689	67.75
237.922	78.75
238.156	77.75
238.39	78.75
238.624	64.75
238.858	70.75
239.091	75.75
239.325	71.75
239.559	66.75
239.793	82.75
240.027	84.75
240.26	75.75
240.494	87.75
240.728	67.75
240.961	65.75
241.195	79.75
241.429	67.75
241.662	54.75
241.896	75.75
242.13	72.75
242.363	88.75
242.597	76.75
242.83	74.75
243.064	80.75
243.298	66.75
243.531	77.75
243.765	80.75
243.998	78.75
244.232	76.75
244.465	84.75
244.699	67.75
244.932	76.75
245.166	74.75
245.399	80.75
245.633	72.75
245.866	69.75
246.099	82.75
246.333	61.75
246.566	65.75
246.8	67.75
247.033	93.75
247.266	59.75
247.5	78.75
247.733	90.75
247.966	74.75
248.2	77.75
248.433	59.75
248.666	82.75
248.899	75.75
249.133	76.75
249.366	80.75
249.599	64.75
249.832	75.75
250.066	59.75
250.299	76.75
250.532	83.75
250.765	71.75
250.998	89.75
251.231	75.75
251.465	63.75
251.698	75.75
251.931	72.75
252.164	71.75
252.397	72.75
252.63	70.75
252.863	81.75
253.096	83.75
253.329	83.75
253.562	80.75
253.795	72.75
254.028	85.75
254.261	81.75
254.494	81.75
254.727	91.75
254.96	80.75
255.193	91.75
255.426	84.75
255.659	77.75
255.892	80.75
256.124	86.75
256.357	75.75
256.59	87.75
256.823	81.75
257.056	75.75
257.289	65.75
257.521	78.75
257.754	81.75
257.987	87.75
258.22	88.75
258.452	80.75
258.685	63.75
258.918	81.75
259.151	72.75
259.383	72.75
259.616	75.75
259.849	84.75
260.081	89.75
260.314	73.75
260.547	93.75
260.779	94.75
261.012	84.75
261.244	82.75
261.477	75.75
261.71	79.75
261.942	80.75
262.175	70.75
262.407	82.75
262.64	76.75
262.872	80.75
263.105	78.75
263.337	76.75
263.57	88.75
263.802	86.75
264.035	69.75
264.267	67.75
264.499	74.75
264.732	70.75
264.964	93.75
265.197	84.75
265.429	77.75
265.661	83.75
265.894	85.75
266.126	82.75
266.358	81.75
266.591	86.75
266.823	92.75
267.055	81.75
267.287	81.75
267.52	80.75
267.752	87.75
267.984	75.75
268.216	76.75
268.448	73.75
268.681	77.75
268.913	90.75
269.145	81.75
269.377	82.75
269.609	66.75
269.841	69.75
270.073	79.75
270.306	83.75
270.538	85.75
270.77	77.75
271.002	96.75
271.234	77.75
271.466	88.75
271.698	98.75
271.93	83.75
272.162	77.75
272.394	86.75
272.626	82.75
272.858	84.75
273.09	92.75
273.322	80.75
273.553	78.75
273.785	70.75
274.017	78.75
274.249	73.75
274.481	75.75
274.713	82.75
274.945	78.75
275.176	79.75
275.408	73.75
275.64	71.75
275.872	84.75
276.104	81.75
276.335	88.75
276.567	78.75
276.799	81.75
277.031	97.75
277.262	97.75
277.494	89.75
277.726	93.75
277.957	89.75
278.189	72.75
278.421	89.75
278.652	74.75
278.884	71.75
279.115	71.75
279.347	81.75
279.579	79.75
279.81	77.75
280.042	77.75
280.273	72.75
280.505	77.75
280.736	86.75
280.968	81.75
281.199	75.75
281.431	85.75
281.662	78.75
281.894	74.75
282.125	73.75
282.356	72.75
282.588	70.75
282.819	87.75
283.051	78.75
283.282	82.75
283.513	84.75
283.745	71.75
283.976	85.75
284.207	86.75
284.439	85.75
284.67	84.75
284.901	83.75
285.132	75.75
285.364	77.75
285.595	86.75
285.826	81.75
286.057	72.75
286.288	80.75
286.52	74.75
286.751	67.75
286.982	80.75
287.213	75.75
287.444	93.75
287.675	85.75
287.906	87.75
288.138	78.75
288.369	82.75
288.6	85.75
288.831	88.75
289.062	70.75
289.293	63.75
289.524	70.75
289.755	71.75
289.986	79.75
290.217	82.75
290.448	86.75
290.679	78.75
290.91	80.75
291.141	65.75
291.371	69.75
291.602	70.75
291.833	79.75
292.064	81.75
292.295	72.75
292.526	70.75
292.757	75.75
292.987	57.75
293.218	84.75
293.449	81.75
293.68	87.75
293.91	94.75
294.141	78.75
294.372	64.75
294.603	84.75
294.833	84.75
295.064	71.75
295.295	91.75
295.525	81.75
295.756	85.75
295.987	100.75
296.217	69.75
296.448	95.75
296.679	79.75
296.909	77.75
297.14	85.75
297.37	83.75
297.601	87.75
297.831	71.75
298.062	76.75
298.292	80.75
298.523	67.75
298.753	86.75
298.984	83.75
299.214	85.75
299.445	87.75
299.675	82.75
299.905	85.75
300.136	93.75
300.366	94.75
300.597	69.75
300.827	77.75
301.057	81.75
301.288	88.75
301.518	98.75
301.748	86.75
301.979	86.75
302.209	91.75
302.439	83.75
302.669	69.75
302.9	88.75
303.13	79.75
303.36	66.75
303.59	80.75
303.82	82.75
304.051	85.75
304.281	90.75
304.511	91.75
304.741	93.75
304.971	75.75
305.201	77.75
305.431	82.75
305.661	87.75
305.891	67.75
306.121	78.75
306.352	84.75
306.582	90.75
306.812	72.75
307.042	81.75
307.272	94.75
307.502	83.75
307.731	72.75
307.961	93.75
308.191	92.75
308.421	87.75
308.651	86.75
308.881	83.75
309.111	85.75
309.341	80.75
309.571	71.75
309.8	83.75
310.03	80.75
310.26	76.75
310.49	72.75
310.72	86.75
310.949	75.75
311.179	90.75
311.409	82.75
311.639	91.75
311.868	88.75
312.098	65.75
312.328	79.75
312.557	83.75
312.787	88.75
313.017	74.75
313.246	72.75
313.476	78.75
313.706	79.75
313.935	91.75
314.165	81.75
314.394	84.75
314.624	82.75
314.853	85.75
315.083	86.75
315.312	87.75
315.542	94.75
315.771	77.75
316.001	83.75
316.23	76.75
316.46	87.75
316.689	84.75
316.919	78.75
317.148	83.75
317.377	93.75
317.607	80.75
317.836	82.75
318.065	89.75
318.295	100.75
318.524	78.75
318.753	83.75
318.983	85.75
319.212	92.75
319.441	87.75
319.67	79.75
319.9	78.75
320.129	83.75
320.358	79.75
320.587	94.75
320.816	74.75
321.046	81.75
321.275	74.75
321.504	77.75
321.733	82.75
321.962	85.75
322.191	84.75
322.42	89.75
322.649	86.75
322.878	90.75
323.108	84.75
323.337	69.75
323.566	59.75
323.795	82.75
324.024	94.75
324.253	89.75
324.482	72.75
324.71	84.75
324.939	85.75
325.168	79.75
325.397	67.75
325.626	97.75
325.855	78.75
326.084	79.75
326.313	78.75
326.542	86.75
326.77	85.75
326.999	86.75
327.228	75.75
327.457	77.75
327.686	81.75
327.914	89.75
328.143	90.75
328.372	73.75
328.6	100.75
328.829	80.75
329.058	85.75
329.287	88.75
329.515	73.75
329.744	91.75
329.972	86.75
330.201	71.75
330.43	78.75
330.658	85.75
330.887	73.75
331.115	74.75
331.344	86.75
331.572	78.75
331.801	91.75
332.03	76.75
332.258	83.75
332.486	101.75
332.715	78.75
332.943	75.75
333.172	89.75
333.4	91.75
333.629	86.75
333.857	61.75
334.085	79.75
334.314	86.75
334.542	80.75
334.771	79.75
334.999	85.75
335.227	64.75
335.455	69.75
335.684	83.75
335.912	85.75
336.14	89.75
336.369	81.75
336.597	63.75
336.825	81.75
337.053	83.75
337.281	67.75
337.51	76.75
337.738	80.75
337.966	85.75
338.194	80.75
338.422	84.75
338.65	78.75
338.878	83.75
339.106	66.75
339.334	84.75
339.562	76.75
339.79	78.75
340.018	62.75
340.246	82.75
340.474	85.75
340.702	72.75
340.93	86.75
341.158	86.75
341.386	82.75
341.614	86.75
341.842	86.75
342.07	74.75
342.298	82.75
342.526	92.75
342.754	74.75
342.981	81.75
343.209	84.75
343.437	89.75
343.665	78.75
343.893	83.75
344.12	80.75
344.348	83.75
344.576	78.75
344.804	89.75
345.031	81.75
345.259	85.75
345.487	85.75
345.714	84.75
345.942	79.75
346.17	77.75
346.397	79.75
346.625	78.75
346.853	81.75
347.08	88.75
347.308	86.75
347.535	86.75
347.763	81.75
347.99	82.75
348.218	86.75
348.445	79.75
348.673	77.75
348.9	88.75
349.128	82.75
349.355	79.75
349.583	83.75
349.81	83.75
350.037	87.75
350.265	72.75
350.492	83.75
350.72	77.75
350.947	76.75
351.174	91.75
351.402	82.75
351.629	85.75
351.856	80.75
352.083	79.75
352.311	84.75
352.538	96.75
352.765	87.75
352.992	81.75
353.22	66.75
353.447	90.75
353.674	82.75
353.901	82.75
354.128	69.75
354.355	79.75
354.583	69.75
354.81	65.75
355.037	75.75
355.264	95.75
355.491	94.75
355.718	72.75
355.945	95.75
356.172	88.75
356.399	78.75
356.626	82.75
356.853	96.75
357.08	85.75
357.307	78.75
357.534	76.75
357.761	80.75
357.988	80.75
358.215	91.75
358.441	82.75
358.668	77.75
358.895	80.75
359.122	78.75
359.349	75.75
359.576	72.75
359.802	78.75
360.029	81.75
360.256	83.75
360.483	77.75
360.709	101.75
360.936	97.75
361.163	81.75
361.39	75.75
361.616	68.75
361.843	67.75
362.07	82.75
362.296	82.75
362.523	77.75
362.749	85.75
362.976	91.75
363.203	74.75
363.429	76.75
363.656	86.75
363.882	79.75
364.109	84.75
364.335	78.75
364.562	81.75
364.788	86.75
365.015	99.75
365.241	85.75
365.468	84.75
365.694	88.75
365.92	75.75
366.147	78.75
366.373	69.75
366.599	106.75
366.826	71.75
367.052	82.75
367.278	90.75
367.505	82.75
367.731	90.75
367.957	62.75
368.184	82.75
368.41	78.75
368.636	68.75
368.862	80.75
369.089	91.75
369.315	66.75
369.541	84.75
369.767	86.75
369.993	83.75
370.219	75.75
370.445	95.75
370.672	76.75
370.898	81.75
371.124	83.75
371.35	95.75
371.576	69.75
371.802	75.75
372.028	68.75
372.254	79.75
372.48	94.75
372.706	79.75
372.932	77.75
373.158	95.75
373.384	89.75
373.61	91.75
373.835	85.75
374.061	74.75
374.287	90.75
374.513	89.75
374.739	77.75
374.965	69.75
375.191	79.75
375.416	80.75
375.642	94.75
375.868	80.75
376.094	75.75
376.319	82.75
376.545	69.75
376.771	82.75
376.997	76.75
377.222	87.75
377.448	70.75
377.674	63.75
377.899	82.75
378.125	92.75
378.35	77.75
378.576	81.75
378.802	85.75
379.027	74.75
379.253	80.75
379.478	79.75
379.704	81.75
379.929	80.75
380.155	87.75
380.38	75.75
380.606	91.75
380.831	76.75
381.057	75.75
381.282	85.75
381.507	75.75
381.733	70.75
381.958	74.75
382.184	100.75
382.409	84.75
382.634	85.75
382.86	64.75
383.085	102.75
383.31	75.75
383.535	86.75
383.761	87.75
383.986	78.75
384.211	77.75
384.436	79.75
384.662	82.75
384.887	90.75
385.112	74.75
385.337	74.75
385.562	78.75
385.787	77.75
386.013	87.75
386.238	74.75
386.463	72.75
386.688	95.75
386.913	86.75
387.138	76.75
387.363	80.75
387.588	82.75
387.813	69.75
388.038	81.75
388.263	59.75
388.488	72.75
388.713	83.75
388.938	88.75
389.163	82.75
389.387	83.75
389.612	69.75
389.837	69.75
390.062	77.75
390.287	82.75
390.512	80.75
390.736	90.75
390.961	80.75
391.186	77.75
391.411	75.75
391.636	85.75
391.86	78.75
392.085	74.75
392.31	74.75
392.534	87.75
392.759	83.75
392.984	86.75
393.208	80.75
393.433	81.75
393.658	89.75
393.882	78.75
394.107	75.75
394.331	82.75
394.556	75.75
394.78	87.75
395.005	83.75
395.229	75.75
395.454	79.75
395.678	90.75
395.903	84.75
396.127	84.75
396.352	59.75
396.576	79.75
396.801	85.75
397.025	83.75
397.249	79.75
397.474	85.75
397.698	74.75
397.922	65.75
398.147	91.75
398.371	67.75
398.595	72.75
398.82	92.75
399.044	84.75
399.268	76.75
399.492	76.75
399.717	86.75
399.941	85.75
400.165	93.75
400.389	88.75
400.613	81.75
400.837	91.75
401.062	83.75
401.286	82.75
401.51	73.75
401.734	77.75
401.958	82.75
402.182	78.75
402.406	75.75
402.63	77.75
402.854	73.75
403.078	69.75
403.302	72.75
403.526	76.75
403.75	81.75
403.974	71.75
404.198	88.75
404.422	79.75
404.645	80.75
404.869	73.75
405.093	75.75
405.317	91.75
405.541	86.75
405.765	83.75
405.988	84.75
406.212	73.75
406.436	87.75
406.66	91.75
406.883	82.75
407.107	76.75
407.331	86.75
407.555	89.75
407.778	89.75
408.002	79.75
408.226	90.75
408.449	86.75
408.673	73.75
408.896	86.75
409.12	77.75
409.344	88.75
409.567	83.75
409.791	80.75
410.014	96.75
410.238	97.75
410.461	84.75
410.685	88.75
410.908	77.75
411.132	95.75
411.355	88.75
411.578	85.75
411.802	90.75
412.025	86.75
412.249	63.75
412.472	79.75
412.695	66.75
412.919	85.75
413.142	90.75
413.365	89.75
413.589	73.75
413.812	98.75
414.035	72.75
414.258	89.75
414.482	88.75
414.705	89.75
414.928	81.75
415.151	86.75
415.374	85.75
415.597	87.75
415.821	70.75
416.044	79.75
416.267	109.75
416.49	78.75
416.713	73.75
416.936	70.75
417.159	86.75
417.382	79.75
417.605	85.75
417.828	85.75
418.051	82.75
418.274	91.75
418.497	93.75
418.72	82.75
418.943	92.75
419.166	64.75
419.389	92.75
419.611	83.75
419.834	83.75
420.057	89.75
420.28	92.75
420.503	86.75
420.726	89.75
420.948	90.75
421.171	78.75
421.394	89.75
421.617	83.75
421.839	91.75
422.062	91.75
422.285	90.75
422.507	88.75
422.73	88.75
422.953	97.75
423.175	82.75
423.398	80.75
423.621	88.75
423.843	88.75
424.066	76.75
424.288	97.75
424.511	78.75
424.733	72.75
424.956	75.75
425.178	76.75
425.401	59.75
425.623	81.75
425.846	98.75
426.068	75.75
426.291	86.75
426.513	86.75
426.735	67.75
426.958	94.75
427.18	93.75
427.402	90.75
427.625	94.75
427.847	80.75
428.069	77.75
428.292	82.75
428.514	85.75
428.736	100.75
428.958	83.75
429.181	76.75
429.403	88.75
429.625	88.75
429.847	85.75
430.069	90.75
430.292	84.75
430.514	75.75
430.736	93.75
430.958	89.75
431.18	97.75
431.402	86.75
431.624	80.75
431.846	86.75
432.068	91.75
432.29	82.75
432.512	89.75
432.734	79.75
432.956	87.75
433.178	81.75
433.4	86.75
433.622	83.75
433.844	88.75
434.066	84.75
434.287	85.75
434.509	84.75
434.731	84.75
434.953	83.75
435.175	89.75
435.397	76.75
435.618	81.75
435.84	69.75
436.062	81.75
436.284	85.75
436.505	80.75
436.727	80.75
436.949	77.75
437.17	85.75
437.392	99.75
437.614	75.75
437.835	90.75
438.057	92.75
438.278	86.75
438.5	71.75
438.721	84.75
438.943	82.75
439.165	82.75
439.386	102.75
439.608	83.75
439.829	85.75
440.05	77.75
440.272	97.75
440.493	90.75
440.715	78.75
440.936	100.75
441.158	86.75
441.379	80.75
441.6	97.75
441.822	83.75
442.043	95.75
442.264	101.75
442.486	88.75
442.707	100.75
442.928	98.75
443.149	88.75
443.371	87.75
443.592	80.75
443.813	79.75
444.034	83.75
444.255	79.75
444.476	93.75
444.698	97.75
444.919	91.75
445.14	218.75
445.361	147.75
445.582	84.75
445.803	89.75
446.024	84.75
446.245	95.75
446.466	100.75
446.687	89.75
446.908	97.75
447.129	98.75
447.35	89.75
447.571	95.75
447.792	81.75
448.013	89.75
448.234	79.75
448.455	84.75
448.675	86.75
448.896	93.75
449.117	86.75
449.338	81.75
449.559	92.75
449.779	93.75
450	93.75
450.221	90.75
450.442	83.75
450.662	90.75
450.883	85.75
451.104	87.75
451.324	86.75
451.545	82.75
451.766	87.75
451.986	95.75
452.207	86.75
452.428	85.75
452.648	98.75
452.869	89.75
453.089	91.75
453.31	73.75
453.53	82.75
453.751	79.75
453.971	82.75
454.192	78.75
454.412	86.75
454.633	79.75
454.853	106.75
455.073	84.75
455.294	81.75
455.514	85.75
455.734	82.75
455.955	96.75
456.175	81.75
456.395	80.75
456.616	79.75
456.836	81.75
457.056	86.75
457.276	83.75
457.497	89.75
457.717	76.75
457.937	95.75
458.157	87.75
458.377	80.75
458.598	93.75
458.818	87.75
459.038	77.75
459.258	73.75
459.478	85.75
459.698	65.75
459.918	93.75
460.138	78.75
460.358	85.75
460.578	82.75
460.798	92.75
461.018	73.75
461.238	83.75
461.458	84.75
461.678	82.75
461.898	84.75
462.118	88.75
462.338	81.75
462.558	83.75
462.777	95.75
462.997	71.75
463.217	75.75
463.437	79.75
463.657	73.75
463.876	71.75
464.096	78.75
464.316	85.75
464.536	92.75
464.755	90.75
464.975	81.75
465.195	93.75
465.414	96.75
465.634	84.75
465.854	96.75
466.073	88.75
466.293	85.75
466.512	93.75
466.732	65.75
466.951	82.75
467.171	86.75
467.391	93.75
467.61	88.75
467.829	91.75
468.049	88.75
468.268	92.75
468.488	92.75
468.707	95.75
468.927	77.75
469.146	83.75
469.365	86.75
469.585	96.75
469.804	86.75
470.023	95.75
470.243	84.75
470.462	80.75
470.681	95.75
470.901	85.75
471.12	82.75
471.339	89.75
471.558	89.75
471.777	94.75
471.997	91.75
472.216	98.75
472.435	91.75
472.654	83.75
472.873	91.75
473.092	75.75
473.311	96.75
473.53	77.75
473.749	91.75
473.968	94.75
474.187	93.75
474.406	91.75
474.625	88.75
474.844	73.75
475.063	84.75
475.282	78.75
475.501	77.75
475.72	98.75
475.939	75.75
476.158	93.75
476.377	75.75
476.596	95.75
476.814	85.75
477.033	88.75
477.252	89.75
477.471	87.75
477.69	78.75
477.908	96.75
478.127	85.75
478.346	85.75
478.564	75.75
478.783	87.75
479.002	93.75
479.22	88.75
479.439	87.75
479.658	85.75
479.876	83.75
480.095	78.75
480.313	91.75
480.532	68.75
480.751	77.75
480.969	69.75
481.188	81.75
481.406	90.75
481.624	86.75
481.843	72.75
482.061	78.75
482.28	83.75
482.498	85.75
482.717	93.75
482.935	80.75
483.153	86.75
483.372	90.75
483.59	88.75
483.808	83.75
484.027	95.75
484.245	79.75
484.463	115.75
484.681	102.75
484.9	97.75
485.118	92.75
485.336	98.75
485.554	82.75
485.772	85.75
485.99	74.75
486.209	70.75
486.427	84.75
486.645	68.75
486.863	92.75
487.081	86.75
487.299	99.75
487.517	83.75
487.735	101.75
487.953	98.75
488.171	95.75
488.389	102.75
488.607	92.75
488.825	84.75
489.043	79.75
489.261	96.75
489.479	89.75
489.696	89.75
489.914	95.75
490.132	81.75
490.35	90.75
490.568	92.75
490.786	83.75
491.003	87.75
491.221	110.75
491.439	73.75
491.657	87.75
491.874	90.75
492.092	91.75
492.31	96.75
492.527	110.75
492.745	111.75
492.963	102.75
493.18	91.75
493.398	97.75
493.615	93.75
493.833	91.75
494.05	92.75
494.268	82.75
494.485	91.75
494.703	103.75
494.92	90.75
495.138	93.75
495.355	94.75
495.573	96.75
495.79	88.75
496.008	100.75
496.225	86.75
496.442	88.75
496.66	85.75
496.877	91.75
497.094	97.75
497.312	96.75
497.529	97.75
497.746	104.75
497.963	81.75
498.181	81.75
498.398	90.75
498.615	76.75
498.832	80.75
499.049	82.75
499.267	84.75
499.484	80.75
499.701	98.75
499.918	83.75
500.135	95.75
500.352	99.75
500.569	84.75
500.786	73.75
501.003	94.75
501.22	95.75
501.437	88.75
501.654	88.75
501.871	77.75
502.088	84.75
502.305	78.75
502.522	95.75
502.739	90.75
502.956	96.75
503.172	87.75
503.389	68.75
503.606	88.75
503.823	94.75
504.04	84.75
504.256	83.75
504.473	86.75
504.69	87.75
504.907	89.75
505.123	85.75
505.34	82.75
505.557	79.75
505.773	97.75
505.99	83.75
506.207	78.75
506.423	78.75
506.64	79.75
506.856	85.75
507.073	88.75
507.289	83.75
507.506	87.75
507.722	80.75
507.939	88.75
508.155	77.75
508.372	83.75
508.588	97.75
508.805	101.75
509.021	83.75
509.238	89.75
509.454	77.75
509.67	81.75
509.887	87.75
510.103	68.75
510.319	86.75
510.536	83.75
510.752	77.75
510.968	89.75
511.184	82.75
511.401	83.75
511.617	75.75
511.833	83.75
512.049	77.75
512.265	85.75
512.481	78.75
512.698	67.75
512.914	87.75
513.13	90.75
513.346	87.75
513.562	75.75
513.778	88.75
513.994	95.75
514.21	85.75
514.426	73.75
514.642	95.75
514.858	77.75
515.074	80.75
515.29	83.75
515.506	77.75
515.721	75.75
515.937	85.75
516.153	83.75
516.369	77.75
516.585	72.75
516.801	88.75
517.016	63.75
517.232	83.75
517.448	92.75
517.664	76.75
517.879	74.75
518.095	60.75
518.311	93.75
518.527	90.75
518.742	80.75
518.958	81.75
