Data from Zn(NO3)2Standard.Agarose3%.GreenCap.LampEnergy10E.O_HRD10591_15-07-41-946.txt Node
Date: Mon Jul 22 15:07:41 EDT 2019
User: cochatt
Spectrometer: HR+D1059
Trigger mode: 1
Integration Time (sec): 1.000000E-1
Scans to average: 1
Electric dark correction enabled: true
Nonlinearity correction enabled: false
Boxcar width: 0
XAxis mode: Wavelengths
Number of Pixels in Spectrum: 2048
>>>>>Begin Spectral Data<<<<<
223.165	-15.94
223.4	-15.94
223.635	-15.94
223.869	-15.94
224.104	-10.94
224.338	-13.94
224.573	-11.94
224.808	-5.94
225.042	-12.94
225.277	-10.94
225.511	-12.94
225.746	1.06
225.98	3.06
226.215	16.06
226.449	19.06
226.683	11.06
226.918	33.06
227.152	28.06
227.387	38.06
227.621	43.06
227.856	47.06
228.09	47.06
228.324	45.06
228.559	56.06
228.793	55.06
229.027	54.06
229.262	58.06
229.496	72.06
229.73	82.06
229.964	77.06
230.199	80.06
230.433	78.06
230.667	89.06
230.901	69.06
231.136	74.06
231.37	80.06
231.604	79.06
231.838	79.06
232.072	74.06
232.306	68.06
232.541	77.06
232.775	77.06
233.009	87.06
233.243	76.06
233.477	63.06
233.711	76.06
233.945	64.06
234.179	79.06
234.413	100.06
234.647	87.06
234.881	82.06
235.115	82.06
235.349	63.06
235.583	76.06
235.817	73.06
236.051	77.06
236.285	70.06
236.519	86.06
236.753	74.06
236.987	74.06
237.221	88.06
237.455	72.06
237.689	79.06
237.922	86.06
238.156	84.06
238.39	73.06
238.624	96.06
238.858	68.06
239.091	89.06
239.325	76.06
239.559	74.06
239.793	68.06
240.027	88.06
240.26	78.06
240.494	89.06
240.728	77.06
240.961	82.06
241.195	81.06
241.429	70.06
241.662	64.06
241.896	83.06
242.13	83.06
242.363	76.06
242.597	74.06
242.83	77.06
243.064	83.06
243.298	67.06
243.531	72.06
243.765	82.06
243.998	78.06
244.232	81.06
244.465	85.06
244.699	78.06
244.932	76.06
245.166	72.06
245.399	77.06
245.633	75.06
245.866	69.06
246.099	89.06
246.333	77.06
246.566	74.06
246.8	71.06
247.033	86.06
247.266	76.06
247.5	79.06
247.733	86.06
247.966	88.06
248.2	77.06
248.433	77.06
248.666	85.06
248.899	88.06
249.133	75.06
249.366	73.06
249.599	90.06
249.832	81.06
250.066	85.06
250.299	93.06
250.532	88.06
250.765	88.06
250.998	99.06
251.231	76.06
251.465	79.06
251.698	86.06
251.931	72.06
252.164	70.06
252.397	82.06
252.63	95.06
252.863	86.06
253.096	88.06
253.329	74.06
253.562	79.06
253.795	70.06
254.028	79.06
254.261	83.06
254.494	78.06
254.727	82.06
254.96	78.06
255.193	97.06
255.426	87.06
255.659	85.06
255.892	80.06
256.124	76.06
256.357	78.06
256.59	89.06
256.823	79.06
257.056	84.06
257.289	91.06
257.521	90.06
257.754	65.06
257.987	84.06
258.22	83.06
258.452	82.06
258.685	62.06
258.918	89.06
259.151	81.06
259.383	86.06
259.616	64.06
259.849	78.06
260.081	74.06
260.314	75.06
260.547	79.06
260.779	70.06
261.012	79.06
261.244	92.06
261.477	104.06
261.71	78.06
261.942	86.06
262.175	86.06
262.407	82.06
262.64	81.06
262.872	87.06
263.105	84.06
263.337	83.06
263.57	86.06
263.802	96.06
264.035	97.06
264.267	89.06
264.499	83.06
264.732	86.06
264.964	78.06
265.197	93.06
265.429	78.06
265.661	84.06
265.894	86.06
266.126	93.06
266.358	85.06
266.591	86.06
266.823	98.06
267.055	77.06
267.287	91.06
267.52	78.06
267.752	82.06
267.984	80.06
268.216	90.06
268.448	86.06
268.681	86.06
268.913	90.06
269.145	83.06
269.377	84.06
269.609	85.06
269.841	74.06
270.073	72.06
270.306	62.06
270.538	76.06
270.77	83.06
271.002	86.06
271.234	81.06
271.466	74.06
271.698	72.06
271.93	86.06
272.162	77.06
272.394	93.06
272.626	76.06
272.858	79.06
273.09	79.06
273.322	89.06
273.553	84.06
273.785	67.06
274.017	89.06
274.249	82.06
274.481	91.06
274.713	75.06
274.945	95.06
275.176	94.06
275.408	96.06
275.64	102.06
275.872	87.06
276.104	78.06
276.335	91.06
276.567	79.06
276.799	90.06
277.031	92.06
277.262	88.06
277.494	86.06
277.726	93.06
277.957	83.06
278.189	96.06
278.421	79.06
278.652	90.06
278.884	83.06
279.115	97.06
279.347	98.06
279.579	77.06
279.81	82.06
280.042	74.06
280.273	92.06
280.505	69.06
280.736	70.06
280.968	84.06
281.199	87.06
281.431	95.06
281.662	84.06
281.894	84.06
282.125	92.06
282.356	92.06
282.588	88.06
282.819	89.06
283.051	87.06
283.282	98.06
283.513	88.06
283.745	77.06
283.976	81.06
284.207	92.06
284.439	91.06
284.67	89.06
284.901	79.06
285.132	86.06
285.364	109.06
285.595	98.06
285.826	94.06
286.057	91.06
286.288	92.06
286.52	91.06
286.751	89.06
286.982	85.06
287.213	73.06
287.444	80.06
287.675	92.06
287.906	81.06
288.138	83.06
288.369	78.06
288.6	94.06
288.831	89.06
289.062	80.06
289.293	77.06
289.524	96.06
289.755	82.06
289.986	91.06
290.217	81.06
290.448	87.06
290.679	90.06
290.91	82.06
291.141	72.06
291.371	76.06
291.602	90.06
291.833	100.06
292.064	90.06
292.295	89.06
292.526	91.06
292.757	71.06
292.987	72.06
293.218	86.06
293.449	78.06
293.68	86.06
293.91	82.06
294.141	67.06
294.372	87.06
294.603	76.06
294.833	76.06
295.064	84.06
295.295	94.06
295.525	72.06
295.756	84.06
295.987	93.06
296.217	93.06
296.448	84.06
296.679	87.06
296.909	73.06
297.14	82.06
297.37	84.06
297.601	87.06
297.831	81.06
298.062	85.06
298.292	85.06
298.523	84.06
298.753	89.06
298.984	91.06
299.214	87.06
299.445	81.06
299.675	79.06
299.905	80.06
300.136	98.06
300.366	85.06
300.597	85.06
300.827	91.06
301.057	91.06
301.288	76.06
301.518	77.06
301.748	69.06
301.979	90.06
302.209	90.06
302.439	82.06
302.669	92.06
302.9	80.06
303.13	104.06
303.36	97.06
303.59	79.06
303.82	87.06
304.051	88.06
304.281	93.06
304.511	91.06
304.741	84.06
304.971	87.06
305.201	81.06
305.431	87.06
305.661	83.06
305.891	96.06
306.121	103.06
306.352	101.06
306.582	83.06
306.812	92.06
307.042	91.06
307.272	78.06
307.502	80.06
307.731	85.06
307.961	107.06
308.191	101.06
308.421	103.06
308.651	91.06
308.881	86.06
309.111	85.06
309.341	91.06
309.571	82.06
309.8	89.06
310.03	88.06
310.26	88.06
310.49	93.06
310.72	85.06
310.949	91.06
311.179	86.06
311.409	73.06
311.639	92.06
311.868	100.06
312.098	91.06
312.328	92.06
312.557	103.06
312.787	73.06
313.017	89.06
313.246	84.06
313.476	85.06
313.706	77.06
313.935	78.06
314.165	84.06
314.394	94.06
314.624	81.06
314.853	97.06
315.083	83.06
315.312	88.06
315.542	93.06
315.771	92.06
316.001	73.06
316.23	82.06
316.46	86.06
316.689	85.06
316.919	97.06
317.148	84.06
317.377	92.06
317.607	90.06
317.836	82.06
318.065	93.06
318.295	85.06
318.524	81.06
318.753	92.06
318.983	88.06
319.212	90.06
319.441	88.06
319.67	84.06
319.9	84.06
320.129	80.06
320.358	82.06
320.587	63.06
320.816	99.06
321.046	72.06
321.275	97.06
321.504	92.06
321.733	87.06
321.962	76.06
322.191	89.06
322.42	75.06
322.649	94.06
322.878	96.06
323.108	84.06
323.337	66.06
323.566	84.06
323.795	83.06
324.024	77.06
324.253	83.06
324.482	70.06
324.71	77.06
324.939	106.06
325.168	103.06
325.397	88.06
325.626	90.06
325.855	98.06
326.084	85.06
326.313	100.06
326.542	87.06
326.77	100.06
326.999	86.06
327.228	91.06
327.457	88.06
327.686	82.06
327.914	83.06
328.143	87.06
328.372	81.06
328.6	106.06
328.829	96.06
329.058	89.06
329.287	90.06
329.515	93.06
329.744	97.06
329.972	98.06
330.201	87.06
330.43	88.06
330.658	86.06
330.887	99.06
331.115	91.06
331.344	85.06
331.572	75.06
331.801	78.06
332.03	76.06
332.258	79.06
332.486	90.06
332.715	88.06
332.943	91.06
333.172	69.06
333.4	98.06
333.629	84.06
333.857	87.06
334.085	77.06
334.314	70.06
334.542	96.06
334.771	81.06
334.999	88.06
335.227	88.06
335.455	81.06
335.684	84.06
335.912	90.06
336.14	78.06
336.369	74.06
336.597	85.06
336.825	82.06
337.053	77.06
337.281	93.06
337.51	106.06
337.738	83.06
337.966	80.06
338.194	90.06
338.422	80.06
338.65	87.06
338.878	98.06
339.106	92.06
339.334	103.06
339.562	102.06
339.79	79.06
340.018	86.06
340.246	84.06
340.474	87.06
340.702	101.06
340.93	87.06
341.158	79.06
341.386	92.06
341.614	73.06
341.842	97.06
342.07	86.06
342.298	101.06
342.526	90.06
342.754	93.06
342.981	88.06
343.209	93.06
343.437	76.06
343.665	79.06
343.893	84.06
344.12	70.06
344.348	84.06
344.576	84.06
344.804	85.06
345.031	86.06
345.259	75.06
345.487	81.06
345.714	79.06
345.942	101.06
346.17	83.06
346.397	84.06
346.625	86.06
346.853	86.06
347.08	96.06
347.308	99.06
347.535	83.06
347.763	95.06
347.99	86.06
348.218	92.06
348.445	86.06
348.673	104.06
348.9	90.06
349.128	90.06
349.355	83.06
349.583	107.06
349.81	79.06
350.037	89.06
350.265	80.06
350.492	83.06
350.72	89.06
350.947	91.06
351.174	94.06
351.402	95.06
351.629	96.06
351.856	87.06
352.083	79.06
352.311	95.06
352.538	80.06
352.765	100.06
352.992	87.06
353.22	86.06
353.447	83.06
353.674	84.06
353.901	81.06
354.128	95.06
354.355	76.06
354.583	111.06
354.81	86.06
355.037	90.06
355.264	84.06
355.491	97.06
355.718	80.06
355.945	74.06
356.172	95.06
356.399	80.06
356.626	92.06
356.853	97.06
357.08	79.06
357.307	78.06
357.534	83.06
357.761	80.06
357.988	78.06
358.215	85.06
358.441	85.06
358.668	90.06
358.895	88.06
359.122	84.06
359.349	92.06
359.576	92.06
359.802	88.06
360.029	85.06
360.256	96.06
360.483	88.06
360.709	89.06
360.936	98.06
361.163	79.06
361.39	81.06
361.616	75.06
361.843	84.06
362.07	67.06
362.296	69.06
362.523	90.06
362.749	87.06
362.976	106.06
363.203	96.06
363.429	85.06
363.656	90.06
363.882	79.06
364.109	94.06
364.335	87.06
364.562	93.06
364.788	75.06
365.015	85.06
365.241	83.06
365.468	80.06
365.694	88.06
365.92	89.06
366.147	85.06
366.373	93.06
366.599	85.06
366.826	89.06
367.052	94.06
367.278	98.06
367.505	99.06
367.731	88.06
367.957	90.06
368.184	101.06
368.41	97.06
368.636	82.06
368.862	86.06
369.089	88.06
369.315	71.06
369.541	77.06
369.767	76.06
369.993	90.06
370.219	75.06
370.445	85.06
370.672	87.06
370.898	87.06
371.124	92.06
371.35	90.06
371.576	98.06
371.802	99.06
372.028	90.06
372.254	75.06
372.48	94.06
372.706	88.06
372.932	79.06
373.158	101.06
373.384	94.06
373.61	108.06
373.835	86.06
374.061	85.06
374.287	101.06
374.513	86.06
374.739	94.06
374.965	98.06
375.191	78.06
375.416	89.06
375.642	95.06
375.868	91.06
376.094	85.06
376.319	105.06
376.545	77.06
376.771	102.06
376.997	94.06
377.222	83.06
377.448	90.06
377.674	86.06
377.899	91.06
378.125	83.06
378.35	70.06
378.576	93.06
378.802	98.06
379.027	99.06
379.253	97.06
379.478	90.06
379.704	95.06
379.929	91.06
380.155	87.06
380.38	89.06
380.606	87.06
380.831	88.06
381.057	86.06
381.282	89.06
381.507	88.06
381.733	82.06
381.958	87.06
382.184	91.06
382.409	84.06
382.634	93.06
382.86	89.06
383.085	99.06
383.31	92.06
383.535	101.06
383.761	86.06
383.986	91.06
384.211	92.06
384.436	89.06
384.662	94.06
384.887	88.06
385.112	87.06
385.337	91.06
385.562	89.06
385.787	79.06
386.013	105.06
386.238	98.06
386.463	83.06
386.688	95.06
386.913	99.06
387.138	80.06
387.363	88.06
387.588	99.06
387.813	94.06
388.038	91.06
388.263	82.06
388.488	81.06
388.713	102.06
388.938	109.06
389.163	84.06
389.387	98.06
389.612	91.06
389.837	84.06
390.062	91.06
390.287	93.06
390.512	95.06
390.736	92.06
390.961	90.06
391.186	90.06
391.411	95.06
391.636	86.06
391.86	73.06
392.085	86.06
392.31	84.06
392.534	101.06
392.759	101.06
392.984	107.06
393.208	94.06
393.433	114.06
393.658	89.06
393.882	101.06
394.107	85.06
394.331	101.06
394.556	102.06
394.78	94.06
395.005	93.06
395.229	90.06
395.454	91.06
395.678	84.06
395.903	86.06
396.127	99.06
396.352	96.06
396.576	95.06
396.801	100.06
397.025	94.06
397.249	93.06
397.474	100.06
397.698	98.06
397.922	92.06
398.147	93.06
398.371	99.06
398.595	83.06
398.82	97.06
399.044	99.06
399.268	101.06
399.492	107.06
399.717	101.06
399.941	92.06
400.165	104.06
400.389	95.06
400.613	108.06
400.837	94.06
401.062	90.06
401.286	96.06
401.51	102.06
401.734	86.06
401.958	81.06
402.182	97.06
402.406	87.06
402.63	104.06
402.854	95.06
403.078	81.06
403.302	93.06
403.526	91.06
403.75	102.06
403.974	98.06
404.198	99.06
404.422	97.06
404.645	93.06
404.869	95.06
405.093	108.06
405.317	105.06
405.541	98.06
405.765	96.06
405.988	101.06
406.212	98.06
406.436	106.06
406.66	95.06
406.883	112.06
407.107	110.06
407.331	102.06
407.555	109.06
407.778	104.06
408.002	86.06
408.226	92.06
408.449	114.06
408.673	94.06
408.896	110.06
409.12	92.06
409.344	86.06
409.567	91.06
409.791	93.06
410.014	99.06
410.238	101.06
410.461	105.06
410.685	102.06
410.908	108.06
411.132	96.06
411.355	95.06
411.578	108.06
411.802	112.06
412.025	100.06
412.249	97.06
412.472	107.06
412.695	103.06
412.919	106.06
413.142	120.06
413.365	82.06
413.589	103.06
413.812	102.06
414.035	112.06
414.258	92.06
414.482	102.06
414.705	107.06
414.928	99.06
415.151	97.06
415.374	111.06
415.597	108.06
415.821	117.06
416.044	103.06
416.267	96.06
416.49	102.06
416.713	104.06
416.936	94.06
417.159	118.06
417.382	107.06
417.605	100.06
417.828	117.06
418.051	94.06
418.274	117.06
418.497	107.06
418.72	97.06
418.943	105.06
419.166	93.06
419.389	116.06
419.611	118.06
419.834	114.06
420.057	121.06
420.28	110.06
420.503	109.06
420.726	91.06
420.948	106.06
421.171	98.06
421.394	110.06
421.617	114.06
421.839	111.06
422.062	110.06
422.285	107.06
422.507	100.06
422.73	99.06
422.953	112.06
423.175	107.06
423.398	114.06
423.621	108.06
423.843	108.06
424.066	106.06
424.288	92.06
424.511	115.06
424.733	116.06
424.956	124.06
425.178	111.06
425.401	119.06
425.623	100.06
425.846	87.06
426.068	109.06
426.291	109.06
426.513	104.06
426.735	110.06
426.958	94.06
427.18	123.06
427.402	115.06
427.625	116.06
427.847	115.06
428.069	101.06
428.292	99.06
428.514	104.06
428.736	108.06
428.958	111.06
429.181	102.06
429.403	103.06
429.625	116.06
429.847	101.06
430.069	101.06
430.292	127.06
430.514	109.06
430.736	103.06
430.958	104.06
431.18	107.06
431.402	99.06
431.624	84.06
431.846	89.06
432.068	84.06
432.29	83.06
432.512	109.06
432.734	112.06
432.956	109.06
433.178	114.06
433.4	116.06
433.622	105.06
433.844	120.06
434.066	106.06
434.287	102.06
434.509	93.06
434.731	95.06
434.953	87.06
435.175	112.06
435.397	101.06
435.618	112.06
435.84	92.06
436.062	95.06
436.284	98.06
436.505	103.06
436.727	100.06
436.949	115.06
437.17	108.06
437.392	94.06
437.614	106.06
437.835	97.06
438.057	100.06
438.278	79.06
438.5	108.06
438.721	111.06
438.943	116.06
439.165	108.06
439.386	110.06
439.608	104.06
439.829	112.06
440.05	108.06
440.272	116.06
440.493	111.06
440.715	120.06
440.936	102.06
441.158	98.06
441.379	131.06
441.6	108.06
441.822	104.06
442.043	103.06
442.264	104.06
442.486	105.06
442.707	110.06
442.928	110.06
443.149	114.06
443.371	107.06
443.592	91.06
443.813	96.06
444.034	99.06
444.255	107.06
444.476	109.06
444.698	115.06
444.919	118.06
445.14	233.06
445.361	170.06
445.582	122.06
445.803	95.06
446.024	99.06
446.245	108.06
446.466	110.06
446.687	126.06
446.908	119.06
447.129	118.06
447.35	106.06
447.571	97.06
447.792	118.06
448.013	101.06
448.234	112.06
448.455	109.06
448.675	110.06
448.896	107.06
449.117	120.06
449.338	89.06
449.559	103.06
449.779	101.06
450	109.06
450.221	108.06
450.442	118.06
450.662	116.06
450.883	108.06
451.104	101.06
451.324	98.06
451.545	107.06
451.766	114.06
451.986	92.06
452.207	98.06
452.428	103.06
452.648	92.06
452.869	100.06
453.089	104.06
453.31	103.06
453.53	96.06
453.751	93.06
453.971	80.06
454.192	96.06
454.412	97.06
454.633	109.06
454.853	106.06
455.073	91.06
455.294	92.06
455.514	91.06
455.734	104.06
455.955	91.06
456.175	91.06
456.395	96.06
456.616	107.06
456.836	92.06
457.056	94.06
457.276	101.06
457.497	93.06
457.717	89.06
457.937	103.06
458.157	105.06
458.377	97.06
458.598	85.06
458.818	87.06
459.038	77.06
459.258	87.06
459.478	88.06
459.698	80.06
459.918	93.06
460.138	93.06
460.358	102.06
460.578	77.06
460.798	92.06
461.018	102.06
461.238	93.06
461.458	89.06
461.678	91.06
461.898	115.06
462.118	116.06
462.338	102.06
462.558	110.06
462.777	89.06
462.997	99.06
463.217	82.06
463.437	88.06
463.657	91.06
463.876	113.06
464.096	107.06
464.316	96.06
464.536	103.06
464.755	89.06
464.975	79.06
465.195	92.06
465.414	111.06
465.634	103.06
465.854	99.06
466.073	102.06
466.293	94.06
466.512	104.06
466.732	117.06
466.951	104.06
467.171	95.06
467.391	105.06
467.61	102.06
467.829	102.06
468.049	102.06
468.268	108.06
468.488	120.06
468.707	106.06
468.927	120.06
469.146	117.06
469.365	116.06
469.585	96.06
469.804	130.06
470.023	115.06
470.243	113.06
470.462	122.06
470.681	111.06
470.901	122.06
471.12	107.06
471.339	111.06
471.558	121.06
471.777	128.06
471.997	104.06
472.216	99.06
472.435	105.06
472.654	93.06
472.873	91.06
473.092	115.06
473.311	105.06
473.53	108.06
473.749	112.06
473.968	103.06
474.187	99.06
474.406	100.06
474.625	105.06
474.844	104.06
475.063	118.06
475.282	111.06
475.501	99.06
475.72	114.06
475.939	118.06
476.158	114.06
476.377	104.06
476.596	96.06
476.814	97.06
477.033	108.06
477.252	107.06
477.471	105.06
477.69	124.06
477.908	120.06
478.127	115.06
478.346	108.06
478.564	122.06
478.783	94.06
479.002	116.06
479.22	110.06
479.439	123.06
479.658	94.06
479.876	92.06
480.095	80.06
480.313	106.06
480.532	105.06
480.751	102.06
480.969	93.06
481.188	95.06
481.406	71.06
481.624	88.06
481.843	74.06
482.061	70.06
482.28	98.06
482.498	112.06
482.717	97.06
482.935	94.06
483.153	112.06
483.372	107.06
483.59	113.06
483.808	114.06
484.027	107.06
484.245	110.06
484.463	113.06
484.681	133.06
484.9	110.06
485.118	124.06
485.336	84.06
485.554	90.06
485.772	98.06
485.99	101.06
486.209	105.06
486.427	106.06
486.645	106.06
486.863	93.06
487.081	105.06
487.299	123.06
487.517	108.06
487.735	130.06
487.953	140.06
488.171	138.06
488.389	119.06
488.607	127.06
488.825	110.06
489.043	104.06
489.261	116.06
489.479	110.06
489.696	120.06
489.914	114.06
490.132	125.06
490.35	120.06
490.568	124.06
490.786	114.06
491.003	120.06
491.221	127.06
491.439	138.06
491.657	144.06
491.874	126.06
492.092	165.06
492.31	164.06
492.527	144.06
492.745	150.06
492.963	154.06
493.18	133.06
493.398	127.06
493.615	118.06
493.833	138.06
494.05	127.06
494.268	124.06
494.485	118.06
494.703	126.06
494.92	112.06
495.138	131.06
495.355	119.06
495.573	138.06
495.79	129.06
496.008	123.06
496.225	122.06
496.442	111.06
496.66	135.06
496.877	136.06
497.094	122.06
497.312	116.06
497.529	129.06
497.746	128.06
497.963	111.06
498.181	107.06
498.398	116.06
498.615	103.06
498.832	107.06
499.049	96.06
499.267	117.06
499.484	102.06
499.701	105.06
499.918	107.06
500.135	116.06
500.352	126.06
500.569	120.06
500.786	108.06
501.003	117.06
501.22	104.06
501.437	107.06
501.654	101.06
501.871	127.06
502.088	116.06
502.305	106.06
502.522	89.06
502.739	99.06
502.956	117.06
503.172	113.06
503.389	107.06
503.606	105.06
503.823	111.06
504.04	110.06
504.256	110.06
504.473	92.06
504.69	99.06
504.907	106.06
505.123	97.06
505.34	94.06
505.557	110.06
505.773	110.06
505.99	100.06
506.207	100.06
506.423	116.06
506.64	103.06
506.856	107.06
507.073	97.06
507.289	95.06
507.506	106.06
507.722	90.06
507.939	94.06
508.155	105.06
508.372	105.06
508.588	91.06
508.805	114.06
509.021	91.06
509.238	93.06
509.454	87.06
509.67	98.06
509.887	89.06
510.103	82.06
510.319	84.06
510.536	83.06
510.752	100.06
510.968	89.06
511.184	92.06
511.401	91.06
511.617	86.06
511.833	85.06
512.049	81.06
512.265	87.06
512.481	94.06
512.698	91.06
512.914	89.06
513.13	90.06
513.346	98.06
513.562	89.06
513.778	86.06
