Data from Zn(NO3)2Standard.Agarose3%.GreenCap.LampEnergy5.5.E.O_HRD10591_15-03-55-768.txt Node
Date: Mon Jul 22 15:03:55 EDT 2019
User: cochatt
Spectrometer: HR+D1059
Trigger mode: 1
Integration Time (sec): 1.000000E-1
Scans to average: 1
Electric dark correction enabled: true
Nonlinearity correction enabled: false
Boxcar width: 0
XAxis mode: Wavelengths
Number of Pixels in Spectrum: 2048
>>>>>Begin Spectral Data<<<<<
223.165	-12.5
223.4	-12.5
223.635	-12.5
223.869	-10.5
224.104	-33.5
224.338	-7.5
224.573	-8.5
224.808	-14.5
225.042	-26.5
225.277	-11.5
225.511	-2.5
225.746	-10.5
225.98	1.5
226.215	17.5
226.449	23.5
226.683	16.5
226.918	29.5
227.152	49.5
227.387	43.5
227.621	50.5
227.856	48.5
228.09	54.5
228.324	51.5
228.559	59.5
228.793	54.5
229.027	63.5
229.262	62.5
229.496	59.5
229.73	73.5
229.964	81.5
230.199	68.5
230.433	70.5
230.667	74.5
230.901	80.5
231.136	83.5
231.37	83.5
231.604	82.5
231.838	86.5
232.072	78.5
232.306	80.5
232.541	102.5
232.775	95.5
233.009	72.5
233.243	86.5
233.477	67.5
233.711	74.5
233.945	74.5
234.179	80.5
234.413	95.5
234.647	80.5
234.881	86.5
235.115	84.5
235.349	74.5
235.583	74.5
235.817	69.5
236.051	82.5
236.285	81.5
236.519	78.5
236.753	70.5
236.987	80.5
237.221	74.5
237.455	81.5
237.689	69.5
237.922	80.5
238.156	78.5
238.39	76.5
238.624	65.5
238.858	80.5
239.091	70.5
239.325	86.5
239.559	83.5
239.793	71.5
240.027	86.5
240.26	82.5
240.494	87.5
240.728	85.5
240.961	79.5
241.195	79.5
241.429	66.5
241.662	70.5
241.896	74.5
242.13	64.5
242.363	71.5
242.597	79.5
242.83	82.5
243.064	68.5
243.298	84.5
243.531	75.5
243.765	83.5
243.998	76.5
244.232	75.5
244.465	84.5
244.699	65.5
244.932	65.5
245.166	83.5
245.399	65.5
245.633	80.5
245.866	69.5
246.099	68.5
246.333	66.5
246.566	74.5
246.8	88.5
247.033	78.5
247.266	90.5
247.5	71.5
247.733	85.5
247.966	86.5
248.2	86.5
248.433	87.5
248.666	76.5
248.899	68.5
249.133	68.5
249.366	89.5
249.599	67.5
249.832	77.5
250.066	88.5
250.299	83.5
250.532	78.5
250.765	80.5
250.998	96.5
251.231	72.5
251.465	73.5
251.698	86.5
251.931	71.5
252.164	70.5
252.397	74.5
252.63	78.5
252.863	84.5
253.096	77.5
253.329	83.5
253.562	86.5
253.795	76.5
254.028	87.5
254.261	76.5
254.494	64.5
254.727	81.5
254.96	69.5
255.193	89.5
255.426	73.5
255.659	87.5
255.892	69.5
256.124	82.5
256.357	69.5
256.59	82.5
256.823	93.5
257.056	82.5
257.289	85.5
257.521	88.5
257.754	83.5
257.987	80.5
258.22	91.5
258.452	78.5
258.685	78.5
258.918	72.5
259.151	85.5
259.383	82.5
259.616	85.5
259.849	78.5
260.081	74.5
260.314	79.5
260.547	85.5
260.779	87.5
261.012	81.5
261.244	78.5
261.477	87.5
261.71	84.5
261.942	86.5
262.175	72.5
262.407	90.5
262.64	82.5
262.872	67.5
263.105	65.5
263.337	82.5
263.57	81.5
263.802	81.5
264.035	83.5
264.267	92.5
264.499	77.5
264.732	71.5
264.964	77.5
265.197	66.5
265.429	86.5
265.661	83.5
265.894	86.5
266.126	83.5
266.358	85.5
266.591	79.5
266.823	84.5
267.055	89.5
267.287	81.5
267.52	87.5
267.752	94.5
267.984	87.5
268.216	93.5
268.448	87.5
268.681	79.5
268.913	86.5
269.145	87.5
269.377	93.5
269.609	85.5
269.841	77.5
270.073	75.5
270.306	72.5
270.538	79.5
270.77	77.5
271.002	95.5
271.234	85.5
271.466	86.5
271.698	84.5
271.93	83.5
272.162	80.5
272.394	85.5
272.626	93.5
272.858	81.5
273.09	88.5
273.322	81.5
273.553	79.5
273.785	77.5
274.017	97.5
274.249	85.5
274.481	79.5
274.713	84.5
274.945	81.5
275.176	83.5
275.408	76.5
275.64	93.5
275.872	78.5
276.104	98.5
276.335	82.5
276.567	86.5
276.799	76.5
277.031	78.5
277.262	83.5
277.494	102.5
277.726	82.5
277.957	78.5
278.189	86.5
278.421	95.5
278.652	96.5
278.884	93.5
279.115	74.5
279.347	76.5
279.579	72.5
279.81	84.5
280.042	82.5
280.273	85.5
280.505	92.5
280.736	88.5
280.968	83.5
281.199	91.5
281.431	73.5
281.662	88.5
281.894	77.5
282.125	79.5
282.356	82.5
282.588	99.5
282.819	90.5
283.051	74.5
283.282	73.5
283.513	85.5
283.745	83.5
283.976	70.5
284.207	85.5
284.439	73.5
284.67	104.5
284.901	79.5
285.132	93.5
285.364	94.5
285.595	76.5
285.826	87.5
286.057	86.5
286.288	84.5
286.52	71.5
286.751	66.5
286.982	69.5
287.213	87.5
287.444	85.5
287.675	80.5
287.906	77.5
288.138	69.5
288.369	81.5
288.6	96.5
288.831	93.5
289.062	90.5
289.293	79.5
289.524	67.5
289.755	88.5
289.986	89.5
290.217	84.5
290.448	94.5
290.679	82.5
290.91	83.5
291.141	81.5
291.371	93.5
291.602	76.5
291.833	79.5
292.064	79.5
292.295	85.5
292.526	81.5
292.757	72.5
292.987	89.5
293.218	87.5
293.449	97.5
293.68	75.5
293.91	101.5
294.141	93.5
294.372	81.5
294.603	89.5
294.833	74.5
295.064	74.5
295.295	79.5
295.525	85.5
295.756	87.5
295.987	75.5
296.217	75.5
296.448	74.5
296.679	72.5
296.909	97.5
297.14	74.5
297.37	83.5
297.601	69.5
297.831	81.5
298.062	102.5
298.292	85.5
298.523	78.5
298.753	84.5
298.984	83.5
299.214	83.5
299.445	71.5
299.675	80.5
299.905	93.5
300.136	77.5
300.366	95.5
300.597	90.5
300.827	57.5
301.057	56.5
301.288	70.5
301.518	70.5
301.748	91.5
301.979	94.5
302.209	83.5
302.439	79.5
302.669	86.5
302.9	76.5
303.13	86.5
303.36	78.5
303.59	81.5
303.82	76.5
304.051	72.5
304.281	84.5
304.511	91.5
304.741	91.5
304.971	87.5
305.201	73.5
305.431	86.5
305.661	96.5
305.891	82.5
306.121	84.5
306.352	79.5
306.582	86.5
306.812	82.5
307.042	87.5
307.272	88.5
307.502	86.5
307.731	83.5
307.961	86.5
308.191	85.5
308.421	87.5
308.651	85.5
308.881	82.5
309.111	92.5
309.341	84.5
309.571	74.5
309.8	81.5
310.03	85.5
310.26	86.5
310.49	80.5
310.72	99.5
310.949	86.5
311.179	85.5
311.409	86.5
311.639	87.5
311.868	79.5
312.098	82.5
312.328	86.5
312.557	97.5
312.787	92.5
313.017	80.5
313.246	95.5
313.476	84.5
313.706	75.5
313.935	82.5
314.165	81.5
314.394	96.5
314.624	92.5
314.853	79.5
315.083	95.5
315.312	74.5
315.542	87.5
315.771	91.5
316.001	77.5
316.23	87.5
316.46	86.5
316.689	84.5
316.919	92.5
317.148	98.5
317.377	84.5
317.607	66.5
317.836	81.5
318.065	90.5
318.295	81.5
318.524	88.5
318.753	88.5
318.983	82.5
319.212	90.5
319.441	79.5
319.67	88.5
319.9	85.5
320.129	81.5
320.358	75.5
320.587	71.5
320.816	81.5
321.046	89.5
321.275	82.5
321.504	74.5
321.733	83.5
321.962	90.5
322.191	86.5
322.42	83.5
322.649	86.5
322.878	88.5
323.108	84.5
323.337	85.5
323.566	80.5
323.795	76.5
324.024	83.5
324.253	76.5
324.482	66.5
324.71	89.5
324.939	89.5
325.168	89.5
325.397	75.5
325.626	84.5
325.855	66.5
326.084	71.5
326.313	78.5
326.542	84.5
326.77	90.5
326.999	77.5
327.228	91.5
327.457	81.5
327.686	91.5
327.914	89.5
328.143	87.5
328.372	79.5
328.6	89.5
328.829	83.5
329.058	79.5
329.287	85.5
329.515	75.5
329.744	97.5
329.972	93.5
330.201	86.5
330.43	86.5
330.658	69.5
330.887	69.5
331.115	69.5
331.344	86.5
331.572	92.5
331.801	84.5
332.03	85.5
332.258	77.5
332.486	86.5
332.715	85.5
332.943	92.5
333.172	70.5
333.4	87.5
333.629	89.5
333.857	84.5
334.085	83.5
334.314	72.5
334.542	80.5
334.771	86.5
334.999	95.5
335.227	80.5
335.455	85.5
335.684	83.5
335.912	92.5
336.14	85.5
336.369	90.5
336.597	73.5
336.825	90.5
337.053	85.5
337.281	91.5
337.51	86.5
337.738	79.5
337.966	83.5
338.194	69.5
338.422	87.5
338.65	96.5
338.878	86.5
339.106	94.5
339.334	93.5
339.562	76.5
339.79	80.5
340.018	88.5
340.246	70.5
340.474	79.5
340.702	79.5
340.93	84.5
341.158	82.5
341.386	88.5
341.614	91.5
341.842	85.5
342.07	85.5
342.298	74.5
342.526	70.5
342.754	71.5
342.981	65.5
343.209	100.5
343.437	79.5
343.665	89.5
343.893	83.5
344.12	97.5
344.348	82.5
344.576	90.5
344.804	89.5
345.031	93.5
345.259	74.5
345.487	87.5
345.714	79.5
345.942	76.5
346.17	77.5
346.397	81.5
346.625	80.5
346.853	85.5
347.08	85.5
347.308	83.5
347.535	92.5
347.763	83.5
347.99	81.5
348.218	80.5
348.445	90.5
348.673	81.5
348.9	77.5
349.128	90.5
349.355	61.5
349.583	85.5
349.81	78.5
350.037	77.5
350.265	88.5
350.492	84.5
350.72	73.5
350.947	87.5
351.174	84.5
351.402	88.5
351.629	78.5
351.856	84.5
352.083	78.5
352.311	93.5
352.538	71.5
352.765	90.5
352.992	85.5
353.22	85.5
353.447	88.5
353.674	93.5
353.901	86.5
354.128	92.5
354.355	90.5
354.583	86.5
354.81	83.5
355.037	75.5
355.264	80.5
355.491	78.5
355.718	80.5
355.945	70.5
356.172	58.5
356.399	81.5
356.626	86.5
356.853	90.5
357.08	72.5
357.307	78.5
357.534	86.5
357.761	79.5
357.988	88.5
358.215	79.5
358.441	96.5
358.668	85.5
358.895	84.5
359.122	92.5
359.349	83.5
359.576	89.5
359.802	95.5
360.029	94.5
360.256	86.5
360.483	77.5
360.709	92.5
360.936	91.5
361.163	91.5
361.39	82.5
361.616	82.5
361.843	75.5
362.07	88.5
362.296	83.5
362.523	80.5
362.749	80.5
362.976	75.5
363.203	71.5
363.429	75.5
363.656	71.5
363.882	70.5
364.109	65.5
364.335	84.5
364.562	84.5
364.788	88.5
365.015	86.5
365.241	90.5
365.468	84.5
365.694	78.5
365.92	82.5
366.147	78.5
366.373	97.5
366.599	91.5
366.826	83.5
367.052	83.5
367.278	88.5
367.505	90.5
367.731	83.5
367.957	82.5
368.184	82.5
368.41	74.5
368.636	71.5
368.862	75.5
369.089	78.5
369.315	73.5
369.541	81.5
369.767	86.5
369.993	86.5
370.219	96.5
370.445	91.5
370.672	85.5
370.898	78.5
371.124	83.5
371.35	89.5
371.576	69.5
371.802	86.5
372.028	70.5
372.254	80.5
372.48	76.5
372.706	78.5
372.932	94.5
373.158	81.5
373.384	84.5
373.61	67.5
373.835	77.5
374.061	80.5
374.287	75.5
374.513	75.5
374.739	99.5
374.965	83.5
375.191	64.5
375.416	86.5
375.642	87.5
375.868	93.5
376.094	94.5
376.319	77.5
376.545	71.5
376.771	78.5
376.997	88.5
377.222	79.5
377.448	86.5
377.674	90.5
377.899	85.5
378.125	79.5
378.35	101.5
378.576	83.5
378.802	85.5
379.027	89.5
379.253	70.5
379.478	77.5
379.704	76.5
379.929	87.5
380.155	92.5
380.38	61.5
380.606	73.5
380.831	87.5
381.057	80.5
381.282	82.5
381.507	74.5
381.733	84.5
381.958	82.5
382.184	97.5
382.409	77.5
382.634	74.5
382.86	81.5
383.085	92.5
383.31	86.5
383.535	82.5
383.761	95.5
383.986	96.5
384.211	86.5
384.436	74.5
384.662	91.5
384.887	92.5
385.112	95.5
385.337	87.5
385.562	96.5
385.787	83.5
386.013	87.5
386.238	90.5
386.463	85.5
386.688	82.5
386.913	81.5
387.138	89.5
387.363	68.5
387.588	88.5
387.813	83.5
388.038	103.5
388.263	90.5
388.488	86.5
388.713	80.5
388.938	80.5
389.163	89.5
389.387	92.5
389.612	105.5
389.837	82.5
390.062	82.5
390.287	93.5
390.512	77.5
390.736	75.5
390.961	90.5
391.186	89.5
391.411	83.5
391.636	80.5
391.86	90.5
392.085	84.5
392.31	89.5
392.534	82.5
392.759	94.5
392.984	84.5
393.208	85.5
393.433	87.5
393.658	90.5
393.882	91.5
394.107	86.5
394.331	75.5
394.556	89.5
394.78	77.5
395.005	90.5
395.229	92.5
395.454	84.5
395.678	95.5
395.903	83.5
396.127	90.5
396.352	104.5
396.576	75.5
396.801	89.5
397.025	66.5
397.249	92.5
397.474	103.5
397.698	94.5
397.922	81.5
398.147	92.5
398.371	81.5
398.595	88.5
398.82	83.5
399.044	83.5
399.268	81.5
399.492	93.5
399.717	88.5
399.941	79.5
400.165	85.5
400.389	90.5
400.613	80.5
400.837	86.5
401.062	76.5
401.286	81.5
401.51	79.5
401.734	83.5
401.958	89.5
402.182	90.5
402.406	86.5
402.63	95.5
402.854	82.5
403.078	88.5
403.302	84.5
403.526	91.5
403.75	87.5
403.974	85.5
404.198	79.5
404.422	101.5
404.645	90.5
404.869	97.5
405.093	95.5
405.317	86.5
405.541	101.5
405.765	88.5
405.988	83.5
406.212	89.5
406.436	88.5
406.66	88.5
406.883	85.5
407.107	86.5
407.331	87.5
407.555	79.5
407.778	83.5
408.002	87.5
408.226	87.5
408.449	79.5
408.673	85.5
408.896	92.5
409.12	89.5
409.344	97.5
409.567	97.5
409.791	88.5
410.014	92.5
410.238	76.5
410.461	85.5
410.685	87.5
410.908	88.5
411.132	83.5
411.355	76.5
411.578	76.5
411.802	96.5
412.025	81.5
412.249	82.5
412.472	87.5
412.695	79.5
412.919	86.5
413.142	81.5
413.365	79.5
413.589	74.5
413.812	86.5
414.035	98.5
414.258	83.5
414.482	82.5
414.705	101.5
414.928	95.5
415.151	84.5
415.374	78.5
415.597	85.5
415.821	92.5
416.044	83.5
416.267	75.5
416.49	88.5
416.713	82.5
416.936	79.5
417.159	78.5
417.382	94.5
417.605	81.5
417.828	91.5
418.051	82.5
418.274	89.5
418.497	81.5
418.72	84.5
418.943	85.5
419.166	94.5
419.389	93.5
419.611	100.5
419.834	85.5
420.057	91.5
420.28	94.5
420.503	79.5
420.726	93.5
420.948	92.5
421.171	84.5
421.394	98.5
421.617	101.5
421.839	89.5
422.062	99.5
422.285	96.5
422.507	92.5
422.73	84.5
422.953	77.5
423.175	83.5
423.398	76.5
423.621	100.5
423.843	87.5
424.066	81.5
424.288	101.5
424.511	90.5
424.733	76.5
424.956	108.5
425.178	97.5
425.401	82.5
425.623	87.5
425.846	91.5
426.068	94.5
426.291	90.5
426.513	102.5
426.735	99.5
426.958	95.5
427.18	87.5
427.402	83.5
427.625	87.5
427.847	77.5
428.069	94.5
428.292	82.5
428.514	93.5
428.736	94.5
428.958	94.5
429.181	96.5
429.403	106.5
429.625	88.5
429.847	77.5
430.069	97.5
430.292	88.5
430.514	90.5
430.736	79.5
430.958	78.5
431.18	89.5
431.402	85.5
431.624	82.5
431.846	82.5
432.068	77.5
432.29	89.5
432.512	76.5
432.734	89.5
432.956	96.5
433.178	89.5
433.4	82.5
433.622	82.5
433.844	96.5
434.066	97.5
434.287	98.5
434.509	76.5
434.731	82.5
434.953	80.5
435.175	87.5
435.397	84.5
435.618	82.5
435.84	70.5
436.062	75.5
436.284	93.5
436.505	99.5
436.727	91.5
436.949	96.5
437.17	89.5
437.392	89.5
437.614	82.5
437.835	87.5
438.057	84.5
438.278	90.5
438.5	101.5
438.721	86.5
438.943	81.5
439.165	95.5
439.386	100.5
439.608	86.5
439.829	89.5
440.05	82.5
440.272	98.5
440.493	92.5
440.715	75.5
440.936	90.5
441.158	90.5
441.379	83.5
441.6	93.5
441.822	84.5
442.043	99.5
442.264	86.5
442.486	91.5
442.707	97.5
442.928	88.5
443.149	93.5
443.371	85.5
443.592	96.5
443.813	103.5
444.034	105.5
444.255	92.5
444.476	88.5
444.698	90.5
444.919	96.5
445.14	211.5
445.361	148.5
445.582	91.5
445.803	90.5
446.024	94.5
446.245	89.5
446.466	113.5
446.687	93.5
446.908	108.5
447.129	86.5
447.35	93.5
447.571	91.5
447.792	93.5
448.013	89.5
448.234	91.5
448.455	101.5
448.675	88.5
448.896	94.5
449.117	97.5
449.338	94.5
449.559	103.5
449.779	85.5
450	91.5
450.221	92.5
450.442	90.5
450.662	91.5
450.883	109.5
451.104	97.5
451.324	102.5
451.545	82.5
451.766	111.5
451.986	87.5
452.207	92.5
452.428	94.5
452.648	90.5
452.869	83.5
453.089	81.5
453.31	68.5
453.53	87.5
453.751	77.5
453.971	88.5
454.192	80.5
454.412	82.5
454.633	101.5
454.853	87.5
455.073	88.5
455.294	103.5
455.514	93.5
455.734	75.5
455.955	80.5
456.175	83.5
456.395	88.5
456.616	79.5
456.836	81.5
457.056	80.5
457.276	87.5
457.497	89.5
457.717	66.5
457.937	85.5
458.157	84.5
458.377	89.5
458.598	86.5
458.818	89.5
459.038	69.5
459.258	71.5
459.478	80.5
459.698	94.5
459.918	94.5
460.138	93.5
460.358	87.5
460.578	82.5
460.798	74.5
461.018	83.5
461.238	89.5
461.458	85.5
461.678	88.5
461.898	82.5
462.118	90.5
462.338	87.5
462.558	89.5
462.777	84.5
462.997	88.5
463.217	93.5
463.437	83.5
463.657	81.5
463.876	85.5
464.096	95.5
464.316	87.5
464.536	86.5
464.755	85.5
464.975	79.5
465.195	86.5
465.414	79.5
465.634	99.5
465.854	91.5
466.073	89.5
466.293	94.5
466.512	113.5
466.732	83.5
466.951	85.5
467.171	82.5
467.391	92.5
467.61	89.5
467.829	74.5
468.049	95.5
468.268	97.5
468.488	75.5
468.707	102.5
468.927	93.5
469.146	97.5
469.365	76.5
469.585	103.5
469.804	92.5
470.023	74.5
470.243	94.5
470.462	91.5
470.681	95.5
470.901	94.5
471.12	86.5
471.339	76.5
471.558	101.5
471.777	80.5
471.997	105.5
472.216	100.5
472.435	103.5
472.654	82.5
472.873	100.5
473.092	86.5
473.311	73.5
473.53	86.5
473.749	85.5
473.968	90.5
474.187	95.5
474.406	100.5
474.625	94.5
474.844	89.5
475.063	86.5
475.282	80.5
475.501	99.5
475.72	97.5
475.939	87.5
476.158	93.5
476.377	99.5
476.596	87.5
476.814	94.5
477.033	84.5
477.252	88.5
477.471	78.5
477.69	86.5
477.908	88.5
478.127	90.5
478.346	86.5
478.564	87.5
478.783	85.5
479.002	91.5
479.22	85.5
479.439	93.5
479.658	102.5
479.876	77.5
480.095	84.5
480.313	93.5
480.532	73.5
480.751	92.5
480.969	68.5
481.188	74.5
481.406	91.5
481.624	76.5
481.843	85.5
482.061	96.5
482.28	85.5
482.498	82.5
482.717	85.5
482.935	100.5
483.153	89.5
483.372	93.5
483.59	103.5
483.808	79.5
484.027	96.5
484.245	99.5
484.463	90.5
484.681	110.5
484.9	96.5
485.118	86.5
485.336	86.5
485.554	100.5
485.772	88.5
485.99	100.5
486.209	89.5
486.427	88.5
486.645	90.5
486.863	81.5
487.081	90.5
487.299	91.5
487.517	89.5
487.735	103.5
487.953	80.5
488.171	93.5
488.389	92.5
488.607	86.5
488.825	85.5
489.043	77.5
489.261	74.5
489.479	86.5
489.696	91.5
489.914	85.5
490.132	98.5
490.35	102.5
490.568	77.5
490.786	95.5
491.003	99.5
491.221	87.5
491.439	113.5
491.657	105.5
491.874	109.5
492.092	92.5
492.31	106.5
492.527	106.5
492.745	106.5
492.963	98.5
493.18	106.5
493.398	104.5
493.615	94.5
493.833	103.5
494.05	93.5
494.268	93.5
494.485	91.5
494.703	101.5
494.92	89.5
495.138	99.5
495.355	101.5
495.573	101.5
495.79	90.5
496.008	88.5
496.225	106.5
496.442	92.5
496.66	98.5
496.877	93.5
497.094	91.5
497.312	92.5
497.529	98.5
497.746	97.5
497.963	97.5
498.181	82.5
498.398	88.5
498.615	104.5
498.832	94.5
499.049	84.5
499.267	81.5
499.484	88.5
499.701	89.5
499.918	99.5
500.135	102.5
500.352	93.5
500.569	90.5
500.786	92.5
501.003	86.5
501.22	91.5
501.437	85.5
501.654	92.5
501.871	77.5
502.088	88.5
502.305	90.5
502.522	90.5
502.739	109.5
502.956	86.5
503.172	90.5
503.389	100.5
503.606	84.5
503.823	73.5
504.04	89.5
504.256	100.5
504.473	77.5
504.69	83.5
504.907	87.5
505.123	92.5
505.34	95.5
505.557	87.5
505.773	93.5
505.99	74.5
506.207	92.5
506.423	94.5
506.64	90.5
506.856	91.5
507.073	103.5
507.289	88.5
507.506	78.5
507.722	94.5
507.939	93.5
508.155	87.5
508.372	90.5
508.588	88.5
508.805	98.5
509.021	101.5
509.238	80.5
509.454	92.5
509.67	96.5
509.887	94.5
510.103	81.5
510.319	93.5
510.536	94.5
510.752	91.5
510.968	85.5
511.184	84.5
511.401	71.5
511.617	83.5
511.833	84.5
512.049	86.5
512.265	89.5
512.481	74.5
512.698	95.5
512.914	107.5
513.13	87.5
513.346	84.5
513.562	89.5
513.778	82.5
513.994	68.5
514.21	79.5
514.426	99.5
514.642	85.5
514.858	90.5
515.074	87.5
515.29	78.5
515.506	80.5
515.721	89.5
515.937	85.5
516.153	87.5
516.369	99.5
516.585	81.5
516.801	80.5
517.016	95.5
517.232	75.5
517.448	94.5
517.664	94.5
517.879	79.5
518.095	82.5
518.311	78.5
518.527	91.5
518.742	75.5
518.958	79.5
519.173	86.5
519.389	87.5
519.605	87.5
519.82	85.5
520.036	74.5
520.251	89.5
520.467	88.5
520.682	75.5
520.898	80.5
521.113	75.5
521.329	83.5
521.544	91.5
521.76	72.5
521.975	90.5
522.19	87.5
522.406	90.5
522.621	84.5
522.836	99.5
523.052	111.5
523.267	88.5
523.482	78.5
523.698	86.5
523.913	85.5
524.128	102.5
524.343	77.5
524.559	91.5
524.774	90.5
524.989	94.5
525.204	79.5
525.419	109.5
525.634	85.5
525.849	82.5
526.064	87.5
526.28	83.5
526.495	86.5
526.71	74.5
526.925	79.5
527.14	84.5
527.355	85.5
527.57	85.5
527.785	85.5
527.999	83.5
528.214	90.5
528.429	71.5
528.644	89.5
528.859	91.5
529.074	103.5
529.289	98.5
529.503	95.5
529.718	82.5
529.933	82.5
530.148	90.5
530.363	90.5
530.577	83.5
530.792	73.5
531.007	60.5
531.221	86.5
531.436	88.5
531.651	68.5
531.865	86.5
532.08	85.5
532.295	79.5
532.509	84.5
532.724	65.5
532.938	90.5
533.153	88.5
533.367	78.5
533.582	89.5
533.796	99.5
534.011	93.5
534.225	86.5
534.44	77.5
534.654	71.5
534.868	79.5
535.083	98.5
535.297	74.5
535.511	82.5
535.726	71.5
535.94	89.5
536.154	83.5
536.369	91.5
536.583	88.5
536.797	86.5
537.011	81.5
537.225	77.5
537.44	72.5
537.654	86.5
537.868	88.5
538.082	72.5
538.296	79.5
538.51	94.5
538.724	89.5
