Data from Zn(NO3)2Standard.Agarose3%.GreenCap.LampEnergy5.5.E.O_HRD10591_15-02-18-767.txt Node
Date: Mon Jul 22 15:02:18 EDT 2019
User: cochatt
Spectrometer: HR+D1059
Trigger mode: 1
Integration Time (sec): 1.000000E-1
Scans to average: 1
Electric dark correction enabled: true
Nonlinearity correction enabled: false
Boxcar width: 0
XAxis mode: Wavelengths
Number of Pixels in Spectrum: 2048
>>>>>Begin Spectral Data<<<<<
223.165	-15.44
223.4	-15.44
223.635	-15.44
223.869	-26.44
224.104	-9.44
224.338	-11.44
224.573	-22.44
224.808	-17.44
225.042	-2.44
225.277	-10.44
225.511	4.56
225.746	6.56
225.98	9.56
226.215	-1.44
226.449	13.56
226.683	9.56
226.918	31.56
227.152	41.56
227.387	39.56
227.621	24.56
227.856	53.56
228.09	46.56
228.324	46.56
228.559	54.56
228.793	59.56
229.027	64.56
229.262	68.56
229.496	73.56
229.73	77.56
229.964	88.56
230.199	78.56
230.433	86.56
230.667	85.56
230.901	69.56
231.136	81.56
231.37	85.56
231.604	70.56
231.838	75.56
232.072	92.56
232.306	76.56
232.541	89.56
232.775	72.56
233.009	94.56
233.243	94.56
233.477	73.56
233.711	83.56
233.945	72.56
234.179	77.56
234.413	86.56
234.647	76.56
234.881	84.56
235.115	77.56
235.349	69.56
235.583	84.56
235.817	85.56
236.051	92.56
236.285	74.56
236.519	74.56
236.753	73.56
236.987	82.56
237.221	64.56
237.455	72.56
237.689	74.56
237.922	72.56
238.156	60.56
238.39	93.56
238.624	87.56
238.858	89.56
239.091	70.56
239.325	74.56
239.559	82.56
239.793	64.56
240.027	81.56
240.26	71.56
240.494	85.56
240.728	85.56
240.961	88.56
241.195	92.56
241.429	71.56
241.662	73.56
241.896	92.56
242.13	89.56
242.363	66.56
242.597	66.56
242.83	50.56
243.064	75.56
243.298	89.56
243.531	69.56
243.765	94.56
243.998	80.56
244.232	86.56
244.465	75.56
244.699	84.56
244.932	74.56
245.166	80.56
245.399	75.56
245.633	88.56
245.866	82.56
246.099	70.56
246.333	86.56
246.566	77.56
246.8	83.56
247.033	72.56
247.266	82.56
247.5	84.56
247.733	83.56
247.966	70.56
248.2	68.56
248.433	80.56
248.666	76.56
248.899	93.56
249.133	90.56
249.366	64.56
249.599	73.56
249.832	85.56
250.066	84.56
250.299	85.56
250.532	91.56
250.765	83.56
250.998	83.56
251.231	79.56
251.465	84.56
251.698	89.56
251.931	79.56
252.164	69.56
252.397	86.56
252.63	77.56
252.863	80.56
253.096	90.56
253.329	83.56
253.562	86.56
253.795	90.56
254.028	79.56
254.261	74.56
254.494	61.56
254.727	86.56
254.96	83.56
255.193	68.56
255.426	81.56
255.659	68.56
255.892	92.56
256.124	75.56
256.357	82.56
256.59	75.56
256.823	73.56
257.056	73.56
257.289	77.56
257.521	83.56
257.754	66.56
257.987	89.56
258.22	82.56
258.452	85.56
258.685	85.56
258.918	78.56
259.151	79.56
259.383	84.56
259.616	81.56
259.849	71.56
260.081	80.56
260.314	81.56
260.547	73.56
260.779	60.56
261.012	85.56
261.244	90.56
261.477	94.56
261.71	84.56
261.942	71.56
262.175	64.56
262.407	85.56
262.64	78.56
262.872	78.56
263.105	81.56
263.337	82.56
263.57	80.56
263.802	63.56
264.035	77.56
264.267	91.56
264.499	78.56
264.732	71.56
264.964	78.56
265.197	82.56
265.429	80.56
265.661	77.56
265.894	88.56
266.126	86.56
266.358	85.56
266.591	93.56
266.823	93.56
267.055	85.56
267.287	80.56
267.52	70.56
267.752	85.56
267.984	79.56
268.216	87.56
268.448	90.56
268.681	88.56
268.913	86.56
269.145	89.56
269.377	73.56
269.609	67.56
269.841	81.56
270.073	90.56
270.306	94.56
270.538	87.56
270.77	82.56
271.002	85.56
271.234	73.56
271.466	82.56
271.698	83.56
271.93	84.56
272.162	77.56
272.394	79.56
272.626	78.56
272.858	78.56
273.09	84.56
273.322	78.56
273.553	85.56
273.785	72.56
274.017	90.56
274.249	87.56
274.481	81.56
274.713	77.56
274.945	85.56
275.176	81.56
275.408	85.56
275.64	86.56
275.872	93.56
276.104	83.56
276.335	78.56
276.567	85.56
276.799	78.56
277.031	89.56
277.262	83.56
277.494	83.56
277.726	82.56
277.957	79.56
278.189	93.56
278.421	90.56
278.652	95.56
278.884	76.56
279.115	90.56
279.347	86.56
279.579	82.56
279.81	69.56
280.042	90.56
280.273	90.56
280.505	96.56
280.736	69.56
280.968	86.56
281.199	87.56
281.431	82.56
281.662	89.56
281.894	89.56
282.125	92.56
282.356	76.56
282.588	92.56
282.819	78.56
283.051	82.56
283.282	86.56
283.513	93.56
283.745	93.56
283.976	83.56
284.207	84.56
284.439	82.56
284.67	86.56
284.901	85.56
285.132	89.56
285.364	86.56
285.595	94.56
285.826	94.56
286.057	74.56
286.288	94.56
286.52	87.56
286.751	101.56
286.982	84.56
287.213	78.56
287.444	91.56
287.675	91.56
287.906	81.56
288.138	75.56
288.369	80.56
288.6	59.56
288.831	82.56
289.062	90.56
289.293	91.56
289.524	77.56
289.755	93.56
289.986	69.56
290.217	77.56
290.448	75.56
290.679	81.56
290.91	90.56
291.141	86.56
291.371	76.56
291.602	88.56
291.833	77.56
292.064	73.56
292.295	91.56
292.526	72.56
292.757	80.56
292.987	98.56
293.218	77.56
293.449	82.56
293.68	84.56
293.91	88.56
294.141	85.56
294.372	89.56
294.603	86.56
294.833	95.56
295.064	87.56
295.295	88.56
295.525	69.56
295.756	72.56
295.987	77.56
296.217	83.56
296.448	80.56
296.679	88.56
296.909	69.56
297.14	83.56
297.37	90.56
297.601	84.56
297.831	72.56
298.062	76.56
298.292	97.56
298.523	74.56
298.753	84.56
298.984	90.56
299.214	83.56
299.445	85.56
299.675	76.56
299.905	89.56
300.136	89.56
300.366	73.56
300.597	84.56
300.827	91.56
301.057	72.56
301.288	88.56
301.518	94.56
301.748	83.56
301.979	74.56
302.209	79.56
302.439	72.56
302.669	94.56
302.9	86.56
303.13	78.56
303.36	84.56
303.59	87.56
303.82	91.56
304.051	70.56
304.281	77.56
304.511	88.56
304.741	84.56
304.971	91.56
305.201	81.56
305.431	80.56
305.661	79.56
305.891	84.56
306.121	85.56
306.352	89.56
306.582	86.56
306.812	93.56
307.042	80.56
307.272	75.56
307.502	83.56
307.731	85.56
307.961	97.56
308.191	77.56
308.421	93.56
308.651	79.56
308.881	86.56
309.111	89.56
309.341	82.56
309.571	89.56
309.8	90.56
310.03	87.56
310.26	88.56
310.49	85.56
310.72	94.56
310.949	84.56
311.179	85.56
311.409	76.56
311.639	84.56
311.868	89.56
312.098	85.56
312.328	78.56
312.557	97.56
312.787	77.56
313.017	93.56
313.246	89.56
313.476	85.56
313.706	75.56
313.935	78.56
314.165	97.56
314.394	86.56
314.624	88.56
314.853	83.56
315.083	90.56
315.312	91.56
315.542	92.56
315.771	86.56
316.001	101.56
316.23	94.56
316.46	81.56
316.689	77.56
316.919	87.56
317.148	76.56
317.377	80.56
317.607	87.56
317.836	94.56
318.065	91.56
318.295	79.56
318.524	91.56
318.753	82.56
318.983	82.56
319.212	83.56
319.441	97.56
319.67	80.56
319.9	97.56
320.129	97.56
320.358	74.56
320.587	101.56
320.816	83.56
321.046	88.56
321.275	77.56
321.504	76.56
321.733	89.56
321.962	81.56
322.191	89.56
322.42	100.56
322.649	82.56
322.878	89.56
323.108	83.56
323.337	91.56
323.566	89.56
323.795	97.56
324.024	65.56
324.253	85.56
324.482	84.56
324.71	67.56
324.939	80.56
325.168	70.56
325.397	86.56
325.626	88.56
325.855	88.56
326.084	78.56
326.313	77.56
326.542	74.56
326.77	85.56
326.999	82.56
327.228	75.56
327.457	81.56
327.686	79.56
327.914	101.56
328.143	86.56
328.372	94.56
328.6	104.56
328.829	69.56
329.058	84.56
329.287	87.56
329.515	73.56
329.744	89.56
329.972	83.56
330.201	73.56
330.43	73.56
330.658	72.56
330.887	85.56
331.115	81.56
331.344	89.56
331.572	82.56
331.801	76.56
332.03	84.56
332.258	75.56
332.486	89.56
332.715	89.56
332.943	90.56
333.172	96.56
333.4	88.56
333.629	87.56
333.857	85.56
334.085	89.56
334.314	82.56
334.542	88.56
334.771	85.56
334.999	77.56
335.227	91.56
335.455	84.56
335.684	85.56
335.912	83.56
336.14	83.56
336.369	85.56
336.597	89.56
336.825	92.56
337.053	77.56
337.281	79.56
337.51	78.56
337.738	89.56
337.966	86.56
338.194	78.56
338.422	82.56
338.65	102.56
338.878	93.56
339.106	88.56
339.334	79.56
339.562	87.56
339.79	82.56
340.018	77.56
340.246	87.56
340.474	92.56
340.702	83.56
340.93	90.56
341.158	77.56
341.386	82.56
341.614	76.56
341.842	85.56
342.07	79.56
342.298	88.56
342.526	74.56
342.754	77.56
342.981	84.56
343.209	105.56
343.437	78.56
343.665	77.56
343.893	74.56
344.12	74.56
344.348	82.56
344.576	64.56
344.804	88.56
345.031	93.56
345.259	75.56
345.487	89.56
345.714	76.56
345.942	84.56
346.17	82.56
346.397	80.56
346.625	83.56
346.853	78.56
347.08	84.56
347.308	88.56
347.535	77.56
347.763	91.56
347.99	90.56
348.218	86.56
348.445	89.56
348.673	73.56
348.9	79.56
349.128	104.56
349.355	69.56
349.583	90.56
349.81	75.56
350.037	74.56
350.265	81.56
350.492	95.56
350.72	82.56
350.947	79.56
351.174	74.56
351.402	80.56
351.629	79.56
351.856	91.56
352.083	76.56
352.311	85.56
352.538	72.56
352.765	85.56
352.992	86.56
353.22	81.56
353.447	86.56
353.674	76.56
353.901	78.56
354.128	89.56
354.355	80.56
354.583	86.56
354.81	92.56
355.037	80.56
355.264	84.56
355.491	89.56
355.718	81.56
355.945	86.56
356.172	85.56
356.399	81.56
356.626	84.56
356.853	88.56
357.08	78.56
357.307	84.56
357.534	80.56
357.761	83.56
357.988	67.56
358.215	81.56
358.441	88.56
358.668	94.56
358.895	83.56
359.122	90.56
359.349	75.56
359.576	82.56
359.802	80.56
360.029	94.56
360.256	85.56
360.483	92.56
360.709	66.56
360.936	76.56
361.163	75.56
361.39	91.56
361.616	83.56
361.843	80.56
362.07	80.56
362.296	84.56
362.523	84.56
362.749	90.56
362.976	86.56
363.203	88.56
363.429	76.56
363.656	84.56
363.882	67.56
364.109	87.56
364.335	89.56
364.562	88.56
364.788	71.56
365.015	86.56
365.241	83.56
365.468	79.56
365.694	82.56
365.92	93.56
366.147	73.56
366.373	85.56
366.599	93.56
366.826	82.56
367.052	79.56
367.278	82.56
367.505	75.56
367.731	86.56
367.957	69.56
368.184	67.56
368.41	73.56
368.636	87.56
368.862	84.56
369.089	89.56
369.315	74.56
369.541	69.56
369.767	70.56
369.993	77.56
370.219	84.56
370.445	97.56
370.672	86.56
370.898	75.56
371.124	93.56
371.35	102.56
371.576	86.56
371.802	80.56
372.028	87.56
372.254	86.56
372.48	85.56
372.706	81.56
372.932	83.56
373.158	74.56
373.384	83.56
373.61	75.56
373.835	98.56
374.061	78.56
374.287	73.56
374.513	93.56
374.739	74.56
374.965	82.56
375.191	78.56
375.416	81.56
375.642	78.56
375.868	78.56
376.094	69.56
376.319	96.56
376.545	77.56
376.771	84.56
376.997	94.56
377.222	78.56
377.448	82.56
377.674	87.56
377.899	94.56
378.125	77.56
378.35	83.56
378.576	73.56
378.802	60.56
379.027	80.56
379.253	80.56
379.478	73.56
379.704	81.56
379.929	81.56
380.155	80.56
380.38	80.56
380.606	90.56
380.831	78.56
381.057	78.56
381.282	72.56
381.507	82.56
381.733	83.56
381.958	77.56
382.184	81.56
382.409	73.56
382.634	107.56
382.86	77.56
383.085	91.56
383.31	86.56
383.535	72.56
383.761	74.56
383.986	92.56
384.211	80.56
384.436	83.56
384.662	73.56
384.887	85.56
385.112	74.56
385.337	87.56
385.562	85.56
385.787	92.56
386.013	91.56
386.238	80.56
386.463	76.56
386.688	82.56
386.913	77.56
387.138	81.56
387.363	83.56
387.588	76.56
387.813	92.56
388.038	76.56
388.263	77.56
388.488	85.56
388.713	80.56
388.938	77.56
389.163	79.56
389.387	80.56
389.612	92.56
389.837	89.56
390.062	76.56
390.287	73.56
390.512	82.56
390.736	77.56
390.961	77.56
391.186	77.56
391.411	84.56
391.636	82.56
391.86	78.56
392.085	76.56
392.31	68.56
392.534	71.56
392.759	81.56
392.984	88.56
393.208	84.56
393.433	90.56
393.658	80.56
393.882	85.56
394.107	76.56
394.331	83.56
394.556	69.56
394.78	82.56
395.005	88.56
395.229	83.56
395.454	93.56
395.678	73.56
395.903	82.56
396.127	74.56
396.352	79.56
396.576	78.56
396.801	95.56
397.025	93.56
397.249	76.56
397.474	84.56
397.698	90.56
397.922	79.56
398.147	85.56
398.371	82.56
398.595	93.56
398.82	70.56
399.044	84.56
399.268	89.56
399.492	83.56
399.717	84.56
399.941	77.56
400.165	71.56
400.389	97.56
400.613	90.56
400.837	87.56
401.062	91.56
401.286	94.56
401.51	88.56
401.734	94.56
401.958	88.56
402.182	69.56
402.406	76.56
402.63	89.56
402.854	68.56
403.078	83.56
403.302	84.56
403.526	90.56
403.75	70.56
403.974	92.56
404.198	77.56
404.422	91.56
404.645	93.56
404.869	78.56
405.093	85.56
405.317	101.56
405.541	77.56
405.765	82.56
405.988	69.56
406.212	89.56
406.436	94.56
406.66	76.56
406.883	86.56
407.107	91.56
407.331	95.56
407.555	97.56
407.778	85.56
408.002	70.56
408.226	86.56
408.449	87.56
408.673	80.56
408.896	103.56
409.12	94.56
409.344	75.56
409.567	84.56
409.791	77.56
410.014	102.56
410.238	85.56
410.461	89.56
410.685	83.56
410.908	84.56
411.132	94.56
411.355	86.56
411.578	77.56
411.802	85.56
412.025	79.56
412.249	89.56
412.472	109.56
412.695	94.56
412.919	81.56
413.142	79.56
413.365	74.56
413.589	64.56
413.812	91.56
414.035	84.56
414.258	94.56
414.482	89.56
414.705	76.56
414.928	87.56
415.151	80.56
415.374	87.56
415.597	91.56
415.821	86.56
416.044	82.56
416.267	90.56
416.49	94.56
416.713	84.56
416.936	85.56
417.159	90.56
417.382	92.56
417.605	83.56
417.828	88.56
418.051	80.56
418.274	86.56
418.497	88.56
418.72	87.56
418.943	72.56
419.166	88.56
419.389	79.56
419.611	86.56
419.834	96.56
420.057	78.56
420.28	91.56
420.503	77.56
420.726	76.56
420.948	82.56
421.171	100.56
421.394	76.56
421.617	76.56
421.839	81.56
422.062	87.56
422.285	90.56
422.507	69.56
422.73	88.56
422.953	91.56
423.175	92.56
423.398	92.56
423.621	90.56
423.843	85.56
424.066	97.56
424.288	83.56
424.511	85.56
424.733	94.56
424.956	85.56
425.178	87.56
425.401	94.56
425.623	83.56
425.846	86.56
426.068	82.56
426.291	87.56
426.513	81.56
426.735	92.56
426.958	84.56
427.18	81.56
427.402	72.56
427.625	84.56
427.847	78.56
428.069	87.56
428.292	90.56
428.514	84.56
428.736	84.56
428.958	87.56
429.181	83.56
429.403	98.56
429.625	82.56
429.847	88.56
430.069	97.56
430.292	82.56
430.514	93.56
430.736	83.56
430.958	76.56
431.18	81.56
431.402	89.56
431.624	91.56
431.846	79.56
432.068	74.56
432.29	72.56
432.512	91.56
432.734	80.56
432.956	80.56
433.178	96.56
433.4	93.56
433.622	96.56
433.844	96.56
434.066	94.56
434.287	94.56
434.509	91.56
434.731	75.56
434.953	83.56
435.175	93.56
435.397	84.56
435.618	95.56
435.84	85.56
436.062	93.56
436.284	79.56
436.505	89.56
436.727	80.56
436.949	86.56
437.17	99.56
437.392	86.56
437.614	90.56
437.835	87.56
438.057	87.56
438.278	82.56
438.5	71.56
438.721	103.56
438.943	102.56
439.165	100.56
439.386	92.56
439.608	93.56
439.829	95.56
440.05	70.56
440.272	94.56
440.493	85.56
440.715	100.56
440.936	92.56
441.158	86.56
441.379	88.56
441.6	93.56
441.822	92.56
442.043	82.56
442.264	90.56
442.486	93.56
442.707	90.56
442.928	92.56
443.149	93.56
443.371	86.56
443.592	84.56
443.813	86.56
444.034	97.56
444.255	85.56
444.476	95.56
444.698	98.56
444.919	89.56
445.14	211.56
445.361	147.56
445.582	105.56
445.803	89.56
446.024	104.56
446.245	103.56
446.466	102.56
446.687	91.56
446.908	105.56
447.129	99.56
447.35	105.56
447.571	73.56
447.792	88.56
448.013	93.56
448.234	80.56
448.455	92.56
448.675	97.56
448.896	88.56
449.117	83.56
449.338	92.56
449.559	97.56
449.779	99.56
450	94.56
450.221	88.56
450.442	85.56
450.662	85.56
450.883	89.56
451.104	99.56
451.324	90.56
451.545	89.56
451.766	88.56
451.986	99.56
452.207	97.56
452.428	87.56
452.648	97.56
452.869	86.56
453.089	80.56
453.31	81.56
453.53	85.56
453.751	89.56
453.971	88.56
454.192	77.56
454.412	80.56
454.633	93.56
454.853	84.56
455.073	84.56
455.294	79.56
455.514	81.56
455.734	82.56
455.955	76.56
456.175	79.56
456.395	65.56
456.616	78.56
456.836	99.56
457.056	89.56
457.276	85.56
457.497	101.56
457.717	81.56
457.937	83.56
458.157	93.56
458.377	78.56
458.598	75.56
458.818	89.56
459.038	82.56
459.258	68.56
459.478	78.56
459.698	75.56
459.918	88.56
460.138	60.56
460.358	83.56
460.578	93.56
460.798	82.56
461.018	86.56
461.238	89.56
461.458	81.56
461.678	79.56
461.898	84.56
462.118	75.56
462.338	86.56
462.558	77.56
462.777	87.56
462.997	83.56
463.217	81.56
463.437	79.56
463.657	72.56
463.876	76.56
464.096	88.56
464.316	74.56
464.536	76.56
464.755	86.56
464.975	84.56
465.195	81.56
465.414	100.56
465.634	96.56
465.854	72.56
466.073	100.56
466.293	91.56
466.512	80.56
466.732	76.56
466.951	84.56
467.171	98.56
467.391	79.56
467.61	96.56
467.829	104.56
468.049	94.56
468.268	99.56
468.488	88.56
468.707	92.56
468.927	79.56
469.146	90.56
469.365	94.56
469.585	92.56
469.804	80.56
470.023	106.56
470.243	93.56
470.462	74.56
470.681	94.56
470.901	88.56
471.12	86.56
471.339	102.56
471.558	86.56
471.777	92.56
471.997	101.56
472.216	94.56
472.435	88.56
472.654	78.56
472.873	92.56
473.092	75.56
473.311	90.56
473.53	81.56
473.749	93.56
473.968	82.56
474.187	90.56
474.406	98.56
474.625	90.56
474.844	90.56
475.063	80.56
475.282	81.56
475.501	88.56
475.72	86.56
475.939	87.56
476.158	84.56
476.377	78.56
476.596	79.56
476.814	80.56
477.033	100.56
477.252	89.56
477.471	85.56
477.69	90.56
477.908	102.56
478.127	95.56
478.346	76.56
478.564	94.56
478.783	91.56
479.002	93.56
479.22	112.56
479.439	103.56
479.658	82.56
479.876	70.56
480.095	81.56
480.313	60.56
480.532	78.56
480.751	80.56
480.969	94.56
481.188	84.56
481.406	86.56
481.624	96.56
481.843	80.56
482.061	92.56
482.28	81.56
482.498	81.56
482.717	80.56
482.935	92.56
483.153	84.56
483.372	79.56
483.59	88.56
483.808	98.56
484.027	88.56
484.245	83.56
484.463	96.56
484.681	110.56
484.9	93.56
485.118	106.56
485.336	88.56
485.554	78.56
485.772	85.56
485.99	92.56
486.209	82.56
486.427	101.56
486.645	77.56
486.863	98.56
487.081	80.56
487.299	97.56
487.517	101.56
487.735	84.56
487.953	82.56
488.171	91.56
488.389	103.56
488.607	95.56
488.825	89.56
489.043	88.56
489.261	84.56
489.479	101.56
489.696	94.56
489.914	80.56
490.132	77.56
490.35	89.56
490.568	93.56
490.786	101.56
491.003	90.56
491.221	97.56
491.439	101.56
491.657	105.56
491.874	103.56
492.092	104.56
492.31	105.56
492.527	112.56
492.745	96.56
492.963	112.56
493.18	106.56
493.398	112.56
493.615	98.56
493.833	96.56
494.05	101.56
494.268	95.56
494.485	95.56
494.703	97.56
494.92	82.56
495.138	96.56
495.355	98.56
495.573	99.56
495.79	112.56
496.008	102.56
496.225	94.56
496.442	102.56
496.66	94.56
496.877	103.56
497.094	106.56
497.312	97.56
497.529	94.56
497.746	93.56
497.963	105.56
498.181	98.56
498.398	102.56
498.615	77.56
498.832	77.56
499.049	89.56
499.267	75.56
499.484	90.56
499.701	75.56
499.918	84.56
500.135	86.56
500.352	79.56
500.569	95.56
500.786	93.56
501.003	99.56
501.22	90.56
501.437	85.56
501.654	97.56
501.871	71.56
502.088	90.56
502.305	93.56
502.522	91.56
502.739	87.56
502.956	87.56
503.172	93.56
503.389	94.56
503.606	85.56
503.823	84.56
504.04	94.56
504.256	89.56
504.473	82.56
504.69	88.56
504.907	92.56
505.123	88.56
505.34	84.56
505.557	95.56
505.773	85.56
505.99	94.56
506.207	82.56
506.423	82.56
506.64	88.56
506.856	95.56
507.073	78.56
507.289	88.56
507.506	88.56
507.722	91.56
507.939	88.56
508.155	84.56
508.372	102.56
508.588	100.56
508.805	98.56
509.021	97.56
509.238	71.56
509.454	104.56
509.67	73.56
509.887	93.56
510.103	75.56
510.319	89.56
510.536	89.56
510.752	78.56
510.968	86.56
511.184	89.56
511.401	94.56
511.617	93.56
511.833	82.56
512.049	102.56
512.265	67.56
512.481	80.56
512.698	83.56
512.914	78.56
513.13	66.56
513.346	91.56
513.562	79.56
513.778	83.56
513.994	84.56
514.21	76.56
514.426	78.56
514.642	76.56
514.858	72.56
515.074	75.56
515.29	89.56
515.506	97.56
515.721	92.56
515.937	86.56
516.153	92.56
516.369	72.56
516.585	94.56
516.801	82.56
517.016	75.56
517.232	64.56
517.448	86.56
517.664	89.56
517.879	84.56
518.095	91.56
518.311	85.56
518.527	84.56
