Data from Zn(NO3)2Standard.Agarose3%.GreenCap.LampEnergy10E.O_HRD10591_15-09-04-953.txt Node
Date: Mon Jul 22 15:09:04 EDT 2019
User: cochatt
Spectrometer: HR+D1059
Trigger mode: 1
Integration Time (sec): 1.000000E-1
Scans to average: 1
Electric dark correction enabled: true
Nonlinearity correction enabled: false
Boxcar width: 0
XAxis mode: Wavelengths
Number of Pixels in Spectrum: 2048
>>>>>Begin Spectral Data<<<<<
223.165	-10.75
223.4	-10.75
223.635	-10.75
223.869	-18.75
224.104	-18.75
224.338	-0.75
224.573	-6.75
224.808	-7.75
225.042	-0.75
225.277	-14.75
225.511	-2.75
225.746	5.25
225.98	0.25
226.215	11.25
226.449	6.25
226.683	11.25
226.918	15.25
227.152	32.25
227.387	32.25
227.621	40.25
227.856	53.25
228.09	48.25
228.324	59.25
228.559	63.25
228.793	67.25
229.027	54.25
229.262	63.25
229.496	52.25
229.73	61.25
229.964	88.25
230.199	69.25
230.433	82.25
230.667	76.25
230.901	80.25
231.136	83.25
231.37	84.25
231.604	100.25
231.838	65.25
232.072	80.25
232.306	75.25
232.541	93.25
232.775	86.25
233.009	92.25
233.243	90.25
233.477	70.25
233.711	77.25
233.945	77.25
234.179	83.25
234.413	81.25
234.647	84.25
234.881	64.25
235.115	76.25
235.349	80.25
235.583	77.25
235.817	82.25
236.051	76.25
236.285	62.25
236.519	84.25
236.753	77.25
236.987	84.25
237.221	66.25
237.455	65.25
237.689	79.25
237.922	60.25
238.156	93.25
238.39	81.25
238.624	81.25
238.858	82.25
239.091	76.25
239.325	77.25
239.559	85.25
239.793	66.25
240.027	77.25
240.26	76.25
240.494	66.25
240.728	73.25
240.961	83.25
241.195	80.25
241.429	78.25
241.662	93.25
241.896	68.25
242.13	89.25
242.363	69.25
242.597	76.25
242.83	83.25
243.064	73.25
243.298	89.25
243.531	76.25
243.765	93.25
243.998	80.25
244.232	80.25
244.465	85.25
244.699	67.25
244.932	70.25
245.166	66.25
245.399	82.25
245.633	70.25
245.866	84.25
246.099	66.25
246.333	72.25
246.566	74.25
246.8	92.25
247.033	82.25
247.266	69.25
247.5	78.25
247.733	65.25
247.966	86.25
248.2	81.25
248.433	69.25
248.666	86.25
248.899	89.25
249.133	74.25
249.366	88.25
249.599	79.25
249.832	85.25
250.066	96.25
250.299	72.25
250.532	82.25
250.765	77.25
250.998	82.25
251.231	74.25
251.465	81.25
251.698	78.25
251.931	73.25
252.164	82.25
252.397	79.25
252.63	83.25
252.863	85.25
253.096	91.25
253.329	68.25
253.562	93.25
253.795	87.25
254.028	81.25
254.261	74.25
254.494	80.25
254.727	83.25
254.96	78.25
255.193	76.25
255.426	74.25
255.659	84.25
255.892	78.25
256.124	82.25
256.357	77.25
256.59	77.25
256.823	82.25
257.056	86.25
257.289	67.25
257.521	76.25
257.754	81.25
257.987	89.25
258.22	84.25
258.452	78.25
258.685	82.25
258.918	64.25
259.151	77.25
259.383	73.25
259.616	80.25
259.849	81.25
260.081	74.25
260.314	92.25
260.547	78.25
260.779	76.25
261.012	76.25
261.244	90.25
261.477	82.25
261.71	73.25
261.942	82.25
262.175	71.25
262.407	88.25
262.64	73.25
262.872	81.25
263.105	85.25
263.337	94.25
263.57	90.25
263.802	76.25
264.035	88.25
264.267	91.25
264.499	77.25
264.732	92.25
264.964	81.25
265.197	72.25
265.429	86.25
265.661	88.25
265.894	75.25
266.126	78.25
266.358	92.25
266.591	74.25
266.823	84.25
267.055	66.25
267.287	76.25
267.52	60.25
267.752	81.25
267.984	79.25
268.216	78.25
268.448	71.25
268.681	48.25
268.913	84.25
269.145	77.25
269.377	66.25
269.609	82.25
269.841	83.25
270.073	81.25
270.306	80.25
270.538	88.25
270.77	74.25
271.002	89.25
271.234	87.25
271.466	90.25
271.698	87.25
271.93	78.25
272.162	81.25
272.394	80.25
272.626	86.25
272.858	75.25
273.09	85.25
273.322	94.25
273.553	85.25
273.785	70.25
274.017	77.25
274.249	78.25
274.481	84.25
274.713	79.25
274.945	82.25
275.176	89.25
275.408	80.25
275.64	82.25
275.872	77.25
276.104	89.25
276.335	81.25
276.567	83.25
276.799	85.25
277.031	73.25
277.262	84.25
277.494	83.25
277.726	85.25
277.957	87.25
278.189	71.25
278.421	80.25
278.652	88.25
278.884	67.25
279.115	87.25
279.347	75.25
279.579	88.25
279.81	80.25
280.042	87.25
280.273	83.25
280.505	77.25
280.736	88.25
280.968	85.25
281.199	84.25
281.431	82.25
281.662	83.25
281.894	78.25
282.125	84.25
282.356	81.25
282.588	84.25
282.819	87.25
283.051	100.25
283.282	84.25
283.513	92.25
283.745	87.25
283.976	79.25
284.207	75.25
284.439	91.25
284.67	86.25
284.901	76.25
285.132	78.25
285.364	89.25
285.595	61.25
285.826	67.25
286.057	82.25
286.288	82.25
286.52	74.25
286.751	80.25
286.982	75.25
287.213	72.25
287.444	111.25
287.675	83.25
287.906	66.25
288.138	74.25
288.369	80.25
288.6	75.25
288.831	70.25
289.062	83.25
289.293	92.25
289.524	80.25
289.755	63.25
289.986	74.25
290.217	74.25
290.448	94.25
290.679	96.25
290.91	74.25
291.141	87.25
291.371	84.25
291.602	84.25
291.833	81.25
292.064	97.25
292.295	98.25
292.526	72.25
292.757	82.25
292.987	99.25
293.218	78.25
293.449	82.25
293.68	84.25
293.91	82.25
294.141	86.25
294.372	98.25
294.603	93.25
294.833	86.25
295.064	94.25
295.295	68.25
295.525	89.25
295.756	90.25
295.987	79.25
296.217	77.25
296.448	96.25
296.679	69.25
296.909	90.25
297.14	89.25
297.37	75.25
297.601	80.25
297.831	77.25
298.062	80.25
298.292	92.25
298.523	83.25
298.753	82.25
298.984	78.25
299.214	93.25
299.445	96.25
299.675	88.25
299.905	76.25
300.136	84.25
300.366	91.25
300.597	76.25
300.827	76.25
301.057	88.25
301.288	84.25
301.518	76.25
301.748	89.25
301.979	90.25
302.209	86.25
302.439	89.25
302.669	79.25
302.9	96.25
303.13	80.25
303.36	89.25
303.59	80.25
303.82	91.25
304.051	84.25
304.281	90.25
304.511	91.25
304.741	81.25
304.971	79.25
305.201	99.25
305.431	82.25
305.661	85.25
305.891	86.25
306.121	88.25
306.352	93.25
306.582	79.25
306.812	84.25
307.042	95.25
307.272	82.25
307.502	85.25
307.731	82.25
307.961	77.25
308.191	77.25
308.421	88.25
308.651	78.25
308.881	85.25
309.111	72.25
309.341	73.25
309.571	85.25
309.8	84.25
310.03	85.25
310.26	85.25
310.49	85.25
310.72	69.25
310.949	78.25
311.179	92.25
311.409	88.25
311.639	95.25
311.868	82.25
312.098	98.25
312.328	77.25
312.557	76.25
312.787	88.25
313.017	102.25
313.246	85.25
313.476	79.25
313.706	84.25
313.935	93.25
314.165	93.25
314.394	79.25
314.624	79.25
314.853	89.25
315.083	98.25
315.312	89.25
315.542	94.25
315.771	85.25
316.001	76.25
316.23	101.25
316.46	77.25
316.689	91.25
316.919	75.25
317.148	90.25
317.377	80.25
317.607	90.25
317.836	89.25
318.065	91.25
318.295	92.25
318.524	93.25
318.753	78.25
318.983	86.25
319.212	90.25
319.441	79.25
319.67	92.25
319.9	67.25
320.129	76.25
320.358	80.25
320.587	96.25
320.816	81.25
321.046	79.25
321.275	84.25
321.504	74.25
321.733	86.25
321.962	92.25
322.191	83.25
322.42	77.25
322.649	87.25
322.878	91.25
323.108	82.25
323.337	85.25
323.566	90.25
323.795	78.25
324.024	81.25
324.253	79.25
324.482	66.25
324.71	85.25
324.939	89.25
325.168	77.25
325.397	93.25
325.626	80.25
325.855	83.25
326.084	85.25
326.313	89.25
326.542	66.25
326.77	88.25
326.999	96.25
327.228	98.25
327.457	80.25
327.686	76.25
327.914	78.25
328.143	92.25
328.372	85.25
328.6	87.25
328.829	79.25
329.058	92.25
329.287	92.25
329.515	82.25
329.744	89.25
329.972	76.25
330.201	83.25
330.43	82.25
330.658	83.25
330.887	86.25
331.115	82.25
331.344	83.25
331.572	96.25
331.801	81.25
332.03	92.25
332.258	83.25
332.486	82.25
332.715	79.25
332.943	88.25
333.172	89.25
333.4	93.25
333.629	83.25
333.857	85.25
334.085	70.25
334.314	85.25
334.542	92.25
334.771	92.25
334.999	78.25
335.227	97.25
335.455	90.25
335.684	97.25
335.912	93.25
336.14	74.25
336.369	72.25
336.597	81.25
336.825	90.25
337.053	82.25
337.281	85.25
337.51	82.25
337.738	79.25
337.966	82.25
338.194	75.25
338.422	83.25
338.65	77.25
338.878	102.25
339.106	84.25
339.334	86.25
339.562	73.25
339.79	77.25
340.018	97.25
340.246	87.25
340.474	101.25
340.702	74.25
340.93	106.25
341.158	89.25
341.386	86.25
341.614	81.25
341.842	87.25
342.07	89.25
342.298	75.25
342.526	85.25
342.754	78.25
342.981	83.25
343.209	77.25
343.437	85.25
343.665	78.25
343.893	78.25
344.12	83.25
344.348	85.25
344.576	94.25
344.804	87.25
345.031	68.25
345.259	84.25
345.487	93.25
345.714	92.25
345.942	85.25
346.17	89.25
346.397	86.25
346.625	88.25
346.853	72.25
347.08	90.25
347.308	85.25
347.535	90.25
347.763	76.25
347.99	92.25
348.218	82.25
348.445	87.25
348.673	83.25
348.9	97.25
349.128	86.25
349.355	78.25
349.583	93.25
349.81	85.25
350.037	77.25
350.265	90.25
350.492	92.25
350.72	73.25
350.947	88.25
351.174	91.25
351.402	94.25
351.629	77.25
351.856	94.25
352.083	77.25
352.311	82.25
352.538	80.25
352.765	84.25
352.992	86.25
353.22	94.25
353.447	88.25
353.674	96.25
353.901	83.25
354.128	76.25
354.355	98.25
354.583	78.25
354.81	91.25
355.037	89.25
355.264	82.25
355.491	85.25
355.718	81.25
355.945	86.25
356.172	88.25
356.399	79.25
356.626	74.25
356.853	75.25
357.08	94.25
357.307	100.25
357.534	67.25
357.761	89.25
357.988	72.25
358.215	98.25
358.441	82.25
358.668	76.25
358.895	91.25
359.122	76.25
359.349	84.25
359.576	96.25
359.802	86.25
360.029	84.25
360.256	82.25
360.483	82.25
360.709	88.25
360.936	74.25
361.163	97.25
361.39	90.25
361.616	85.25
361.843	89.25
362.07	82.25
362.296	65.25
362.523	89.25
362.749	92.25
362.976	98.25
363.203	92.25
363.429	82.25
363.656	83.25
363.882	89.25
364.109	103.25
364.335	87.25
364.562	81.25
364.788	84.25
365.015	80.25
365.241	83.25
365.468	88.25
365.694	70.25
365.92	94.25
366.147	86.25
366.373	91.25
366.599	93.25
366.826	77.25
367.052	85.25
367.278	89.25
367.505	96.25
367.731	84.25
367.957	79.25
368.184	89.25
368.41	83.25
368.636	77.25
368.862	72.25
369.089	93.25
369.315	81.25
369.541	90.25
369.767	85.25
369.993	95.25
370.219	100.25
370.445	83.25
370.672	80.25
370.898	85.25
371.124	86.25
371.35	81.25
371.576	83.25
371.802	86.25
372.028	102.25
372.254	90.25
372.48	82.25
372.706	100.25
372.932	78.25
373.158	90.25
373.384	85.25
373.61	97.25
373.835	84.25
374.061	98.25
374.287	86.25
374.513	100.25
374.739	76.25
374.965	73.25
375.191	96.25
375.416	84.25
375.642	87.25
375.868	82.25
376.094	107.25
376.319	104.25
376.545	82.25
376.771	79.25
376.997	87.25
377.222	93.25
377.448	93.25
377.674	100.25
377.899	90.25
378.125	107.25
378.35	83.25
378.576	98.25
378.802	83.25
379.027	98.25
379.253	85.25
379.478	94.25
379.704	82.25
379.929	87.25
380.155	85.25
380.38	76.25
380.606	81.25
380.831	100.25
381.057	92.25
381.282	92.25
381.507	87.25
381.733	87.25
381.958	93.25
382.184	80.25
382.409	88.25
382.634	83.25
382.86	89.25
383.085	85.25
383.31	78.25
383.535	92.25
383.761	82.25
383.986	81.25
384.211	88.25
384.436	79.25
384.662	80.25
384.887	102.25
385.112	97.25
385.337	84.25
385.562	89.25
385.787	83.25
386.013	85.25
386.238	89.25
386.463	93.25
386.688	73.25
386.913	91.25
387.138	79.25
387.363	99.25
387.588	90.25
387.813	92.25
388.038	86.25
388.263	86.25
388.488	93.25
388.713	99.25
388.938	84.25
389.163	96.25
389.387	85.25
389.612	81.25
389.837	96.25
390.062	87.25
390.287	101.25
390.512	92.25
390.736	95.25
390.961	96.25
391.186	89.25
391.411	96.25
391.636	94.25
391.86	81.25
392.085	89.25
392.31	77.25
392.534	83.25
392.759	95.25
392.984	86.25
393.208	96.25
393.433	81.25
393.658	96.25
393.882	100.25
394.107	90.25
394.331	99.25
394.556	102.25
394.78	106.25
395.005	95.25
395.229	99.25
395.454	108.25
395.678	94.25
395.903	107.25
396.127	97.25
396.352	82.25
396.576	89.25
396.801	87.25
397.025	82.25
397.249	87.25
397.474	71.25
397.698	104.25
397.922	99.25
398.147	88.25
398.371	92.25
398.595	101.25
398.82	88.25
399.044	95.25
399.268	89.25
399.492	94.25
399.717	109.25
399.941	98.25
400.165	92.25
400.389	98.25
400.613	94.25
400.837	86.25
401.062	101.25
401.286	110.25
401.51	109.25
401.734	97.25
401.958	87.25
402.182	104.25
402.406	93.25
402.63	106.25
402.854	93.25
403.078	100.25
403.302	83.25
403.526	94.25
403.75	102.25
403.974	84.25
404.198	97.25
404.422	88.25
404.645	92.25
404.869	87.25
405.093	90.25
405.317	100.25
405.541	92.25
405.765	98.25
405.988	97.25
406.212	105.25
406.436	91.25
406.66	93.25
406.883	101.25
407.107	85.25
407.331	91.25
407.555	108.25
407.778	99.25
408.002	97.25
408.226	100.25
408.449	96.25
408.673	115.25
408.896	112.25
409.12	96.25
409.344	98.25
409.567	96.25
409.791	99.25
410.014	100.25
410.238	95.25
410.461	99.25
410.685	96.25
410.908	94.25
411.132	92.25
411.355	93.25
411.578	119.25
411.802	108.25
412.025	89.25
412.249	90.25
412.472	91.25
412.695	104.25
412.919	104.25
413.142	93.25
413.365	109.25
413.589	83.25
413.812	117.25
414.035	104.25
414.258	104.25
414.482	77.25
414.705	92.25
414.928	104.25
415.151	104.25
415.374	111.25
415.597	104.25
415.821	99.25
416.044	93.25
416.267	96.25
416.49	116.25
416.713	99.25
416.936	102.25
417.159	97.25
417.382	104.25
417.605	118.25
417.828	101.25
418.051	87.25
418.274	93.25
418.497	104.25
418.72	112.25
418.943	100.25
419.166	104.25
419.389	106.25
419.611	93.25
419.834	111.25
420.057	99.25
420.28	114.25
420.503	94.25
420.726	105.25
420.948	114.25
421.171	111.25
421.394	106.25
421.617	103.25
421.839	116.25
422.062	109.25
422.285	92.25
422.507	112.25
422.73	101.25
422.953	95.25
423.175	97.25
423.398	106.25
423.621	122.25
423.843	112.25
424.066	95.25
424.288	106.25
424.511	106.25
424.733	104.25
424.956	114.25
425.178	99.25
425.401	98.25
425.623	122.25
425.846	109.25
426.068	113.25
426.291	105.25
426.513	98.25
426.735	104.25
426.958	100.25
427.18	101.25
427.402	98.25
427.625	117.25
427.847	109.25
428.069	115.25
428.292	106.25
428.514	102.25
428.736	107.25
428.958	110.25
429.181	113.25
429.403	98.25
429.625	103.25
429.847	110.25
430.069	107.25
430.292	126.25
430.514	103.25
430.736	117.25
430.958	97.25
431.18	104.25
431.402	109.25
431.624	82.25
431.846	96.25
432.068	86.25
432.29	96.25
432.512	108.25
432.734	106.25
432.956	104.25
433.178	105.25
433.4	106.25
433.622	115.25
433.844	104.25
434.066	98.25
434.287	93.25
434.509	93.25
434.731	100.25
434.953	94.25
435.175	122.25
435.397	101.25
435.618	102.25
435.84	107.25
436.062	101.25
436.284	98.25
436.505	107.25
436.727	114.25
436.949	122.25
437.17	104.25
437.392	103.25
437.614	94.25
437.835	89.25
438.057	93.25
438.278	99.25
438.5	102.25
438.721	105.25
438.943	124.25
439.165	114.25
439.386	123.25
439.608	114.25
439.829	114.25
440.05	113.25
440.272	105.25
440.493	117.25
440.715	104.25
440.936	110.25
441.158	109.25
441.379	103.25
441.6	115.25
441.822	119.25
442.043	120.25
442.264	114.25
442.486	116.25
442.707	104.25
442.928	116.25
443.149	103.25
443.371	116.25
443.592	116.25
443.813	115.25
444.034	99.25
444.255	105.25
444.476	112.25
444.698	101.25
444.919	127.25
445.14	234.25
445.361	175.25
445.582	136.25
445.803	109.25
446.024	115.25
446.245	124.25
446.466	131.25
446.687	106.25
446.908	136.25
447.129	130.25
447.35	122.25
447.571	122.25
447.792	122.25
448.013	106.25
448.234	107.25
448.455	79.25
448.675	117.25
448.896	117.25
449.117	102.25
449.338	102.25
449.559	105.25
449.779	88.25
450	114.25
450.221	109.25
450.442	104.25
450.662	119.25
450.883	105.25
451.104	122.25
451.324	102.25
451.545	108.25
451.766	123.25
451.986	91.25
452.207	102.25
452.428	97.25
452.648	105.25
452.869	100.25
453.089	111.25
453.31	99.25
453.53	107.25
453.751	97.25
453.971	98.25
454.192	89.25
454.412	92.25
454.633	98.25
454.853	103.25
455.073	101.25
455.294	105.25
455.514	114.25
455.734	88.25
455.955	107.25
456.175	107.25
456.395	102.25
456.616	86.25
456.836	92.25
457.056	92.25
457.276	89.25
457.497	101.25
457.717	83.25
457.937	104.25
458.157	99.25
458.377	105.25
458.598	92.25
458.818	96.25
459.038	90.25
459.258	99.25
459.478	87.25
459.698	78.25
459.918	81.25
460.138	83.25
460.358	96.25
460.578	103.25
460.798	94.25
461.018	116.25
461.238	96.25
461.458	121.25
461.678	100.25
461.898	98.25
462.118	102.25
462.338	96.25
462.558	101.25
462.777	89.25
462.997	100.25
463.217	87.25
463.437	105.25
463.657	87.25
463.876	102.25
464.096	94.25
464.316	92.25
464.536	82.25
464.755	90.25
464.975	101.25
465.195	104.25
465.414	87.25
465.634	97.25
465.854	101.25
466.073	107.25
466.293	92.25
466.512	92.25
466.732	90.25
466.951	110.25
467.171	116.25
467.391	123.25
467.61	110.25
467.829	108.25
468.049	103.25
468.268	96.25
468.488	104.25
468.707	106.25
468.927	122.25
469.146	98.25
469.365	115.25
469.585	116.25
469.804	113.25
470.023	104.25
470.243	109.25
470.462	121.25
470.681	116.25
470.901	107.25
471.12	105.25
471.339	124.25
471.558	118.25
471.777	100.25
471.997	109.25
472.216	93.25
472.435	113.25
472.654	92.25
472.873	86.25
473.092	108.25
473.311	109.25
473.53	103.25
473.749	105.25
473.968	117.25
474.187	114.25
474.406	113.25
474.625	113.25
474.844	98.25
475.063	112.25
475.282	105.25
475.501	112.25
475.72	114.25
475.939	100.25
476.158	114.25
476.377	110.25
476.596	96.25
476.814	87.25
477.033	96.25
477.252	98.25
477.471	103.25
477.69	105.25
477.908	101.25
478.127	119.25
478.346	117.25
478.564	132.25
478.783	107.25
479.002	114.25
479.22	116.25
479.439	118.25
479.658	114.25
479.876	116.25
480.095	101.25
480.313	109.25
480.532	92.25
480.751	92.25
480.969	93.25
481.188	77.25
481.406	89.25
481.624	84.25
481.843	82.25
482.061	74.25
482.28	93.25
482.498	94.25
482.717	85.25
482.935	101.25
483.153	109.25
483.372	129.25
483.59	134.25
483.808	106.25
484.027	115.25
484.245	110.25
484.463	111.25
484.681	118.25
484.9	112.25
485.118	106.25
485.336	111.25
485.554	89.25
485.772	104.25
485.99	96.25
486.209	88.25
486.427	100.25
486.645	113.25
486.863	116.25
487.081	101.25
487.299	115.25
487.517	112.25
487.735	110.25
487.953	124.25
488.171	138.25
488.389	126.25
488.607	125.25
488.825	126.25
489.043	103.25
489.261	110.25
489.479	109.25
489.696	129.25
489.914	115.25
490.132	108.25
490.35	124.25
490.568	123.25
490.786	121.25
491.003	130.25
491.221	129.25
491.439	141.25
491.657	148.25
491.874	142.25
492.092	157.25
492.31	170.25
492.527	155.25
492.745	142.25
492.963	141.25
493.18	144.25
493.398	132.25
493.615	147.25
493.833	127.25
494.05	117.25
494.268	131.25
494.485	137.25
494.703	123.25
494.92	130.25
495.138	125.25
495.355	128.25
495.573	131.25
495.79	135.25
496.008	134.25
496.225	120.25
496.442	131.25
496.66	130.25
496.877	117.25
497.094	117.25
497.312	116.25
497.529	119.25
497.746	123.25
497.963	115.25
498.181	114.25
498.398	91.25
498.615	77.25
498.832	84.25
499.049	98.25
499.267	94.25
499.484	99.25
499.701	109.25
499.918	114.25
500.135	103.25
500.352	104.25
500.569	91.25
500.786	124.25
501.003	113.25
501.22	103.25
501.437	116.25
501.654	101.25
501.871	114.25
502.088	106.25
502.305	97.25
502.522	109.25
502.739	97.25
502.956	101.25
503.172	97.25
503.389	98.25
503.606	97.25
503.823	96.25
504.04	107.25
504.256	84.25
504.473	101.25
504.69	108.25
504.907	107.25
505.123	103.25
505.34	112.25
505.557	102.25
505.773	93.25
505.99	94.25
506.207	108.25
506.423	112.25
506.64	102.25
506.856	101.25
507.073	104.25
507.289	114.25
507.506	107.25
507.722	91.25
507.939	99.25
508.155	110.25
508.372	104.25
508.588	89.25
508.805	116.25
509.021	98.25
509.238	104.25
509.454	92.25
509.67	95.25
509.887	99.25
510.103	93.25
510.319	102.25
510.536	97.25
510.752	80.25
510.968	82.25
511.184	83.25
511.401	88.25
511.617	94.25
511.833	74.25
512.049	84.25
512.265	68.25
512.481	94.25
512.698	87.25
512.914	100.25
513.13	89.25
513.346	88.25
513.562	91.25
513.778	92.25
513.994	79.25
514.21	83.25
