Data from Zn(NO3)2Standard.Agarose3%.GreenCap.LampEnergy5.5.E.O_HRD10591_15-03-57-767.txt Node
Date: Mon Jul 22 15:03:57 EDT 2019
User: cochatt
Spectrometer: HR+D1059
Trigger mode: 1
Integration Time (sec): 1.000000E-1
Scans to average: 1
Electric dark correction enabled: true
Nonlinearity correction enabled: false
Boxcar width: 0
XAxis mode: Wavelengths
Number of Pixels in Spectrum: 2048
>>>>>Begin Spectral Data<<<<<
223.165	-19.69
223.4	-19.69
223.635	-19.69
223.869	-7.69
224.104	-19.69
224.338	-9.69
224.573	-11.69
224.808	-10.69
225.042	-8.69
225.277	-9.69
225.511	-11.69
225.746	2.31
225.98	5.31
226.215	6.31
226.449	15.31
226.683	36.31
226.918	19.31
227.152	24.31
227.387	33.31
227.621	30.31
227.856	46.31
228.09	42.31
228.324	47.31
228.559	57.31
228.793	52.31
229.027	74.31
229.262	71.31
229.496	63.31
229.73	69.31
229.964	65.31
230.199	76.31
230.433	59.31
230.667	55.31
230.901	76.31
231.136	85.31
231.37	83.31
231.604	99.31
231.838	78.31
232.072	73.31
232.306	84.31
232.541	99.31
232.775	82.31
233.009	62.31
233.243	88.31
233.477	75.31
233.711	87.31
233.945	62.31
234.179	81.31
234.413	99.31
234.647	84.31
234.881	89.31
235.115	80.31
235.349	90.31
235.583	73.31
235.817	71.31
236.051	75.31
236.285	69.31
236.519	92.31
236.753	86.31
236.987	89.31
237.221	87.31
237.455	85.31
237.689	68.31
237.922	74.31
238.156	89.31
238.39	69.31
238.624	85.31
238.858	81.31
239.091	81.31
239.325	72.31
239.559	69.31
239.793	78.31
240.027	81.31
240.26	65.31
240.494	85.31
240.728	66.31
240.961	86.31
241.195	85.31
241.429	65.31
241.662	77.31
241.896	61.31
242.13	76.31
242.363	77.31
242.597	78.31
242.83	72.31
243.064	88.31
243.298	66.31
243.531	67.31
243.765	73.31
243.998	75.31
244.232	86.31
244.465	72.31
244.699	79.31
244.932	76.31
245.166	77.31
245.399	66.31
245.633	89.31
245.866	74.31
246.099	63.31
246.333	65.31
246.566	66.31
246.8	75.31
247.033	71.31
247.266	74.31
247.5	74.31
247.733	80.31
247.966	73.31
248.2	72.31
248.433	80.31
248.666	81.31
248.899	76.31
249.133	76.31
249.366	87.31
249.599	70.31
249.832	84.31
250.066	81.31
250.299	58.31
250.532	77.31
250.765	89.31
250.998	90.31
251.231	77.31
251.465	78.31
251.698	92.31
251.931	85.31
252.164	89.31
252.397	89.31
252.63	77.31
252.863	70.31
253.096	71.31
253.329	78.31
253.562	84.31
253.795	70.31
254.028	82.31
254.261	83.31
254.494	88.31
254.727	74.31
254.96	70.31
255.193	79.31
255.426	89.31
255.659	70.31
255.892	89.31
256.124	66.31
256.357	83.31
256.59	70.31
256.823	89.31
257.056	78.31
257.289	84.31
257.521	69.31
257.754	77.31
257.987	77.31
258.22	71.31
258.452	83.31
258.685	69.31
258.918	81.31
259.151	92.31
259.383	77.31
259.616	88.31
259.849	77.31
260.081	78.31
260.314	76.31
260.547	83.31
260.779	80.31
261.012	79.31
261.244	76.31
261.477	95.31
261.71	89.31
261.942	81.31
262.175	81.31
262.407	81.31
262.64	87.31
262.872	95.31
263.105	70.31
263.337	97.31
263.57	65.31
263.802	86.31
264.035	79.31
264.267	95.31
264.499	66.31
264.732	76.31
264.964	72.31
265.197	82.31
265.429	79.31
265.661	65.31
265.894	96.31
266.126	93.31
266.358	81.31
266.591	84.31
266.823	88.31
267.055	85.31
267.287	60.31
267.52	80.31
267.752	90.31
267.984	84.31
268.216	90.31
268.448	90.31
268.681	93.31
268.913	80.31
269.145	83.31
269.377	72.31
269.609	86.31
269.841	79.31
270.073	83.31
270.306	78.31
270.538	70.31
270.77	84.31
271.002	84.31
271.234	88.31
271.466	76.31
271.698	86.31
271.93	85.31
272.162	75.31
272.394	95.31
272.626	83.31
272.858	86.31
273.09	84.31
273.322	87.31
273.553	72.31
273.785	76.31
274.017	85.31
274.249	85.31
274.481	84.31
274.713	82.31
274.945	76.31
275.176	90.31
275.408	76.31
275.64	95.31
275.872	101.31
276.104	82.31
276.335	91.31
276.567	93.31
276.799	79.31
277.031	65.31
277.262	84.31
277.494	99.31
277.726	80.31
277.957	85.31
278.189	82.31
278.421	91.31
278.652	94.31
278.884	73.31
279.115	83.31
279.347	89.31
279.579	77.31
279.81	78.31
280.042	72.31
280.273	89.31
280.505	99.31
280.736	89.31
280.968	84.31
281.199	91.31
281.431	88.31
281.662	76.31
281.894	83.31
282.125	86.31
282.356	78.31
282.588	83.31
282.819	86.31
283.051	73.31
283.282	79.31
283.513	92.31
283.745	87.31
283.976	88.31
284.207	82.31
284.439	71.31
284.67	92.31
284.901	78.31
285.132	94.31
285.364	78.31
285.595	82.31
285.826	84.31
286.057	93.31
286.288	89.31
286.52	82.31
286.751	84.31
286.982	86.31
287.213	78.31
287.444	85.31
287.675	77.31
287.906	102.31
288.138	93.31
288.369	71.31
288.6	88.31
288.831	89.31
289.062	79.31
289.293	102.31
289.524	76.31
289.755	81.31
289.986	86.31
290.217	82.31
290.448	101.31
290.679	76.31
290.91	73.31
291.141	83.31
291.371	78.31
291.602	87.31
291.833	93.31
292.064	90.31
292.295	96.31
292.526	85.31
292.757	70.31
292.987	105.31
293.218	74.31
293.449	89.31
293.68	93.31
293.91	86.31
294.141	82.31
294.372	82.31
294.603	81.31
294.833	90.31
295.064	82.31
295.295	81.31
295.525	99.31
295.756	101.31
295.987	95.31
296.217	78.31
296.448	85.31
296.679	82.31
296.909	89.31
297.14	92.31
297.37	90.31
297.601	93.31
297.831	77.31
298.062	87.31
298.292	86.31
298.523	77.31
298.753	89.31
298.984	93.31
299.214	83.31
299.445	93.31
299.675	76.31
299.905	91.31
300.136	99.31
300.366	85.31
300.597	98.31
300.827	80.31
301.057	86.31
301.288	87.31
301.518	97.31
301.748	98.31
301.979	87.31
302.209	67.31
302.439	96.31
302.669	89.31
302.9	83.31
303.13	94.31
303.36	90.31
303.59	79.31
303.82	92.31
304.051	79.31
304.281	100.31
304.511	102.31
304.741	72.31
304.971	92.31
305.201	99.31
305.431	93.31
305.661	84.31
305.891	92.31
306.121	93.31
306.352	55.31
306.582	75.31
306.812	99.31
307.042	93.31
307.272	82.31
307.502	89.31
307.731	89.31
307.961	81.31
308.191	86.31
308.421	82.31
308.651	96.31
308.881	89.31
309.111	83.31
309.341	85.31
309.571	79.31
309.8	74.31
310.03	90.31
310.26	82.31
310.49	82.31
310.72	80.31
310.949	83.31
311.179	76.31
311.409	93.31
311.639	80.31
311.868	86.31
312.098	76.31
312.328	104.31
312.557	69.31
312.787	90.31
313.017	71.31
313.246	92.31
313.476	96.31
313.706	89.31
313.935	81.31
314.165	74.31
314.394	80.31
314.624	94.31
314.853	98.31
315.083	94.31
315.312	87.31
315.542	75.31
315.771	87.31
316.001	84.31
316.23	79.31
316.46	79.31
316.689	96.31
316.919	71.31
317.148	95.31
317.377	71.31
317.607	77.31
317.836	83.31
318.065	90.31
318.295	85.31
318.524	79.31
318.753	85.31
318.983	78.31
319.212	84.31
319.441	88.31
319.67	84.31
319.9	80.31
320.129	83.31
320.358	86.31
320.587	81.31
320.816	85.31
321.046	101.31
321.275	97.31
321.504	83.31
321.733	93.31
321.962	98.31
322.191	103.31
322.42	78.31
322.649	78.31
322.878	87.31
323.108	83.31
323.337	89.31
323.566	86.31
323.795	89.31
324.024	88.31
324.253	86.31
324.482	84.31
324.71	94.31
324.939	93.31
325.168	87.31
325.397	92.31
325.626	83.31
325.855	73.31
326.084	71.31
326.313	83.31
326.542	77.31
326.77	84.31
326.999	86.31
327.228	84.31
327.457	84.31
327.686	100.31
327.914	87.31
328.143	97.31
328.372	90.31
328.6	75.31
328.829	86.31
329.058	84.31
329.287	88.31
329.515	83.31
329.744	92.31
329.972	85.31
330.201	95.31
330.43	77.31
330.658	83.31
330.887	77.31
331.115	85.31
331.344	103.31
331.572	104.31
331.801	81.31
332.03	85.31
332.258	84.31
332.486	100.31
332.715	93.31
332.943	84.31
333.172	76.31
333.4	87.31
333.629	98.31
333.857	98.31
334.085	79.31
334.314	91.31
334.542	83.31
334.771	88.31
334.999	73.31
335.227	73.31
335.455	76.31
335.684	105.31
335.912	86.31
336.14	87.31
336.369	80.31
336.597	77.31
336.825	81.31
337.053	95.31
337.281	82.31
337.51	72.31
337.738	88.31
337.966	89.31
338.194	84.31
338.422	99.31
338.65	77.31
338.878	88.31
339.106	94.31
339.334	92.31
339.562	86.31
339.79	94.31
340.018	84.31
340.246	73.31
340.474	82.31
340.702	73.31
340.93	70.31
341.158	78.31
341.386	72.31
341.614	88.31
341.842	91.31
342.07	90.31
342.298	78.31
342.526	90.31
342.754	82.31
342.981	82.31
343.209	91.31
343.437	94.31
343.665	75.31
343.893	80.31
344.12	95.31
344.348	80.31
344.576	82.31
344.804	88.31
345.031	92.31
345.259	65.31
345.487	88.31
345.714	88.31
345.942	82.31
346.17	100.31
346.397	83.31
346.625	94.31
346.853	85.31
347.08	85.31
347.308	83.31
347.535	73.31
347.763	74.31
347.99	85.31
348.218	89.31
348.445	78.31
348.673	84.31
348.9	97.31
349.128	85.31
349.355	87.31
349.583	82.31
349.81	93.31
350.037	86.31
350.265	89.31
350.492	89.31
350.72	82.31
350.947	66.31
351.174	85.31
351.402	87.31
351.629	87.31
351.856	78.31
352.083	83.31
352.311	71.31
352.538	88.31
352.765	89.31
352.992	98.31
353.22	84.31
353.447	68.31
353.674	76.31
353.901	88.31
354.128	89.31
354.355	75.31
354.583	86.31
354.81	83.31
355.037	85.31
355.264	75.31
355.491	83.31
355.718	88.31
355.945	78.31
356.172	62.31
356.399	93.31
356.626	90.31
356.853	83.31
357.08	84.31
357.307	72.31
357.534	78.31
357.761	88.31
357.988	84.31
358.215	85.31
358.441	93.31
358.668	82.31
358.895	86.31
359.122	86.31
359.349	84.31
359.576	80.31
359.802	76.31
360.029	82.31
360.256	71.31
360.483	74.31
360.709	75.31
360.936	87.31
361.163	76.31
361.39	73.31
361.616	86.31
361.843	73.31
362.07	84.31
362.296	85.31
362.523	86.31
362.749	79.31
362.976	68.31
363.203	86.31
363.429	82.31
363.656	86.31
363.882	79.31
364.109	86.31
364.335	85.31
364.562	88.31
364.788	83.31
365.015	78.31
365.241	95.31
365.468	92.31
365.694	95.31
365.92	100.31
366.147	87.31
366.373	98.31
366.599	83.31
366.826	90.31
367.052	101.31
367.278	91.31
367.505	76.31
367.731	75.31
367.957	98.31
368.184	75.31
368.41	73.31
368.636	85.31
368.862	80.31
369.089	90.31
369.315	75.31
369.541	80.31
369.767	73.31
369.993	100.31
370.219	79.31
370.445	90.31
370.672	76.31
370.898	93.31
371.124	91.31
371.35	80.31
371.576	89.31
371.802	82.31
372.028	83.31
372.254	80.31
372.48	98.31
372.706	89.31
372.932	81.31
373.158	79.31
373.384	75.31
373.61	77.31
373.835	82.31
374.061	88.31
374.287	90.31
374.513	86.31
374.739	94.31
374.965	95.31
375.191	74.31
375.416	81.31
375.642	93.31
375.868	90.31
376.094	86.31
376.319	80.31
376.545	79.31
376.771	86.31
376.997	82.31
377.222	79.31
377.448	85.31
377.674	95.31
377.899	89.31
378.125	89.31
378.35	80.31
378.576	90.31
378.802	81.31
379.027	79.31
379.253	72.31
379.478	85.31
379.704	92.31
379.929	78.31
380.155	80.31
380.38	77.31
380.606	83.31
380.831	83.31
381.057	71.31
381.282	81.31
381.507	83.31
381.733	77.31
381.958	77.31
382.184	78.31
382.409	85.31
382.634	92.31
382.86	74.31
383.085	84.31
383.31	91.31
383.535	94.31
383.761	95.31
383.986	99.31
384.211	83.31
384.436	84.31
384.662	94.31
384.887	78.31
385.112	77.31
385.337	87.31
385.562	86.31
385.787	89.31
386.013	99.31
386.238	92.31
386.463	87.31
386.688	78.31
386.913	88.31
387.138	91.31
387.363	83.31
387.588	76.31
387.813	85.31
388.038	89.31
388.263	102.31
388.488	76.31
388.713	86.31
388.938	93.31
389.163	88.31
389.387	89.31
389.612	93.31
389.837	90.31
390.062	85.31
390.287	71.31
390.512	82.31
390.736	82.31
390.961	90.31
391.186	89.31
391.411	92.31
391.636	87.31
391.86	78.31
392.085	99.31
392.31	88.31
392.534	91.31
392.759	82.31
392.984	79.31
393.208	81.31
393.433	79.31
393.658	77.31
393.882	82.31
394.107	76.31
394.331	77.31
394.556	84.31
394.78	75.31
395.005	86.31
395.229	84.31
395.454	82.31
395.678	78.31
395.903	88.31
396.127	98.31
396.352	93.31
396.576	86.31
396.801	77.31
397.025	73.31
397.249	83.31
397.474	82.31
397.698	66.31
397.922	86.31
398.147	80.31
398.371	73.31
398.595	104.31
398.82	84.31
399.044	85.31
399.268	84.31
399.492	93.31
399.717	86.31
399.941	77.31
400.165	85.31
400.389	83.31
400.613	79.31
400.837	85.31
401.062	79.31
401.286	75.31
401.51	70.31
401.734	86.31
401.958	94.31
402.182	76.31
402.406	85.31
402.63	94.31
402.854	105.31
403.078	82.31
403.302	81.31
403.526	90.31
403.75	84.31
403.974	69.31
404.198	83.31
404.422	93.31
404.645	77.31
404.869	83.31
405.093	95.31
405.317	87.31
405.541	79.31
405.765	73.31
405.988	82.31
406.212	79.31
406.436	83.31
406.66	102.31
406.883	84.31
407.107	89.31
407.331	86.31
407.555	77.31
407.778	78.31
408.002	85.31
408.226	99.31
408.449	86.31
408.673	69.31
408.896	89.31
409.12	92.31
409.344	74.31
409.567	80.31
409.791	91.31
410.014	99.31
410.238	95.31
410.461	87.31
410.685	95.31
410.908	96.31
411.132	105.31
411.355	86.31
411.578	92.31
411.802	86.31
412.025	96.31
412.249	88.31
412.472	80.31
412.695	91.31
412.919	93.31
413.142	75.31
413.365	94.31
413.589	89.31
413.812	86.31
414.035	92.31
414.258	85.31
414.482	92.31
414.705	93.31
414.928	75.31
415.151	98.31
415.374	79.31
415.597	90.31
415.821	94.31
416.044	83.31
416.267	89.31
416.49	76.31
416.713	90.31
416.936	99.31
417.159	89.31
417.382	84.31
417.605	93.31
417.828	78.31
418.051	74.31
418.274	85.31
418.497	83.31
418.72	80.31
418.943	89.31
419.166	86.31
419.389	99.31
419.611	95.31
419.834	78.31
420.057	84.31
420.28	81.31
420.503	90.31
420.726	84.31
420.948	86.31
421.171	77.31
421.394	84.31
421.617	82.31
421.839	80.31
422.062	80.31
422.285	85.31
422.507	106.31
422.73	85.31
422.953	91.31
423.175	77.31
423.398	71.31
423.621	94.31
423.843	93.31
424.066	80.31
424.288	96.31
424.511	75.31
424.733	74.31
424.956	75.31
425.178	83.31
425.401	93.31
425.623	82.31
425.846	74.31
426.068	88.31
426.291	89.31
426.513	77.31
426.735	88.31
426.958	85.31
427.18	80.31
427.402	86.31
427.625	86.31
427.847	76.31
428.069	88.31
428.292	86.31
428.514	89.31
428.736	89.31
428.958	88.31
429.181	98.31
429.403	89.31
429.625	97.31
429.847	80.31
430.069	81.31
430.292	94.31
430.514	97.31
430.736	83.31
430.958	88.31
431.18	72.31
431.402	82.31
431.624	98.31
431.846	91.31
432.068	79.31
432.29	77.31
432.512	85.31
432.734	90.31
432.956	82.31
433.178	92.31
433.4	79.31
433.622	79.31
433.844	80.31
434.066	83.31
434.287	88.31
434.509	83.31
434.731	86.31
434.953	92.31
435.175	92.31
435.397	84.31
435.618	79.31
435.84	80.31
436.062	88.31
436.284	94.31
436.505	83.31
436.727	78.31
436.949	85.31
437.17	95.31
437.392	84.31
437.614	101.31
437.835	92.31
438.057	86.31
438.278	78.31
438.5	93.31
438.721	73.31
438.943	97.31
439.165	81.31
439.386	88.31
439.608	107.31
439.829	110.31
440.05	99.31
440.272	91.31
440.493	84.31
440.715	96.31
440.936	90.31
441.158	92.31
441.379	91.31
441.6	105.31
441.822	84.31
442.043	80.31
442.264	95.31
442.486	91.31
442.707	98.31
442.928	98.31
443.149	88.31
443.371	83.31
443.592	93.31
443.813	91.31
444.034	105.31
444.255	86.31
444.476	90.31
444.698	86.31
444.919	92.31
445.14	218.31
445.361	139.31
445.582	99.31
445.803	87.31
446.024	77.31
446.245	93.31
446.466	97.31
446.687	74.31
446.908	81.31
447.129	94.31
447.35	97.31
447.571	89.31
447.792	93.31
448.013	98.31
448.234	94.31
448.455	86.31
448.675	80.31
448.896	83.31
449.117	97.31
449.338	71.31
449.559	93.31
449.779	78.31
450	75.31
450.221	80.31
450.442	95.31
450.662	89.31
450.883	87.31
451.104	93.31
451.324	77.31
451.545	85.31
451.766	96.31
451.986	86.31
452.207	84.31
452.428	83.31
452.648	77.31
452.869	87.31
453.089	81.31
453.31	93.31
453.53	87.31
453.751	93.31
453.971	88.31
454.192	86.31
454.412	84.31
454.633	92.31
454.853	82.31
455.073	82.31
455.294	68.31
455.514	94.31
455.734	85.31
455.955	87.31
456.175	87.31
456.395	97.31
456.616	80.31
456.836	103.31
457.056	87.31
457.276	84.31
457.497	95.31
457.717	81.31
457.937	79.31
458.157	85.31
458.377	90.31
458.598	66.31
458.818	87.31
459.038	70.31
459.258	89.31
459.478	89.31
459.698	84.31
459.918	75.31
460.138	78.31
460.358	89.31
460.578	77.31
460.798	95.31
461.018	95.31
461.238	97.31
461.458	74.31
461.678	77.31
461.898	85.31
462.118	88.31
462.338	94.31
462.558	86.31
462.777	82.31
462.997	87.31
463.217	93.31
463.437	94.31
463.657	73.31
463.876	81.31
464.096	88.31
464.316	83.31
464.536	86.31
464.755	86.31
464.975	76.31
465.195	83.31
465.414	98.31
465.634	79.31
465.854	85.31
466.073	102.31
466.293	85.31
466.512	93.31
466.732	94.31
466.951	87.31
467.171	92.31
467.391	90.31
467.61	85.31
467.829	89.31
468.049	96.31
468.268	88.31
468.488	83.31
468.707	94.31
468.927	71.31
469.146	84.31
469.365	83.31
469.585	98.31
469.804	84.31
470.023	91.31
470.243	102.31
470.462	94.31
470.681	85.31
470.901	92.31
471.12	91.31
471.339	90.31
471.558	99.31
471.777	93.31
471.997	92.31
472.216	88.31
472.435	81.31
472.654	82.31
472.873	94.31
473.092	89.31
473.311	82.31
473.53	104.31
473.749	82.31
473.968	90.31
474.187	92.31
474.406	78.31
474.625	92.31
474.844	94.31
475.063	106.31
475.282	82.31
475.501	87.31
475.72	87.31
475.939	75.31
476.158	77.31
476.377	88.31
476.596	80.31
476.814	81.31
477.033	69.31
477.252	73.31
477.471	95.31
477.69	90.31
477.908	90.31
478.127	89.31
478.346	79.31
478.564	85.31
478.783	87.31
479.002	86.31
479.22	99.31
479.439	99.31
479.658	104.31
479.876	78.31
480.095	76.31
480.313	82.31
480.532	99.31
480.751	86.31
480.969	88.31
481.188	79.31
481.406	92.31
481.624	71.31
481.843	80.31
482.061	78.31
482.28	91.31
482.498	90.31
482.717	91.31
482.935	74.31
483.153	91.31
483.372	90.31
483.59	109.31
483.808	94.31
484.027	84.31
484.245	98.31
484.463	93.31
484.681	94.31
484.9	99.31
485.118	86.31
485.336	85.31
485.554	94.31
485.772	86.31
485.99	93.31
486.209	97.31
486.427	85.31
486.645	92.31
486.863	92.31
487.081	92.31
487.299	89.31
487.517	86.31
487.735	108.31
487.953	87.31
488.171	83.31
488.389	95.31
488.607	99.31
488.825	85.31
489.043	86.31
489.261	96.31
489.479	100.31
489.696	85.31
489.914	84.31
490.132	78.31
490.35	86.31
490.568	96.31
490.786	95.31
491.003	106.31
491.221	110.31
491.439	104.31
491.657	110.31
491.874	89.31
492.092	97.31
492.31	118.31
492.527	93.31
492.745	108.31
492.963	93.31
493.18	98.31
493.398	107.31
493.615	90.31
493.833	93.31
494.05	83.31
494.268	106.31
494.485	100.31
494.703	90.31
494.92	89.31
495.138	87.31
495.355	103.31
495.573	98.31
495.79	100.31
496.008	116.31
496.225	88.31
496.442	97.31
496.66	99.31
496.877	92.31
497.094	90.31
497.312	89.31
497.529	102.31
497.746	105.31
497.963	93.31
498.181	79.31
498.398	86.31
498.615	101.31
498.832	90.31
499.049	65.31
499.267	89.31
499.484	101.31
499.701	99.31
499.918	98.31
500.135	98.31
500.352	88.31
500.569	95.31
500.786	92.31
501.003	97.31
501.22	90.31
501.437	84.31
501.654	79.31
501.871	74.31
502.088	91.31
502.305	87.31
502.522	86.31
502.739	84.31
502.956	92.31
503.172	92.31
503.389	78.31
503.606	85.31
503.823	98.31
504.04	81.31
504.256	101.31
504.473	88.31
504.69	93.31
504.907	95.31
505.123	76.31
505.34	94.31
505.557	89.31
505.773	77.31
505.99	83.31
506.207	97.31
506.423	90.31
506.64	78.31
506.856	81.31
507.073	97.31
507.289	89.31
507.506	97.31
507.722	87.31
507.939	88.31
508.155	90.31
508.372	86.31
508.588	99.31
508.805	91.31
509.021	97.31
509.238	83.31
509.454	90.31
509.67	92.31
509.887	84.31
510.103	87.31
510.319	91.31
510.536	79.31
510.752	96.31
510.968	79.31
511.184	79.31
511.401	76.31
511.617	94.31
511.833	87.31
512.049	89.31
512.265	81.31
512.481	89.31
512.698	78.31
512.914	80.31
513.13	69.31
513.346	89.31
513.562	93.31
513.778	85.31
513.994	76.31
514.21	87.31
514.426	77.31
514.642	71.31
514.858	85.31
515.074	80.31
515.29	96.31
515.506	90.31
515.721	97.31
515.937	96.31
516.153	96.31
516.369	83.31
516.585	76.31
516.801	97.31
517.016	88.31
517.232	90.31
517.448	106.31
517.664	90.31
517.879	86.31
518.095	73.31
518.311	89.31
518.527	82.31
518.742	94.31
