Data from Zn(NO3)2Standard.Agarose3%.GreenCap.LampEnergy10E.O_HRD10591_15-08-02-948.txt Node
Date: Mon Jul 22 15:08:02 EDT 2019
User: cochatt
Spectrometer: HR+D1059
Trigger mode: 1
Integration Time (sec): 1.000000E-1
Scans to average: 1
Electric dark correction enabled: true
Nonlinearity correction enabled: false
Boxcar width: 0
XAxis mode: Wavelengths
Number of Pixels in Spectrum: 2048
>>>>>Begin Spectral Data<<<<<
223.165	-8.75
223.4	-8.75
223.635	-8.75
223.869	-15.75
224.104	-28.75
224.338	-13.75
224.573	-8.75
224.808	0.25
225.042	-12.75
225.277	-7.75
225.511	-10.75
225.746	-5.75
225.98	2.25
226.215	9.25
226.449	15.25
226.683	20.25
226.918	32.25
227.152	33.25
227.387	29.25
227.621	37.25
227.856	34.25
228.09	39.25
228.324	48.25
228.559	57.25
228.793	62.25
229.027	58.25
229.262	64.25
229.496	63.25
229.73	66.25
229.964	86.25
230.199	78.25
230.433	95.25
230.667	65.25
230.901	73.25
231.136	69.25
231.37	68.25
231.604	72.25
231.838	87.25
232.072	85.25
232.306	88.25
232.541	96.25
232.775	68.25
233.009	71.25
233.243	82.25
233.477	70.25
233.711	78.25
233.945	90.25
234.179	83.25
234.413	72.25
234.647	86.25
234.881	81.25
235.115	82.25
235.349	66.25
235.583	87.25
235.817	91.25
236.051	86.25
236.285	72.25
236.519	83.25
236.753	71.25
236.987	76.25
237.221	75.25
237.455	73.25
237.689	68.25
237.922	82.25
238.156	83.25
238.39	71.25
238.624	87.25
238.858	79.25
239.091	70.25
239.325	71.25
239.559	71.25
239.793	69.25
240.027	71.25
240.26	74.25
240.494	72.25
240.728	78.25
240.961	84.25
241.195	90.25
241.429	70.25
241.662	89.25
241.896	79.25
242.13	71.25
242.363	70.25
242.597	72.25
242.83	78.25
243.064	88.25
243.298	88.25
243.531	76.25
243.765	75.25
243.998	75.25
244.232	64.25
244.465	63.25
244.699	56.25
244.932	76.25
245.166	77.25
245.399	76.25
245.633	68.25
245.866	79.25
246.099	64.25
246.333	76.25
246.566	84.25
246.8	70.25
247.033	77.25
247.266	80.25
247.5	83.25
247.733	73.25
247.966	70.25
248.2	56.25
248.433	79.25
248.666	83.25
248.899	81.25
249.133	81.25
249.366	82.25
249.599	74.25
249.832	67.25
250.066	76.25
250.299	80.25
250.532	60.25
250.765	75.25
250.998	66.25
251.231	87.25
251.465	87.25
251.698	73.25
251.931	53.25
252.164	77.25
252.397	81.25
252.63	72.25
252.863	77.25
253.096	69.25
253.329	83.25
253.562	70.25
253.795	78.25
254.028	79.25
254.261	81.25
254.494	82.25
254.727	85.25
254.96	81.25
255.193	76.25
255.426	80.25
255.659	79.25
255.892	88.25
256.124	67.25
256.357	73.25
256.59	85.25
256.823	82.25
257.056	66.25
257.289	80.25
257.521	69.25
257.754	76.25
257.987	84.25
258.22	74.25
258.452	82.25
258.685	82.25
258.918	74.25
259.151	88.25
259.383	78.25
259.616	69.25
259.849	68.25
260.081	66.25
260.314	67.25
260.547	69.25
260.779	78.25
261.012	73.25
261.244	82.25
261.477	75.25
261.71	74.25
261.942	84.25
262.175	81.25
262.407	98.25
262.64	91.25
262.872	84.25
263.105	80.25
263.337	84.25
263.57	88.25
263.802	78.25
264.035	82.25
264.267	79.25
264.499	86.25
264.732	91.25
264.964	77.25
265.197	75.25
265.429	86.25
265.661	92.25
265.894	82.25
266.126	90.25
266.358	75.25
266.591	78.25
266.823	71.25
267.055	80.25
267.287	74.25
267.52	70.25
267.752	78.25
267.984	78.25
268.216	93.25
268.448	91.25
268.681	76.25
268.913	76.25
269.145	81.25
269.377	73.25
269.609	83.25
269.841	71.25
270.073	87.25
270.306	74.25
270.538	78.25
270.77	74.25
271.002	83.25
271.234	91.25
271.466	92.25
271.698	70.25
271.93	89.25
272.162	87.25
272.394	85.25
272.626	88.25
272.858	89.25
273.09	72.25
273.322	85.25
273.553	68.25
273.785	80.25
274.017	73.25
274.249	84.25
274.481	78.25
274.713	79.25
274.945	83.25
275.176	74.25
275.408	83.25
275.64	78.25
275.872	86.25
276.104	89.25
276.335	90.25
276.567	77.25
276.799	73.25
277.031	82.25
277.262	80.25
277.494	79.25
277.726	89.25
277.957	81.25
278.189	86.25
278.421	83.25
278.652	74.25
278.884	81.25
279.115	83.25
279.347	82.25
279.579	84.25
279.81	72.25
280.042	77.25
280.273	84.25
280.505	81.25
280.736	78.25
280.968	77.25
281.199	76.25
281.431	61.25
281.662	81.25
281.894	71.25
282.125	91.25
282.356	88.25
282.588	86.25
282.819	76.25
283.051	94.25
283.282	87.25
283.513	74.25
283.745	91.25
283.976	71.25
284.207	79.25
284.439	89.25
284.67	87.25
284.901	86.25
285.132	88.25
285.364	82.25
285.595	80.25
285.826	77.25
286.057	86.25
286.288	78.25
286.52	71.25
286.751	85.25
286.982	73.25
287.213	83.25
287.444	100.25
287.675	67.25
287.906	83.25
288.138	81.25
288.369	78.25
288.6	98.25
288.831	86.25
289.062	82.25
289.293	93.25
289.524	66.25
289.755	76.25
289.986	80.25
290.217	74.25
290.448	83.25
290.679	93.25
290.91	93.25
291.141	81.25
291.371	78.25
291.602	74.25
291.833	82.25
292.064	83.25
292.295	78.25
292.526	92.25
292.757	87.25
292.987	73.25
293.218	96.25
293.449	85.25
293.68	82.25
293.91	91.25
294.141	90.25
294.372	87.25
294.603	84.25
294.833	83.25
295.064	92.25
295.295	72.25
295.525	83.25
295.756	74.25
295.987	85.25
296.217	89.25
296.448	79.25
296.679	86.25
296.909	83.25
297.14	80.25
297.37	74.25
297.601	83.25
297.831	82.25
298.062	79.25
298.292	84.25
298.523	82.25
298.753	76.25
298.984	83.25
299.214	90.25
299.445	94.25
299.675	86.25
299.905	80.25
300.136	85.25
300.366	76.25
300.597	87.25
300.827	80.25
301.057	82.25
301.288	84.25
301.518	87.25
301.748	87.25
301.979	83.25
302.209	71.25
302.439	90.25
302.669	80.25
302.9	86.25
303.13	67.25
303.36	81.25
303.59	69.25
303.82	70.25
304.051	88.25
304.281	79.25
304.511	97.25
304.741	86.25
304.971	81.25
305.201	82.25
305.431	94.25
305.661	74.25
305.891	83.25
306.121	82.25
306.352	74.25
306.582	83.25
306.812	80.25
307.042	81.25
307.272	85.25
307.502	82.25
307.731	82.25
307.961	82.25
308.191	88.25
308.421	77.25
308.651	91.25
308.881	69.25
309.111	75.25
309.341	78.25
309.571	74.25
309.8	84.25
310.03	75.25
310.26	81.25
310.49	82.25
310.72	80.25
310.949	95.25
311.179	80.25
311.409	76.25
311.639	86.25
311.868	76.25
312.098	80.25
312.328	93.25
312.557	82.25
312.787	85.25
313.017	89.25
313.246	97.25
313.476	67.25
313.706	88.25
313.935	85.25
314.165	81.25
314.394	83.25
314.624	88.25
314.853	97.25
315.083	93.25
315.312	90.25
315.542	61.25
315.771	86.25
316.001	88.25
316.23	86.25
316.46	88.25
316.689	90.25
316.919	85.25
317.148	88.25
317.377	88.25
317.607	77.25
317.836	89.25
318.065	81.25
318.295	85.25
318.524	80.25
318.753	85.25
318.983	82.25
319.212	84.25
319.441	79.25
319.67	88.25
319.9	72.25
320.129	86.25
320.358	81.25
320.587	91.25
320.816	82.25
321.046	79.25
321.275	99.25
321.504	89.25
321.733	72.25
321.962	82.25
322.191	79.25
322.42	75.25
322.649	103.25
322.878	84.25
323.108	88.25
323.337	91.25
323.566	86.25
323.795	73.25
324.024	92.25
324.253	83.25
324.482	74.25
324.71	105.25
324.939	79.25
325.168	98.25
325.397	80.25
325.626	88.25
325.855	83.25
326.084	85.25
326.313	84.25
326.542	84.25
326.77	88.25
326.999	79.25
327.228	67.25
327.457	98.25
327.686	86.25
327.914	82.25
328.143	86.25
328.372	93.25
328.6	93.25
328.829	92.25
329.058	86.25
329.287	80.25
329.515	99.25
329.744	81.25
329.972	69.25
330.201	85.25
330.43	72.25
330.658	78.25
330.887	73.25
331.115	90.25
331.344	75.25
331.572	82.25
331.801	84.25
332.03	83.25
332.258	75.25
332.486	83.25
332.715	90.25
332.943	78.25
333.172	70.25
333.4	89.25
333.629	88.25
333.857	77.25
334.085	67.25
334.314	75.25
334.542	84.25
334.771	87.25
334.999	76.25
335.227	83.25
335.455	91.25
335.684	82.25
335.912	83.25
336.14	88.25
336.369	71.25
336.597	90.25
336.825	87.25
337.053	75.25
337.281	88.25
337.51	80.25
337.738	67.25
337.966	78.25
338.194	83.25
338.422	70.25
338.65	75.25
338.878	86.25
339.106	90.25
339.334	82.25
339.562	80.25
339.79	91.25
340.018	77.25
340.246	75.25
340.474	88.25
340.702	79.25
340.93	78.25
341.158	86.25
341.386	84.25
341.614	86.25
341.842	87.25
342.07	83.25
342.298	83.25
342.526	90.25
342.754	80.25
342.981	81.25
343.209	91.25
343.437	85.25
343.665	90.25
343.893	75.25
344.12	70.25
344.348	74.25
344.576	71.25
344.804	76.25
345.031	81.25
345.259	84.25
345.487	77.25
345.714	90.25
345.942	84.25
346.17	89.25
346.397	105.25
346.625	85.25
346.853	78.25
347.08	74.25
347.308	90.25
347.535	76.25
347.763	88.25
347.99	88.25
348.218	76.25
348.445	91.25
348.673	88.25
348.9	94.25
349.128	99.25
349.355	84.25
349.583	86.25
349.81	91.25
350.037	76.25
350.265	96.25
350.492	81.25
350.72	70.25
350.947	92.25
351.174	74.25
351.402	93.25
351.629	75.25
351.856	72.25
352.083	81.25
352.311	84.25
352.538	87.25
352.765	80.25
352.992	86.25
353.22	79.25
353.447	83.25
353.674	91.25
353.901	81.25
354.128	73.25
354.355	84.25
354.583	80.25
354.81	96.25
355.037	71.25
355.264	80.25
355.491	82.25
355.718	91.25
355.945	82.25
356.172	79.25
356.399	91.25
356.626	82.25
356.853	68.25
357.08	86.25
357.307	89.25
357.534	84.25
357.761	84.25
357.988	76.25
358.215	89.25
358.441	87.25
358.668	84.25
358.895	83.25
359.122	78.25
359.349	97.25
359.576	87.25
359.802	84.25
360.029	96.25
360.256	73.25
360.483	77.25
360.709	88.25
360.936	92.25
361.163	99.25
361.39	79.25
361.616	72.25
361.843	94.25
362.07	71.25
362.296	82.25
362.523	88.25
362.749	80.25
362.976	79.25
363.203	84.25
363.429	76.25
363.656	88.25
363.882	89.25
364.109	87.25
364.335	81.25
364.562	84.25
364.788	84.25
365.015	79.25
365.241	75.25
365.468	82.25
365.694	81.25
365.92	84.25
366.147	84.25
366.373	90.25
366.599	86.25
366.826	82.25
367.052	77.25
367.278	84.25
367.505	88.25
367.731	73.25
367.957	86.25
368.184	86.25
368.41	65.25
368.636	80.25
368.862	95.25
369.089	89.25
369.315	86.25
369.541	83.25
369.767	84.25
369.993	76.25
370.219	88.25
370.445	84.25
370.672	76.25
370.898	90.25
371.124	86.25
371.35	69.25
371.576	82.25
371.802	79.25
372.028	79.25
372.254	88.25
372.48	73.25
372.706	69.25
372.932	89.25
373.158	91.25
373.384	99.25
373.61	78.25
373.835	82.25
374.061	97.25
374.287	93.25
374.513	82.25
374.739	88.25
374.965	87.25
375.191	85.25
375.416	79.25
375.642	91.25
375.868	85.25
376.094	72.25
376.319	94.25
376.545	78.25
376.771	86.25
376.997	80.25
377.222	79.25
377.448	80.25
377.674	87.25
377.899	82.25
378.125	83.25
378.35	84.25
378.576	78.25
378.802	85.25
379.027	92.25
379.253	82.25
379.478	73.25
379.704	94.25
379.929	83.25
380.155	106.25
380.38	87.25
380.606	96.25
380.831	88.25
381.057	78.25
381.282	78.25
381.507	82.25
381.733	85.25
381.958	92.25
382.184	90.25
382.409	99.25
382.634	89.25
382.86	79.25
383.085	92.25
383.31	79.25
383.535	76.25
383.761	92.25
383.986	87.25
384.211	73.25
384.436	89.25
384.662	87.25
384.887	84.25
385.112	79.25
385.337	84.25
385.562	74.25
385.787	90.25
386.013	83.25
386.238	92.25
386.463	78.25
386.688	83.25
386.913	83.25
387.138	84.25
387.363	85.25
387.588	102.25
387.813	90.25
388.038	90.25
388.263	88.25
388.488	88.25
388.713	97.25
388.938	79.25
389.163	98.25
389.387	82.25
389.612	88.25
389.837	89.25
390.062	91.25
390.287	94.25
390.512	95.25
390.736	82.25
390.961	77.25
391.186	93.25
391.411	91.25
391.636	97.25
391.86	90.25
392.085	94.25
392.31	88.25
392.534	96.25
392.759	95.25
392.984	93.25
393.208	103.25
393.433	100.25
393.658	91.25
393.882	96.25
394.107	94.25
394.331	91.25
394.556	92.25
394.78	95.25
395.005	90.25
395.229	87.25
395.454	93.25
395.678	96.25
395.903	100.25
396.127	87.25
396.352	88.25
396.576	88.25
396.801	87.25
397.025	81.25
397.249	98.25
397.474	82.25
397.698	104.25
397.922	104.25
398.147	77.25
398.371	86.25
398.595	83.25
398.82	89.25
399.044	102.25
399.268	81.25
399.492	92.25
399.717	93.25
399.941	89.25
400.165	101.25
400.389	96.25
400.613	96.25
400.837	92.25
401.062	94.25
401.286	82.25
401.51	101.25
401.734	100.25
401.958	90.25
402.182	84.25
402.406	94.25
402.63	92.25
402.854	99.25
403.078	113.25
403.302	101.25
403.526	94.25
403.75	98.25
403.974	87.25
404.198	104.25
404.422	106.25
404.645	87.25
404.869	86.25
405.093	79.25
405.317	86.25
405.541	99.25
405.765	104.25
405.988	95.25
406.212	104.25
406.436	98.25
406.66	91.25
406.883	103.25
407.107	95.25
407.331	103.25
407.555	82.25
407.778	80.25
408.002	106.25
408.226	101.25
408.449	98.25
408.673	88.25
408.896	98.25
409.12	104.25
409.344	105.25
409.567	96.25
409.791	94.25
410.014	103.25
410.238	90.25
410.461	98.25
410.685	109.25
410.908	104.25
411.132	114.25
411.355	98.25
411.578	113.25
411.802	100.25
412.025	90.25
412.249	84.25
412.472	95.25
412.695	110.25
412.919	91.25
413.142	96.25
413.365	90.25
413.589	96.25
413.812	95.25
414.035	101.25
414.258	100.25
414.482	86.25
414.705	101.25
414.928	97.25
415.151	102.25
415.374	91.25
415.597	115.25
415.821	93.25
416.044	86.25
416.267	85.25
416.49	102.25
416.713	107.25
416.936	114.25
417.159	89.25
417.382	99.25
417.605	102.25
417.828	112.25
418.051	112.25
418.274	95.25
418.497	106.25
418.72	98.25
418.943	101.25
419.166	101.25
419.389	114.25
419.611	111.25
419.834	85.25
420.057	99.25
420.28	106.25
420.503	99.25
420.726	110.25
420.948	107.25
421.171	97.25
421.394	95.25
421.617	113.25
421.839	122.25
422.062	93.25
422.285	104.25
422.507	114.25
422.73	107.25
422.953	106.25
423.175	111.25
423.398	104.25
423.621	113.25
423.843	99.25
424.066	105.25
424.288	114.25
424.511	102.25
424.733	114.25
424.956	119.25
425.178	110.25
425.401	113.25
425.623	114.25
425.846	98.25
426.068	90.25
426.291	110.25
426.513	98.25
426.735	100.25
426.958	112.25
427.18	111.25
427.402	95.25
427.625	93.25
427.847	101.25
428.069	83.25
428.292	102.25
428.514	99.25
428.736	87.25
428.958	112.25
429.181	101.25
429.403	94.25
429.625	104.25
429.847	108.25
430.069	96.25
430.292	108.25
430.514	105.25
430.736	110.25
430.958	99.25
431.18	110.25
431.402	99.25
431.624	99.25
431.846	98.25
432.068	86.25
432.29	97.25
432.512	96.25
432.734	95.25
432.956	92.25
433.178	98.25
433.4	105.25
433.622	101.25
433.844	104.25
434.066	96.25
434.287	96.25
434.509	83.25
434.731	90.25
434.953	77.25
435.175	96.25
435.397	93.25
435.618	93.25
435.84	90.25
436.062	103.25
436.284	98.25
436.505	101.25
436.727	106.25
436.949	105.25
437.17	109.25
437.392	101.25
437.614	96.25
437.835	84.25
438.057	90.25
438.278	93.25
438.5	103.25
438.721	110.25
438.943	110.25
439.165	116.25
439.386	108.25
439.608	114.25
439.829	103.25
440.05	101.25
440.272	122.25
440.493	116.25
440.715	107.25
440.936	103.25
441.158	121.25
441.379	103.25
441.6	106.25
441.822	124.25
442.043	118.25
442.264	109.25
442.486	115.25
442.707	97.25
442.928	114.25
443.149	97.25
443.371	119.25
443.592	103.25
443.813	110.25
444.034	98.25
444.255	96.25
444.476	92.25
444.698	116.25
444.919	113.25
445.14	220.25
445.361	157.25
445.582	114.25
445.803	126.25
446.024	119.25
446.245	121.25
446.466	118.25
446.687	115.25
446.908	113.25
447.129	114.25
447.35	120.25
447.571	115.25
447.792	130.25
448.013	102.25
448.234	118.25
448.455	108.25
448.675	114.25
448.896	118.25
449.117	104.25
449.338	102.25
449.559	110.25
449.779	111.25
450	100.25
450.221	111.25
450.442	92.25
450.662	90.25
450.883	99.25
451.104	105.25
451.324	94.25
451.545	84.25
451.766	103.25
451.986	97.25
452.207	110.25
452.428	112.25
452.648	119.25
452.869	92.25
453.089	114.25
453.31	98.25
453.53	91.25
453.751	100.25
453.971	99.25
454.192	107.25
454.412	107.25
454.633	104.25
454.853	95.25
455.073	98.25
455.294	90.25
455.514	88.25
455.734	110.25
455.955	106.25
456.175	101.25
456.395	89.25
456.616	98.25
456.836	89.25
457.056	84.25
457.276	88.25
457.497	92.25
457.717	93.25
457.937	83.25
458.157	85.25
458.377	86.25
458.598	86.25
458.818	87.25
459.038	75.25
459.258	94.25
459.478	86.25
459.698	81.25
459.918	92.25
460.138	100.25
460.358	99.25
460.578	97.25
460.798	97.25
461.018	91.25
461.238	110.25
461.458	84.25
461.678	87.25
461.898	88.25
462.118	102.25
462.338	101.25
462.558	92.25
462.777	83.25
462.997	95.25
463.217	91.25
463.437	85.25
463.657	98.25
463.876	90.25
464.096	99.25
464.316	90.25
464.536	92.25
464.755	96.25
464.975	108.25
465.195	103.25
465.414	83.25
465.634	103.25
465.854	90.25
466.073	102.25
466.293	113.25
466.512	96.25
466.732	98.25
466.951	92.25
467.171	118.25
467.391	110.25
467.61	114.25
467.829	90.25
468.049	102.25
468.268	109.25
468.488	102.25
468.707	106.25
468.927	98.25
469.146	111.25
469.365	103.25
469.585	111.25
469.804	86.25
470.023	109.25
470.243	108.25
470.462	120.25
470.681	114.25
470.901	113.25
471.12	99.25
471.339	108.25
471.558	116.25
471.777	92.25
471.997	108.25
472.216	94.25
472.435	92.25
472.654	86.25
472.873	87.25
473.092	96.25
473.311	106.25
473.53	104.25
473.749	89.25
473.968	107.25
474.187	89.25
474.406	102.25
474.625	89.25
474.844	91.25
475.063	102.25
475.282	101.25
475.501	95.25
475.72	111.25
475.939	108.25
476.158	100.25
476.377	101.25
476.596	99.25
476.814	90.25
477.033	89.25
477.252	86.25
477.471	100.25
477.69	115.25
477.908	111.25
478.127	104.25
478.346	98.25
478.564	91.25
478.783	93.25
479.002	106.25
479.22	106.25
479.439	85.25
479.658	102.25
479.876	110.25
480.095	86.25
480.313	98.25
480.532	107.25
480.751	89.25
480.969	97.25
481.188	87.25
481.406	90.25
481.624	96.25
481.843	82.25
482.061	74.25
482.28	99.25
482.498	90.25
482.717	91.25
482.935	98.25
483.153	98.25
483.372	116.25
483.59	114.25
483.808	109.25
484.027	110.25
484.245	89.25
484.463	105.25
484.681	123.25
484.9	122.25
485.118	103.25
485.336	89.25
485.554	90.25
485.772	81.25
485.99	98.25
486.209	89.25
486.427	92.25
486.645	98.25
486.863	97.25
487.081	114.25
487.299	107.25
487.517	118.25
487.735	104.25
487.953	128.25
488.171	147.25
488.389	121.25
488.607	114.25
488.825	113.25
489.043	111.25
489.261	118.25
489.479	108.25
489.696	99.25
489.914	113.25
490.132	123.25
490.35	124.25
490.568	118.25
490.786	106.25
491.003	131.25
491.221	117.25
491.439	131.25
491.657	130.25
491.874	140.25
492.092	136.25
492.31	153.25
492.527	158.25
492.745	139.25
492.963	128.25
493.18	126.25
493.398	122.25
493.615	118.25
493.833	118.25
494.05	122.25
494.268	123.25
494.485	110.25
494.703	131.25
494.92	126.25
495.138	124.25
495.355	132.25
495.573	126.25
495.79	122.25
496.008	117.25
496.225	130.25
496.442	129.25
496.66	126.25
496.877	130.25
497.094	122.25
497.312	115.25
497.529	105.25
497.746	112.25
497.963	94.25
498.181	94.25
498.398	95.25
498.615	96.25
498.832	93.25
499.049	98.25
499.267	116.25
499.484	122.25
499.701	104.25
499.918	112.25
500.135	108.25
500.352	110.25
500.569	118.25
500.786	97.25
501.003	112.25
501.22	110.25
501.437	116.25
501.654	99.25
501.871	114.25
502.088	108.25
502.305	106.25
502.522	102.25
502.739	111.25
502.956	116.25
503.172	112.25
503.389	100.25
503.606	96.25
503.823	98.25
504.04	94.25
504.256	89.25
504.473	103.25
504.69	106.25
504.907	104.25
505.123	98.25
505.34	104.25
505.557	91.25
505.773	103.25
505.99	100.25
506.207	97.25
506.423	99.25
506.64	102.25
506.856	88.25
507.073	82.25
507.289	99.25
507.506	88.25
507.722	83.25
507.939	106.25
508.155	96.25
508.372	99.25
508.588	99.25
508.805	100.25
509.021	97.25
509.238	88.25
509.454	91.25
509.67	78.25
509.887	85.25
510.103	91.25
510.319	86.25
510.536	72.25
510.752	74.25
510.968	70.25
511.184	76.25
511.401	80.25
511.617	83.25
511.833	74.25
512.049	75.25
512.265	88.25
512.481	84.25
512.698	87.25
512.914	79.25
513.13	86.25
513.346	87.25
513.562	90.25
513.778	81.25
513.994	89.25
514.21	63.25
514.426	91.25
514.642	94.25
514.858	87.25
515.074	87.25
515.29	93.25
515.506	66.25
