Data from Zn(NO3)2Standard.Agarose3%.GreenCap.LampEnergy5.5.E.O_HRD10591_15-03-00-768.txt Node
Date: Mon Jul 22 15:03:00 EDT 2019
User: cochatt
Spectrometer: HR+D1059
Trigger mode: 1
Integration Time (sec): 1.000000E-1
Scans to average: 1
Electric dark correction enabled: true
Nonlinearity correction enabled: false
Boxcar width: 0
XAxis mode: Wavelengths
Number of Pixels in Spectrum: 2048
>>>>>Begin Spectral Data<<<<<
223.165	5.5
223.4	5.5
223.635	5.5
223.869	-18.5
224.104	-12.5
224.338	-16.5
224.573	-19.5
224.808	-17.5
225.042	1.5
225.277	5.5
225.511	-3.5
225.746	7.5
225.98	3.5
226.215	-2.5
226.449	10.5
226.683	7.5
226.918	21.5
227.152	27.5
227.387	18.5
227.621	33.5
227.856	20.5
228.09	35.5
228.324	43.5
228.559	59.5
228.793	61.5
229.027	53.5
229.262	76.5
229.496	65.5
229.73	73.5
229.964	70.5
230.199	74.5
230.433	69.5
230.667	74.5
230.901	84.5
231.136	77.5
231.37	87.5
231.604	89.5
231.838	59.5
232.072	73.5
232.306	86.5
232.541	74.5
232.775	65.5
233.009	79.5
233.243	77.5
233.477	79.5
233.711	84.5
233.945	86.5
234.179	86.5
234.413	95.5
234.647	78.5
234.881	76.5
235.115	91.5
235.349	71.5
235.583	77.5
235.817	80.5
236.051	78.5
236.285	76.5
236.519	96.5
236.753	76.5
236.987	67.5
237.221	78.5
237.455	65.5
237.689	77.5
237.922	78.5
238.156	68.5
238.39	69.5
238.624	76.5
238.858	88.5
239.091	71.5
239.325	67.5
239.559	83.5
239.793	72.5
240.027	91.5
240.26	70.5
240.494	81.5
240.728	85.5
240.961	64.5
241.195	78.5
241.429	80.5
241.662	86.5
241.896	87.5
242.13	72.5
242.363	84.5
242.597	73.5
242.83	89.5
243.064	77.5
243.298	65.5
243.531	81.5
243.765	75.5
243.998	71.5
244.232	66.5
244.465	88.5
244.699	82.5
244.932	83.5
245.166	68.5
245.399	86.5
245.633	74.5
245.866	85.5
246.099	81.5
246.333	65.5
246.566	66.5
246.8	78.5
247.033	81.5
247.266	83.5
247.5	69.5
247.733	87.5
247.966	93.5
248.2	81.5
248.433	83.5
248.666	81.5
248.899	78.5
249.133	83.5
249.366	81.5
249.599	77.5
249.832	78.5
250.066	99.5
250.299	69.5
250.532	83.5
250.765	77.5
250.998	79.5
251.231	79.5
251.465	76.5
251.698	83.5
251.931	87.5
252.164	83.5
252.397	79.5
252.63	84.5
252.863	65.5
253.096	82.5
253.329	82.5
253.562	88.5
253.795	91.5
254.028	84.5
254.261	75.5
254.494	81.5
254.727	67.5
254.96	75.5
255.193	71.5
255.426	71.5
255.659	66.5
255.892	76.5
256.124	83.5
256.357	89.5
256.59	77.5
256.823	76.5
257.056	92.5
257.289	84.5
257.521	85.5
257.754	106.5
257.987	77.5
258.22	86.5
258.452	86.5
258.685	75.5
258.918	88.5
259.151	67.5
259.383	81.5
259.616	86.5
259.849	73.5
260.081	81.5
260.314	78.5
260.547	81.5
260.779	79.5
261.012	101.5
261.244	93.5
261.477	84.5
261.71	85.5
261.942	81.5
262.175	95.5
262.407	95.5
262.64	89.5
262.872	79.5
263.105	79.5
263.337	71.5
263.57	80.5
263.802	85.5
264.035	69.5
264.267	77.5
264.499	81.5
264.732	73.5
264.964	77.5
265.197	79.5
265.429	84.5
265.661	78.5
265.894	82.5
266.126	89.5
266.358	85.5
266.591	78.5
266.823	86.5
267.055	69.5
267.287	93.5
267.52	81.5
267.752	84.5
267.984	77.5
268.216	72.5
268.448	85.5
268.681	82.5
268.913	84.5
269.145	79.5
269.377	89.5
269.609	88.5
269.841	88.5
270.073	84.5
270.306	84.5
270.538	83.5
270.77	70.5
271.002	76.5
271.234	90.5
271.466	74.5
271.698	77.5
271.93	80.5
272.162	97.5
272.394	97.5
272.626	84.5
272.858	84.5
273.09	79.5
273.322	87.5
273.553	74.5
273.785	77.5
274.017	89.5
274.249	90.5
274.481	90.5
274.713	80.5
274.945	87.5
275.176	81.5
275.408	81.5
275.64	77.5
275.872	76.5
276.104	92.5
276.335	92.5
276.567	88.5
276.799	86.5
277.031	89.5
277.262	78.5
277.494	84.5
277.726	79.5
277.957	74.5
278.189	90.5
278.421	89.5
278.652	82.5
278.884	79.5
279.115	76.5
279.347	84.5
279.579	86.5
279.81	90.5
280.042	87.5
280.273	92.5
280.505	80.5
280.736	83.5
280.968	90.5
281.199	87.5
281.431	83.5
281.662	87.5
281.894	84.5
282.125	81.5
282.356	80.5
282.588	78.5
282.819	76.5
283.051	74.5
283.282	77.5
283.513	84.5
283.745	83.5
283.976	72.5
284.207	93.5
284.439	89.5
284.67	86.5
284.901	73.5
285.132	81.5
285.364	85.5
285.595	88.5
285.826	79.5
286.057	88.5
286.288	97.5
286.52	75.5
286.751	92.5
286.982	90.5
287.213	78.5
287.444	84.5
287.675	98.5
287.906	88.5
288.138	83.5
288.369	72.5
288.6	82.5
288.831	97.5
289.062	85.5
289.293	82.5
289.524	75.5
289.755	89.5
289.986	86.5
290.217	77.5
290.448	96.5
290.679	84.5
290.91	85.5
291.141	88.5
291.371	81.5
291.602	91.5
291.833	100.5
292.064	92.5
292.295	81.5
292.526	92.5
292.757	92.5
292.987	77.5
293.218	83.5
293.449	86.5
293.68	102.5
293.91	77.5
294.141	83.5
294.372	86.5
294.603	85.5
294.833	83.5
295.064	95.5
295.295	84.5
295.525	77.5
295.756	77.5
295.987	90.5
296.217	89.5
296.448	90.5
296.679	88.5
296.909	93.5
297.14	86.5
297.37	88.5
297.601	85.5
297.831	66.5
298.062	86.5
298.292	83.5
298.523	100.5
298.753	94.5
298.984	86.5
299.214	92.5
299.445	94.5
299.675	78.5
299.905	82.5
300.136	83.5
300.366	90.5
300.597	78.5
300.827	94.5
301.057	101.5
301.288	84.5
301.518	84.5
301.748	90.5
301.979	75.5
302.209	85.5
302.439	75.5
302.669	91.5
302.9	75.5
303.13	75.5
303.36	80.5
303.59	78.5
303.82	78.5
304.051	76.5
304.281	83.5
304.511	87.5
304.741	90.5
304.971	97.5
305.201	87.5
305.431	75.5
305.661	86.5
305.891	94.5
306.121	77.5
306.352	81.5
306.582	91.5
306.812	99.5
307.042	76.5
307.272	89.5
307.502	87.5
307.731	77.5
307.961	81.5
308.191	88.5
308.421	97.5
308.651	80.5
308.881	94.5
309.111	84.5
309.341	92.5
309.571	79.5
309.8	78.5
310.03	83.5
310.26	84.5
310.49	83.5
310.72	80.5
310.949	79.5
311.179	90.5
311.409	86.5
311.639	79.5
311.868	85.5
312.098	84.5
312.328	89.5
312.557	90.5
312.787	95.5
313.017	90.5
313.246	94.5
313.476	98.5
313.706	85.5
313.935	78.5
314.165	84.5
314.394	69.5
314.624	73.5
314.853	85.5
315.083	91.5
315.312	87.5
315.542	80.5
315.771	92.5
316.001	96.5
316.23	82.5
316.46	71.5
316.689	89.5
316.919	95.5
317.148	85.5
317.377	74.5
317.607	86.5
317.836	83.5
318.065	87.5
318.295	82.5
318.524	78.5
318.753	82.5
318.983	67.5
319.212	83.5
319.441	77.5
319.67	82.5
319.9	89.5
320.129	73.5
320.358	82.5
320.587	78.5
320.816	96.5
321.046	83.5
321.275	81.5
321.504	78.5
321.733	99.5
321.962	79.5
322.191	83.5
322.42	89.5
322.649	76.5
322.878	93.5
323.108	80.5
323.337	77.5
323.566	90.5
323.795	80.5
324.024	83.5
324.253	71.5
324.482	77.5
324.71	65.5
324.939	77.5
325.168	94.5
325.397	90.5
325.626	76.5
325.855	85.5
326.084	68.5
326.313	82.5
326.542	96.5
326.77	81.5
326.999	86.5
327.228	106.5
327.457	75.5
327.686	91.5
327.914	97.5
328.143	92.5
328.372	78.5
328.6	79.5
328.829	79.5
329.058	76.5
329.287	86.5
329.515	88.5
329.744	86.5
329.972	95.5
330.201	87.5
330.43	86.5
330.658	89.5
330.887	87.5
331.115	84.5
331.344	94.5
331.572	88.5
331.801	73.5
332.03	94.5
332.258	93.5
332.486	78.5
332.715	86.5
332.943	83.5
333.172	80.5
333.4	82.5
333.629	87.5
333.857	85.5
334.085	82.5
334.314	74.5
334.542	85.5
334.771	81.5
334.999	85.5
335.227	83.5
335.455	86.5
335.684	87.5
335.912	91.5
336.14	92.5
336.369	86.5
336.597	82.5
336.825	85.5
337.053	65.5
337.281	84.5
337.51	89.5
337.738	103.5
337.966	74.5
338.194	83.5
338.422	76.5
338.65	77.5
338.878	84.5
339.106	79.5
339.334	98.5
339.562	67.5
339.79	73.5
340.018	86.5
340.246	93.5
340.474	97.5
340.702	80.5
340.93	100.5
341.158	88.5
341.386	84.5
341.614	81.5
341.842	86.5
342.07	73.5
342.298	74.5
342.526	93.5
342.754	81.5
342.981	88.5
343.209	69.5
343.437	67.5
343.665	83.5
343.893	76.5
344.12	100.5
344.348	93.5
344.576	88.5
344.804	73.5
345.031	79.5
345.259	84.5
345.487	83.5
345.714	80.5
345.942	89.5
346.17	80.5
346.397	82.5
346.625	81.5
346.853	83.5
347.08	97.5
347.308	90.5
347.535	88.5
347.763	83.5
347.99	88.5
348.218	85.5
348.445	94.5
348.673	78.5
348.9	93.5
349.128	77.5
349.355	87.5
349.583	92.5
349.81	76.5
350.037	88.5
350.265	86.5
350.492	76.5
350.72	83.5
350.947	82.5
351.174	88.5
351.402	91.5
351.629	83.5
351.856	86.5
352.083	88.5
352.311	69.5
352.538	73.5
352.765	70.5
352.992	74.5
353.22	78.5
353.447	77.5
353.674	96.5
353.901	87.5
354.128	95.5
354.355	75.5
354.583	73.5
354.81	86.5
355.037	76.5
355.264	94.5
355.491	87.5
355.718	90.5
355.945	81.5
356.172	98.5
356.399	71.5
356.626	80.5
356.853	82.5
357.08	77.5
357.307	84.5
357.534	94.5
357.761	100.5
357.988	80.5
358.215	83.5
358.441	74.5
358.668	79.5
358.895	94.5
359.122	82.5
359.349	83.5
359.576	84.5
359.802	87.5
360.029	81.5
360.256	76.5
360.483	83.5
360.709	81.5
360.936	74.5
361.163	97.5
361.39	72.5
361.616	77.5
361.843	81.5
362.07	104.5
362.296	79.5
362.523	85.5
362.749	64.5
362.976	86.5
363.203	79.5
363.429	87.5
363.656	87.5
363.882	69.5
364.109	85.5
364.335	78.5
364.562	99.5
364.788	88.5
365.015	94.5
365.241	94.5
365.468	84.5
365.694	96.5
365.92	89.5
366.147	72.5
366.373	84.5
366.599	78.5
366.826	79.5
367.052	90.5
367.278	86.5
367.505	82.5
367.731	74.5
367.957	90.5
368.184	91.5
368.41	71.5
368.636	83.5
368.862	87.5
369.089	83.5
369.315	75.5
369.541	101.5
369.767	97.5
369.993	84.5
370.219	93.5
370.445	83.5
370.672	83.5
370.898	73.5
371.124	86.5
371.35	81.5
371.576	80.5
371.802	74.5
372.028	81.5
372.254	72.5
372.48	85.5
372.706	72.5
372.932	81.5
373.158	90.5
373.384	94.5
373.61	101.5
373.835	83.5
374.061	89.5
374.287	80.5
374.513	82.5
374.739	93.5
374.965	80.5
375.191	78.5
375.416	69.5
375.642	85.5
375.868	82.5
376.094	87.5
376.319	92.5
376.545	97.5
376.771	79.5
376.997	74.5
377.222	88.5
377.448	103.5
377.674	78.5
377.899	76.5
378.125	67.5
378.35	89.5
378.576	73.5
378.802	72.5
379.027	89.5
379.253	81.5
379.478	87.5
379.704	85.5
379.929	91.5
380.155	85.5
380.38	95.5
380.606	81.5
380.831	86.5
381.057	101.5
381.282	89.5
381.507	85.5
381.733	85.5
381.958	89.5
382.184	87.5
382.409	78.5
382.634	84.5
382.86	79.5
383.085	92.5
383.31	83.5
383.535	80.5
383.761	65.5
383.986	94.5
384.211	78.5
384.436	92.5
384.662	83.5
384.887	89.5
385.112	89.5
385.337	89.5
385.562	94.5
385.787	87.5
386.013	89.5
386.238	82.5
386.463	106.5
386.688	83.5
386.913	77.5
387.138	89.5
387.363	87.5
387.588	89.5
387.813	83.5
388.038	90.5
388.263	74.5
388.488	92.5
388.713	82.5
388.938	74.5
389.163	90.5
389.387	83.5
389.612	84.5
389.837	89.5
390.062	83.5
390.287	79.5
390.512	87.5
390.736	86.5
390.961	84.5
391.186	90.5
391.411	82.5
391.636	96.5
391.86	86.5
392.085	82.5
392.31	93.5
392.534	91.5
392.759	70.5
392.984	79.5
393.208	74.5
393.433	85.5
393.658	88.5
393.882	83.5
394.107	89.5
394.331	85.5
394.556	82.5
394.78	92.5
395.005	73.5
395.229	85.5
395.454	85.5
395.678	78.5
395.903	80.5
396.127	89.5
396.352	86.5
396.576	103.5
396.801	83.5
397.025	99.5
397.249	87.5
397.474	84.5
397.698	94.5
397.922	80.5
398.147	74.5
398.371	78.5
398.595	98.5
398.82	94.5
399.044	91.5
399.268	78.5
399.492	83.5
399.717	81.5
399.941	96.5
400.165	82.5
400.389	86.5
400.613	82.5
400.837	89.5
401.062	86.5
401.286	84.5
401.51	93.5
401.734	90.5
401.958	76.5
402.182	83.5
402.406	99.5
402.63	89.5
402.854	78.5
403.078	81.5
403.302	76.5
403.526	86.5
403.75	86.5
403.974	76.5
404.198	84.5
404.422	67.5
404.645	75.5
404.869	86.5
405.093	82.5
405.317	81.5
405.541	86.5
405.765	88.5
405.988	83.5
406.212	84.5
406.436	88.5
406.66	76.5
406.883	90.5
407.107	101.5
407.331	92.5
407.555	98.5
407.778	82.5
408.002	98.5
408.226	97.5
408.449	78.5
408.673	90.5
408.896	93.5
409.12	99.5
409.344	82.5
409.567	85.5
409.791	86.5
410.014	93.5
410.238	96.5
410.461	82.5
410.685	101.5
410.908	83.5
411.132	107.5
411.355	71.5
411.578	89.5
411.802	95.5
412.025	84.5
412.249	98.5
412.472	93.5
412.695	93.5
412.919	87.5
413.142	85.5
413.365	76.5
413.589	81.5
413.812	81.5
414.035	88.5
414.258	84.5
414.482	90.5
414.705	77.5
414.928	93.5
415.151	89.5
415.374	92.5
415.597	86.5
415.821	79.5
416.044	94.5
416.267	85.5
416.49	85.5
416.713	104.5
416.936	100.5
417.159	82.5
417.382	81.5
417.605	98.5
417.828	86.5
418.051	100.5
418.274	83.5
418.497	86.5
418.72	97.5
418.943	69.5
419.166	75.5
419.389	77.5
419.611	86.5
419.834	92.5
420.057	84.5
420.28	93.5
420.503	86.5
420.726	89.5
420.948	88.5
421.171	87.5
421.394	90.5
421.617	78.5
421.839	102.5
422.062	93.5
422.285	94.5
422.507	96.5
422.73	102.5
422.953	95.5
423.175	80.5
423.398	77.5
423.621	88.5
423.843	86.5
424.066	80.5
424.288	84.5
424.511	98.5
424.733	90.5
424.956	97.5
425.178	82.5
425.401	103.5
425.623	84.5
425.846	81.5
426.068	83.5
426.291	100.5
426.513	89.5
426.735	89.5
426.958	79.5
427.18	98.5
427.402	91.5
427.625	86.5
427.847	73.5
428.069	89.5
428.292	85.5
428.514	71.5
428.736	92.5
428.958	93.5
429.181	82.5
429.403	72.5
429.625	94.5
429.847	90.5
430.069	87.5
430.292	93.5
430.514	91.5
430.736	74.5
430.958	86.5
431.18	83.5
431.402	81.5
431.624	84.5
431.846	95.5
432.068	75.5
432.29	88.5
432.512	80.5
432.734	82.5
432.956	83.5
433.178	102.5
433.4	89.5
433.622	88.5
433.844	89.5
434.066	91.5
434.287	85.5
434.509	95.5
434.731	83.5
434.953	78.5
435.175	102.5
435.397	99.5
435.618	98.5
435.84	100.5
436.062	98.5
436.284	87.5
436.505	106.5
436.727	94.5
436.949	103.5
437.17	89.5
437.392	79.5
437.614	91.5
437.835	90.5
438.057	90.5
438.278	90.5
438.5	84.5
438.721	77.5
438.943	86.5
439.165	96.5
439.386	86.5
439.608	99.5
439.829	89.5
440.05	85.5
440.272	79.5
440.493	90.5
440.715	93.5
440.936	105.5
441.158	76.5
441.379	83.5
441.6	89.5
441.822	75.5
442.043	79.5
442.264	91.5
442.486	89.5
442.707	96.5
442.928	93.5
443.149	98.5
443.371	101.5
443.592	95.5
443.813	95.5
444.034	93.5
444.255	86.5
444.476	101.5
444.698	94.5
444.919	86.5
445.14	216.5
445.361	137.5
445.582	85.5
445.803	89.5
446.024	84.5
446.245	108.5
446.466	83.5
446.687	88.5
446.908	94.5
447.129	103.5
447.35	92.5
447.571	99.5
447.792	86.5
448.013	87.5
448.234	87.5
448.455	92.5
448.675	94.5
448.896	96.5
449.117	92.5
449.338	93.5
449.559	93.5
449.779	82.5
450	80.5
450.221	86.5
450.442	85.5
450.662	97.5
450.883	97.5
451.104	91.5
451.324	86.5
451.545	106.5
451.766	93.5
451.986	67.5
452.207	85.5
452.428	78.5
452.648	89.5
452.869	92.5
453.089	91.5
453.31	97.5
453.53	96.5
453.751	80.5
453.971	85.5
454.192	82.5
454.412	85.5
454.633	95.5
454.853	108.5
455.073	82.5
455.294	83.5
455.514	99.5
455.734	89.5
455.955	82.5
456.175	83.5
456.395	78.5
456.616	89.5
456.836	87.5
457.056	86.5
457.276	89.5
457.497	75.5
457.717	93.5
457.937	85.5
458.157	91.5
458.377	87.5
458.598	89.5
458.818	66.5
459.038	73.5
459.258	80.5
459.478	70.5
459.698	71.5
459.918	62.5
460.138	84.5
460.358	90.5
460.578	84.5
460.798	92.5
461.018	90.5
461.238	83.5
461.458	76.5
461.678	89.5
461.898	93.5
462.118	89.5
462.338	90.5
462.558	95.5
462.777	83.5
462.997	94.5
463.217	83.5
463.437	97.5
463.657	87.5
463.876	80.5
464.096	88.5
464.316	77.5
464.536	86.5
464.755	88.5
464.975	85.5
465.195	79.5
465.414	88.5
465.634	85.5
465.854	87.5
466.073	87.5
466.293	92.5
466.512	80.5
466.732	85.5
466.951	91.5
467.171	102.5
467.391	89.5
467.61	90.5
467.829	93.5
468.049	98.5
468.268	95.5
468.488	89.5
468.707	77.5
468.927	98.5
469.146	84.5
469.365	91.5
469.585	94.5
469.804	82.5
470.023	82.5
470.243	90.5
470.462	84.5
470.681	94.5
470.901	82.5
471.12	87.5
471.339	101.5
471.558	101.5
471.777	96.5
471.997	87.5
472.216	91.5
472.435	105.5
472.654	79.5
472.873	93.5
473.092	71.5
473.311	99.5
473.53	92.5
473.749	95.5
473.968	88.5
474.187	97.5
474.406	73.5
474.625	93.5
474.844	79.5
475.063	92.5
475.282	85.5
475.501	88.5
475.72	81.5
475.939	69.5
476.158	88.5
476.377	84.5
476.596	94.5
476.814	88.5
477.033	94.5
477.252	74.5
477.471	80.5
477.69	79.5
477.908	99.5
478.127	85.5
478.346	88.5
478.564	84.5
478.783	91.5
479.002	92.5
479.22	78.5
479.439	95.5
479.658	93.5
479.876	89.5
480.095	84.5
480.313	85.5
480.532	97.5
480.751	92.5
480.969	89.5
481.188	85.5
481.406	94.5
481.624	83.5
481.843	77.5
482.061	88.5
482.28	86.5
482.498	88.5
482.717	71.5
482.935	87.5
483.153	93.5
483.372	94.5
483.59	115.5
483.808	84.5
484.027	99.5
484.245	87.5
484.463	98.5
484.681	99.5
484.9	104.5
485.118	93.5
485.336	100.5
485.554	94.5
485.772	73.5
485.99	99.5
486.209	82.5
486.427	76.5
486.645	108.5
486.863	90.5
487.081	93.5
487.299	86.5
487.517	93.5
487.735	95.5
487.953	96.5
488.171	104.5
488.389	97.5
488.607	100.5
488.825	90.5
489.043	82.5
489.261	84.5
489.479	97.5
489.696	104.5
489.914	104.5
490.132	102.5
490.35	97.5
490.568	97.5
490.786	100.5
491.003	85.5
491.221	94.5
491.439	97.5
491.657	101.5
491.874	95.5
492.092	115.5
492.31	122.5
492.527	106.5
492.745	107.5
492.963	80.5
493.18	101.5
493.398	93.5
493.615	84.5
493.833	93.5
494.05	98.5
494.268	84.5
494.485	92.5
494.703	87.5
494.92	100.5
495.138	106.5
495.355	102.5
495.573	81.5
495.79	96.5
496.008	95.5
496.225	90.5
496.442	103.5
496.66	98.5
496.877	92.5
497.094	107.5
497.312	95.5
497.529	85.5
497.746	77.5
497.963	105.5
498.181	86.5
498.398	86.5
498.615	89.5
498.832	74.5
499.049	82.5
499.267	86.5
499.484	102.5
499.701	105.5
499.918	93.5
500.135	94.5
500.352	86.5
500.569	104.5
500.786	95.5
501.003	95.5
501.22	108.5
501.437	94.5
501.654	92.5
501.871	91.5
502.088	103.5
502.305	87.5
502.522	101.5
502.739	84.5
502.956	84.5
503.172	107.5
503.389	72.5
503.606	102.5
503.823	92.5
504.04	71.5
504.256	93.5
504.473	91.5
504.69	93.5
504.907	101.5
505.123	95.5
505.34	83.5
505.557	85.5
505.773	99.5
505.99	96.5
506.207	98.5
506.423	86.5
506.64	99.5
506.856	94.5
507.073	80.5
507.289	83.5
507.506	74.5
507.722	94.5
507.939	84.5
508.155	87.5
508.372	68.5
508.588	85.5
508.805	86.5
509.021	79.5
509.238	87.5
509.454	89.5
509.67	86.5
509.887	86.5
510.103	93.5
510.319	97.5
510.536	90.5
510.752	74.5
510.968	80.5
511.184	86.5
511.401	83.5
511.617	88.5
511.833	90.5
512.049	91.5
512.265	84.5
512.481	84.5
512.698	87.5
512.914	84.5
513.13	90.5
513.346	93.5
513.562	89.5
513.778	95.5
513.994	70.5
514.21	92.5
514.426	99.5
514.642	76.5
514.858	94.5
515.074	86.5
515.29	75.5
515.506	77.5
515.721	84.5
515.937	92.5
516.153	79.5
516.369	82.5
516.585	77.5
516.801	88.5
517.016	79.5
517.232	93.5
517.448	78.5
517.664	95.5
517.879	74.5
518.095	78.5
518.311	97.5
518.527	88.5
518.742	79.5
518.958	79.5
519.173	91.5
519.389	111.5
519.605	92.5
519.82	89.5
520.036	80.5
520.251	77.5
520.467	86.5
520.682	83.5
520.898	99.5
521.113	81.5
521.329	92.5
521.544	93.5
521.76	77.5
521.975	81.5
522.19	71.5
522.406	80.5
522.621	95.5
522.836	83.5
523.052	72.5
523.267	78.5
523.482	89.5
523.698	104.5
523.913	98.5
524.128	79.5
524.343	92.5
524.559	90.5
524.774	94.5
524.989	99.5
525.204	99.5
525.419	80.5
525.634	80.5
525.849	91.5
526.064	70.5
526.28	88.5
526.495	86.5
526.71	91.5
526.925	82.5
527.14	76.5
527.355	84.5
527.57	86.5
527.785	87.5
527.999	77.5
528.214	85.5
528.429	92.5
528.644	82.5
528.859	99.5
529.074	96.5
529.289	78.5
529.503	100.5
529.718	107.5
529.933	84.5
530.148	83.5
530.363	96.5
530.577	92.5
530.792	79.5
531.007	75.5
531.221	78.5
531.436	78.5
531.651	85.5
531.865	98.5
532.08	87.5
532.295	79.5
532.509	91.5
532.724	101.5
532.938	88.5
533.153	85.5
533.367	83.5
533.582	85.5
533.796	78.5
534.011	92.5
534.225	76.5
534.44	104.5
534.654	98.5
534.868	79.5
535.083	85.5
535.297	81.5
535.511	91.5
535.726	101.5
535.94	100.5
536.154	92.5
536.369	89.5
536.583	77.5
536.797	97.5
537.011	80.5
537.225	87.5
537.44	86.5
537.654	90.5
537.868	87.5
538.082	79.5
538.296	93.5
538.51	91.5
538.724	75.5
