Data from Zn(NO3)2Standard.Agarose3%.GreenCap.LampEnergy5.5.E.O_HRD10591_15-02-52-768.txt Node
Date: Mon Jul 22 15:02:52 EDT 2019
User: cochatt
Spectrometer: HR+D1059
Trigger mode: 1
Integration Time (sec): 1.000000E-1
Scans to average: 1
Electric dark correction enabled: true
Nonlinearity correction enabled: false
Boxcar width: 0
XAxis mode: Wavelengths
Number of Pixels in Spectrum: 2048
>>>>>Begin Spectral Data<<<<<
223.165	-16.69
223.4	-16.69
223.635	-16.69
223.869	-14.69
224.104	-29.69
224.338	-12.69
224.573	-13.69
224.808	-5.69
225.042	8.31
225.277	4.31
225.511	-14.69
225.746	-0.69
225.98	5.31
226.215	9.31
226.449	20.31
226.683	10.31
226.918	27.31
227.152	23.31
227.387	44.31
227.621	41.31
227.856	39.31
228.09	42.31
228.324	50.31
228.559	56.31
228.793	64.31
229.027	68.31
229.262	63.31
229.496	71.31
229.73	67.31
229.964	67.31
230.199	62.31
230.433	72.31
230.667	83.31
230.901	86.31
231.136	72.31
231.37	78.31
231.604	75.31
231.838	85.31
232.072	89.31
232.306	82.31
232.541	85.31
232.775	71.31
233.009	82.31
233.243	82.31
233.477	68.31
233.711	75.31
233.945	87.31
234.179	89.31
234.413	80.31
234.647	86.31
234.881	98.31
235.115	75.31
235.349	73.31
235.583	82.31
235.817	66.31
236.051	82.31
236.285	80.31
236.519	81.31
236.753	79.31
236.987	76.31
237.221	86.31
237.455	79.31
237.689	82.31
237.922	62.31
238.156	74.31
238.39	79.31
238.624	75.31
238.858	90.31
239.091	81.31
239.325	61.31
239.559	72.31
239.793	94.31
240.027	74.31
240.26	79.31
240.494	66.31
240.728	79.31
240.961	84.31
241.195	79.31
241.429	77.31
241.662	74.31
241.896	68.31
242.13	74.31
242.363	68.31
242.597	75.31
242.83	79.31
243.064	70.31
243.298	76.31
243.531	61.31
243.765	82.31
243.998	69.31
244.232	79.31
244.465	84.31
244.699	72.31
244.932	71.31
245.166	79.31
245.399	83.31
245.633	76.31
245.866	73.31
246.099	76.31
246.333	93.31
246.566	68.31
246.8	90.31
247.033	71.31
247.266	78.31
247.5	87.31
247.733	66.31
247.966	92.31
248.2	83.31
248.433	75.31
248.666	76.31
248.899	70.31
249.133	70.31
249.366	59.31
249.599	74.31
249.832	82.31
250.066	72.31
250.299	84.31
250.532	78.31
250.765	75.31
250.998	57.31
251.231	83.31
251.465	81.31
251.698	75.31
251.931	78.31
252.164	81.31
252.397	73.31
252.63	79.31
252.863	66.31
253.096	81.31
253.329	89.31
253.562	70.31
253.795	79.31
254.028	79.31
254.261	83.31
254.494	73.31
254.727	80.31
254.96	82.31
255.193	76.31
255.426	65.31
255.659	83.31
255.892	81.31
256.124	76.31
256.357	76.31
256.59	87.31
256.823	70.31
257.056	88.31
257.289	74.31
257.521	78.31
257.754	75.31
257.987	89.31
258.22	80.31
258.452	74.31
258.685	76.31
258.918	88.31
259.151	75.31
259.383	84.31
259.616	77.31
259.849	79.31
260.081	72.31
260.314	81.31
260.547	92.31
260.779	76.31
261.012	84.31
261.244	84.31
261.477	72.31
261.71	79.31
261.942	94.31
262.175	85.31
262.407	87.31
262.64	91.31
262.872	70.31
263.105	72.31
263.337	69.31
263.57	75.31
263.802	97.31
264.035	88.31
264.267	79.31
264.499	72.31
264.732	82.31
264.964	83.31
265.197	94.31
265.429	79.31
265.661	66.31
265.894	81.31
266.126	77.31
266.358	75.31
266.591	69.31
266.823	89.31
267.055	81.31
267.287	72.31
267.52	89.31
267.752	88.31
267.984	85.31
268.216	76.31
268.448	86.31
268.681	73.31
268.913	87.31
269.145	81.31
269.377	84.31
269.609	73.31
269.841	72.31
270.073	82.31
270.306	74.31
270.538	88.31
270.77	83.31
271.002	81.31
271.234	76.31
271.466	89.31
271.698	90.31
271.93	76.31
272.162	83.31
272.394	67.31
272.626	82.31
272.858	86.31
273.09	85.31
273.322	72.31
273.553	75.31
273.785	70.31
274.017	83.31
274.249	76.31
274.481	83.31
274.713	72.31
274.945	91.31
275.176	81.31
275.408	86.31
275.64	85.31
275.872	81.31
276.104	67.31
276.335	86.31
276.567	79.31
276.799	88.31
277.031	83.31
277.262	75.31
277.494	67.31
277.726	79.31
277.957	88.31
278.189	77.31
278.421	86.31
278.652	79.31
278.884	84.31
279.115	90.31
279.347	81.31
279.579	72.31
279.81	83.31
280.042	84.31
280.273	71.31
280.505	81.31
280.736	67.31
280.968	74.31
281.199	82.31
281.431	87.31
281.662	83.31
281.894	79.31
282.125	80.31
282.356	76.31
282.588	87.31
282.819	91.31
283.051	71.31
283.282	77.31
283.513	98.31
283.745	88.31
283.976	76.31
284.207	96.31
284.439	74.31
284.67	86.31
284.901	85.31
285.132	69.31
285.364	87.31
285.595	80.31
285.826	88.31
286.057	94.31
286.288	90.31
286.52	91.31
286.751	85.31
286.982	78.31
287.213	80.31
287.444	95.31
287.675	72.31
287.906	92.31
288.138	81.31
288.369	71.31
288.6	76.31
288.831	84.31
289.062	80.31
289.293	82.31
289.524	76.31
289.755	73.31
289.986	72.31
290.217	76.31
290.448	89.31
290.679	75.31
290.91	76.31
291.141	82.31
291.371	75.31
291.602	81.31
291.833	68.31
292.064	80.31
292.295	87.31
292.526	94.31
292.757	89.31
292.987	80.31
293.218	81.31
293.449	87.31
293.68	98.31
293.91	86.31
294.141	84.31
294.372	73.31
294.603	81.31
294.833	76.31
295.064	77.31
295.295	92.31
295.525	76.31
295.756	90.31
295.987	96.31
296.217	87.31
296.448	81.31
296.679	85.31
296.909	80.31
297.14	82.31
297.37	75.31
297.601	97.31
297.831	85.31
298.062	81.31
298.292	67.31
298.523	82.31
298.753	86.31
298.984	68.31
299.214	70.31
299.445	75.31
299.675	92.31
299.905	80.31
300.136	90.31
300.366	93.31
300.597	81.31
300.827	73.31
301.057	76.31
301.288	84.31
301.518	85.31
301.748	83.31
301.979	72.31
302.209	75.31
302.439	85.31
302.669	73.31
302.9	80.31
303.13	81.31
303.36	90.31
303.59	85.31
303.82	79.31
304.051	83.31
304.281	77.31
304.511	80.31
304.741	80.31
304.971	94.31
305.201	93.31
305.431	73.31
305.661	69.31
305.891	80.31
306.121	90.31
306.352	83.31
306.582	90.31
306.812	82.31
307.042	78.31
307.272	78.31
307.502	75.31
307.731	85.31
307.961	87.31
308.191	82.31
308.421	76.31
308.651	90.31
308.881	87.31
309.111	68.31
309.341	70.31
309.571	78.31
309.8	83.31
310.03	79.31
310.26	76.31
310.49	87.31
310.72	84.31
310.949	92.31
311.179	92.31
311.409	69.31
311.639	96.31
311.868	108.31
312.098	82.31
312.328	79.31
312.557	78.31
312.787	72.31
313.017	80.31
313.246	89.31
313.476	88.31
313.706	79.31
313.935	77.31
314.165	88.31
314.394	76.31
314.624	83.31
314.853	87.31
315.083	80.31
315.312	72.31
315.542	79.31
315.771	86.31
316.001	84.31
316.23	86.31
316.46	69.31
316.689	75.31
316.919	96.31
317.148	76.31
317.377	97.31
317.607	91.31
317.836	87.31
318.065	91.31
318.295	80.31
318.524	84.31
318.753	94.31
318.983	72.31
319.212	82.31
319.441	86.31
319.67	93.31
319.9	76.31
320.129	78.31
320.358	92.31
320.587	88.31
320.816	95.31
321.046	69.31
321.275	81.31
321.504	83.31
321.733	79.31
321.962	81.31
322.191	87.31
322.42	62.31
322.649	94.31
322.878	89.31
323.108	80.31
323.337	72.31
323.566	84.31
323.795	97.31
324.024	72.31
324.253	82.31
324.482	92.31
324.71	81.31
324.939	89.31
325.168	88.31
325.397	88.31
325.626	82.31
325.855	87.31
326.084	92.31
326.313	86.31
326.542	93.31
326.77	87.31
326.999	87.31
327.228	82.31
327.457	87.31
327.686	90.31
327.914	92.31
328.143	83.31
328.372	73.31
328.6	80.31
328.829	75.31
329.058	84.31
329.287	76.31
329.515	93.31
329.744	82.31
329.972	73.31
330.201	95.31
330.43	79.31
330.658	90.31
330.887	88.31
331.115	74.31
331.344	90.31
331.572	91.31
331.801	99.31
332.03	90.31
332.258	89.31
332.486	77.31
332.715	82.31
332.943	76.31
333.172	77.31
333.4	78.31
333.629	88.31
333.857	90.31
334.085	88.31
334.314	77.31
334.542	89.31
334.771	90.31
334.999	80.31
335.227	68.31
335.455	86.31
335.684	99.31
335.912	75.31
336.14	74.31
336.369	83.31
336.597	83.31
336.825	81.31
337.053	84.31
337.281	74.31
337.51	75.31
337.738	79.31
337.966	84.31
338.194	71.31
338.422	78.31
338.65	84.31
338.878	76.31
339.106	72.31
339.334	91.31
339.562	82.31
339.79	74.31
340.018	71.31
340.246	83.31
340.474	82.31
340.702	83.31
340.93	90.31
341.158	91.31
341.386	62.31
341.614	77.31
341.842	70.31
342.07	94.31
342.298	85.31
342.526	78.31
342.754	91.31
342.981	78.31
343.209	86.31
343.437	84.31
343.665	72.31
343.893	84.31
344.12	81.31
344.348	76.31
344.576	71.31
344.804	79.31
345.031	85.31
345.259	89.31
345.487	85.31
345.714	79.31
345.942	79.31
346.17	88.31
346.397	66.31
346.625	84.31
346.853	83.31
347.08	82.31
347.308	78.31
347.535	96.31
347.763	85.31
347.99	91.31
348.218	65.31
348.445	75.31
348.673	88.31
348.9	72.31
349.128	91.31
349.355	86.31
349.583	71.31
349.81	85.31
350.037	84.31
350.265	81.31
350.492	93.31
350.72	78.31
350.947	88.31
351.174	85.31
351.402	69.31
351.629	89.31
351.856	64.31
352.083	87.31
352.311	85.31
352.538	73.31
352.765	94.31
352.992	97.31
353.22	79.31
353.447	71.31
353.674	66.31
353.901	92.31
354.128	91.31
354.355	89.31
354.583	79.31
354.81	86.31
355.037	77.31
355.264	79.31
355.491	81.31
355.718	84.31
355.945	87.31
356.172	65.31
356.399	88.31
356.626	86.31
356.853	80.31
357.08	84.31
357.307	77.31
357.534	62.31
357.761	73.31
357.988	81.31
358.215	81.31
358.441	83.31
358.668	91.31
358.895	101.31
359.122	80.31
359.349	78.31
359.576	80.31
359.802	80.31
360.029	82.31
360.256	94.31
360.483	83.31
360.709	89.31
360.936	91.31
361.163	79.31
361.39	82.31
361.616	76.31
361.843	67.31
362.07	90.31
362.296	82.31
362.523	82.31
362.749	84.31
362.976	71.31
363.203	81.31
363.429	56.31
363.656	76.31
363.882	75.31
364.109	76.31
364.335	88.31
364.562	85.31
364.788	76.31
365.015	80.31
365.241	80.31
365.468	88.31
365.694	84.31
365.92	98.31
366.147	81.31
366.373	83.31
366.599	92.31
366.826	63.31
367.052	71.31
367.278	78.31
367.505	78.31
367.731	78.31
367.957	73.31
368.184	87.31
368.41	84.31
368.636	87.31
368.862	86.31
369.089	89.31
369.315	76.31
369.541	83.31
369.767	85.31
369.993	77.31
370.219	85.31
370.445	75.31
370.672	80.31
370.898	89.31
371.124	87.31
371.35	79.31
371.576	83.31
371.802	74.31
372.028	79.31
372.254	92.31
372.48	75.31
372.706	70.31
372.932	70.31
373.158	75.31
373.384	92.31
373.61	91.31
373.835	77.31
374.061	71.31
374.287	68.31
374.513	72.31
374.739	79.31
374.965	95.31
375.191	86.31
375.416	80.31
375.642	81.31
375.868	74.31
376.094	74.31
376.319	75.31
376.545	73.31
376.771	79.31
376.997	81.31
377.222	82.31
377.448	83.31
377.674	81.31
377.899	95.31
378.125	74.31
378.35	75.31
378.576	81.31
378.802	91.31
379.027	101.31
379.253	87.31
379.478	85.31
379.704	74.31
379.929	81.31
380.155	73.31
380.38	77.31
380.606	73.31
380.831	86.31
381.057	83.31
381.282	79.31
381.507	74.31
381.733	87.31
381.958	72.31
382.184	75.31
382.409	73.31
382.634	85.31
382.86	81.31
383.085	97.31
383.31	84.31
383.535	77.31
383.761	72.31
383.986	75.31
384.211	92.31
384.436	87.31
384.662	85.31
384.887	83.31
385.112	85.31
385.337	79.31
385.562	69.31
385.787	68.31
386.013	84.31
386.238	76.31
386.463	75.31
386.688	78.31
386.913	70.31
387.138	75.31
387.363	79.31
387.588	76.31
387.813	68.31
388.038	76.31
388.263	79.31
388.488	79.31
388.713	87.31
388.938	81.31
389.163	73.31
389.387	76.31
389.612	80.31
389.837	84.31
390.062	86.31
390.287	82.31
390.512	86.31
390.736	86.31
390.961	81.31
391.186	83.31
391.411	75.31
391.636	95.31
391.86	83.31
392.085	75.31
392.31	90.31
392.534	87.31
392.759	83.31
392.984	76.31
393.208	77.31
393.433	74.31
393.658	87.31
393.882	74.31
394.107	79.31
394.331	88.31
394.556	88.31
394.78	93.31
395.005	84.31
395.229	63.31
395.454	83.31
395.678	78.31
395.903	77.31
396.127	87.31
396.352	91.31
396.576	83.31
396.801	90.31
397.025	83.31
397.249	82.31
397.474	91.31
397.698	93.31
397.922	80.31
398.147	91.31
398.371	89.31
398.595	76.31
398.82	73.31
399.044	82.31
399.268	71.31
399.492	78.31
399.717	74.31
399.941	70.31
400.165	71.31
400.389	80.31
400.613	86.31
400.837	86.31
401.062	83.31
401.286	79.31
401.51	91.31
401.734	88.31
401.958	68.31
402.182	79.31
402.406	87.31
402.63	96.31
402.854	79.31
403.078	74.31
403.302	88.31
403.526	73.31
403.75	88.31
403.974	84.31
404.198	78.31
404.422	92.31
404.645	90.31
404.869	76.31
405.093	80.31
405.317	85.31
405.541	79.31
405.765	81.31
405.988	83.31
406.212	83.31
406.436	86.31
406.66	85.31
406.883	80.31
407.107	76.31
407.331	75.31
407.555	78.31
407.778	94.31
408.002	81.31
408.226	91.31
408.449	81.31
408.673	76.31
408.896	74.31
409.12	88.31
409.344	84.31
409.567	83.31
409.791	83.31
410.014	97.31
410.238	95.31
410.461	81.31
410.685	81.31
410.908	79.31
411.132	83.31
411.355	82.31
411.578	90.31
411.802	81.31
412.025	84.31
412.249	88.31
412.472	89.31
412.695	73.31
412.919	87.31
413.142	85.31
413.365	95.31
413.589	64.31
413.812	93.31
414.035	92.31
414.258	79.31
414.482	94.31
414.705	85.31
414.928	86.31
415.151	92.31
415.374	74.31
415.597	87.31
415.821	67.31
416.044	90.31
416.267	74.31
416.49	90.31
416.713	99.31
416.936	103.31
417.159	84.31
417.382	82.31
417.605	81.31
417.828	98.31
418.051	86.31
418.274	68.31
418.497	80.31
418.72	100.31
418.943	89.31
419.166	87.31
419.389	82.31
419.611	79.31
419.834	74.31
420.057	90.31
420.28	82.31
420.503	103.31
420.726	85.31
420.948	87.31
421.171	100.31
421.394	84.31
421.617	91.31
421.839	96.31
422.062	73.31
422.285	75.31
422.507	69.31
422.73	88.31
422.953	80.31
423.175	95.31
423.398	81.31
423.621	99.31
423.843	90.31
424.066	95.31
424.288	94.31
424.511	88.31
424.733	83.31
424.956	88.31
425.178	80.31
425.401	70.31
425.623	93.31
425.846	86.31
426.068	86.31
426.291	75.31
426.513	98.31
426.735	83.31
426.958	83.31
427.18	72.31
427.402	90.31
427.625	86.31
427.847	99.31
428.069	76.31
428.292	91.31
428.514	86.31
428.736	90.31
428.958	92.31
429.181	81.31
429.403	82.31
429.625	91.31
429.847	83.31
430.069	92.31
430.292	92.31
430.514	90.31
430.736	95.31
430.958	91.31
431.18	80.31
431.402	86.31
431.624	75.31
431.846	84.31
432.068	73.31
432.29	91.31
432.512	92.31
432.734	83.31
432.956	97.31
433.178	99.31
433.4	95.31
433.622	103.31
433.844	75.31
434.066	75.31
434.287	74.31
434.509	81.31
434.731	85.31
434.953	87.31
435.175	68.31
435.397	92.31
435.618	74.31
435.84	78.31
436.062	83.31
436.284	82.31
436.505	76.31
436.727	86.31
436.949	92.31
437.17	87.31
437.392	76.31
437.614	83.31
437.835	78.31
438.057	78.31
438.278	71.31
438.5	86.31
438.721	92.31
438.943	78.31
439.165	89.31
439.386	82.31
439.608	81.31
439.829	85.31
440.05	89.31
440.272	100.31
440.493	92.31
440.715	89.31
440.936	75.31
441.158	91.31
441.379	86.31
441.6	104.31
441.822	83.31
442.043	84.31
442.264	79.31
442.486	106.31
442.707	96.31
442.928	86.31
443.149	80.31
443.371	95.31
443.592	75.31
443.813	87.31
444.034	96.31
444.255	96.31
444.476	80.31
444.698	96.31
444.919	90.31
445.14	200.31
445.361	165.31
445.582	94.31
445.803	93.31
446.024	95.31
446.245	99.31
446.466	92.31
446.687	103.31
446.908	96.31
447.129	108.31
447.35	90.31
447.571	84.31
447.792	92.31
448.013	87.31
448.234	96.31
448.455	95.31
448.675	96.31
448.896	93.31
449.117	78.31
449.338	94.31
449.559	91.31
449.779	84.31
450	89.31
450.221	90.31
450.442	94.31
450.662	82.31
450.883	87.31
451.104	80.31
451.324	89.31
451.545	86.31
451.766	84.31
451.986	91.31
452.207	84.31
452.428	88.31
452.648	75.31
452.869	88.31
453.089	86.31
453.31	80.31
453.53	90.31
453.751	76.31
453.971	83.31
454.192	88.31
454.412	82.31
454.633	67.31
454.853	83.31
455.073	100.31
455.294	97.31
455.514	82.31
455.734	55.31
455.955	100.31
456.175	83.31
456.395	80.31
456.616	81.31
456.836	73.31
457.056	86.31
457.276	90.31
457.497	74.31
457.717	76.31
457.937	83.31
458.157	83.31
458.377	89.31
458.598	78.31
458.818	92.31
459.038	70.31
459.258	76.31
459.478	72.31
459.698	89.31
459.918	90.31
460.138	84.31
460.358	82.31
460.578	82.31
460.798	80.31
461.018	87.31
461.238	76.31
461.458	74.31
461.678	69.31
461.898	73.31
462.118	88.31
462.338	84.31
462.558	79.31
462.777	87.31
462.997	98.31
463.217	84.31
463.437	96.31
463.657	78.31
463.876	88.31
464.096	92.31
464.316	94.31
464.536	68.31
464.755	86.31
464.975	96.31
465.195	81.31
465.414	71.31
465.634	82.31
465.854	81.31
466.073	78.31
466.293	83.31
466.512	76.31
466.732	84.31
466.951	72.31
467.171	90.31
467.391	76.31
467.61	89.31
467.829	96.31
468.049	99.31
468.268	87.31
468.488	88.31
468.707	87.31
468.927	95.31
469.146	91.31
469.365	87.31
469.585	80.31
469.804	73.31
470.023	86.31
470.243	96.31
470.462	91.31
470.681	101.31
470.901	87.31
471.12	89.31
471.339	81.31
471.558	91.31
471.777	95.31
471.997	91.31
472.216	100.31
472.435	85.31
472.654	86.31
472.873	79.31
473.092	90.31
473.311	82.31
473.53	95.31
473.749	86.31
473.968	82.31
474.187	83.31
474.406	73.31
474.625	101.31
474.844	79.31
475.063	70.31
475.282	94.31
475.501	85.31
475.72	92.31
475.939	82.31
476.158	91.31
476.377	82.31
476.596	80.31
476.814	87.31
477.033	82.31
477.252	94.31
477.471	86.31
477.69	78.31
477.908	86.31
478.127	97.31
478.346	73.31
478.564	99.31
478.783	81.31
479.002	82.31
479.22	86.31
479.439	95.31
479.658	98.31
479.876	84.31
480.095	96.31
480.313	95.31
480.532	83.31
480.751	86.31
480.969	84.31
481.188	86.31
481.406	79.31
481.624	85.31
481.843	90.31
482.061	78.31
482.28	77.31
482.498	101.31
482.717	86.31
482.935	74.31
483.153	78.31
483.372	81.31
483.59	87.31
483.808	88.31
484.027	87.31
484.245	87.31
484.463	97.31
484.681	103.31
484.9	79.31
485.118	86.31
485.336	97.31
485.554	86.31
485.772	76.31
485.99	86.31
486.209	87.31
486.427	82.31
486.645	95.31
486.863	88.31
487.081	100.31
487.299	92.31
487.517	98.31
487.735	98.31
487.953	100.31
488.171	94.31
488.389	88.31
488.607	77.31
488.825	98.31
489.043	85.31
489.261	105.31
489.479	86.31
489.696	98.31
489.914	83.31
490.132	85.31
490.35	88.31
490.568	99.31
490.786	95.31
491.003	94.31
491.221	92.31
491.439	98.31
491.657	98.31
491.874	108.31
492.092	112.31
492.31	102.31
492.527	102.31
492.745	100.31
492.963	116.31
493.18	113.31
493.398	107.31
493.615	95.31
493.833	96.31
494.05	91.31
494.268	105.31
494.485	92.31
494.703	93.31
494.92	102.31
495.138	100.31
495.355	99.31
495.573	90.31
495.79	92.31
496.008	99.31
496.225	98.31
496.442	100.31
496.66	104.31
496.877	94.31
497.094	98.31
497.312	112.31
497.529	88.31
497.746	97.31
497.963	96.31
498.181	83.31
498.398	85.31
498.615	84.31
498.832	75.31
499.049	78.31
499.267	97.31
499.484	85.31
499.701	89.31
499.918	90.31
500.135	90.31
500.352	80.31
500.569	84.31
500.786	102.31
501.003	106.31
501.22	79.31
501.437	92.31
501.654	79.31
501.871	77.31
502.088	95.31
502.305	104.31
502.522	77.31
502.739	90.31
502.956	98.31
503.172	92.31
503.389	82.31
503.606	96.31
503.823	65.31
504.04	80.31
504.256	100.31
504.473	92.31
504.69	83.31
504.907	96.31
505.123	83.31
505.34	86.31
505.557	84.31
505.773	77.31
505.99	82.31
506.207	83.31
506.423	82.31
506.64	88.31
506.856	86.31
507.073	87.31
507.289	87.31
507.506	83.31
507.722	95.31
507.939	76.31
508.155	87.31
508.372	79.31
508.588	87.31
508.805	88.31
509.021	84.31
509.238	75.31
509.454	77.31
509.67	70.31
509.887	85.31
510.103	80.31
510.319	88.31
510.536	79.31
510.752	91.31
510.968	102.31
511.184	82.31
511.401	77.31
511.617	72.31
511.833	100.31
512.049	86.31
512.265	94.31
512.481	89.31
512.698	83.31
512.914	91.31
513.13	72.31
513.346	72.31
513.562	88.31
513.778	92.31
513.994	82.31
514.21	83.31
514.426	79.31
514.642	84.31
514.858	88.31
515.074	88.31
515.29	67.31
515.506	84.31
515.721	75.31
515.937	59.31
516.153	89.31
516.369	82.31
516.585	80.31
516.801	98.31
517.016	82.31
517.232	74.31
517.448	92.31
517.664	89.31
517.879	75.31
518.095	99.31
518.311	84.31
518.527	92.31
518.742	72.31
518.958	86.31
