Data from Zn(NO3)2Standard.Agarose3%.GreenCap.LampEnergy5.5.E.O_HRD10591_15-02-54-768.txt Node
Date: Mon Jul 22 15:02:54 EDT 2019
User: cochatt
Spectrometer: HR+D1059
Trigger mode: 1
Integration Time (sec): 1.000000E-1
Scans to average: 1
Electric dark correction enabled: true
Nonlinearity correction enabled: false
Boxcar width: 0
XAxis mode: Wavelengths
Number of Pixels in Spectrum: 2048
>>>>>Begin Spectral Data<<<<<
223.165	-10.19
223.4	-10.19
223.635	-10.19
223.869	-13.19
224.104	-7.19
224.338	-20.19
224.573	-11.19
224.808	-16.19
225.042	0.81
225.277	-0.19
225.511	-8.19
225.746	7.81
225.98	10.81
226.215	-2.19
226.449	4.81
226.683	10.81
226.918	29.81
227.152	23.81
227.387	41.81
227.621	36.81
227.856	42.81
228.09	41.81
228.324	45.81
228.559	58.81
228.793	70.81
229.027	60.81
229.262	63.81
229.496	72.81
229.73	61.81
229.964	69.81
230.199	82.81
230.433	67.81
230.667	74.81
230.901	83.81
231.136	84.81
231.37	78.81
231.604	74.81
231.838	94.81
232.072	72.81
232.306	77.81
232.541	90.81
232.775	73.81
233.009	82.81
233.243	88.81
233.477	77.81
233.711	91.81
233.945	86.81
234.179	67.81
234.413	76.81
234.647	83.81
234.881	76.81
235.115	76.81
235.349	66.81
235.583	88.81
235.817	68.81
236.051	75.81
236.285	77.81
236.519	78.81
236.753	77.81
236.987	64.81
237.221	74.81
237.455	85.81
237.689	65.81
237.922	75.81
238.156	66.81
238.39	78.81
238.624	71.81
238.858	74.81
239.091	61.81
239.325	77.81
239.559	81.81
239.793	76.81
240.027	66.81
240.26	69.81
240.494	83.81
240.728	82.81
240.961	68.81
241.195	88.81
241.429	80.81
241.662	75.81
241.896	72.81
242.13	79.81
242.363	83.81
242.597	75.81
242.83	85.81
243.064	78.81
243.298	78.81
243.531	79.81
243.765	80.81
243.998	89.81
244.232	84.81
244.465	85.81
244.699	72.81
244.932	61.81
245.166	78.81
245.399	66.81
245.633	77.81
245.866	83.81
246.099	74.81
246.333	76.81
246.566	73.81
246.8	79.81
247.033	71.81
247.266	76.81
247.5	48.81
247.733	77.81
247.966	92.81
248.2	83.81
248.433	78.81
248.666	78.81
248.899	83.81
249.133	85.81
249.366	77.81
249.599	82.81
249.832	86.81
250.066	83.81
250.299	70.81
250.532	86.81
250.765	87.81
250.998	81.81
251.231	62.81
251.465	80.81
251.698	73.81
251.931	71.81
252.164	69.81
252.397	74.81
252.63	69.81
252.863	86.81
253.096	88.81
253.329	71.81
253.562	69.81
253.795	86.81
254.028	80.81
254.261	92.81
254.494	80.81
254.727	85.81
254.96	65.81
255.193	89.81
255.426	87.81
255.659	73.81
255.892	73.81
256.124	78.81
256.357	82.81
256.59	69.81
256.823	77.81
257.056	85.81
257.289	80.81
257.521	78.81
257.754	96.81
257.987	81.81
258.22	87.81
258.452	84.81
258.685	76.81
258.918	82.81
259.151	83.81
259.383	77.81
259.616	80.81
259.849	74.81
260.081	87.81
260.314	82.81
260.547	92.81
260.779	77.81
261.012	69.81
261.244	75.81
261.477	104.81
261.71	81.81
261.942	73.81
262.175	66.81
262.407	65.81
262.64	80.81
262.872	89.81
263.105	89.81
263.337	101.81
263.57	64.81
263.802	72.81
264.035	69.81
264.267	70.81
264.499	83.81
264.732	92.81
264.964	87.81
265.197	75.81
265.429	87.81
265.661	67.81
265.894	72.81
266.126	82.81
266.358	71.81
266.591	83.81
266.823	84.81
267.055	89.81
267.287	81.81
267.52	71.81
267.752	100.81
267.984	78.81
268.216	70.81
268.448	97.81
268.681	75.81
268.913	92.81
269.145	78.81
269.377	89.81
269.609	74.81
269.841	73.81
270.073	74.81
270.306	82.81
270.538	77.81
270.77	82.81
271.002	75.81
271.234	76.81
271.466	82.81
271.698	85.81
271.93	84.81
272.162	82.81
272.394	86.81
272.626	69.81
272.858	80.81
273.09	90.81
273.322	86.81
273.553	74.81
273.785	84.81
274.017	84.81
274.249	65.81
274.481	75.81
274.713	70.81
274.945	77.81
275.176	82.81
275.408	72.81
275.64	80.81
275.872	77.81
276.104	92.81
276.335	87.81
276.567	84.81
276.799	86.81
277.031	89.81
277.262	88.81
277.494	76.81
277.726	88.81
277.957	75.81
278.189	82.81
278.421	76.81
278.652	91.81
278.884	84.81
279.115	97.81
279.347	75.81
279.579	79.81
279.81	88.81
280.042	77.81
280.273	94.81
280.505	82.81
280.736	73.81
280.968	79.81
281.199	82.81
281.431	91.81
281.662	92.81
281.894	92.81
282.125	88.81
282.356	79.81
282.588	64.81
282.819	70.81
283.051	79.81
283.282	88.81
283.513	91.81
283.745	80.81
283.976	93.81
284.207	89.81
284.439	90.81
284.67	89.81
284.901	76.81
285.132	82.81
285.364	89.81
285.595	83.81
285.826	93.81
286.057	86.81
286.288	102.81
286.52	90.81
286.751	86.81
286.982	88.81
287.213	77.81
287.444	97.81
287.675	97.81
287.906	82.81
288.138	73.81
288.369	88.81
288.6	84.81
288.831	88.81
289.062	103.81
289.293	73.81
289.524	78.81
289.755	77.81
289.986	89.81
290.217	86.81
290.448	74.81
290.679	87.81
290.91	82.81
291.141	82.81
291.371	84.81
291.602	77.81
291.833	78.81
292.064	78.81
292.295	87.81
292.526	80.81
292.757	85.81
292.987	81.81
293.218	76.81
293.449	77.81
293.68	68.81
293.91	80.81
294.141	83.81
294.372	85.81
294.603	89.81
294.833	87.81
295.064	85.81
295.295	74.81
295.525	80.81
295.756	77.81
295.987	86.81
296.217	86.81
296.448	76.81
296.679	84.81
296.909	84.81
297.14	81.81
297.37	81.81
297.601	85.81
297.831	97.81
298.062	86.81
298.292	67.81
298.523	93.81
298.753	81.81
298.984	82.81
299.214	71.81
299.445	79.81
299.675	89.81
299.905	93.81
300.136	84.81
300.366	92.81
300.597	90.81
300.827	92.81
301.057	81.81
301.288	86.81
301.518	88.81
301.748	86.81
301.979	81.81
302.209	83.81
302.439	89.81
302.669	83.81
302.9	82.81
303.13	75.81
303.36	82.81
303.59	80.81
303.82	81.81
304.051	94.81
304.281	90.81
304.511	74.81
304.741	86.81
304.971	82.81
305.201	77.81
305.431	88.81
305.661	69.81
305.891	84.81
306.121	88.81
306.352	87.81
306.582	82.81
306.812	75.81
307.042	77.81
307.272	81.81
307.502	79.81
307.731	87.81
307.961	83.81
308.191	91.81
308.421	88.81
308.651	100.81
308.881	80.81
309.111	80.81
309.341	80.81
309.571	84.81
309.8	88.81
310.03	74.81
310.26	83.81
310.49	88.81
310.72	91.81
310.949	84.81
311.179	93.81
311.409	89.81
311.639	100.81
311.868	90.81
312.098	99.81
312.328	81.81
312.557	87.81
312.787	85.81
313.017	94.81
313.246	89.81
313.476	92.81
313.706	89.81
313.935	89.81
314.165	87.81
314.394	81.81
314.624	96.81
314.853	79.81
315.083	93.81
315.312	87.81
315.542	82.81
315.771	87.81
316.001	95.81
316.23	89.81
316.46	88.81
316.689	98.81
316.919	91.81
317.148	96.81
317.377	72.81
317.607	77.81
317.836	88.81
318.065	67.81
318.295	82.81
318.524	85.81
318.753	86.81
318.983	88.81
319.212	91.81
319.441	70.81
319.67	83.81
319.9	86.81
320.129	85.81
320.358	89.81
320.587	102.81
320.816	85.81
321.046	78.81
321.275	87.81
321.504	76.81
321.733	90.81
321.962	86.81
322.191	74.81
322.42	82.81
322.649	82.81
322.878	87.81
323.108	95.81
323.337	91.81
323.566	86.81
323.795	89.81
324.024	77.81
324.253	77.81
324.482	82.81
324.71	73.81
324.939	89.81
325.168	81.81
325.397	93.81
325.626	73.81
325.855	74.81
326.084	81.81
326.313	85.81
326.542	71.81
326.77	79.81
326.999	86.81
327.228	91.81
327.457	94.81
327.686	78.81
327.914	90.81
328.143	83.81
328.372	89.81
328.6	94.81
328.829	87.81
329.058	94.81
329.287	76.81
329.515	90.81
329.744	68.81
329.972	84.81
330.201	81.81
330.43	91.81
330.658	99.81
330.887	76.81
331.115	102.81
331.344	83.81
331.572	82.81
331.801	84.81
332.03	89.81
332.258	96.81
332.486	94.81
332.715	83.81
332.943	87.81
333.172	84.81
333.4	80.81
333.629	80.81
333.857	91.81
334.085	83.81
334.314	90.81
334.542	80.81
334.771	88.81
334.999	81.81
335.227	88.81
335.455	81.81
335.684	89.81
335.912	87.81
336.14	90.81
336.369	83.81
336.597	78.81
336.825	87.81
337.053	84.81
337.281	71.81
337.51	72.81
337.738	86.81
337.966	83.81
338.194	87.81
338.422	82.81
338.65	99.81
338.878	74.81
339.106	96.81
339.334	89.81
339.562	96.81
339.79	85.81
340.018	78.81
340.246	77.81
340.474	75.81
340.702	87.81
340.93	86.81
341.158	84.81
341.386	73.81
341.614	87.81
341.842	85.81
342.07	96.81
342.298	92.81
342.526	71.81
342.754	86.81
342.981	88.81
343.209	88.81
343.437	99.81
343.665	76.81
343.893	79.81
344.12	86.81
344.348	79.81
344.576	89.81
344.804	103.81
345.031	74.81
345.259	95.81
345.487	81.81
345.714	70.81
345.942	83.81
346.17	82.81
346.397	90.81
346.625	85.81
346.853	87.81
347.08	92.81
347.308	80.81
347.535	83.81
347.763	96.81
347.99	77.81
348.218	90.81
348.445	99.81
348.673	89.81
348.9	76.81
349.128	108.81
349.355	85.81
349.583	87.81
349.81	77.81
350.037	86.81
350.265	72.81
350.492	74.81
350.72	90.81
350.947	78.81
351.174	88.81
351.402	77.81
351.629	83.81
351.856	66.81
352.083	90.81
352.311	81.81
352.538	85.81
352.765	76.81
352.992	80.81
353.22	87.81
353.447	81.81
353.674	76.81
353.901	94.81
354.128	87.81
354.355	84.81
354.583	84.81
354.81	84.81
355.037	80.81
355.264	102.81
355.491	82.81
355.718	93.81
355.945	79.81
356.172	78.81
356.399	87.81
356.626	72.81
356.853	84.81
357.08	101.81
357.307	84.81
357.534	86.81
357.761	86.81
357.988	90.81
358.215	83.81
358.441	91.81
358.668	87.81
358.895	87.81
359.122	97.81
359.349	73.81
359.576	82.81
359.802	89.81
360.029	80.81
360.256	89.81
360.483	73.81
360.709	65.81
360.936	97.81
361.163	85.81
361.39	77.81
361.616	69.81
361.843	77.81
362.07	87.81
362.296	88.81
362.523	94.81
362.749	77.81
362.976	79.81
363.203	89.81
363.429	81.81
363.656	93.81
363.882	85.81
364.109	61.81
364.335	89.81
364.562	80.81
364.788	94.81
365.015	96.81
365.241	84.81
365.468	73.81
365.694	86.81
365.92	92.81
366.147	74.81
366.373	91.81
366.599	80.81
366.826	86.81
367.052	87.81
367.278	85.81
367.505	85.81
367.731	100.81
367.957	81.81
368.184	77.81
368.41	78.81
368.636	75.81
368.862	78.81
369.089	92.81
369.315	79.81
369.541	77.81
369.767	73.81
369.993	79.81
370.219	71.81
370.445	65.81
370.672	89.81
370.898	77.81
371.124	83.81
371.35	76.81
371.576	78.81
371.802	91.81
372.028	74.81
372.254	91.81
372.48	84.81
372.706	98.81
372.932	80.81
373.158	81.81
373.384	94.81
373.61	87.81
373.835	81.81
374.061	71.81
374.287	85.81
374.513	86.81
374.739	89.81
374.965	80.81
375.191	82.81
375.416	74.81
375.642	89.81
375.868	84.81
376.094	91.81
376.319	80.81
376.545	88.81
376.771	78.81
376.997	91.81
377.222	83.81
377.448	78.81
377.674	71.81
377.899	80.81
378.125	82.81
378.35	79.81
378.576	83.81
378.802	82.81
379.027	86.81
379.253	83.81
379.478	88.81
379.704	92.81
379.929	88.81
380.155	85.81
380.38	92.81
380.606	79.81
380.831	81.81
381.057	87.81
381.282	78.81
381.507	85.81
381.733	78.81
381.958	84.81
382.184	85.81
382.409	67.81
382.634	85.81
382.86	83.81
383.085	85.81
383.31	105.81
383.535	82.81
383.761	93.81
383.986	78.81
384.211	78.81
384.436	69.81
384.662	79.81
384.887	79.81
385.112	91.81
385.337	90.81
385.562	88.81
385.787	96.81
386.013	91.81
386.238	80.81
386.463	77.81
386.688	80.81
386.913	91.81
387.138	93.81
387.363	77.81
387.588	92.81
387.813	96.81
388.038	89.81
388.263	77.81
388.488	77.81
388.713	92.81
388.938	82.81
389.163	88.81
389.387	89.81
389.612	88.81
389.837	79.81
390.062	82.81
390.287	78.81
390.512	88.81
390.736	86.81
390.961	75.81
391.186	78.81
391.411	82.81
391.636	76.81
391.86	83.81
392.085	77.81
392.31	96.81
392.534	98.81
392.759	85.81
392.984	90.81
393.208	99.81
393.433	86.81
393.658	76.81
393.882	88.81
394.107	82.81
394.331	80.81
394.556	82.81
394.78	94.81
395.005	85.81
395.229	85.81
395.454	75.81
395.678	82.81
395.903	79.81
396.127	89.81
396.352	85.81
396.576	73.81
396.801	88.81
397.025	93.81
397.249	78.81
397.474	78.81
397.698	77.81
397.922	81.81
398.147	76.81
398.371	86.81
398.595	93.81
398.82	80.81
399.044	87.81
399.268	85.81
399.492	96.81
399.717	80.81
399.941	78.81
400.165	82.81
400.389	72.81
400.613	77.81
400.837	85.81
401.062	81.81
401.286	90.81
401.51	99.81
401.734	83.81
401.958	91.81
402.182	92.81
402.406	85.81
402.63	85.81
402.854	77.81
403.078	72.81
403.302	84.81
403.526	80.81
403.75	93.81
403.974	76.81
404.198	84.81
404.422	95.81
404.645	86.81
404.869	75.81
405.093	77.81
405.317	90.81
405.541	84.81
405.765	76.81
405.988	85.81
406.212	76.81
406.436	83.81
406.66	82.81
406.883	91.81
407.107	76.81
407.331	75.81
407.555	76.81
407.778	72.81
408.002	84.81
408.226	80.81
408.449	89.81
408.673	93.81
408.896	81.81
409.12	76.81
409.344	84.81
409.567	82.81
409.791	88.81
410.014	89.81
410.238	85.81
410.461	98.81
410.685	91.81
410.908	94.81
411.132	89.81
411.355	96.81
411.578	70.81
411.802	85.81
412.025	80.81
412.249	79.81
412.472	92.81
412.695	100.81
412.919	87.81
413.142	79.81
413.365	97.81
413.589	86.81
413.812	72.81
414.035	99.81
414.258	97.81
414.482	92.81
414.705	81.81
414.928	103.81
415.151	97.81
415.374	91.81
415.597	85.81
415.821	98.81
416.044	88.81
416.267	83.81
416.49	90.81
416.713	97.81
416.936	94.81
417.159	79.81
417.382	91.81
417.605	98.81
417.828	92.81
418.051	92.81
418.274	92.81
418.497	84.81
418.72	96.81
418.943	80.81
419.166	91.81
419.389	94.81
419.611	88.81
419.834	98.81
420.057	82.81
420.28	93.81
420.503	88.81
420.726	91.81
420.948	95.81
421.171	78.81
421.394	88.81
421.617	78.81
421.839	96.81
422.062	83.81
422.285	106.81
422.507	81.81
422.73	74.81
422.953	82.81
423.175	94.81
423.398	86.81
423.621	82.81
423.843	84.81
424.066	83.81
424.288	98.81
424.511	97.81
424.733	69.81
424.956	92.81
425.178	70.81
425.401	85.81
425.623	96.81
425.846	78.81
426.068	92.81
426.291	83.81
426.513	96.81
426.735	82.81
426.958	73.81
427.18	94.81
427.402	82.81
427.625	105.81
427.847	82.81
428.069	78.81
428.292	92.81
428.514	79.81
428.736	78.81
428.958	101.81
429.181	91.81
429.403	68.81
429.625	78.81
429.847	86.81
430.069	79.81
430.292	96.81
430.514	88.81
430.736	85.81
430.958	93.81
431.18	83.81
431.402	102.81
431.624	80.81
431.846	91.81
432.068	91.81
432.29	77.81
432.512	97.81
432.734	84.81
432.956	73.81
433.178	98.81
433.4	90.81
433.622	94.81
433.844	91.81
434.066	82.81
434.287	80.81
434.509	87.81
434.731	77.81
434.953	89.81
435.175	88.81
435.397	93.81
435.618	96.81
435.84	88.81
436.062	99.81
436.284	93.81
436.505	79.81
436.727	81.81
436.949	76.81
437.17	71.81
437.392	79.81
437.614	89.81
437.835	81.81
438.057	74.81
438.278	91.81
438.5	89.81
438.721	104.81
438.943	109.81
439.165	83.81
439.386	86.81
439.608	100.81
439.829	86.81
440.05	96.81
440.272	89.81
440.493	86.81
440.715	85.81
440.936	80.81
441.158	86.81
441.379	88.81
441.6	77.81
441.822	96.81
442.043	98.81
442.264	97.81
442.486	94.81
442.707	84.81
442.928	89.81
443.149	87.81
443.371	81.81
443.592	85.81
443.813	76.81
444.034	86.81
444.255	95.81
444.476	88.81
444.698	83.81
444.919	67.81
445.14	205.81
445.361	152.81
445.582	104.81
445.803	80.81
446.024	84.81
446.245	102.81
446.466	98.81
446.687	101.81
446.908	85.81
447.129	94.81
447.35	83.81
447.571	103.81
447.792	89.81
448.013	92.81
448.234	97.81
448.455	90.81
448.675	89.81
448.896	81.81
449.117	98.81
449.338	78.81
449.559	84.81
449.779	88.81
450	81.81
450.221	86.81
450.442	105.81
450.662	107.81
450.883	77.81
451.104	99.81
451.324	91.81
451.545	95.81
451.766	81.81
451.986	72.81
452.207	85.81
452.428	91.81
452.648	91.81
452.869	93.81
453.089	90.81
453.31	78.81
453.53	81.81
453.751	90.81
453.971	87.81
454.192	87.81
454.412	83.81
454.633	98.81
454.853	77.81
455.073	98.81
455.294	93.81
455.514	83.81
455.734	88.81
455.955	81.81
456.175	72.81
456.395	88.81
456.616	92.81
456.836	79.81
457.056	89.81
457.276	82.81
457.497	77.81
457.717	70.81
457.937	88.81
458.157	87.81
458.377	80.81
458.598	90.81
458.818	81.81
459.038	84.81
459.258	67.81
459.478	80.81
459.698	76.81
459.918	85.81
460.138	87.81
460.358	86.81
460.578	91.81
460.798	99.81
461.018	78.81
461.238	89.81
461.458	84.81
461.678	89.81
461.898	91.81
462.118	90.81
462.338	89.81
462.558	90.81
462.777	78.81
462.997	84.81
463.217	76.81
463.437	86.81
463.657	89.81
463.876	78.81
464.096	87.81
464.316	90.81
464.536	85.81
464.755	76.81
464.975	83.81
465.195	87.81
465.414	77.81
465.634	88.81
465.854	91.81
466.073	92.81
466.293	96.81
466.512	92.81
466.732	77.81
466.951	94.81
467.171	93.81
467.391	84.81
467.61	67.81
467.829	89.81
468.049	91.81
468.268	79.81
468.488	99.81
468.707	95.81
468.927	92.81
469.146	89.81
469.365	85.81
469.585	92.81
469.804	104.81
470.023	77.81
470.243	91.81
470.462	84.81
470.681	80.81
470.901	102.81
471.12	97.81
471.339	94.81
471.558	90.81
471.777	83.81
471.997	97.81
472.216	78.81
472.435	84.81
472.654	84.81
472.873	86.81
473.092	85.81
473.311	87.81
473.53	76.81
473.749	96.81
473.968	85.81
474.187	82.81
474.406	70.81
474.625	85.81
474.844	99.81
475.063	77.81
475.282	94.81
475.501	89.81
475.72	90.81
475.939	87.81
476.158	97.81
476.377	87.81
476.596	91.81
476.814	91.81
477.033	91.81
477.252	91.81
477.471	93.81
477.69	90.81
477.908	93.81
478.127	99.81
478.346	82.81
478.564	97.81
478.783	91.81
479.002	76.81
479.22	80.81
479.439	96.81
479.658	85.81
479.876	80.81
480.095	94.81
480.313	97.81
480.532	88.81
480.751	88.81
480.969	85.81
481.188	82.81
481.406	84.81
481.624	86.81
481.843	93.81
482.061	78.81
482.28	72.81
482.498	70.81
482.717	79.81
482.935	73.81
483.153	96.81
483.372	95.81
483.59	87.81
483.808	97.81
484.027	72.81
484.245	78.81
484.463	86.81
484.681	106.81
484.9	92.81
485.118	86.81
485.336	73.81
485.554	86.81
485.772	73.81
485.99	78.81
486.209	97.81
486.427	74.81
486.645	96.81
486.863	100.81
487.081	96.81
487.299	84.81
487.517	98.81
487.735	92.81
487.953	107.81
488.171	96.81
488.389	83.81
488.607	91.81
488.825	85.81
489.043	84.81
489.261	94.81
489.479	93.81
489.696	100.81
489.914	105.81
490.132	82.81
490.35	97.81
490.568	85.81
490.786	112.81
491.003	110.81
491.221	101.81
491.439	92.81
491.657	100.81
491.874	94.81
492.092	105.81
492.31	98.81
492.527	99.81
492.745	133.81
492.963	110.81
493.18	96.81
493.398	105.81
493.615	94.81
493.833	96.81
494.05	85.81
494.268	90.81
494.485	98.81
494.703	97.81
494.92	85.81
495.138	102.81
495.355	109.81
495.573	101.81
495.79	86.81
496.008	111.81
496.225	84.81
496.442	98.81
496.66	118.81
496.877	100.81
497.094	84.81
497.312	93.81
497.529	95.81
497.746	94.81
497.963	86.81
498.181	84.81
498.398	89.81
498.615	81.81
498.832	73.81
499.049	76.81
499.267	98.81
499.484	88.81
499.701	90.81
499.918	98.81
500.135	83.81
500.352	87.81
500.569	101.81
500.786	97.81
501.003	89.81
501.22	101.81
501.437	99.81
501.654	91.81
501.871	91.81
502.088	96.81
502.305	83.81
502.522	87.81
502.739	82.81
502.956	92.81
503.172	78.81
503.389	90.81
503.606	72.81
503.823	82.81
504.04	106.81
504.256	79.81
504.473	97.81
504.69	95.81
504.907	93.81
505.123	85.81
505.34	97.81
505.557	78.81
505.773	101.81
505.99	83.81
506.207	92.81
506.423	82.81
506.64	88.81
506.856	88.81
507.073	85.81
507.289	80.81
507.506	88.81
507.722	92.81
507.939	86.81
508.155	98.81
508.372	99.81
508.588	88.81
508.805	82.81
509.021	78.81
509.238	88.81
509.454	88.81
509.67	92.81
509.887	76.81
510.103	87.81
510.319	82.81
510.536	84.81
510.752	77.81
510.968	88.81
511.184	87.81
511.401	71.81
511.617	97.81
511.833	82.81
512.049	90.81
512.265	84.81
512.481	89.81
512.698	80.81
512.914	86.81
513.13	75.81
513.346	83.81
513.562	82.81
513.778	92.81
513.994	82.81
514.21	91.81
514.426	94.81
514.642	86.81
514.858	81.81
515.074	75.81
515.29	78.81
515.506	95.81
515.721	94.81
515.937	82.81
516.153	78.81
516.369	86.81
516.585	85.81
516.801	89.81
517.016	89.81
517.232	74.81
517.448	81.81
517.664	92.81
517.879	80.81
518.095	87.81
518.311	93.81
518.527	94.81
518.742	84.81
