Data from Zn(NO3)2Standard.Agarose3%.GreenCap.LampEnergy5.5.E.O_HRD10591_15-03-08-768.txt Node
Date: Mon Jul 22 15:03:08 EDT 2019
User: cochatt
Spectrometer: HR+D1059
Trigger mode: 1
Integration Time (sec): 1.000000E-1
Scans to average: 1
Electric dark correction enabled: true
Nonlinearity correction enabled: false
Boxcar width: 0
XAxis mode: Wavelengths
Number of Pixels in Spectrum: 2048
>>>>>Begin Spectral Data<<<<<
223.165	-15.38
223.4	-15.38
223.635	-15.38
223.869	-22.38
224.104	-14.38
224.338	-9.38
224.573	-18.38
224.808	-0.38
225.042	-1.38
225.277	-14.38
225.511	-5.38
225.746	4.62
225.98	2.62
226.215	3.62
226.449	23.62
226.683	11.62
226.918	25.62
227.152	29.62
227.387	22.62
227.621	31.62
227.856	42.62
228.09	58.62
228.324	49.62
228.559	49.62
228.793	55.62
229.027	57.62
229.262	67.62
229.496	45.62
229.73	67.62
229.964	74.62
230.199	76.62
230.433	72.62
230.667	68.62
230.901	72.62
231.136	83.62
231.37	78.62
231.604	78.62
231.838	75.62
232.072	77.62
232.306	80.62
232.541	86.62
232.775	77.62
233.009	81.62
233.243	86.62
233.477	82.62
233.711	66.62
233.945	78.62
234.179	75.62
234.413	75.62
234.647	70.62
234.881	84.62
235.115	77.62
235.349	77.62
235.583	74.62
235.817	82.62
236.051	72.62
236.285	69.62
236.519	76.62
236.753	81.62
236.987	76.62
237.221	81.62
237.455	72.62
237.689	65.62
237.922	78.62
238.156	68.62
238.39	63.62
238.624	76.62
238.858	66.62
239.091	86.62
239.325	85.62
239.559	78.62
239.793	74.62
240.027	63.62
240.26	71.62
240.494	70.62
240.728	78.62
240.961	75.62
241.195	82.62
241.429	88.62
241.662	79.62
241.896	76.62
242.13	86.62
242.363	85.62
242.597	70.62
242.83	80.62
243.064	79.62
243.298	74.62
243.531	84.62
243.765	77.62
243.998	84.62
244.232	71.62
244.465	81.62
244.699	74.62
244.932	87.62
245.166	89.62
245.399	69.62
245.633	78.62
245.866	64.62
246.099	61.62
246.333	65.62
246.566	82.62
246.8	76.62
247.033	83.62
247.266	69.62
247.5	71.62
247.733	89.62
247.966	72.62
248.2	74.62
248.433	72.62
248.666	54.62
248.899	84.62
249.133	75.62
249.366	84.62
249.599	67.62
249.832	81.62
250.066	89.62
250.299	97.62
250.532	77.62
250.765	72.62
250.998	82.62
251.231	79.62
251.465	92.62
251.698	77.62
251.931	80.62
252.164	66.62
252.397	82.62
252.63	66.62
252.863	82.62
253.096	77.62
253.329	81.62
253.562	87.62
253.795	78.62
254.028	90.62
254.261	75.62
254.494	75.62
254.727	87.62
254.96	80.62
255.193	65.62
255.426	87.62
255.659	80.62
255.892	88.62
256.124	77.62
256.357	75.62
256.59	77.62
256.823	74.62
257.056	63.62
257.289	72.62
257.521	88.62
257.754	71.62
257.987	73.62
258.22	71.62
258.452	98.62
258.685	81.62
258.918	74.62
259.151	72.62
259.383	78.62
259.616	75.62
259.849	92.62
260.081	87.62
260.314	85.62
260.547	81.62
260.779	73.62
261.012	74.62
261.244	86.62
261.477	73.62
261.71	75.62
261.942	69.62
262.175	74.62
262.407	71.62
262.64	80.62
262.872	88.62
263.105	75.62
263.337	81.62
263.57	71.62
263.802	71.62
264.035	81.62
264.267	79.62
264.499	89.62
264.732	83.62
264.964	85.62
265.197	84.62
265.429	90.62
265.661	89.62
265.894	76.62
266.126	85.62
266.358	78.62
266.591	91.62
266.823	78.62
267.055	96.62
267.287	83.62
267.52	82.62
267.752	85.62
267.984	77.62
268.216	93.62
268.448	86.62
268.681	82.62
268.913	79.62
269.145	72.62
269.377	75.62
269.609	74.62
269.841	91.62
270.073	80.62
270.306	79.62
270.538	71.62
270.77	85.62
271.002	80.62
271.234	82.62
271.466	77.62
271.698	100.62
271.93	77.62
272.162	85.62
272.394	76.62
272.626	70.62
272.858	80.62
273.09	79.62
273.322	84.62
273.553	82.62
273.785	82.62
274.017	85.62
274.249	83.62
274.481	79.62
274.713	82.62
274.945	81.62
275.176	85.62
275.408	80.62
275.64	71.62
275.872	80.62
276.104	81.62
276.335	68.62
276.567	89.62
276.799	86.62
277.031	87.62
277.262	77.62
277.494	87.62
277.726	94.62
277.957	77.62
278.189	74.62
278.421	82.62
278.652	77.62
278.884	83.62
279.115	77.62
279.347	81.62
279.579	78.62
279.81	87.62
280.042	89.62
280.273	81.62
280.505	79.62
280.736	95.62
280.968	78.62
281.199	75.62
281.431	70.62
281.662	74.62
281.894	85.62
282.125	80.62
282.356	76.62
282.588	94.62
282.819	82.62
283.051	82.62
283.282	94.62
283.513	84.62
283.745	76.62
283.976	80.62
284.207	72.62
284.439	99.62
284.67	88.62
284.901	85.62
285.132	88.62
285.364	85.62
285.595	83.62
285.826	76.62
286.057	63.62
286.288	96.62
286.52	85.62
286.751	83.62
286.982	86.62
287.213	92.62
287.444	82.62
287.675	86.62
287.906	98.62
288.138	94.62
288.369	80.62
288.6	74.62
288.831	108.62
289.062	81.62
289.293	86.62
289.524	94.62
289.755	91.62
289.986	92.62
290.217	84.62
290.448	86.62
290.679	78.62
290.91	86.62
291.141	74.62
291.371	74.62
291.602	80.62
291.833	67.62
292.064	77.62
292.295	79.62
292.526	73.62
292.757	80.62
292.987	85.62
293.218	91.62
293.449	93.62
293.68	93.62
293.91	73.62
294.141	75.62
294.372	85.62
294.603	80.62
294.833	70.62
295.064	102.62
295.295	76.62
295.525	75.62
295.756	96.62
295.987	84.62
296.217	86.62
296.448	81.62
296.679	93.62
296.909	78.62
297.14	80.62
297.37	87.62
297.601	87.62
297.831	79.62
298.062	94.62
298.292	79.62
298.523	75.62
298.753	94.62
298.984	82.62
299.214	87.62
299.445	78.62
299.675	68.62
299.905	80.62
300.136	73.62
300.366	70.62
300.597	81.62
300.827	80.62
301.057	84.62
301.288	83.62
301.518	75.62
301.748	70.62
301.979	80.62
302.209	85.62
302.439	91.62
302.669	90.62
302.9	81.62
303.13	88.62
303.36	97.62
303.59	80.62
303.82	78.62
304.051	89.62
304.281	81.62
304.511	85.62
304.741	78.62
304.971	85.62
305.201	82.62
305.431	85.62
305.661	97.62
305.891	90.62
306.121	76.62
306.352	80.62
306.582	85.62
306.812	91.62
307.042	85.62
307.272	80.62
307.502	90.62
307.731	86.62
307.961	89.62
308.191	86.62
308.421	78.62
308.651	94.62
308.881	77.62
309.111	90.62
309.341	76.62
309.571	85.62
309.8	86.62
310.03	73.62
310.26	96.62
310.49	89.62
310.72	88.62
310.949	96.62
311.179	83.62
311.409	82.62
311.639	87.62
311.868	97.62
312.098	62.62
312.328	77.62
312.557	84.62
312.787	73.62
313.017	72.62
313.246	88.62
313.476	85.62
313.706	85.62
313.935	70.62
314.165	88.62
314.394	79.62
314.624	81.62
314.853	86.62
315.083	75.62
315.312	76.62
315.542	68.62
315.771	94.62
316.001	74.62
316.23	103.62
316.46	90.62
316.689	87.62
316.919	85.62
317.148	80.62
317.377	85.62
317.607	88.62
317.836	88.62
318.065	86.62
318.295	81.62
318.524	86.62
318.753	82.62
318.983	90.62
319.212	66.62
319.441	87.62
319.67	85.62
319.9	71.62
320.129	80.62
320.358	69.62
320.587	81.62
320.816	81.62
321.046	82.62
321.275	82.62
321.504	95.62
321.733	88.62
321.962	81.62
322.191	75.62
322.42	78.62
322.649	91.62
322.878	97.62
323.108	86.62
323.337	83.62
323.566	77.62
323.795	92.62
324.024	78.62
324.253	78.62
324.482	83.62
324.71	90.62
324.939	93.62
325.168	91.62
325.397	89.62
325.626	97.62
325.855	87.62
326.084	78.62
326.313	88.62
326.542	84.62
326.77	79.62
326.999	76.62
327.228	81.62
327.457	89.62
327.686	67.62
327.914	81.62
328.143	82.62
328.372	67.62
328.6	75.62
328.829	78.62
329.058	87.62
329.287	88.62
329.515	72.62
329.744	84.62
329.972	93.62
330.201	71.62
330.43	82.62
330.658	77.62
330.887	76.62
331.115	87.62
331.344	87.62
331.572	70.62
331.801	88.62
332.03	89.62
332.258	80.62
332.486	88.62
332.715	77.62
332.943	80.62
333.172	77.62
333.4	79.62
333.629	85.62
333.857	83.62
334.085	90.62
334.314	85.62
334.542	79.62
334.771	78.62
334.999	82.62
335.227	86.62
335.455	84.62
335.684	82.62
335.912	94.62
336.14	68.62
336.369	81.62
336.597	79.62
336.825	90.62
337.053	85.62
337.281	86.62
337.51	78.62
337.738	83.62
337.966	90.62
338.194	82.62
338.422	93.62
338.65	89.62
338.878	82.62
339.106	76.62
339.334	86.62
339.562	83.62
339.79	79.62
340.018	72.62
340.246	72.62
340.474	92.62
340.702	91.62
340.93	77.62
341.158	86.62
341.386	80.62
341.614	80.62
341.842	91.62
342.07	83.62
342.298	81.62
342.526	75.62
342.754	66.62
342.981	90.62
343.209	77.62
343.437	89.62
343.665	77.62
343.893	84.62
344.12	86.62
344.348	73.62
344.576	83.62
344.804	92.62
345.031	80.62
345.259	81.62
345.487	95.62
345.714	81.62
345.942	98.62
346.17	79.62
346.397	86.62
346.625	86.62
346.853	74.62
347.08	86.62
347.308	81.62
347.535	78.62
347.763	82.62
347.99	93.62
348.218	95.62
348.445	72.62
348.673	74.62
348.9	84.62
349.128	86.62
349.355	91.62
349.583	81.62
349.81	77.62
350.037	88.62
350.265	74.62
350.492	72.62
350.72	70.62
350.947	78.62
351.174	84.62
351.402	72.62
351.629	86.62
351.856	79.62
352.083	85.62
352.311	72.62
352.538	75.62
352.765	88.62
352.992	86.62
353.22	85.62
353.447	68.62
353.674	83.62
353.901	78.62
354.128	82.62
354.355	87.62
354.583	79.62
354.81	78.62
355.037	69.62
355.264	102.62
355.491	92.62
355.718	84.62
355.945	82.62
356.172	85.62
356.399	83.62
356.626	82.62
356.853	74.62
357.08	83.62
357.307	85.62
357.534	73.62
357.761	79.62
357.988	76.62
358.215	65.62
358.441	72.62
358.668	77.62
358.895	89.62
359.122	79.62
359.349	74.62
359.576	83.62
359.802	78.62
360.029	81.62
360.256	87.62
360.483	71.62
360.709	68.62
360.936	85.62
361.163	78.62
361.39	82.62
361.616	83.62
361.843	75.62
362.07	89.62
362.296	84.62
362.523	74.62
362.749	70.62
362.976	79.62
363.203	85.62
363.429	80.62
363.656	71.62
363.882	79.62
364.109	73.62
364.335	75.62
364.562	69.62
364.788	79.62
365.015	81.62
365.241	72.62
365.468	94.62
365.694	70.62
365.92	70.62
366.147	98.62
366.373	89.62
366.599	87.62
366.826	86.62
367.052	77.62
367.278	78.62
367.505	85.62
367.731	82.62
367.957	71.62
368.184	62.62
368.41	95.62
368.636	75.62
368.862	86.62
369.089	88.62
369.315	98.62
369.541	75.62
369.767	91.62
369.993	67.62
370.219	71.62
370.445	72.62
370.672	89.62
370.898	88.62
371.124	80.62
371.35	66.62
371.576	78.62
371.802	74.62
372.028	82.62
372.254	82.62
372.48	82.62
372.706	85.62
372.932	80.62
373.158	81.62
373.384	78.62
373.61	95.62
373.835	87.62
374.061	88.62
374.287	83.62
374.513	88.62
374.739	70.62
374.965	84.62
375.191	89.62
375.416	74.62
375.642	84.62
375.868	88.62
376.094	82.62
376.319	75.62
376.545	71.62
376.771	65.62
376.997	81.62
377.222	90.62
377.448	93.62
377.674	86.62
377.899	78.62
378.125	71.62
378.35	91.62
378.576	89.62
378.802	75.62
379.027	88.62
379.253	85.62
379.478	72.62
379.704	76.62
379.929	75.62
380.155	79.62
380.38	85.62
380.606	71.62
380.831	77.62
381.057	89.62
381.282	74.62
381.507	86.62
381.733	82.62
381.958	72.62
382.184	83.62
382.409	83.62
382.634	86.62
382.86	80.62
383.085	88.62
383.31	94.62
383.535	75.62
383.761	73.62
383.986	72.62
384.211	76.62
384.436	87.62
384.662	83.62
384.887	76.62
385.112	77.62
385.337	74.62
385.562	78.62
385.787	88.62
386.013	95.62
386.238	94.62
386.463	93.62
386.688	83.62
386.913	80.62
387.138	85.62
387.363	86.62
387.588	79.62
387.813	89.62
388.038	74.62
388.263	75.62
388.488	86.62
388.713	82.62
388.938	83.62
389.163	73.62
389.387	82.62
389.612	81.62
389.837	89.62
390.062	75.62
390.287	76.62
390.512	89.62
390.736	70.62
390.961	81.62
391.186	98.62
391.411	79.62
391.636	85.62
391.86	71.62
392.085	89.62
392.31	69.62
392.534	78.62
392.759	93.62
392.984	79.62
393.208	75.62
393.433	68.62
393.658	87.62
393.882	79.62
394.107	76.62
394.331	80.62
394.556	76.62
394.78	79.62
395.005	80.62
395.229	75.62
395.454	94.62
395.678	69.62
395.903	75.62
396.127	86.62
396.352	80.62
396.576	67.62
396.801	80.62
397.025	63.62
397.249	63.62
397.474	90.62
397.698	84.62
397.922	91.62
398.147	82.62
398.371	74.62
398.595	70.62
398.82	91.62
399.044	78.62
399.268	81.62
399.492	90.62
399.717	86.62
399.941	90.62
400.165	87.62
400.389	73.62
400.613	86.62
400.837	83.62
401.062	73.62
401.286	84.62
401.51	84.62
401.734	93.62
401.958	82.62
402.182	86.62
402.406	88.62
402.63	69.62
402.854	90.62
403.078	93.62
403.302	91.62
403.526	82.62
403.75	67.62
403.974	78.62
404.198	75.62
404.422	62.62
404.645	87.62
404.869	73.62
405.093	75.62
405.317	86.62
405.541	94.62
405.765	85.62
405.988	95.62
406.212	79.62
406.436	86.62
406.66	78.62
406.883	78.62
407.107	82.62
407.331	75.62
407.555	83.62
407.778	87.62
408.002	80.62
408.226	78.62
408.449	75.62
408.673	79.62
408.896	87.62
409.12	83.62
409.344	79.62
409.567	83.62
409.791	83.62
410.014	91.62
410.238	95.62
410.461	73.62
410.685	72.62
410.908	82.62
411.132	81.62
411.355	88.62
411.578	83.62
411.802	84.62
412.025	72.62
412.249	84.62
412.472	68.62
412.695	83.62
412.919	83.62
413.142	95.62
413.365	76.62
413.589	66.62
413.812	79.62
414.035	94.62
414.258	84.62
414.482	72.62
414.705	55.62
414.928	84.62
415.151	85.62
415.374	84.62
415.597	85.62
415.821	84.62
416.044	79.62
416.267	87.62
416.49	84.62
416.713	82.62
416.936	96.62
417.159	82.62
417.382	75.62
417.605	70.62
417.828	98.62
418.051	90.62
418.274	76.62
418.497	84.62
418.72	77.62
418.943	85.62
419.166	101.62
419.389	78.62
419.611	83.62
419.834	64.62
420.057	77.62
420.28	84.62
420.503	77.62
420.726	70.62
420.948	85.62
421.171	90.62
421.394	86.62
421.617	88.62
421.839	81.62
422.062	74.62
422.285	82.62
422.507	78.62
422.73	101.62
422.953	84.62
423.175	87.62
423.398	70.62
423.621	78.62
423.843	89.62
424.066	87.62
424.288	89.62
424.511	87.62
424.733	85.62
424.956	78.62
425.178	88.62
425.401	75.62
425.623	92.62
425.846	79.62
426.068	85.62
426.291	85.62
426.513	71.62
426.735	85.62
426.958	85.62
427.18	81.62
427.402	94.62
427.625	95.62
427.847	97.62
428.069	88.62
428.292	83.62
428.514	88.62
428.736	80.62
428.958	83.62
429.181	78.62
429.403	73.62
429.625	78.62
429.847	75.62
430.069	93.62
430.292	98.62
430.514	83.62
430.736	78.62
430.958	97.62
431.18	83.62
431.402	92.62
431.624	106.62
431.846	79.62
432.068	95.62
432.29	78.62
432.512	73.62
432.734	81.62
432.956	83.62
433.178	81.62
433.4	81.62
433.622	83.62
433.844	89.62
434.066	78.62
434.287	94.62
434.509	74.62
434.731	84.62
434.953	87.62
435.175	94.62
435.397	75.62
435.618	79.62
435.84	69.62
436.062	85.62
436.284	98.62
436.505	97.62
436.727	77.62
436.949	84.62
437.17	78.62
437.392	76.62
437.614	58.62
437.835	84.62
438.057	93.62
438.278	65.62
438.5	90.62
438.721	87.62
438.943	79.62
439.165	87.62
439.386	86.62
439.608	87.62
439.829	80.62
440.05	85.62
440.272	102.62
440.493	98.62
440.715	75.62
440.936	95.62
441.158	96.62
441.379	82.62
441.6	97.62
441.822	89.62
442.043	94.62
442.264	98.62
442.486	88.62
442.707	72.62
442.928	81.62
443.149	81.62
443.371	93.62
443.592	84.62
443.813	97.62
444.034	85.62
444.255	78.62
444.476	90.62
444.698	89.62
444.919	86.62
445.14	201.62
445.361	142.62
445.582	91.62
445.803	90.62
446.024	88.62
446.245	96.62
446.466	73.62
446.687	77.62
446.908	91.62
447.129	89.62
447.35	94.62
447.571	106.62
447.792	80.62
448.013	79.62
448.234	80.62
448.455	85.62
448.675	82.62
448.896	98.62
449.117	80.62
449.338	80.62
449.559	76.62
449.779	85.62
450	80.62
450.221	89.62
450.442	92.62
450.662	86.62
450.883	70.62
451.104	88.62
451.324	97.62
451.545	80.62
451.766	70.62
451.986	82.62
452.207	88.62
452.428	75.62
452.648	82.62
452.869	93.62
453.089	85.62
453.31	78.62
453.53	83.62
453.751	79.62
453.971	78.62
454.192	80.62
454.412	79.62
454.633	89.62
454.853	88.62
455.073	93.62
455.294	85.62
455.514	88.62
455.734	85.62
455.955	71.62
456.175	78.62
456.395	74.62
456.616	77.62
456.836	91.62
457.056	90.62
457.276	87.62
457.497	82.62
457.717	88.62
457.937	89.62
458.157	65.62
458.377	96.62
458.598	86.62
458.818	80.62
459.038	78.62
459.258	81.62
459.478	76.62
459.698	73.62
459.918	72.62
460.138	80.62
460.358	64.62
460.578	83.62
460.798	86.62
461.018	69.62
461.238	85.62
461.458	73.62
461.678	82.62
461.898	87.62
462.118	80.62
462.338	87.62
462.558	90.62
462.777	75.62
462.997	71.62
463.217	80.62
463.437	87.62
463.657	85.62
463.876	87.62
464.096	90.62
464.316	87.62
464.536	85.62
464.755	95.62
464.975	84.62
465.195	86.62
465.414	95.62
465.634	72.62
465.854	73.62
466.073	88.62
466.293	81.62
466.512	85.62
466.732	94.62
466.951	92.62
467.171	81.62
467.391	102.62
467.61	85.62
467.829	80.62
468.049	93.62
468.268	79.62
468.488	67.62
468.707	83.62
468.927	97.62
469.146	97.62
469.365	100.62
469.585	85.62
469.804	74.62
470.023	79.62
470.243	101.62
470.462	92.62
470.681	81.62
470.901	90.62
471.12	86.62
471.339	82.62
471.558	92.62
471.777	100.62
471.997	99.62
472.216	95.62
472.435	96.62
472.654	77.62
472.873	88.62
473.092	97.62
473.311	98.62
473.53	75.62
473.749	81.62
473.968	79.62
474.187	81.62
474.406	78.62
474.625	85.62
474.844	71.62
475.063	82.62
475.282	89.62
475.501	79.62
475.72	91.62
475.939	86.62
476.158	79.62
476.377	101.62
476.596	90.62
476.814	95.62
477.033	72.62
477.252	80.62
477.471	67.62
477.69	83.62
477.908	82.62
478.127	84.62
478.346	80.62
478.564	97.62
478.783	95.62
479.002	76.62
479.22	88.62
479.439	89.62
479.658	86.62
479.876	82.62
480.095	88.62
480.313	91.62
480.532	99.62
480.751	84.62
480.969	80.62
481.188	90.62
481.406	78.62
481.624	63.62
481.843	84.62
482.061	77.62
482.28	87.62
482.498	82.62
482.717	91.62
482.935	81.62
483.153	85.62
483.372	94.62
483.59	90.62
483.808	93.62
484.027	92.62
484.245	83.62
484.463	80.62
484.681	109.62
484.9	93.62
485.118	78.62
485.336	75.62
485.554	94.62
485.772	88.62
485.99	68.62
486.209	74.62
486.427	86.62
486.645	63.62
486.863	80.62
487.081	84.62
487.299	89.62
487.517	74.62
487.735	90.62
487.953	98.62
488.171	90.62
488.389	96.62
488.607	88.62
488.825	98.62
489.043	92.62
489.261	80.62
489.479	99.62
489.696	83.62
489.914	105.62
490.132	86.62
490.35	88.62
490.568	90.62
490.786	105.62
491.003	97.62
491.221	83.62
491.439	99.62
491.657	95.62
491.874	81.62
492.092	85.62
492.31	114.62
492.527	100.62
492.745	99.62
492.963	106.62
493.18	98.62
493.398	102.62
493.615	85.62
493.833	92.62
494.05	89.62
494.268	101.62
494.485	97.62
494.703	92.62
494.92	101.62
495.138	91.62
495.355	94.62
495.573	106.62
495.79	88.62
496.008	83.62
496.225	93.62
496.442	98.62
496.66	99.62
496.877	101.62
497.094	102.62
497.312	92.62
497.529	89.62
497.746	75.62
497.963	100.62
498.181	97.62
498.398	94.62
498.615	83.62
498.832	84.62
499.049	90.62
499.267	85.62
499.484	80.62
499.701	83.62
499.918	77.62
500.135	89.62
500.352	88.62
500.569	78.62
500.786	92.62
501.003	83.62
501.22	83.62
501.437	78.62
501.654	83.62
501.871	94.62
502.088	92.62
502.305	98.62
502.522	85.62
502.739	87.62
502.956	85.62
503.172	88.62
503.389	81.62
503.606	77.62
503.823	88.62
504.04	65.62
504.256	106.62
504.473	98.62
504.69	87.62
504.907	84.62
505.123	88.62
505.34	89.62
505.557	77.62
505.773	90.62
505.99	80.62
506.207	84.62
506.423	80.62
506.64	74.62
506.856	78.62
507.073	96.62
507.289	85.62
507.506	100.62
507.722	86.62
507.939	81.62
508.155	95.62
508.372	81.62
508.588	90.62
508.805	93.62
509.021	95.62
509.238	91.62
509.454	83.62
509.67	94.62
509.887	91.62
510.103	85.62
510.319	73.62
510.536	74.62
510.752	84.62
510.968	80.62
511.184	79.62
511.401	82.62
511.617	88.62
511.833	66.62
512.049	82.62
512.265	77.62
512.481	90.62
512.698	77.62
512.914	89.62
513.13	87.62
513.346	93.62
513.562	98.62
513.778	74.62
513.994	75.62
514.21	73.62
514.426	66.62
514.642	91.62
514.858	74.62
515.074	79.62
515.29	85.62
515.506	82.62
515.721	74.62
515.937	86.62
516.153	80.62
516.369	67.62
516.585	90.62
516.801	91.62
517.016	86.62
517.232	85.62
517.448	75.62
517.664	75.62
517.879	78.62
518.095	81.62
518.311	79.62
518.527	87.62
518.742	82.62
518.958	77.62
