Data from Zn(NO3)2Standard.Agarose3%.GreenCap.LampEnergy10E.O_HRD10591_15-07-27-944.txt Node
Date: Mon Jul 22 15:07:27 EDT 2019
User: cochatt
Spectrometer: HR+D1059
Trigger mode: 1
Integration Time (sec): 1.000000E-1
Scans to average: 1
Electric dark correction enabled: true
Nonlinearity correction enabled: false
Boxcar width: 0
XAxis mode: Wavelengths
Number of Pixels in Spectrum: 2048
>>>>>Begin Spectral Data<<<<<
223.165	-12.06
223.4	-12.06
223.635	-12.06
223.869	-19.06
224.104	-27.06
224.338	-10.06
224.573	-9.06
224.808	-11.06
225.042	-22.06
225.277	-6.06
225.511	0.94
225.746	1.94
225.98	18.94
226.215	22.94
226.449	10.94
226.683	16.94
226.918	24.94
227.152	18.94
227.387	26.94
227.621	38.94
227.856	19.94
228.09	40.94
228.324	63.94
228.559	53.94
228.793	57.94
229.027	58.94
229.262	60.94
229.496	63.94
229.73	63.94
229.964	69.94
230.199	72.94
230.433	85.94
230.667	87.94
230.901	84.94
231.136	83.94
231.37	70.94
231.604	70.94
231.838	73.94
232.072	83.94
232.306	75.94
232.541	67.94
232.775	76.94
233.009	80.94
233.243	74.94
233.477	82.94
233.711	79.94
233.945	88.94
234.179	86.94
234.413	95.94
234.647	82.94
234.881	73.94
235.115	74.94
235.349	98.94
235.583	69.94
235.817	70.94
236.051	71.94
236.285	75.94
236.519	83.94
236.753	71.94
236.987	71.94
237.221	77.94
237.455	73.94
237.689	74.94
237.922	71.94
238.156	80.94
238.39	71.94
238.624	63.94
238.858	75.94
239.091	78.94
239.325	68.94
239.559	77.94
239.793	73.94
240.027	84.94
240.26	76.94
240.494	68.94
240.728	95.94
240.961	77.94
241.195	73.94
241.429	76.94
241.662	70.94
241.896	61.94
242.13	71.94
242.363	74.94
242.597	65.94
242.83	78.94
243.064	90.94
243.298	69.94
243.531	68.94
243.765	74.94
243.998	85.94
244.232	82.94
244.465	77.94
244.699	75.94
244.932	79.94
245.166	76.94
245.399	70.94
245.633	88.94
245.866	58.94
246.099	68.94
246.333	82.94
246.566	75.94
246.8	86.94
247.033	68.94
247.266	89.94
247.5	71.94
247.733	76.94
247.966	70.94
248.2	76.94
248.433	72.94
248.666	77.94
248.899	75.94
249.133	76.94
249.366	94.94
249.599	60.94
249.832	76.94
250.066	73.94
250.299	76.94
250.532	78.94
250.765	84.94
250.998	81.94
251.231	70.94
251.465	82.94
251.698	83.94
251.931	73.94
252.164	76.94
252.397	67.94
252.63	79.94
252.863	92.94
253.096	76.94
253.329	86.94
253.562	59.94
253.795	88.94
254.028	75.94
254.261	74.94
254.494	72.94
254.727	86.94
254.96	80.94
255.193	70.94
255.426	76.94
255.659	72.94
255.892	73.94
256.124	82.94
256.357	62.94
256.59	74.94
256.823	78.94
257.056	71.94
257.289	75.94
257.521	80.94
257.754	82.94
257.987	70.94
258.22	87.94
258.452	82.94
258.685	79.94
258.918	73.94
259.151	83.94
259.383	79.94
259.616	67.94
259.849	98.94
260.081	84.94
260.314	84.94
260.547	87.94
260.779	81.94
261.012	82.94
261.244	78.94
261.477	86.94
261.71	82.94
261.942	83.94
262.175	78.94
262.407	79.94
262.64	82.94
262.872	76.94
263.105	85.94
263.337	98.94
263.57	91.94
263.802	85.94
264.035	90.94
264.267	77.94
264.499	69.94
264.732	78.94
264.964	86.94
265.197	88.94
265.429	99.94
265.661	74.94
265.894	90.94
266.126	76.94
266.358	93.94
266.591	68.94
266.823	85.94
267.055	79.94
267.287	74.94
267.52	88.94
267.752	82.94
267.984	76.94
268.216	77.94
268.448	95.94
268.681	83.94
268.913	82.94
269.145	95.94
269.377	82.94
269.609	73.94
269.841	71.94
270.073	85.94
270.306	87.94
270.538	67.94
270.77	72.94
271.002	76.94
271.234	73.94
271.466	80.94
271.698	73.94
271.93	69.94
272.162	86.94
272.394	89.94
272.626	84.94
272.858	78.94
273.09	81.94
273.322	77.94
273.553	85.94
273.785	86.94
274.017	68.94
274.249	77.94
274.481	64.94
274.713	73.94
274.945	85.94
275.176	90.94
275.408	78.94
275.64	85.94
275.872	75.94
276.104	83.94
276.335	88.94
276.567	78.94
276.799	79.94
277.031	81.94
277.262	81.94
277.494	97.94
277.726	87.94
277.957	92.94
278.189	83.94
278.421	89.94
278.652	85.94
278.884	78.94
279.115	81.94
279.347	67.94
279.579	87.94
279.81	80.94
280.042	81.94
280.273	83.94
280.505	94.94
280.736	77.94
280.968	85.94
281.199	87.94
281.431	87.94
281.662	79.94
281.894	84.94
282.125	85.94
282.356	81.94
282.588	82.94
282.819	79.94
283.051	79.94
283.282	87.94
283.513	79.94
283.745	88.94
283.976	74.94
284.207	92.94
284.439	91.94
284.67	78.94
284.901	91.94
285.132	82.94
285.364	86.94
285.595	74.94
285.826	71.94
286.057	92.94
286.288	72.94
286.52	91.94
286.751	77.94
286.982	71.94
287.213	87.94
287.444	88.94
287.675	69.94
287.906	88.94
288.138	91.94
288.369	92.94
288.6	89.94
288.831	92.94
289.062	71.94
289.293	86.94
289.524	86.94
289.755	80.94
289.986	88.94
290.217	81.94
290.448	78.94
290.679	82.94
290.91	86.94
291.141	80.94
291.371	82.94
291.602	97.94
291.833	73.94
292.064	85.94
292.295	89.94
292.526	79.94
292.757	97.94
292.987	90.94
293.218	82.94
293.449	73.94
293.68	75.94
293.91	71.94
294.141	92.94
294.372	86.94
294.603	102.94
294.833	80.94
295.064	82.94
295.295	71.94
295.525	67.94
295.756	85.94
295.987	93.94
296.217	88.94
296.448	77.94
296.679	88.94
296.909	78.94
297.14	94.94
297.37	93.94
297.601	86.94
297.831	80.94
298.062	90.94
298.292	85.94
298.523	73.94
298.753	80.94
298.984	89.94
299.214	80.94
299.445	75.94
299.675	80.94
299.905	73.94
300.136	82.94
300.366	78.94
300.597	80.94
300.827	74.94
301.057	78.94
301.288	94.94
301.518	99.94
301.748	90.94
301.979	74.94
302.209	82.94
302.439	81.94
302.669	97.94
302.9	100.94
303.13	90.94
303.36	81.94
303.59	91.94
303.82	90.94
304.051	79.94
304.281	76.94
304.511	84.94
304.741	93.94
304.971	95.94
305.201	89.94
305.431	69.94
305.661	64.94
305.891	81.94
306.121	82.94
306.352	81.94
306.582	85.94
306.812	79.94
307.042	90.94
307.272	80.94
307.502	76.94
307.731	89.94
307.961	86.94
308.191	88.94
308.421	81.94
308.651	88.94
308.881	86.94
309.111	79.94
309.341	76.94
309.571	82.94
309.8	80.94
310.03	84.94
310.26	84.94
310.49	88.94
310.72	90.94
310.949	88.94
311.179	90.94
311.409	94.94
311.639	88.94
311.868	74.94
312.098	84.94
312.328	84.94
312.557	76.94
312.787	84.94
313.017	81.94
313.246	94.94
313.476	86.94
313.706	86.94
313.935	78.94
314.165	80.94
314.394	92.94
314.624	86.94
314.853	86.94
315.083	71.94
315.312	79.94
315.542	89.94
315.771	98.94
316.001	76.94
316.23	86.94
316.46	90.94
316.689	78.94
316.919	74.94
317.148	83.94
317.377	87.94
317.607	84.94
317.836	97.94
318.065	80.94
318.295	90.94
318.524	98.94
318.753	94.94
318.983	90.94
319.212	84.94
319.441	90.94
319.67	77.94
319.9	81.94
320.129	75.94
320.358	73.94
320.587	82.94
320.816	83.94
321.046	87.94
321.275	77.94
321.504	76.94
321.733	90.94
321.962	86.94
322.191	91.94
322.42	79.94
322.649	83.94
322.878	98.94
323.108	83.94
323.337	89.94
323.566	85.94
323.795	92.94
324.024	90.94
324.253	85.94
324.482	85.94
324.71	85.94
324.939	92.94
325.168	96.94
325.397	82.94
325.626	86.94
325.855	98.94
326.084	88.94
326.313	78.94
326.542	83.94
326.77	80.94
326.999	88.94
327.228	80.94
327.457	91.94
327.686	82.94
327.914	94.94
328.143	94.94
328.372	77.94
328.6	74.94
328.829	82.94
329.058	77.94
329.287	79.94
329.515	80.94
329.744	91.94
329.972	75.94
330.201	104.94
330.43	88.94
330.658	82.94
330.887	83.94
331.115	89.94
331.344	89.94
331.572	75.94
331.801	78.94
332.03	86.94
332.258	84.94
332.486	94.94
332.715	83.94
332.943	73.94
333.172	87.94
333.4	95.94
333.629	103.94
333.857	83.94
334.085	83.94
334.314	68.94
334.542	82.94
334.771	80.94
334.999	81.94
335.227	80.94
335.455	93.94
335.684	90.94
335.912	85.94
336.14	87.94
336.369	86.94
336.597	76.94
336.825	84.94
337.053	89.94
337.281	90.94
337.51	90.94
337.738	98.94
337.966	72.94
338.194	90.94
338.422	81.94
338.65	81.94
338.878	80.94
339.106	89.94
339.334	79.94
339.562	100.94
339.79	82.94
340.018	80.94
340.246	73.94
340.474	83.94
340.702	85.94
340.93	90.94
341.158	73.94
341.386	82.94
341.614	79.94
341.842	95.94
342.07	79.94
342.298	87.94
342.526	95.94
342.754	96.94
342.981	96.94
343.209	80.94
343.437	78.94
343.665	83.94
343.893	76.94
344.12	87.94
344.348	76.94
344.576	69.94
344.804	84.94
345.031	82.94
345.259	90.94
345.487	87.94
345.714	82.94
345.942	94.94
346.17	93.94
346.397	74.94
346.625	78.94
346.853	72.94
347.08	74.94
347.308	80.94
347.535	79.94
347.763	68.94
347.99	77.94
348.218	88.94
348.445	71.94
348.673	79.94
348.9	85.94
349.128	92.94
349.355	79.94
349.583	85.94
349.81	83.94
350.037	80.94
350.265	82.94
350.492	77.94
350.72	85.94
350.947	79.94
351.174	76.94
351.402	90.94
351.629	90.94
351.856	82.94
352.083	78.94
352.311	83.94
352.538	80.94
352.765	71.94
352.992	84.94
353.22	88.94
353.447	85.94
353.674	72.94
353.901	62.94
354.128	95.94
354.355	93.94
354.583	70.94
354.81	86.94
355.037	94.94
355.264	76.94
355.491	79.94
355.718	92.94
355.945	82.94
356.172	86.94
356.399	93.94
356.626	79.94
356.853	82.94
357.08	81.94
357.307	96.94
357.534	84.94
357.761	85.94
357.988	94.94
358.215	84.94
358.441	92.94
358.668	87.94
358.895	82.94
359.122	78.94
359.349	89.94
359.576	74.94
359.802	82.94
360.029	88.94
360.256	75.94
360.483	92.94
360.709	82.94
360.936	85.94
361.163	76.94
361.39	70.94
361.616	87.94
361.843	88.94
362.07	77.94
362.296	84.94
362.523	74.94
362.749	90.94
362.976	74.94
363.203	78.94
363.429	85.94
363.656	93.94
363.882	88.94
364.109	87.94
364.335	93.94
364.562	72.94
364.788	75.94
365.015	75.94
365.241	83.94
365.468	91.94
365.694	71.94
365.92	99.94
366.147	80.94
366.373	73.94
366.599	96.94
366.826	91.94
367.052	82.94
367.278	75.94
367.505	85.94
367.731	77.94
367.957	92.94
368.184	80.94
368.41	85.94
368.636	87.94
368.862	89.94
369.089	78.94
369.315	78.94
369.541	73.94
369.767	71.94
369.993	83.94
370.219	76.94
370.445	77.94
370.672	96.94
370.898	89.94
371.124	77.94
371.35	84.94
371.576	69.94
371.802	82.94
372.028	87.94
372.254	97.94
372.48	76.94
372.706	83.94
372.932	87.94
373.158	86.94
373.384	90.94
373.61	87.94
373.835	74.94
374.061	78.94
374.287	69.94
374.513	80.94
374.739	79.94
374.965	96.94
375.191	81.94
375.416	94.94
375.642	91.94
375.868	89.94
376.094	86.94
376.319	80.94
376.545	82.94
376.771	99.94
376.997	84.94
377.222	86.94
377.448	80.94
377.674	96.94
377.899	90.94
378.125	99.94
378.35	79.94
378.576	88.94
378.802	99.94
379.027	92.94
379.253	77.94
379.478	94.94
379.704	89.94
379.929	86.94
380.155	79.94
380.38	106.94
380.606	86.94
380.831	87.94
381.057	95.94
381.282	90.94
381.507	89.94
381.733	74.94
381.958	84.94
382.184	96.94
382.409	79.94
382.634	83.94
382.86	75.94
383.085	99.94
383.31	87.94
383.535	93.94
383.761	91.94
383.986	93.94
384.211	87.94
384.436	94.94
384.662	88.94
384.887	83.94
385.112	87.94
385.337	79.94
385.562	74.94
385.787	100.94
386.013	102.94
386.238	92.94
386.463	89.94
386.688	92.94
386.913	87.94
387.138	87.94
387.363	92.94
387.588	89.94
387.813	78.94
388.038	78.94
388.263	74.94
388.488	85.94
388.713	87.94
388.938	86.94
389.163	82.94
389.387	82.94
389.612	85.94
389.837	88.94
390.062	81.94
390.287	94.94
390.512	93.94
390.736	88.94
390.961	94.94
391.186	86.94
391.411	110.94
391.636	86.94
391.86	96.94
392.085	92.94
392.31	90.94
392.534	88.94
392.759	87.94
392.984	96.94
393.208	96.94
393.433	94.94
393.658	85.94
393.882	92.94
394.107	90.94
394.331	91.94
394.556	94.94
394.78	103.94
395.005	89.94
395.229	90.94
395.454	100.94
395.678	102.94
395.903	97.94
396.127	86.94
396.352	84.94
396.576	87.94
396.801	91.94
397.025	86.94
397.249	101.94
397.474	88.94
397.698	92.94
397.922	99.94
398.147	96.94
398.371	90.94
398.595	98.94
398.82	86.94
399.044	85.94
399.268	100.94
399.492	97.94
399.717	97.94
399.941	94.94
400.165	94.94
400.389	91.94
400.613	86.94
400.837	101.94
401.062	87.94
401.286	97.94
401.51	105.94
401.734	92.94
401.958	113.94
402.182	101.94
402.406	89.94
402.63	97.94
402.854	102.94
403.078	96.94
403.302	84.94
403.526	101.94
403.75	96.94
403.974	103.94
404.198	85.94
404.422	95.94
404.645	80.94
404.869	95.94
405.093	100.94
405.317	99.94
405.541	100.94
405.765	89.94
405.988	90.94
406.212	92.94
406.436	95.94
406.66	99.94
406.883	95.94
407.107	90.94
407.331	103.94
407.555	87.94
407.778	94.94
408.002	89.94
408.226	97.94
408.449	98.94
408.673	99.94
408.896	89.94
409.12	97.94
409.344	107.94
409.567	115.94
409.791	100.94
410.014	116.94
410.238	102.94
410.461	104.94
410.685	102.94
410.908	101.94
411.132	111.94
411.355	108.94
411.578	99.94
411.802	103.94
412.025	91.94
412.249	87.94
412.472	82.94
412.695	93.94
412.919	89.94
413.142	100.94
413.365	109.94
413.589	90.94
413.812	92.94
414.035	88.94
414.258	100.94
414.482	102.94
414.705	95.94
414.928	104.94
415.151	104.94
415.374	100.94
415.597	95.94
415.821	104.94
416.044	84.94
416.267	89.94
416.49	101.94
416.713	96.94
416.936	104.94
417.159	107.94
417.382	96.94
417.605	99.94
417.828	98.94
418.051	95.94
418.274	91.94
418.497	113.94
418.72	114.94
418.943	113.94
419.166	110.94
419.389	100.94
419.611	90.94
419.834	95.94
420.057	104.94
420.28	101.94
420.503	100.94
420.726	120.94
420.948	106.94
421.171	102.94
421.394	109.94
421.617	105.94
421.839	104.94
422.062	117.94
422.285	106.94
422.507	88.94
422.73	106.94
422.953	103.94
423.175	115.94
423.398	90.94
423.621	87.94
423.843	117.94
424.066	108.94
424.288	110.94
424.511	126.94
424.733	96.94
424.956	113.94
425.178	106.94
425.401	114.94
425.623	116.94
425.846	101.94
426.068	106.94
426.291	94.94
426.513	100.94
426.735	98.94
426.958	110.94
427.18	96.94
427.402	88.94
427.625	104.94
427.847	103.94
428.069	110.94
428.292	99.94
428.514	107.94
428.736	106.94
428.958	101.94
429.181	114.94
429.403	97.94
429.625	100.94
429.847	101.94
430.069	105.94
430.292	110.94
430.514	87.94
430.736	97.94
430.958	96.94
431.18	88.94
431.402	91.94
431.624	110.94
431.846	87.94
432.068	85.94
432.29	82.94
432.512	99.94
432.734	96.94
432.956	102.94
433.178	114.94
433.4	103.94
433.622	118.94
433.844	80.94
434.066	104.94
434.287	90.94
434.509	89.94
434.731	100.94
434.953	94.94
435.175	94.94
435.397	105.94
435.618	88.94
435.84	95.94
436.062	77.94
436.284	85.94
436.505	110.94
436.727	98.94
436.949	114.94
437.17	106.94
437.392	106.94
437.614	94.94
437.835	90.94
438.057	87.94
438.278	94.94
438.5	105.94
438.721	104.94
438.943	100.94
439.165	110.94
439.386	98.94
439.608	114.94
439.829	105.94
440.05	113.94
440.272	106.94
440.493	110.94
440.715	112.94
440.936	117.94
441.158	116.94
441.379	124.94
441.6	113.94
441.822	112.94
442.043	111.94
442.264	96.94
442.486	115.94
442.707	108.94
442.928	116.94
443.149	110.94
443.371	103.94
443.592	103.94
443.813	121.94
444.034	106.94
444.255	113.94
444.476	91.94
444.698	116.94
444.919	114.94
445.14	218.94
445.361	148.94
445.582	105.94
445.803	122.94
446.024	103.94
446.245	114.94
446.466	117.94
446.687	121.94
446.908	116.94
447.129	119.94
447.35	112.94
447.571	123.94
447.792	102.94
448.013	108.94
448.234	120.94
448.455	108.94
448.675	106.94
448.896	121.94
449.117	102.94
449.338	116.94
449.559	106.94
449.779	103.94
450	98.94
450.221	116.94
450.442	115.94
450.662	110.94
450.883	101.94
451.104	103.94
451.324	106.94
451.545	103.94
451.766	105.94
451.986	107.94
452.207	112.94
452.428	105.94
452.648	99.94
452.869	110.94
453.089	99.94
453.31	87.94
453.53	101.94
453.751	95.94
453.971	74.94
454.192	97.94
454.412	91.94
454.633	83.94
454.853	104.94
455.073	109.94
455.294	102.94
455.514	112.94
455.734	114.94
455.955	108.94
456.175	100.94
456.395	105.94
456.616	91.94
456.836	73.94
457.056	103.94
457.276	85.94
457.497	85.94
457.717	90.94
457.937	90.94
458.157	98.94
458.377	88.94
458.598	85.94
458.818	90.94
459.038	75.94
459.258	74.94
459.478	86.94
459.698	93.94
459.918	83.94
460.138	89.94
460.358	92.94
460.578	101.94
460.798	102.94
461.018	99.94
461.238	105.94
461.458	91.94
461.678	105.94
461.898	87.94
462.118	88.94
462.338	109.94
462.558	98.94
462.777	98.94
462.997	99.94
463.217	83.94
463.437	92.94
463.657	96.94
463.876	76.94
464.096	92.94
464.316	97.94
464.536	89.94
464.755	104.94
464.975	97.94
465.195	104.94
465.414	88.94
465.634	103.94
465.854	100.94
466.073	89.94
466.293	98.94
466.512	112.94
466.732	98.94
466.951	114.94
467.171	90.94
467.391	103.94
467.61	99.94
467.829	106.94
468.049	103.94
468.268	106.94
468.488	95.94
468.707	113.94
468.927	121.94
469.146	86.94
469.365	110.94
469.585	96.94
469.804	112.94
470.023	104.94
470.243	89.94
470.462	105.94
470.681	88.94
470.901	123.94
471.12	97.94
471.339	88.94
471.558	107.94
471.777	115.94
471.997	106.94
472.216	103.94
472.435	110.94
472.654	94.94
472.873	97.94
473.092	101.94
473.311	100.94
473.53	111.94
473.749	102.94
473.968	112.94
474.187	100.94
474.406	111.94
474.625	110.94
474.844	105.94
475.063	101.94
475.282	101.94
475.501	110.94
475.72	92.94
475.939	116.94
476.158	112.94
476.377	101.94
476.596	97.94
476.814	90.94
477.033	95.94
477.252	99.94
477.471	112.94
477.69	110.94
477.908	106.94
478.127	112.94
478.346	106.94
478.564	107.94
478.783	86.94
479.002	97.94
479.22	112.94
479.439	106.94
479.658	88.94
479.876	91.94
480.095	94.94
480.313	101.94
480.532	108.94
480.751	102.94
480.969	97.94
481.188	73.94
481.406	89.94
481.624	96.94
481.843	89.94
482.061	94.94
482.28	95.94
482.498	115.94
482.717	92.94
482.935	95.94
483.153	111.94
483.372	118.94
483.59	115.94
483.808	118.94
484.027	99.94
484.245	118.94
484.463	123.94
484.681	112.94
484.9	119.94
485.118	114.94
485.336	98.94
485.554	95.94
485.772	95.94
485.99	72.94
486.209	98.94
486.427	106.94
486.645	105.94
486.863	110.94
487.081	101.94
487.299	114.94
487.517	106.94
487.735	115.94
487.953	128.94
488.171	130.94
488.389	116.94
488.607	128.94
488.825	118.94
489.043	117.94
489.261	117.94
489.479	107.94
489.696	112.94
489.914	109.94
490.132	113.94
490.35	131.94
490.568	119.94
490.786	119.94
491.003	127.94
491.221	106.94
491.439	144.94
491.657	134.94
491.874	123.94
492.092	144.94
492.31	153.94
492.527	147.94
492.745	155.94
492.963	130.94
493.18	130.94
493.398	134.94
493.615	135.94
493.833	124.94
494.05	135.94
494.268	123.94
494.485	121.94
494.703	120.94
494.92	131.94
495.138	118.94
495.355	118.94
495.573	132.94
495.79	131.94
496.008	132.94
496.225	128.94
496.442	115.94
496.66	122.94
496.877	116.94
497.094	121.94
497.312	110.94
497.529	110.94
497.746	124.94
497.963	110.94
498.181	103.94
498.398	93.94
498.615	109.94
498.832	98.94
499.049	86.94
499.267	100.94
499.484	112.94
499.701	102.94
499.918	119.94
500.135	116.94
500.352	112.94
500.569	108.94
500.786	117.94
501.003	112.94
501.22	108.94
501.437	98.94
501.654	104.94
501.871	108.94
502.088	101.94
502.305	111.94
502.522	106.94
502.739	107.94
502.956	103.94
503.172	105.94
503.389	100.94
503.606	105.94
503.823	99.94
504.04	95.94
504.256	98.94
504.473	113.94
504.69	96.94
504.907	90.94
505.123	93.94
505.34	112.94
505.557	109.94
505.773	111.94
505.99	110.94
506.207	101.94
506.423	101.94
506.64	110.94
506.856	92.94
507.073	104.94
507.289	112.94
507.506	106.94
507.722	108.94
507.939	91.94
508.155	101.94
508.372	101.94
508.588	109.94
508.805	105.94
509.021	84.94
509.238	90.94
509.454	78.94
509.67	95.94
509.887	90.94
510.103	96.94
510.319	94.94
510.536	75.94
510.752	90.94
510.968	92.94
511.184	97.94
511.401	86.94
511.617	87.94
511.833	85.94
512.049	91.94
512.265	87.94
512.481	80.94
512.698	91.94
512.914	100.94
513.13	86.94
513.346	84.94
513.562	84.94
513.778	90.94
513.994	81.94
514.21	103.94
514.426	97.94
514.642	78.94
514.858	97.94
