Data from Zn(NO3)2Standard.Agarose3%.GreenCap.LampEnergy5.5.E.O_HRD10591_15-03-32-768.txt Node
Date: Mon Jul 22 15:03:32 EDT 2019
User: cochatt
Spectrometer: HR+D1059
Trigger mode: 1
Integration Time (sec): 1.000000E-1
Scans to average: 1
Electric dark correction enabled: true
Nonlinearity correction enabled: false
Boxcar width: 0
XAxis mode: Wavelengths
Number of Pixels in Spectrum: 2048
>>>>>Begin Spectral Data<<<<<
223.165	-9.75
223.4	-9.75
223.635	-9.75
223.869	-4.75
224.104	2.25
224.338	-13.75
224.573	-12.75
224.808	-11.75
225.042	-17.75
225.277	-18.75
225.511	6.25
225.746	1.25
225.98	-7.75
226.215	8.25
226.449	21.25
226.683	21.25
226.918	7.25
227.152	29.25
227.387	21.25
227.621	51.25
227.856	55.25
228.09	44.25
228.324	38.25
228.559	69.25
228.793	64.25
229.027	58.25
229.262	68.25
229.496	57.25
229.73	68.25
229.964	72.25
230.199	67.25
230.433	84.25
230.667	78.25
230.901	83.25
231.136	90.25
231.37	76.25
231.604	86.25
231.838	85.25
232.072	79.25
232.306	76.25
232.541	83.25
232.775	81.25
233.009	67.25
233.243	80.25
233.477	85.25
233.711	77.25
233.945	80.25
234.179	87.25
234.413	85.25
234.647	74.25
234.881	83.25
235.115	75.25
235.349	79.25
235.583	69.25
235.817	78.25
236.051	68.25
236.285	85.25
236.519	75.25
236.753	74.25
236.987	77.25
237.221	91.25
237.455	87.25
237.689	84.25
237.922	67.25
238.156	76.25
238.39	78.25
238.624	66.25
238.858	81.25
239.091	69.25
239.325	85.25
239.559	64.25
239.793	59.25
240.027	82.25
240.26	82.25
240.494	84.25
240.728	85.25
240.961	69.25
241.195	79.25
241.429	74.25
241.662	68.25
241.896	75.25
242.13	77.25
242.363	75.25
242.597	88.25
242.83	84.25
243.064	82.25
243.298	82.25
243.531	81.25
243.765	83.25
243.998	71.25
244.232	84.25
244.465	82.25
244.699	75.25
244.932	66.25
245.166	78.25
245.399	64.25
245.633	73.25
245.866	79.25
246.099	80.25
246.333	81.25
246.566	79.25
246.8	84.25
247.033	77.25
247.266	83.25
247.5	80.25
247.733	83.25
247.966	78.25
248.2	65.25
248.433	83.25
248.666	79.25
248.899	80.25
249.133	81.25
249.366	82.25
249.599	74.25
249.832	81.25
250.066	82.25
250.299	88.25
250.532	85.25
250.765	89.25
250.998	75.25
251.231	79.25
251.465	79.25
251.698	71.25
251.931	76.25
252.164	85.25
252.397	77.25
252.63	77.25
252.863	80.25
253.096	74.25
253.329	86.25
253.562	74.25
253.795	84.25
254.028	81.25
254.261	80.25
254.494	88.25
254.727	83.25
254.96	65.25
255.193	74.25
255.426	86.25
255.659	73.25
255.892	92.25
256.124	91.25
256.357	81.25
256.59	81.25
256.823	81.25
257.056	91.25
257.289	79.25
257.521	83.25
257.754	77.25
257.987	72.25
258.22	84.25
258.452	77.25
258.685	84.25
258.918	78.25
259.151	89.25
259.383	86.25
259.616	75.25
259.849	73.25
260.081	86.25
260.314	79.25
260.547	90.25
260.779	75.25
261.012	78.25
261.244	76.25
261.477	79.25
261.71	75.25
261.942	81.25
262.175	89.25
262.407	83.25
262.64	86.25
262.872	85.25
263.105	83.25
263.337	99.25
263.57	99.25
263.802	93.25
264.035	84.25
264.267	85.25
264.499	75.25
264.732	80.25
264.964	67.25
265.197	77.25
265.429	77.25
265.661	66.25
265.894	84.25
266.126	89.25
266.358	87.25
266.591	96.25
266.823	94.25
267.055	79.25
267.287	79.25
267.52	86.25
267.752	75.25
267.984	84.25
268.216	61.25
268.448	90.25
268.681	78.25
268.913	91.25
269.145	90.25
269.377	76.25
269.609	83.25
269.841	83.25
270.073	83.25
270.306	81.25
270.538	88.25
270.77	83.25
271.002	80.25
271.234	90.25
271.466	81.25
271.698	82.25
271.93	79.25
272.162	78.25
272.394	87.25
272.626	82.25
272.858	70.25
273.09	84.25
273.322	84.25
273.553	77.25
273.785	89.25
274.017	84.25
274.249	93.25
274.481	81.25
274.713	88.25
274.945	70.25
275.176	82.25
275.408	85.25
275.64	96.25
275.872	77.25
276.104	85.25
276.335	96.25
276.567	67.25
276.799	82.25
277.031	75.25
277.262	82.25
277.494	81.25
277.726	94.25
277.957	76.25
278.189	86.25
278.421	97.25
278.652	86.25
278.884	83.25
279.115	82.25
279.347	80.25
279.579	81.25
279.81	94.25
280.042	77.25
280.273	90.25
280.505	73.25
280.736	81.25
280.968	89.25
281.199	85.25
281.431	89.25
281.662	91.25
281.894	81.25
282.125	86.25
282.356	85.25
282.588	85.25
282.819	95.25
283.051	99.25
283.282	83.25
283.513	75.25
283.745	83.25
283.976	93.25
284.207	84.25
284.439	82.25
284.67	101.25
284.901	75.25
285.132	89.25
285.364	66.25
285.595	89.25
285.826	75.25
286.057	89.25
286.288	82.25
286.52	76.25
286.751	81.25
286.982	79.25
287.213	76.25
287.444	97.25
287.675	78.25
287.906	87.25
288.138	109.25
288.369	90.25
288.6	82.25
288.831	93.25
289.062	74.25
289.293	97.25
289.524	78.25
289.755	90.25
289.986	72.25
290.217	90.25
290.448	87.25
290.679	91.25
290.91	77.25
291.141	85.25
291.371	67.25
291.602	86.25
291.833	97.25
292.064	83.25
292.295	100.25
292.526	82.25
292.757	74.25
292.987	93.25
293.218	82.25
293.449	86.25
293.68	98.25
293.91	85.25
294.141	83.25
294.372	89.25
294.603	88.25
294.833	94.25
295.064	85.25
295.295	92.25
295.525	91.25
295.756	79.25
295.987	77.25
296.217	72.25
296.448	87.25
296.679	76.25
296.909	86.25
297.14	100.25
297.37	79.25
297.601	92.25
297.831	88.25
298.062	85.25
298.292	98.25
298.523	100.25
298.753	95.25
298.984	79.25
299.214	85.25
299.445	78.25
299.675	87.25
299.905	74.25
300.136	83.25
300.366	84.25
300.597	73.25
300.827	84.25
301.057	85.25
301.288	91.25
301.518	83.25
301.748	81.25
301.979	86.25
302.209	87.25
302.439	76.25
302.669	95.25
302.9	82.25
303.13	88.25
303.36	86.25
303.59	85.25
303.82	82.25
304.051	81.25
304.281	82.25
304.511	87.25
304.741	93.25
304.971	90.25
305.201	86.25
305.431	80.25
305.661	102.25
305.891	82.25
306.121	89.25
306.352	74.25
306.582	90.25
306.812	80.25
307.042	81.25
307.272	95.25
307.502	87.25
307.731	88.25
307.961	69.25
308.191	91.25
308.421	75.25
308.651	80.25
308.881	89.25
309.111	79.25
309.341	82.25
309.571	86.25
309.8	81.25
310.03	83.25
310.26	99.25
310.49	89.25
310.72	69.25
310.949	90.25
311.179	89.25
311.409	85.25
311.639	78.25
311.868	85.25
312.098	99.25
312.328	100.25
312.557	85.25
312.787	82.25
313.017	94.25
313.246	91.25
313.476	87.25
313.706	67.25
313.935	82.25
314.165	85.25
314.394	76.25
314.624	83.25
314.853	86.25
315.083	93.25
315.312	80.25
315.542	82.25
315.771	83.25
316.001	79.25
316.23	83.25
316.46	86.25
316.689	74.25
316.919	78.25
317.148	97.25
317.377	95.25
317.607	73.25
317.836	87.25
318.065	90.25
318.295	92.25
318.524	95.25
318.753	86.25
318.983	78.25
319.212	83.25
319.441	91.25
319.67	94.25
319.9	76.25
320.129	84.25
320.358	86.25
320.587	68.25
320.816	92.25
321.046	86.25
321.275	87.25
321.504	82.25
321.733	84.25
321.962	89.25
322.191	76.25
322.42	82.25
322.649	87.25
322.878	84.25
323.108	87.25
323.337	84.25
323.566	82.25
323.795	82.25
324.024	80.25
324.253	99.25
324.482	89.25
324.71	87.25
324.939	101.25
325.168	88.25
325.397	89.25
325.626	99.25
325.855	96.25
326.084	93.25
326.313	97.25
326.542	91.25
326.77	81.25
326.999	71.25
327.228	89.25
327.457	74.25
327.686	76.25
327.914	92.25
328.143	85.25
328.372	79.25
328.6	78.25
328.829	92.25
329.058	95.25
329.287	85.25
329.515	91.25
329.744	83.25
329.972	73.25
330.201	77.25
330.43	74.25
330.658	92.25
330.887	75.25
331.115	79.25
331.344	87.25
331.572	75.25
331.801	76.25
332.03	84.25
332.258	83.25
332.486	81.25
332.715	74.25
332.943	81.25
333.172	80.25
333.4	74.25
333.629	97.25
333.857	85.25
334.085	78.25
334.314	65.25
334.542	81.25
334.771	85.25
334.999	80.25
335.227	77.25
335.455	82.25
335.684	79.25
335.912	92.25
336.14	79.25
336.369	67.25
336.597	95.25
336.825	94.25
337.053	89.25
337.281	73.25
337.51	83.25
337.738	98.25
337.966	91.25
338.194	90.25
338.422	68.25
338.65	71.25
338.878	77.25
339.106	82.25
339.334	88.25
339.562	83.25
339.79	71.25
340.018	82.25
340.246	81.25
340.474	77.25
340.702	90.25
340.93	86.25
341.158	78.25
341.386	82.25
341.614	88.25
341.842	78.25
342.07	83.25
342.298	71.25
342.526	90.25
342.754	84.25
342.981	79.25
343.209	82.25
343.437	94.25
343.665	88.25
343.893	69.25
344.12	93.25
344.348	72.25
344.576	76.25
344.804	86.25
345.031	75.25
345.259	90.25
345.487	85.25
345.714	79.25
345.942	82.25
346.17	86.25
346.397	75.25
346.625	67.25
346.853	84.25
347.08	82.25
347.308	80.25
347.535	73.25
347.763	77.25
347.99	83.25
348.218	78.25
348.445	87.25
348.673	76.25
348.9	79.25
349.128	87.25
349.355	85.25
349.583	75.25
349.81	84.25
350.037	73.25
350.265	88.25
350.492	86.25
350.72	77.25
350.947	85.25
351.174	90.25
351.402	85.25
351.629	89.25
351.856	107.25
352.083	76.25
352.311	94.25
352.538	82.25
352.765	76.25
352.992	83.25
353.22	87.25
353.447	85.25
353.674	94.25
353.901	88.25
354.128	85.25
354.355	79.25
354.583	85.25
354.81	94.25
355.037	91.25
355.264	84.25
355.491	103.25
355.718	77.25
355.945	86.25
356.172	91.25
356.399	69.25
356.626	79.25
356.853	84.25
357.08	94.25
357.307	78.25
357.534	77.25
357.761	65.25
357.988	85.25
358.215	90.25
358.441	79.25
358.668	83.25
358.895	62.25
359.122	100.25
359.349	84.25
359.576	94.25
359.802	87.25
360.029	83.25
360.256	86.25
360.483	94.25
360.709	91.25
360.936	94.25
361.163	85.25
361.39	94.25
361.616	70.25
361.843	90.25
362.07	83.25
362.296	91.25
362.523	89.25
362.749	77.25
362.976	63.25
363.203	97.25
363.429	66.25
363.656	87.25
363.882	77.25
364.109	87.25
364.335	90.25
364.562	66.25
364.788	95.25
365.015	89.25
365.241	80.25
365.468	71.25
365.694	92.25
365.92	70.25
366.147	72.25
366.373	95.25
366.599	69.25
366.826	79.25
367.052	79.25
367.278	86.25
367.505	77.25
367.731	95.25
367.957	73.25
368.184	91.25
368.41	86.25
368.636	101.25
368.862	85.25
369.089	84.25
369.315	83.25
369.541	85.25
369.767	90.25
369.993	74.25
370.219	90.25
370.445	87.25
370.672	82.25
370.898	87.25
371.124	83.25
371.35	81.25
371.576	86.25
371.802	89.25
372.028	85.25
372.254	82.25
372.48	90.25
372.706	75.25
372.932	69.25
373.158	85.25
373.384	87.25
373.61	91.25
373.835	94.25
374.061	79.25
374.287	90.25
374.513	80.25
374.739	84.25
374.965	84.25
375.191	84.25
375.416	80.25
375.642	89.25
375.868	102.25
376.094	91.25
376.319	89.25
376.545	78.25
376.771	67.25
376.997	94.25
377.222	86.25
377.448	85.25
377.674	85.25
377.899	84.25
378.125	81.25
378.35	83.25
378.576	78.25
378.802	73.25
379.027	90.25
379.253	75.25
379.478	78.25
379.704	77.25
379.929	81.25
380.155	81.25
380.38	84.25
380.606	78.25
380.831	75.25
381.057	75.25
381.282	82.25
381.507	80.25
381.733	86.25
381.958	81.25
382.184	80.25
382.409	75.25
382.634	89.25
382.86	87.25
383.085	77.25
383.31	91.25
383.535	85.25
383.761	78.25
383.986	92.25
384.211	83.25
384.436	79.25
384.662	70.25
384.887	85.25
385.112	90.25
385.337	84.25
385.562	77.25
385.787	85.25
386.013	78.25
386.238	84.25
386.463	77.25
386.688	73.25
386.913	82.25
387.138	99.25
387.363	89.25
387.588	92.25
387.813	76.25
388.038	97.25
388.263	90.25
388.488	84.25
388.713	80.25
388.938	84.25
389.163	91.25
389.387	75.25
389.612	76.25
389.837	80.25
390.062	84.25
390.287	95.25
390.512	73.25
390.736	86.25
390.961	80.25
391.186	79.25
391.411	92.25
391.636	66.25
391.86	91.25
392.085	86.25
392.31	76.25
392.534	83.25
392.759	90.25
392.984	83.25
393.208	74.25
393.433	87.25
393.658	81.25
393.882	68.25
394.107	85.25
394.331	93.25
394.556	87.25
394.78	82.25
395.005	87.25
395.229	79.25
395.454	83.25
395.678	82.25
395.903	82.25
396.127	95.25
396.352	101.25
396.576	89.25
396.801	90.25
397.025	87.25
397.249	84.25
397.474	75.25
397.698	77.25
397.922	75.25
398.147	87.25
398.371	79.25
398.595	88.25
398.82	87.25
399.044	91.25
399.268	91.25
399.492	90.25
399.717	78.25
399.941	81.25
400.165	83.25
400.389	85.25
400.613	85.25
400.837	94.25
401.062	82.25
401.286	97.25
401.51	89.25
401.734	92.25
401.958	68.25
402.182	87.25
402.406	82.25
402.63	80.25
402.854	74.25
403.078	84.25
403.302	87.25
403.526	93.25
403.75	76.25
403.974	93.25
404.198	101.25
404.422	86.25
404.645	79.25
404.869	106.25
405.093	87.25
405.317	90.25
405.541	88.25
405.765	89.25
405.988	98.25
406.212	94.25
406.436	77.25
406.66	74.25
406.883	84.25
407.107	91.25
407.331	78.25
407.555	82.25
407.778	94.25
408.002	70.25
408.226	78.25
408.449	79.25
408.673	97.25
408.896	77.25
409.12	87.25
409.344	85.25
409.567	97.25
409.791	81.25
410.014	93.25
410.238	94.25
410.461	81.25
410.685	81.25
410.908	77.25
411.132	85.25
411.355	79.25
411.578	91.25
411.802	78.25
412.025	78.25
412.249	85.25
412.472	92.25
412.695	92.25
412.919	91.25
413.142	91.25
413.365	87.25
413.589	77.25
413.812	94.25
414.035	89.25
414.258	89.25
414.482	100.25
414.705	87.25
414.928	83.25
415.151	78.25
415.374	79.25
415.597	105.25
415.821	99.25
416.044	78.25
416.267	85.25
416.49	95.25
416.713	90.25
416.936	89.25
417.159	90.25
417.382	84.25
417.605	73.25
417.828	93.25
418.051	84.25
418.274	88.25
418.497	79.25
418.72	84.25
418.943	81.25
419.166	89.25
419.389	98.25
419.611	83.25
419.834	91.25
420.057	86.25
420.28	86.25
420.503	85.25
420.726	87.25
420.948	87.25
421.171	96.25
421.394	86.25
421.617	101.25
421.839	100.25
422.062	91.25
422.285	89.25
422.507	92.25
422.73	103.25
422.953	90.25
423.175	91.25
423.398	91.25
423.621	91.25
423.843	82.25
424.066	80.25
424.288	87.25
424.511	99.25
424.733	89.25
424.956	82.25
425.178	100.25
425.401	106.25
425.623	91.25
425.846	95.25
426.068	83.25
426.291	91.25
426.513	94.25
426.735	97.25
426.958	91.25
427.18	81.25
427.402	78.25
427.625	89.25
427.847	84.25
428.069	88.25
428.292	78.25
428.514	90.25
428.736	78.25
428.958	91.25
429.181	76.25
429.403	86.25
429.625	81.25
429.847	92.25
430.069	99.25
430.292	103.25
430.514	90.25
430.736	85.25
430.958	90.25
431.18	88.25
431.402	82.25
431.624	86.25
431.846	92.25
432.068	85.25
432.29	77.25
432.512	72.25
432.734	90.25
432.956	85.25
433.178	94.25
433.4	94.25
433.622	95.25
433.844	91.25
434.066	93.25
434.287	88.25
434.509	84.25
434.731	70.25
434.953	82.25
435.175	108.25
435.397	101.25
435.618	88.25
435.84	89.25
436.062	92.25
436.284	88.25
436.505	84.25
436.727	98.25
436.949	86.25
437.17	85.25
437.392	101.25
437.614	87.25
437.835	71.25
438.057	72.25
438.278	75.25
438.5	76.25
438.721	93.25
438.943	89.25
439.165	83.25
439.386	88.25
439.608	90.25
439.829	92.25
440.05	87.25
440.272	90.25
440.493	87.25
440.715	97.25
440.936	83.25
441.158	91.25
441.379	78.25
441.6	103.25
441.822	92.25
442.043	104.25
442.264	98.25
442.486	93.25
442.707	97.25
442.928	92.25
443.149	70.25
443.371	84.25
443.592	97.25
443.813	89.25
444.034	81.25
444.255	94.25
444.476	93.25
444.698	82.25
444.919	103.25
445.14	224.25
445.361	131.25
445.582	86.25
445.803	92.25
446.024	79.25
446.245	96.25
446.466	93.25
446.687	95.25
446.908	89.25
447.129	97.25
447.35	103.25
447.571	87.25
447.792	89.25
448.013	94.25
448.234	87.25
448.455	93.25
448.675	94.25
448.896	84.25
449.117	91.25
449.338	90.25
449.559	83.25
449.779	81.25
450	80.25
450.221	90.25
450.442	106.25
450.662	92.25
450.883	90.25
451.104	90.25
451.324	75.25
451.545	93.25
451.766	87.25
451.986	98.25
452.207	114.25
452.428	80.25
452.648	82.25
452.869	95.25
453.089	85.25
453.31	99.25
453.53	86.25
453.751	102.25
453.971	87.25
454.192	101.25
454.412	89.25
454.633	82.25
454.853	95.25
455.073	92.25
455.294	90.25
455.514	84.25
455.734	90.25
455.955	105.25
456.175	95.25
456.395	93.25
456.616	78.25
456.836	86.25
457.056	85.25
457.276	94.25
457.497	80.25
457.717	76.25
457.937	92.25
458.157	85.25
458.377	97.25
458.598	93.25
458.818	91.25
459.038	87.25
459.258	93.25
459.478	71.25
459.698	84.25
459.918	79.25
460.138	95.25
460.358	70.25
460.578	93.25
460.798	103.25
461.018	100.25
461.238	104.25
461.458	91.25
461.678	97.25
461.898	91.25
462.118	97.25
462.338	95.25
462.558	89.25
462.777	94.25
462.997	82.25
463.217	92.25
463.437	89.25
463.657	93.25
463.876	80.25
464.096	85.25
464.316	74.25
464.536	90.25
464.755	87.25
464.975	89.25
465.195	83.25
465.414	87.25
465.634	99.25
465.854	82.25
466.073	96.25
466.293	94.25
466.512	98.25
466.732	87.25
466.951	87.25
467.171	102.25
467.391	90.25
467.61	80.25
467.829	99.25
468.049	92.25
468.268	97.25
468.488	103.25
468.707	89.25
468.927	106.25
469.146	99.25
469.365	98.25
469.585	89.25
469.804	70.25
470.023	72.25
470.243	94.25
470.462	86.25
470.681	90.25
470.901	91.25
471.12	86.25
471.339	94.25
471.558	95.25
471.777	95.25
471.997	91.25
472.216	86.25
472.435	86.25
472.654	89.25
472.873	88.25
473.092	90.25
473.311	90.25
473.53	88.25
473.749	92.25
473.968	104.25
474.187	83.25
474.406	75.25
474.625	94.25
474.844	96.25
475.063	85.25
475.282	99.25
475.501	101.25
475.72	102.25
475.939	89.25
476.158	104.25
476.377	101.25
476.596	96.25
476.814	92.25
477.033	86.25
477.252	92.25
477.471	78.25
477.69	84.25
477.908	96.25
478.127	94.25
478.346	94.25
478.564	97.25
478.783	100.25
479.002	77.25
479.22	89.25
479.439	89.25
479.658	91.25
479.876	84.25
480.095	79.25
480.313	82.25
480.532	99.25
480.751	92.25
480.969	94.25
481.188	92.25
481.406	81.25
481.624	75.25
481.843	83.25
482.061	76.25
482.28	102.25
482.498	102.25
482.717	95.25
482.935	93.25
483.153	95.25
483.372	90.25
483.59	97.25
483.808	83.25
484.027	87.25
484.245	89.25
484.463	85.25
484.681	102.25
484.9	82.25
485.118	93.25
485.336	89.25
485.554	97.25
485.772	85.25
485.99	83.25
486.209	91.25
486.427	80.25
486.645	75.25
486.863	99.25
487.081	102.25
487.299	87.25
487.517	91.25
487.735	99.25
487.953	102.25
488.171	102.25
488.389	106.25
488.607	90.25
488.825	100.25
489.043	83.25
489.261	93.25
489.479	85.25
489.696	85.25
489.914	97.25
490.132	97.25
490.35	97.25
490.568	94.25
490.786	106.25
491.003	102.25
491.221	92.25
491.439	103.25
491.657	109.25
491.874	111.25
492.092	102.25
492.31	105.25
492.527	117.25
492.745	109.25
492.963	104.25
493.18	94.25
493.398	90.25
493.615	105.25
493.833	93.25
494.05	114.25
494.268	97.25
494.485	104.25
494.703	105.25
494.92	96.25
495.138	92.25
495.355	103.25
495.573	101.25
495.79	94.25
496.008	99.25
496.225	98.25
496.442	91.25
496.66	104.25
496.877	87.25
497.094	99.25
497.312	91.25
497.529	81.25
497.746	99.25
497.963	107.25
498.181	102.25
498.398	79.25
498.615	93.25
498.832	88.25
499.049	84.25
499.267	100.25
499.484	105.25
499.701	92.25
499.918	98.25
500.135	98.25
500.352	85.25
500.569	79.25
500.786	82.25
501.003	86.25
501.22	103.25
501.437	90.25
501.654	103.25
501.871	105.25
502.088	101.25
502.305	98.25
502.522	90.25
502.739	88.25
502.956	100.25
503.172	87.25
503.389	96.25
503.606	94.25
503.823	87.25
504.04	94.25
504.256	86.25
504.473	91.25
504.69	88.25
504.907	102.25
505.123	98.25
505.34	89.25
505.557	93.25
505.773	91.25
505.99	95.25
506.207	94.25
506.423	78.25
506.64	86.25
506.856	84.25
507.073	85.25
507.289	96.25
507.506	103.25
507.722	95.25
507.939	98.25
508.155	94.25
508.372	87.25
508.588	86.25
508.805	85.25
509.021	87.25
509.238	87.25
509.454	93.25
509.67	82.25
509.887	84.25
510.103	79.25
510.319	92.25
510.536	71.25
510.752	90.25
510.968	79.25
511.184	92.25
511.401	102.25
511.617	93.25
511.833	79.25
512.049	90.25
512.265	80.25
512.481	82.25
512.698	81.25
512.914	97.25
513.13	92.25
513.346	80.25
513.562	77.25
513.778	83.25
513.994	90.25
514.21	73.25
514.426	84.25
514.642	93.25
514.858	87.25
515.074	87.25
515.29	82.25
515.506	83.25
515.721	85.25
515.937	90.25
516.153	86.25
516.369	83.25
516.585	78.25
516.801	75.25
517.016	74.25
517.232	89.25
517.448	85.25
517.664	85.25
517.879	75.25
518.095	77.25
518.311	79.25
