Data from Zn(NO3)2Standard.Agarose3%.GreenCap.LampEnergy10E.O_HRD10591_15-08-43-951.txt Node
Date: Mon Jul 22 15:08:43 EDT 2019
User: cochatt
Spectrometer: HR+D1059
Trigger mode: 1
Integration Time (sec): 1.000000E-1
Scans to average: 1
Electric dark correction enabled: true
Nonlinearity correction enabled: false
Boxcar width: 0
XAxis mode: Wavelengths
Number of Pixels in Spectrum: 2048
>>>>>Begin Spectral Data<<<<<
223.165	-10.69
223.4	-10.69
223.635	-10.69
223.869	-31.69
224.104	-15.69
224.338	5.31
224.573	8.31
224.808	-12.69
225.042	-23.69
225.277	-24.69
225.511	-5.69
225.746	-0.69
225.98	6.31
226.215	21.31
226.449	16.31
226.683	17.31
226.918	23.31
227.152	27.31
227.387	22.31
227.621	36.31
227.856	36.31
228.09	62.31
228.324	56.31
228.559	61.31
228.793	68.31
229.027	49.31
229.262	52.31
229.496	69.31
229.73	78.31
229.964	76.31
230.199	78.31
230.433	67.31
230.667	64.31
230.901	78.31
231.136	71.31
231.37	74.31
231.604	80.31
231.838	76.31
232.072	73.31
232.306	71.31
232.541	91.31
232.775	77.31
233.009	80.31
233.243	78.31
233.477	84.31
233.711	82.31
233.945	76.31
234.179	87.31
234.413	84.31
234.647	73.31
234.881	69.31
235.115	92.31
235.349	95.31
235.583	88.31
235.817	88.31
236.051	77.31
236.285	69.31
236.519	85.31
236.753	63.31
236.987	80.31
237.221	80.31
237.455	88.31
237.689	91.31
237.922	77.31
238.156	87.31
238.39	87.31
238.624	84.31
238.858	74.31
239.091	74.31
239.325	83.31
239.559	82.31
239.793	68.31
240.027	73.31
240.26	90.31
240.494	53.31
240.728	76.31
240.961	63.31
241.195	72.31
241.429	64.31
241.662	69.31
241.896	74.31
242.13	88.31
242.363	75.31
242.597	75.31
242.83	76.31
243.064	77.31
243.298	80.31
243.531	68.31
243.765	72.31
243.998	81.31
244.232	74.31
244.465	68.31
244.699	76.31
244.932	84.31
245.166	71.31
245.399	81.31
245.633	73.31
245.866	83.31
246.099	71.31
246.333	69.31
246.566	89.31
246.8	76.31
247.033	85.31
247.266	66.31
247.5	79.31
247.733	73.31
247.966	67.31
248.2	71.31
248.433	80.31
248.666	86.31
248.899	88.31
249.133	76.31
249.366	87.31
249.599	62.31
249.832	67.31
250.066	80.31
250.299	84.31
250.532	78.31
250.765	90.31
250.998	76.31
251.231	79.31
251.465	79.31
251.698	77.31
251.931	73.31
252.164	77.31
252.397	90.31
252.63	73.31
252.863	89.31
253.096	91.31
253.329	74.31
253.562	77.31
253.795	80.31
254.028	76.31
254.261	69.31
254.494	77.31
254.727	83.31
254.96	85.31
255.193	81.31
255.426	72.31
255.659	74.31
255.892	84.31
256.124	93.31
256.357	88.31
256.59	75.31
256.823	84.31
257.056	80.31
257.289	65.31
257.521	87.31
257.754	68.31
257.987	75.31
258.22	77.31
258.452	84.31
258.685	85.31
258.918	66.31
259.151	83.31
259.383	72.31
259.616	79.31
259.849	80.31
260.081	80.31
260.314	70.31
260.547	75.31
260.779	71.31
261.012	95.31
261.244	80.31
261.477	80.31
261.71	82.31
261.942	73.31
262.175	79.31
262.407	85.31
262.64	83.31
262.872	85.31
263.105	83.31
263.337	87.31
263.57	74.31
263.802	84.31
264.035	82.31
264.267	87.31
264.499	90.31
264.732	89.31
264.964	81.31
265.197	90.31
265.429	83.31
265.661	88.31
265.894	79.31
266.126	77.31
266.358	68.31
266.591	91.31
266.823	80.31
267.055	94.31
267.287	93.31
267.52	85.31
267.752	75.31
267.984	97.31
268.216	80.31
268.448	99.31
268.681	85.31
268.913	90.31
269.145	86.31
269.377	74.31
269.609	85.31
269.841	69.31
270.073	96.31
270.306	92.31
270.538	92.31
270.77	89.31
271.002	81.31
271.234	86.31
271.466	78.31
271.698	86.31
271.93	98.31
272.162	83.31
272.394	94.31
272.626	86.31
272.858	78.31
273.09	75.31
273.322	78.31
273.553	84.31
273.785	80.31
274.017	92.31
274.249	88.31
274.481	76.31
274.713	87.31
274.945	82.31
275.176	72.31
275.408	77.31
275.64	86.31
275.872	87.31
276.104	94.31
276.335	84.31
276.567	84.31
276.799	79.31
277.031	86.31
277.262	86.31
277.494	102.31
277.726	77.31
277.957	83.31
278.189	83.31
278.421	90.31
278.652	88.31
278.884	77.31
279.115	78.31
279.347	88.31
279.579	78.31
279.81	99.31
280.042	81.31
280.273	82.31
280.505	95.31
280.736	73.31
280.968	92.31
281.199	93.31
281.431	85.31
281.662	76.31
281.894	80.31
282.125	77.31
282.356	84.31
282.588	80.31
282.819	89.31
283.051	70.31
283.282	76.31
283.513	88.31
283.745	81.31
283.976	74.31
284.207	71.31
284.439	76.31
284.67	74.31
284.901	92.31
285.132	76.31
285.364	79.31
285.595	73.31
285.826	75.31
286.057	87.31
286.288	84.31
286.52	89.31
286.751	83.31
286.982	78.31
287.213	88.31
287.444	91.31
287.675	89.31
287.906	76.31
288.138	85.31
288.369	78.31
288.6	84.31
288.831	73.31
289.062	88.31
289.293	95.31
289.524	86.31
289.755	90.31
289.986	86.31
290.217	87.31
290.448	70.31
290.679	75.31
290.91	85.31
291.141	92.31
291.371	72.31
291.602	87.31
291.833	76.31
292.064	90.31
292.295	93.31
292.526	80.31
292.757	83.31
292.987	66.31
293.218	85.31
293.449	86.31
293.68	93.31
293.91	80.31
294.141	82.31
294.372	81.31
294.603	101.31
294.833	88.31
295.064	88.31
295.295	80.31
295.525	76.31
295.756	97.31
295.987	83.31
296.217	91.31
296.448	74.31
296.679	92.31
296.909	87.31
297.14	72.31
297.37	101.31
297.601	93.31
297.831	83.31
298.062	77.31
298.292	76.31
298.523	76.31
298.753	88.31
298.984	87.31
299.214	93.31
299.445	90.31
299.675	92.31
299.905	92.31
300.136	91.31
300.366	86.31
300.597	70.31
300.827	80.31
301.057	64.31
301.288	75.31
301.518	68.31
301.748	102.31
301.979	93.31
302.209	69.31
302.439	71.31
302.669	95.31
302.9	85.31
303.13	85.31
303.36	83.31
303.59	75.31
303.82	85.31
304.051	77.31
304.281	75.31
304.511	100.31
304.741	99.31
304.971	80.31
305.201	84.31
305.431	87.31
305.661	87.31
305.891	95.31
306.121	84.31
306.352	86.31
306.582	67.31
306.812	85.31
307.042	80.31
307.272	77.31
307.502	90.31
307.731	88.31
307.961	80.31
308.191	88.31
308.421	77.31
308.651	85.31
308.881	83.31
309.111	80.31
309.341	97.31
309.571	78.31
309.8	84.31
310.03	100.31
310.26	83.31
310.49	73.31
310.72	80.31
310.949	88.31
311.179	84.31
311.409	78.31
311.639	88.31
311.868	88.31
312.098	81.31
312.328	99.31
312.557	89.31
312.787	81.31
313.017	86.31
313.246	93.31
313.476	77.31
313.706	82.31
313.935	85.31
314.165	89.31
314.394	75.31
314.624	71.31
314.853	97.31
315.083	88.31
315.312	87.31
315.542	78.31
315.771	93.31
316.001	89.31
316.23	95.31
316.46	70.31
316.689	96.31
316.919	90.31
317.148	91.31
317.377	80.31
317.607	73.31
317.836	77.31
318.065	83.31
318.295	76.31
318.524	83.31
318.753	70.31
318.983	88.31
319.212	83.31
319.441	73.31
319.67	90.31
319.9	94.31
320.129	90.31
320.358	88.31
320.587	91.31
320.816	86.31
321.046	91.31
321.275	85.31
321.504	91.31
321.733	81.31
321.962	76.31
322.191	89.31
322.42	68.31
322.649	91.31
322.878	92.31
323.108	82.31
323.337	83.31
323.566	91.31
323.795	93.31
324.024	80.31
324.253	85.31
324.482	91.31
324.71	90.31
324.939	95.31
325.168	83.31
325.397	90.31
325.626	77.31
325.855	73.31
326.084	86.31
326.313	91.31
326.542	102.31
326.77	80.31
326.999	88.31
327.228	88.31
327.457	83.31
327.686	85.31
327.914	78.31
328.143	87.31
328.372	92.31
328.6	92.31
328.829	86.31
329.058	80.31
329.287	72.31
329.515	76.31
329.744	78.31
329.972	85.31
330.201	87.31
330.43	70.31
330.658	81.31
330.887	75.31
331.115	75.31
331.344	82.31
331.572	74.31
331.801	93.31
332.03	93.31
332.258	85.31
332.486	94.31
332.715	80.31
332.943	77.31
333.172	87.31
333.4	92.31
333.629	87.31
333.857	91.31
334.085	83.31
334.314	71.31
334.542	74.31
334.771	75.31
334.999	80.31
335.227	87.31
335.455	82.31
335.684	97.31
335.912	89.31
336.14	80.31
336.369	92.31
336.597	68.31
336.825	78.31
337.053	72.31
337.281	89.31
337.51	87.31
337.738	89.31
337.966	83.31
338.194	79.31
338.422	91.31
338.65	89.31
338.878	84.31
339.106	91.31
339.334	87.31
339.562	73.31
339.79	93.31
340.018	75.31
340.246	84.31
340.474	79.31
340.702	87.31
340.93	92.31
341.158	92.31
341.386	81.31
341.614	96.31
341.842	89.31
342.07	91.31
342.298	80.31
342.526	90.31
342.754	75.31
342.981	74.31
343.209	88.31
343.437	85.31
343.665	81.31
343.893	93.31
344.12	89.31
344.348	87.31
344.576	79.31
344.804	84.31
345.031	70.31
345.259	80.31
345.487	81.31
345.714	77.31
345.942	81.31
346.17	76.31
346.397	86.31
346.625	85.31
346.853	78.31
347.08	88.31
347.308	92.31
347.535	93.31
347.763	83.31
347.99	76.31
348.218	83.31
348.445	85.31
348.673	94.31
348.9	102.31
349.128	94.31
349.355	70.31
349.583	81.31
349.81	91.31
350.037	80.31
350.265	97.31
350.492	76.31
350.72	80.31
350.947	81.31
351.174	74.31
351.402	96.31
351.629	76.31
351.856	88.31
352.083	86.31
352.311	85.31
352.538	85.31
352.765	84.31
352.992	69.31
353.22	87.31
353.447	83.31
353.674	83.31
353.901	76.31
354.128	89.31
354.355	89.31
354.583	86.31
354.81	90.31
355.037	78.31
355.264	77.31
355.491	72.31
355.718	77.31
355.945	94.31
356.172	84.31
356.399	95.31
356.626	81.31
356.853	80.31
357.08	83.31
357.307	96.31
357.534	81.31
357.761	96.31
357.988	84.31
358.215	80.31
358.441	87.31
358.668	80.31
358.895	77.31
359.122	86.31
359.349	75.31
359.576	81.31
359.802	76.31
360.029	69.31
360.256	89.31
360.483	80.31
360.709	80.31
360.936	82.31
361.163	83.31
361.39	78.31
361.616	72.31
361.843	85.31
362.07	83.31
362.296	81.31
362.523	94.31
362.749	95.31
362.976	88.31
363.203	77.31
363.429	66.31
363.656	79.31
363.882	81.31
364.109	82.31
364.335	88.31
364.562	85.31
364.788	74.31
365.015	77.31
365.241	86.31
365.468	76.31
365.694	83.31
365.92	80.31
366.147	75.31
366.373	86.31
366.599	71.31
366.826	72.31
367.052	89.31
367.278	69.31
367.505	78.31
367.731	95.31
367.957	75.31
368.184	81.31
368.41	70.31
368.636	99.31
368.862	78.31
369.089	90.31
369.315	79.31
369.541	87.31
369.767	89.31
369.993	79.31
370.219	83.31
370.445	85.31
370.672	82.31
370.898	84.31
371.124	90.31
371.35	73.31
371.576	91.31
371.802	67.31
372.028	85.31
372.254	87.31
372.48	89.31
372.706	90.31
372.932	72.31
373.158	103.31
373.384	97.31
373.61	78.31
373.835	100.31
374.061	78.31
374.287	83.31
374.513	86.31
374.739	79.31
374.965	90.31
375.191	76.31
375.416	94.31
375.642	90.31
375.868	82.31
376.094	91.31
376.319	99.31
376.545	95.31
376.771	96.31
376.997	84.31
377.222	78.31
377.448	85.31
377.674	93.31
377.899	89.31
378.125	79.31
378.35	87.31
378.576	108.31
378.802	101.31
379.027	96.31
379.253	72.31
379.478	81.31
379.704	82.31
379.929	87.31
380.155	101.31
380.38	90.31
380.606	88.31
380.831	99.31
381.057	93.31
381.282	77.31
381.507	73.31
381.733	90.31
381.958	92.31
382.184	84.31
382.409	73.31
382.634	86.31
382.86	80.31
383.085	97.31
383.31	81.31
383.535	84.31
383.761	72.31
383.986	81.31
384.211	89.31
384.436	81.31
384.662	74.31
384.887	82.31
385.112	84.31
385.337	82.31
385.562	84.31
385.787	100.31
386.013	97.31
386.238	93.31
386.463	93.31
386.688	90.31
386.913	93.31
387.138	91.31
387.363	73.31
387.588	86.31
387.813	78.31
388.038	79.31
388.263	72.31
388.488	87.31
388.713	87.31
388.938	95.31
389.163	88.31
389.387	97.31
389.612	80.31
389.837	80.31
390.062	100.31
390.287	95.31
390.512	85.31
390.736	79.31
390.961	84.31
391.186	77.31
391.411	82.31
391.636	85.31
391.86	88.31
392.085	95.31
392.31	107.31
392.534	86.31
392.759	88.31
392.984	92.31
393.208	97.31
393.433	83.31
393.658	88.31
393.882	96.31
394.107	97.31
394.331	92.31
394.556	89.31
394.78	92.31
395.005	92.31
395.229	85.31
395.454	99.31
395.678	85.31
395.903	97.31
396.127	91.31
396.352	101.31
396.576	92.31
396.801	95.31
397.025	91.31
397.249	96.31
397.474	89.31
397.698	95.31
397.922	87.31
398.147	91.31
398.371	104.31
398.595	105.31
398.82	84.31
399.044	93.31
399.268	87.31
399.492	87.31
399.717	98.31
399.941	96.31
400.165	103.31
400.389	86.31
400.613	82.31
400.837	98.31
401.062	93.31
401.286	92.31
401.51	80.31
401.734	95.31
401.958	95.31
402.182	87.31
402.406	100.31
402.63	91.31
402.854	97.31
403.078	95.31
403.302	107.31
403.526	96.31
403.75	92.31
403.974	90.31
404.198	103.31
404.422	101.31
404.645	101.31
404.869	82.31
405.093	78.31
405.317	96.31
405.541	100.31
405.765	92.31
405.988	93.31
406.212	108.31
406.436	104.31
406.66	96.31
406.883	84.31
407.107	95.31
407.331	87.31
407.555	94.31
407.778	82.31
408.002	98.31
408.226	78.31
408.449	96.31
408.673	100.31
408.896	86.31
409.12	94.31
409.344	101.31
409.567	87.31
409.791	88.31
410.014	99.31
410.238	92.31
410.461	78.31
410.685	95.31
410.908	98.31
411.132	85.31
411.355	108.31
411.578	88.31
411.802	95.31
412.025	95.31
412.249	92.31
412.472	95.31
412.695	111.31
412.919	86.31
413.142	106.31
413.365	89.31
413.589	89.31
413.812	97.31
414.035	100.31
414.258	105.31
414.482	99.31
414.705	92.31
414.928	101.31
415.151	95.31
415.374	91.31
415.597	98.31
415.821	102.31
416.044	110.31
416.267	113.31
416.49	108.31
416.713	93.31
416.936	111.31
417.159	92.31
417.382	97.31
417.605	101.31
417.828	104.31
418.051	103.31
418.274	111.31
418.497	97.31
418.72	99.31
418.943	116.31
419.166	103.31
419.389	97.31
419.611	100.31
419.834	93.31
420.057	89.31
420.28	110.31
420.503	108.31
420.726	105.31
420.948	103.31
421.171	90.31
421.394	98.31
421.617	121.31
421.839	107.31
422.062	121.31
422.285	108.31
422.507	105.31
422.73	103.31
422.953	99.31
423.175	106.31
423.398	104.31
423.621	98.31
423.843	97.31
424.066	110.31
424.288	111.31
424.511	127.31
424.733	104.31
424.956	117.31
425.178	96.31
425.401	118.31
425.623	96.31
425.846	109.31
426.068	94.31
426.291	101.31
426.513	106.31
426.735	99.31
426.958	113.31
427.18	111.31
427.402	107.31
427.625	103.31
427.847	113.31
428.069	95.31
428.292	106.31
428.514	101.31
428.736	96.31
428.958	97.31
429.181	100.31
429.403	97.31
429.625	77.31
429.847	96.31
430.069	103.31
430.292	115.31
430.514	93.31
430.736	101.31
430.958	106.31
431.18	97.31
431.402	122.31
431.624	106.31
431.846	84.31
432.068	98.31
432.29	88.31
432.512	98.31
432.734	89.31
432.956	106.31
433.178	101.31
433.4	103.31
433.622	113.31
433.844	107.31
434.066	98.31
434.287	98.31
434.509	84.31
434.731	95.31
434.953	88.31
435.175	87.31
435.397	97.31
435.618	100.31
435.84	96.31
436.062	99.31
436.284	91.31
436.505	100.31
436.727	106.31
436.949	101.31
437.17	93.31
437.392	93.31
437.614	95.31
437.835	89.31
438.057	101.31
438.278	95.31
438.5	91.31
438.721	112.31
438.943	112.31
439.165	109.31
439.386	100.31
439.608	104.31
439.829	93.31
440.05	95.31
440.272	114.31
440.493	103.31
440.715	117.31
440.936	109.31
441.158	118.31
441.379	111.31
441.6	121.31
441.822	118.31
442.043	112.31
442.264	124.31
442.486	107.31
442.707	104.31
442.928	109.31
443.149	105.31
443.371	118.31
443.592	100.31
443.813	106.31
444.034	111.31
444.255	119.31
444.476	104.31
444.698	119.31
444.919	112.31
445.14	217.31
445.361	157.31
445.582	121.31
445.803	116.31
446.024	120.31
446.245	105.31
446.466	105.31
446.687	105.31
446.908	115.31
447.129	101.31
447.35	107.31
447.571	115.31
447.792	115.31
448.013	106.31
448.234	98.31
448.455	101.31
448.675	111.31
448.896	106.31
449.117	109.31
449.338	100.31
449.559	112.31
449.779	108.31
450	107.31
450.221	102.31
450.442	93.31
450.662	92.31
450.883	114.31
451.104	102.31
451.324	119.31
451.545	98.31
451.766	106.31
451.986	94.31
452.207	101.31
452.428	97.31
452.648	104.31
452.869	100.31
453.089	98.31
453.31	86.31
453.53	91.31
453.751	86.31
453.971	92.31
454.192	98.31
454.412	100.31
454.633	79.31
454.853	112.31
455.073	105.31
455.294	90.31
455.514	96.31
455.734	119.31
455.955	101.31
456.175	99.31
456.395	86.31
456.616	104.31
456.836	97.31
457.056	109.31
457.276	91.31
457.497	88.31
457.717	105.31
457.937	101.31
458.157	94.31
458.377	99.31
458.598	75.31
458.818	79.31
459.038	85.31
459.258	87.31
459.478	75.31
459.698	83.31
459.918	76.31
460.138	88.31
460.358	97.31
460.578	93.31
460.798	99.31
461.018	99.31
461.238	104.31
461.458	106.31
461.678	106.31
461.898	89.31
462.118	86.31
462.338	103.31
462.558	106.31
462.777	88.31
462.997	108.31
463.217	87.31
463.437	89.31
463.657	102.31
463.876	76.31
464.096	94.31
464.316	93.31
464.536	94.31
464.755	97.31
464.975	93.31
465.195	90.31
465.414	93.31
465.634	90.31
465.854	98.31
466.073	85.31
466.293	91.31
466.512	95.31
466.732	92.31
466.951	93.31
467.171	94.31
467.391	101.31
467.61	104.31
467.829	112.31
468.049	122.31
468.268	106.31
468.488	106.31
468.707	112.31
468.927	113.31
469.146	118.31
469.365	103.31
469.585	121.31
469.804	103.31
470.023	102.31
470.243	121.31
470.462	115.31
470.681	115.31
470.901	126.31
471.12	116.31
471.339	87.31
471.558	90.31
471.777	113.31
471.997	111.31
472.216	119.31
472.435	102.31
472.654	97.31
472.873	95.31
473.092	101.31
473.311	95.31
473.53	107.31
473.749	99.31
473.968	111.31
474.187	97.31
474.406	99.31
474.625	96.31
474.844	100.31
475.063	115.31
475.282	103.31
475.501	99.31
475.72	96.31
475.939	91.31
476.158	87.31
476.377	110.31
476.596	96.31
476.814	88.31
477.033	89.31
477.252	99.31
477.471	103.31
477.69	98.31
477.908	117.31
478.127	108.31
478.346	103.31
478.564	102.31
478.783	108.31
479.002	100.31
479.22	100.31
479.439	113.31
479.658	110.31
479.876	100.31
480.095	100.31
480.313	97.31
480.532	99.31
480.751	112.31
480.969	82.31
481.188	81.31
481.406	90.31
481.624	86.31
481.843	75.31
482.061	93.31
482.28	97.31
482.498	97.31
482.717	97.31
482.935	99.31
483.153	108.31
483.372	114.31
483.59	126.31
483.808	95.31
484.027	99.31
484.245	106.31
484.463	115.31
484.681	124.31
484.9	116.31
485.118	114.31
485.336	114.31
485.554	92.31
485.772	87.31
485.99	82.31
486.209	116.31
486.427	96.31
486.645	106.31
486.863	109.31
487.081	104.31
487.299	108.31
487.517	113.31
487.735	103.31
487.953	129.31
488.171	131.31
488.389	136.31
488.607	129.31
488.825	123.31
489.043	122.31
489.261	121.31
489.479	87.31
489.696	104.31
489.914	105.31
490.132	114.31
490.35	115.31
490.568	114.31
490.786	129.31
491.003	127.31
491.221	111.31
491.439	137.31
491.657	135.31
491.874	140.31
492.092	161.31
492.31	160.31
492.527	151.31
492.745	138.31
492.963	140.31
493.18	142.31
493.398	139.31
493.615	125.31
493.833	133.31
494.05	127.31
494.268	129.31
494.485	125.31
494.703	121.31
494.92	133.31
495.138	127.31
495.355	125.31
495.573	127.31
495.79	121.31
496.008	131.31
496.225	138.31
496.442	125.31
496.66	130.31
496.877	130.31
497.094	122.31
497.312	117.31
497.529	99.31
497.746	120.31
497.963	119.31
498.181	108.31
498.398	103.31
498.615	118.31
498.832	103.31
499.049	91.31
499.267	93.31
499.484	107.31
499.701	113.31
499.918	119.31
500.135	118.31
500.352	111.31
500.569	114.31
500.786	113.31
501.003	118.31
501.22	115.31
501.437	120.31
501.654	119.31
501.871	107.31
502.088	113.31
502.305	104.31
502.522	116.31
502.739	106.31
502.956	107.31
503.172	104.31
503.389	98.31
503.606	104.31
503.823	106.31
504.04	107.31
504.256	100.31
504.473	98.31
504.69	101.31
504.907	106.31
505.123	107.31
505.34	99.31
505.557	96.31
505.773	116.31
505.99	98.31
506.207	103.31
506.423	108.31
506.64	112.31
506.856	93.31
507.073	101.31
507.289	90.31
507.506	98.31
507.722	87.31
507.939	91.31
508.155	91.31
508.372	99.31
508.588	100.31
508.805	96.31
509.021	107.31
509.238	95.31
509.454	85.31
509.67	95.31
509.887	80.31
510.103	91.31
510.319	97.31
510.536	79.31
510.752	80.31
510.968	79.31
511.184	76.31
511.401	77.31
511.617	84.31
511.833	89.31
512.049	81.31
512.265	94.31
512.481	94.31
512.698	81.31
512.914	99.31
513.13	95.31
513.346	89.31
513.562	90.31
513.778	84.31
513.994	89.31
514.21	88.31
514.426	83.31
514.642	94.31
514.858	91.31
515.074	85.31
