Data from Zn(NO3)2Standard.Agarose3%.GreenCap.LampEnergy10E.O_HRD10591_15-06-49-942.txt Node
Date: Mon Jul 22 15:06:49 EDT 2019
User: cochatt
Spectrometer: HR+D1059
Trigger mode: 1
Integration Time (sec): 1.000000E-1
Scans to average: 1
Electric dark correction enabled: true
Nonlinearity correction enabled: false
Boxcar width: 0
XAxis mode: Wavelengths
Number of Pixels in Spectrum: 2048
>>>>>Begin Spectral Data<<<<<
223.165	-26.94
223.4	-26.94
223.635	-26.94
223.869	-17.94
224.104	-11.94
224.338	-8.94
224.573	-7.94
224.808	-1.94
225.042	1.06
225.277	-10.94
225.511	3.06
225.746	-4.94
225.98	-2.94
226.215	18.06
226.449	11.06
226.683	14.06
226.918	17.06
227.152	30.06
227.387	34.06
227.621	37.06
227.856	49.06
228.09	44.06
228.324	46.06
228.559	39.06
228.793	46.06
229.027	56.06
229.262	59.06
229.496	74.06
229.73	83.06
229.964	50.06
230.199	74.06
230.433	77.06
230.667	81.06
230.901	74.06
231.136	82.06
231.37	82.06
231.604	79.06
231.838	83.06
232.072	83.06
232.306	81.06
232.541	75.06
232.775	59.06
233.009	64.06
233.243	84.06
233.477	80.06
233.711	76.06
233.945	91.06
234.179	88.06
234.413	88.06
234.647	85.06
234.881	103.06
235.115	71.06
235.349	70.06
235.583	77.06
235.817	89.06
236.051	89.06
236.285	74.06
236.519	85.06
236.753	84.06
236.987	71.06
237.221	71.06
237.455	89.06
237.689	87.06
237.922	79.06
238.156	77.06
238.39	74.06
238.624	85.06
238.858	84.06
239.091	77.06
239.325	66.06
239.559	83.06
239.793	68.06
240.027	75.06
240.26	67.06
240.494	76.06
240.728	75.06
240.961	75.06
241.195	71.06
241.429	67.06
241.662	59.06
241.896	78.06
242.13	70.06
242.363	71.06
242.597	74.06
242.83	77.06
243.064	81.06
243.298	75.06
243.531	89.06
243.765	91.06
243.998	80.06
244.232	74.06
244.465	82.06
244.699	88.06
244.932	81.06
245.166	69.06
245.399	89.06
245.633	86.06
245.866	80.06
246.099	74.06
246.333	69.06
246.566	76.06
246.8	84.06
247.033	77.06
247.266	75.06
247.5	81.06
247.733	85.06
247.966	83.06
248.2	74.06
248.433	75.06
248.666	70.06
248.899	82.06
249.133	80.06
249.366	82.06
249.599	90.06
249.832	88.06
250.066	82.06
250.299	82.06
250.532	73.06
250.765	83.06
250.998	82.06
251.231	78.06
251.465	86.06
251.698	75.06
251.931	72.06
252.164	68.06
252.397	59.06
252.63	88.06
252.863	75.06
253.096	82.06
253.329	84.06
253.562	72.06
253.795	81.06
254.028	90.06
254.261	73.06
254.494	78.06
254.727	77.06
254.96	75.06
255.193	82.06
255.426	77.06
255.659	75.06
255.892	78.06
256.124	77.06
256.357	74.06
256.59	83.06
256.823	88.06
257.056	83.06
257.289	71.06
257.521	80.06
257.754	71.06
257.987	81.06
258.22	82.06
258.452	71.06
258.685	72.06
258.918	86.06
259.151	89.06
259.383	71.06
259.616	83.06
259.849	91.06
260.081	79.06
260.314	87.06
260.547	92.06
260.779	60.06
261.012	59.06
261.244	76.06
261.477	88.06
261.71	80.06
261.942	85.06
262.175	76.06
262.407	80.06
262.64	81.06
262.872	71.06
263.105	69.06
263.337	90.06
263.57	69.06
263.802	84.06
264.035	83.06
264.267	70.06
264.499	73.06
264.732	77.06
264.964	90.06
265.197	60.06
265.429	70.06
265.661	89.06
265.894	73.06
266.126	77.06
266.358	86.06
266.591	82.06
266.823	80.06
267.055	85.06
267.287	67.06
267.52	88.06
267.752	78.06
267.984	99.06
268.216	74.06
268.448	84.06
268.681	83.06
268.913	90.06
269.145	86.06
269.377	68.06
269.609	86.06
269.841	83.06
270.073	95.06
270.306	92.06
270.538	85.06
270.77	87.06
271.002	89.06
271.234	104.06
271.466	82.06
271.698	74.06
271.93	80.06
272.162	80.06
272.394	80.06
272.626	99.06
272.858	87.06
273.09	86.06
273.322	90.06
273.553	83.06
273.785	85.06
274.017	73.06
274.249	79.06
274.481	84.06
274.713	83.06
274.945	82.06
275.176	79.06
275.408	87.06
275.64	83.06
275.872	77.06
276.104	83.06
276.335	84.06
276.567	72.06
276.799	85.06
277.031	86.06
277.262	86.06
277.494	87.06
277.726	77.06
277.957	85.06
278.189	76.06
278.421	80.06
278.652	86.06
278.884	90.06
279.115	82.06
279.347	82.06
279.579	78.06
279.81	95.06
280.042	83.06
280.273	81.06
280.505	91.06
280.736	88.06
280.968	84.06
281.199	83.06
281.431	80.06
281.662	86.06
281.894	83.06
282.125	80.06
282.356	89.06
282.588	76.06
282.819	92.06
283.051	73.06
283.282	82.06
283.513	84.06
283.745	89.06
283.976	89.06
284.207	86.06
284.439	76.06
284.67	80.06
284.901	72.06
285.132	95.06
285.364	71.06
285.595	90.06
285.826	80.06
286.057	68.06
286.288	63.06
286.52	86.06
286.751	74.06
286.982	84.06
287.213	84.06
287.444	86.06
287.675	85.06
287.906	85.06
288.138	79.06
288.369	72.06
288.6	78.06
288.831	84.06
289.062	69.06
289.293	89.06
289.524	76.06
289.755	87.06
289.986	105.06
290.217	79.06
290.448	77.06
290.679	77.06
290.91	95.06
291.141	84.06
291.371	85.06
291.602	79.06
291.833	95.06
292.064	84.06
292.295	84.06
292.526	86.06
292.757	83.06
292.987	84.06
293.218	69.06
293.449	78.06
293.68	78.06
293.91	70.06
294.141	91.06
294.372	74.06
294.603	91.06
294.833	82.06
295.064	76.06
295.295	80.06
295.525	81.06
295.756	75.06
295.987	76.06
296.217	76.06
296.448	88.06
296.679	78.06
296.909	97.06
297.14	92.06
297.37	99.06
297.601	94.06
297.831	80.06
298.062	90.06
298.292	79.06
298.523	82.06
298.753	84.06
298.984	101.06
299.214	87.06
299.445	92.06
299.675	82.06
299.905	97.06
300.136	81.06
300.366	64.06
300.597	87.06
300.827	82.06
301.057	79.06
301.288	82.06
301.518	86.06
301.748	81.06
301.979	93.06
302.209	85.06
302.439	81.06
302.669	78.06
302.9	88.06
303.13	84.06
303.36	97.06
303.59	95.06
303.82	75.06
304.051	76.06
304.281	59.06
304.511	79.06
304.741	76.06
304.971	86.06
305.201	83.06
305.431	89.06
305.661	78.06
305.891	70.06
306.121	78.06
306.352	89.06
306.582	92.06
306.812	90.06
307.042	79.06
307.272	85.06
307.502	81.06
307.731	88.06
307.961	96.06
308.191	84.06
308.421	92.06
308.651	82.06
308.881	91.06
309.111	81.06
309.341	88.06
309.571	87.06
309.8	84.06
310.03	91.06
310.26	88.06
310.49	87.06
310.72	82.06
310.949	76.06
311.179	78.06
311.409	94.06
311.639	87.06
311.868	71.06
312.098	88.06
312.328	89.06
312.557	75.06
312.787	84.06
313.017	73.06
313.246	81.06
313.476	94.06
313.706	76.06
313.935	84.06
314.165	84.06
314.394	84.06
314.624	85.06
314.853	99.06
315.083	83.06
315.312	89.06
315.542	81.06
315.771	80.06
316.001	88.06
316.23	75.06
316.46	85.06
316.689	77.06
316.919	91.06
317.148	84.06
317.377	88.06
317.607	89.06
317.836	91.06
318.065	97.06
318.295	71.06
318.524	76.06
318.753	81.06
318.983	102.06
319.212	91.06
319.441	86.06
319.67	78.06
319.9	89.06
320.129	82.06
320.358	82.06
320.587	86.06
320.816	62.06
321.046	82.06
321.275	100.06
321.504	91.06
321.733	86.06
321.962	97.06
322.191	86.06
322.42	71.06
322.649	78.06
322.878	80.06
323.108	81.06
323.337	96.06
323.566	90.06
323.795	88.06
324.024	97.06
324.253	98.06
324.482	76.06
324.71	87.06
324.939	79.06
325.168	89.06
325.397	88.06
325.626	97.06
325.855	86.06
326.084	85.06
326.313	84.06
326.542	90.06
326.77	86.06
326.999	65.06
327.228	80.06
327.457	84.06
327.686	76.06
327.914	81.06
328.143	88.06
328.372	78.06
328.6	75.06
328.829	85.06
329.058	78.06
329.287	88.06
329.515	95.06
329.744	103.06
329.972	85.06
330.201	84.06
330.43	84.06
330.658	83.06
330.887	83.06
331.115	84.06
331.344	72.06
331.572	80.06
331.801	97.06
332.03	83.06
332.258	87.06
332.486	75.06
332.715	72.06
332.943	78.06
333.172	72.06
333.4	92.06
333.629	85.06
333.857	85.06
334.085	90.06
334.314	72.06
334.542	76.06
334.771	64.06
334.999	82.06
335.227	80.06
335.455	89.06
335.684	82.06
335.912	82.06
336.14	87.06
336.369	99.06
336.597	85.06
336.825	93.06
337.053	89.06
337.281	70.06
337.51	78.06
337.738	85.06
337.966	95.06
338.194	89.06
338.422	87.06
338.65	93.06
338.878	92.06
339.106	92.06
339.334	80.06
339.562	87.06
339.79	86.06
340.018	94.06
340.246	83.06
340.474	79.06
340.702	84.06
340.93	82.06
341.158	84.06
341.386	73.06
341.614	82.06
341.842	85.06
342.07	93.06
342.298	82.06
342.526	91.06
342.754	87.06
342.981	87.06
343.209	81.06
343.437	90.06
343.665	93.06
343.893	96.06
344.12	90.06
344.348	90.06
344.576	78.06
344.804	70.06
345.031	84.06
345.259	85.06
345.487	88.06
345.714	87.06
345.942	76.06
346.17	91.06
346.397	84.06
346.625	77.06
346.853	71.06
347.08	87.06
347.308	72.06
347.535	74.06
347.763	78.06
347.99	87.06
348.218	92.06
348.445	88.06
348.673	92.06
348.9	84.06
349.128	87.06
349.355	70.06
349.583	88.06
349.81	82.06
350.037	82.06
350.265	91.06
350.492	83.06
350.72	69.06
350.947	82.06
351.174	76.06
351.402	77.06
351.629	86.06
351.856	86.06
352.083	86.06
352.311	77.06
352.538	79.06
352.765	82.06
352.992	95.06
353.22	83.06
353.447	83.06
353.674	87.06
353.901	62.06
354.128	96.06
354.355	62.06
354.583	88.06
354.81	82.06
355.037	96.06
355.264	73.06
355.491	81.06
355.718	84.06
355.945	86.06
356.172	87.06
356.399	86.06
356.626	80.06
356.853	84.06
357.08	89.06
357.307	85.06
357.534	84.06
357.761	87.06
357.988	85.06
358.215	84.06
358.441	92.06
358.668	76.06
358.895	83.06
359.122	77.06
359.349	73.06
359.576	84.06
359.802	87.06
360.029	85.06
360.256	71.06
360.483	89.06
360.709	86.06
360.936	72.06
361.163	78.06
361.39	85.06
361.616	78.06
361.843	85.06
362.07	77.06
362.296	76.06
362.523	82.06
362.749	76.06
362.976	86.06
363.203	91.06
363.429	91.06
363.656	80.06
363.882	72.06
364.109	75.06
364.335	84.06
364.562	82.06
364.788	84.06
365.015	89.06
365.241	87.06
365.468	74.06
365.694	84.06
365.92	86.06
366.147	84.06
366.373	76.06
366.599	71.06
366.826	88.06
367.052	87.06
367.278	85.06
367.505	93.06
367.731	95.06
367.957	88.06
368.184	78.06
368.41	94.06
368.636	84.06
368.862	76.06
369.089	78.06
369.315	80.06
369.541	91.06
369.767	89.06
369.993	101.06
370.219	91.06
370.445	87.06
370.672	81.06
370.898	82.06
371.124	78.06
371.35	75.06
371.576	90.06
371.802	82.06
372.028	70.06
372.254	94.06
372.48	94.06
372.706	83.06
372.932	86.06
373.158	96.06
373.384	80.06
373.61	96.06
373.835	72.06
374.061	87.06
374.287	92.06
374.513	81.06
374.739	80.06
374.965	84.06
375.191	91.06
375.416	87.06
375.642	84.06
375.868	90.06
376.094	91.06
376.319	83.06
376.545	91.06
376.771	82.06
376.997	77.06
377.222	82.06
377.448	82.06
377.674	76.06
377.899	63.06
378.125	85.06
378.35	96.06
378.576	88.06
378.802	84.06
379.027	90.06
379.253	83.06
379.478	94.06
379.704	72.06
379.929	91.06
380.155	85.06
380.38	90.06
380.606	66.06
380.831	88.06
381.057	90.06
381.282	84.06
381.507	84.06
381.733	86.06
381.958	96.06
382.184	94.06
382.409	92.06
382.634	90.06
382.86	89.06
383.085	93.06
383.31	74.06
383.535	92.06
383.761	82.06
383.986	84.06
384.211	86.06
384.436	93.06
384.662	97.06
384.887	97.06
385.112	81.06
385.337	88.06
385.562	88.06
385.787	81.06
386.013	92.06
386.238	94.06
386.463	87.06
386.688	83.06
386.913	80.06
387.138	100.06
387.363	85.06
387.588	94.06
387.813	83.06
388.038	86.06
388.263	91.06
388.488	95.06
388.713	85.06
388.938	72.06
389.163	96.06
389.387	81.06
389.612	92.06
389.837	99.06
390.062	96.06
390.287	85.06
390.512	87.06
390.736	90.06
390.961	87.06
391.186	86.06
391.411	91.06
391.636	80.06
391.86	94.06
392.085	92.06
392.31	101.06
392.534	95.06
392.759	74.06
392.984	78.06
393.208	73.06
393.433	98.06
393.658	107.06
393.882	92.06
394.107	88.06
394.331	105.06
394.556	99.06
394.78	80.06
395.005	85.06
395.229	88.06
395.454	78.06
395.678	74.06
395.903	81.06
396.127	89.06
396.352	93.06
396.576	108.06
396.801	99.06
397.025	90.06
397.249	107.06
397.474	87.06
397.698	82.06
397.922	89.06
398.147	91.06
398.371	82.06
398.595	84.06
398.82	86.06
399.044	91.06
399.268	93.06
399.492	90.06
399.717	105.06
399.941	89.06
400.165	93.06
400.389	87.06
400.613	100.06
400.837	95.06
401.062	90.06
401.286	90.06
401.51	87.06
401.734	88.06
401.958	106.06
402.182	83.06
402.406	90.06
402.63	90.06
402.854	96.06
403.078	86.06
403.302	91.06
403.526	84.06
403.75	85.06
403.974	96.06
404.198	92.06
404.422	87.06
404.645	86.06
404.869	91.06
405.093	93.06
405.317	95.06
405.541	97.06
405.765	82.06
405.988	100.06
406.212	105.06
406.436	107.06
406.66	87.06
406.883	93.06
407.107	85.06
407.331	98.06
407.555	97.06
407.778	100.06
408.002	100.06
408.226	98.06
408.449	96.06
408.673	95.06
408.896	105.06
409.12	102.06
409.344	105.06
409.567	101.06
409.791	90.06
410.014	106.06
410.238	88.06
410.461	92.06
410.685	99.06
410.908	104.06
411.132	97.06
411.355	99.06
411.578	112.06
411.802	99.06
412.025	90.06
412.249	87.06
412.472	92.06
412.695	93.06
412.919	113.06
413.142	94.06
413.365	78.06
413.589	101.06
413.812	98.06
414.035	83.06
414.258	109.06
414.482	100.06
414.705	107.06
414.928	105.06
415.151	112.06
415.374	114.06
415.597	94.06
415.821	103.06
416.044	114.06
416.267	98.06
416.49	102.06
416.713	102.06
416.936	94.06
417.159	102.06
417.382	86.06
417.605	100.06
417.828	106.06
418.051	102.06
418.274	109.06
418.497	101.06
418.72	90.06
418.943	96.06
419.166	107.06
419.389	100.06
419.611	96.06
419.834	95.06
420.057	103.06
420.28	118.06
420.503	112.06
420.726	104.06
420.948	107.06
421.171	99.06
421.394	116.06
421.617	99.06
421.839	99.06
422.062	104.06
422.285	106.06
422.507	122.06
422.73	109.06
422.953	116.06
423.175	91.06
423.398	105.06
423.621	94.06
423.843	106.06
424.066	98.06
424.288	104.06
424.511	97.06
424.733	118.06
424.956	103.06
425.178	107.06
425.401	108.06
425.623	112.06
425.846	102.06
426.068	110.06
426.291	104.06
426.513	112.06
426.735	103.06
426.958	106.06
427.18	109.06
427.402	103.06
427.625	86.06
427.847	90.06
428.069	103.06
428.292	101.06
428.514	105.06
428.736	101.06
428.958	89.06
429.181	97.06
429.403	108.06
429.625	107.06
429.847	100.06
430.069	90.06
430.292	108.06
430.514	83.06
430.736	91.06
430.958	106.06
431.18	104.06
431.402	97.06
431.624	96.06
431.846	84.06
432.068	78.06
432.29	73.06
432.512	104.06
432.734	107.06
432.956	110.06
433.178	96.06
433.4	116.06
433.622	112.06
433.844	96.06
434.066	96.06
434.287	93.06
434.509	85.06
434.731	88.06
434.953	95.06
435.175	100.06
435.397	95.06
435.618	104.06
435.84	111.06
436.062	99.06
436.284	114.06
436.505	110.06
436.727	112.06
436.949	108.06
437.17	103.06
437.392	110.06
437.614	102.06
437.835	99.06
438.057	90.06
438.278	82.06
438.5	77.06
438.721	93.06
438.943	115.06
439.165	97.06
439.386	104.06
439.608	126.06
439.829	120.06
440.05	112.06
440.272	101.06
440.493	115.06
440.715	96.06
440.936	100.06
441.158	102.06
441.379	100.06
441.6	106.06
441.822	115.06
442.043	103.06
442.264	97.06
442.486	100.06
442.707	105.06
442.928	100.06
443.149	109.06
443.371	101.06
443.592	107.06
443.813	115.06
444.034	91.06
444.255	116.06
444.476	124.06
444.698	92.06
444.919	113.06
445.14	225.06
445.361	157.06
445.582	108.06
445.803	96.06
446.024	102.06
446.245	109.06
446.466	115.06
446.687	114.06
446.908	117.06
447.129	113.06
447.35	113.06
447.571	107.06
447.792	96.06
448.013	107.06
448.234	117.06
448.455	118.06
448.675	112.06
448.896	96.06
449.117	91.06
449.338	104.06
449.559	105.06
449.779	109.06
450	99.06
450.221	100.06
450.442	108.06
450.662	103.06
450.883	109.06
451.104	109.06
451.324	109.06
451.545	104.06
451.766	112.06
451.986	91.06
452.207	101.06
452.428	101.06
452.648	104.06
452.869	95.06
453.089	97.06
453.31	99.06
453.53	84.06
453.751	90.06
453.971	100.06
454.192	115.06
454.412	88.06
454.633	102.06
454.853	86.06
455.073	103.06
455.294	89.06
455.514	116.06
455.734	106.06
455.955	96.06
456.175	80.06
456.395	97.06
456.616	104.06
456.836	103.06
457.056	93.06
457.276	94.06
457.497	97.06
457.717	94.06
457.937	106.06
458.157	92.06
458.377	96.06
458.598	96.06
458.818	85.06
459.038	77.06
459.258	81.06
459.478	84.06
459.698	81.06
459.918	94.06
460.138	90.06
460.358	103.06
460.578	88.06
460.798	84.06
461.018	102.06
461.238	95.06
461.458	101.06
461.678	105.06
461.898	101.06
462.118	86.06
462.338	96.06
462.558	92.06
462.777	91.06
462.997	102.06
463.217	101.06
463.437	95.06
463.657	102.06
463.876	100.06
464.096	100.06
464.316	99.06
464.536	100.06
464.755	87.06
464.975	87.06
465.195	100.06
465.414	89.06
465.634	101.06
465.854	87.06
466.073	103.06
466.293	101.06
466.512	111.06
466.732	98.06
466.951	111.06
467.171	106.06
467.391	104.06
467.61	105.06
467.829	100.06
468.049	99.06
468.268	103.06
468.488	114.06
468.707	94.06
468.927	108.06
469.146	108.06
469.365	105.06
469.585	113.06
469.804	108.06
470.023	107.06
470.243	102.06
470.462	112.06
470.681	104.06
470.901	99.06
471.12	93.06
471.339	116.06
471.558	104.06
471.777	100.06
471.997	122.06
472.216	105.06
472.435	102.06
472.654	103.06
472.873	92.06
473.092	98.06
473.311	99.06
473.53	101.06
473.749	105.06
473.968	93.06
474.187	108.06
474.406	107.06
474.625	125.06
474.844	116.06
475.063	102.06
475.282	97.06
475.501	98.06
475.72	85.06
475.939	103.06
476.158	101.06
476.377	122.06
476.596	96.06
476.814	90.06
477.033	95.06
477.252	90.06
477.471	93.06
477.69	103.06
477.908	101.06
478.127	88.06
478.346	109.06
478.564	103.06
478.783	114.06
479.002	109.06
479.22	93.06
479.439	114.06
479.658	108.06
479.876	106.06
480.095	104.06
480.313	98.06
480.532	98.06
480.751	101.06
480.969	86.06
481.188	97.06
481.406	87.06
481.624	85.06
481.843	92.06
482.061	88.06
482.28	101.06
482.498	96.06
482.717	85.06
482.935	101.06
483.153	104.06
483.372	121.06
483.59	109.06
483.808	96.06
484.027	97.06
484.245	106.06
484.463	109.06
484.681	116.06
484.9	102.06
485.118	105.06
485.336	102.06
485.554	105.06
485.772	86.06
485.99	107.06
486.209	81.06
486.427	97.06
486.645	115.06
486.863	103.06
487.081	104.06
487.299	103.06
487.517	91.06
487.735	123.06
487.953	138.06
488.171	107.06
488.389	124.06
488.607	118.06
488.825	94.06
489.043	89.06
489.261	101.06
489.479	92.06
489.696	109.06
489.914	120.06
490.132	112.06
490.35	133.06
490.568	120.06
490.786	125.06
491.003	110.06
491.221	124.06
491.439	122.06
491.657	134.06
491.874	125.06
492.092	146.06
492.31	156.06
492.527	143.06
492.745	132.06
492.963	132.06
493.18	137.06
493.398	130.06
493.615	110.06
493.833	120.06
494.05	127.06
494.268	128.06
494.485	115.06
494.703	133.06
494.92	131.06
495.138	103.06
495.355	124.06
495.573	130.06
495.79	117.06
496.008	111.06
496.225	131.06
496.442	121.06
496.66	117.06
496.877	124.06
497.094	124.06
497.312	123.06
497.529	109.06
497.746	108.06
497.963	118.06
498.181	106.06
498.398	99.06
498.615	91.06
498.832	90.06
499.049	112.06
499.267	102.06
499.484	109.06
499.701	100.06
499.918	120.06
500.135	111.06
500.352	114.06
500.569	120.06
500.786	104.06
501.003	113.06
501.22	117.06
501.437	119.06
501.654	125.06
501.871	118.06
502.088	119.06
502.305	108.06
502.522	96.06
502.739	106.06
502.956	92.06
503.172	103.06
503.389	93.06
503.606	92.06
503.823	90.06
504.04	113.06
504.256	94.06
504.473	93.06
504.69	89.06
504.907	107.06
505.123	89.06
505.34	100.06
505.557	100.06
505.773	104.06
505.99	92.06
506.207	104.06
506.423	90.06
506.64	105.06
506.856	92.06
507.073	99.06
507.289	86.06
507.506	98.06
507.722	101.06
507.939	87.06
508.155	94.06
508.372	95.06
508.588	98.06
508.805	92.06
509.021	99.06
509.238	88.06
509.454	88.06
509.67	87.06
509.887	88.06
510.103	83.06
510.319	96.06
510.536	86.06
510.752	75.06
510.968	81.06
511.184	84.06
511.401	80.06
511.617	89.06
511.833	77.06
512.049	79.06
512.265	94.06
512.481	92.06
512.698	85.06
512.914	80.06
513.13	82.06
513.346	85.06
513.562	97.06
513.778	89.06
513.994	91.06
514.21	87.06
514.426	100.06
514.642	91.06
514.858	89.06
515.074	93.06
