Data from Zn(NO3)2Standard.Agarose3%.GreenCap.LampEnergy5.5.E.O_HRD10591_15-02-20-768.txt Node
Date: Mon Jul 22 15:02:20 EDT 2019
User: cochatt
Spectrometer: HR+D1059
Trigger mode: 1
Integration Time (sec): 1.000000E-1
Scans to average: 1
Electric dark correction enabled: true
Nonlinearity correction enabled: false
Boxcar width: 0
XAxis mode: Wavelengths
Number of Pixels in Spectrum: 2048
>>>>>Begin Spectral Data<<<<<
223.165	-23.38
223.4	-23.38
223.635	-23.38
223.869	-8.38
224.104	-18.38
224.338	-12.38
224.573	-17.38
224.808	-0.38
225.042	-4.38
225.277	-8.38
225.511	-6.38
225.746	4.62
225.98	6.62
226.215	15.62
226.449	-2.38
226.683	20.62
226.918	14.62
227.152	39.62
227.387	45.62
227.621	47.62
227.856	44.62
228.09	59.62
228.324	52.62
228.559	62.62
228.793	56.62
229.027	72.62
229.262	86.62
229.496	70.62
229.73	72.62
229.964	75.62
230.199	71.62
230.433	78.62
230.667	79.62
230.901	77.62
231.136	80.62
231.37	87.62
231.604	74.62
231.838	83.62
232.072	86.62
232.306	81.62
232.541	81.62
232.775	91.62
233.009	80.62
233.243	88.62
233.477	95.62
233.711	101.62
233.945	91.62
234.179	88.62
234.413	94.62
234.647	84.62
234.881	77.62
235.115	80.62
235.349	79.62
235.583	90.62
235.817	87.62
236.051	97.62
236.285	84.62
236.519	95.62
236.753	74.62
236.987	86.62
237.221	78.62
237.455	77.62
237.689	82.62
237.922	77.62
238.156	76.62
238.39	82.62
238.624	78.62
238.858	88.62
239.091	93.62
239.325	75.62
239.559	82.62
239.793	63.62
240.027	84.62
240.26	69.62
240.494	79.62
240.728	80.62
240.961	64.62
241.195	90.62
241.429	95.62
241.662	73.62
241.896	84.62
242.13	79.62
242.363	77.62
242.597	92.62
242.83	85.62
243.064	75.62
243.298	74.62
243.531	82.62
243.765	79.62
243.998	74.62
244.232	82.62
244.465	77.62
244.699	81.62
244.932	84.62
245.166	71.62
245.399	79.62
245.633	77.62
245.866	87.62
246.099	79.62
246.333	81.62
246.566	88.62
246.8	82.62
247.033	71.62
247.266	78.62
247.5	89.62
247.733	80.62
247.966	87.62
248.2	88.62
248.433	93.62
248.666	86.62
248.899	88.62
249.133	85.62
249.366	81.62
249.599	73.62
249.832	66.62
250.066	81.62
250.299	75.62
250.532	89.62
250.765	90.62
250.998	80.62
251.231	78.62
251.465	75.62
251.698	80.62
251.931	81.62
252.164	88.62
252.397	84.62
252.63	87.62
252.863	88.62
253.096	72.62
253.329	98.62
253.562	104.62
253.795	84.62
254.028	85.62
254.261	78.62
254.494	87.62
254.727	82.62
254.96	78.62
255.193	79.62
255.426	84.62
255.659	85.62
255.892	86.62
256.124	87.62
256.357	78.62
256.59	82.62
256.823	85.62
257.056	76.62
257.289	83.62
257.521	93.62
257.754	92.62
257.987	78.62
258.22	70.62
258.452	88.62
258.685	96.62
258.918	81.62
259.151	91.62
259.383	83.62
259.616	84.62
259.849	92.62
260.081	79.62
260.314	72.62
260.547	69.62
260.779	74.62
261.012	79.62
261.244	81.62
261.477	84.62
261.71	90.62
261.942	89.62
262.175	90.62
262.407	80.62
262.64	83.62
262.872	91.62
263.105	93.62
263.337	79.62
263.57	80.62
263.802	88.62
264.035	83.62
264.267	67.62
264.499	78.62
264.732	94.62
264.964	85.62
265.197	82.62
265.429	88.62
265.661	80.62
265.894	91.62
266.126	76.62
266.358	92.62
266.591	88.62
266.823	75.62
267.055	100.62
267.287	92.62
267.52	84.62
267.752	74.62
267.984	73.62
268.216	78.62
268.448	90.62
268.681	80.62
268.913	85.62
269.145	81.62
269.377	92.62
269.609	87.62
269.841	78.62
270.073	77.62
270.306	98.62
270.538	81.62
270.77	84.62
271.002	92.62
271.234	86.62
271.466	91.62
271.698	85.62
271.93	72.62
272.162	75.62
272.394	86.62
272.626	86.62
272.858	80.62
273.09	91.62
273.322	92.62
273.553	100.62
273.785	84.62
274.017	84.62
274.249	88.62
274.481	102.62
274.713	82.62
274.945	82.62
275.176	87.62
275.408	81.62
275.64	83.62
275.872	87.62
276.104	81.62
276.335	88.62
276.567	86.62
276.799	86.62
277.031	83.62
277.262	92.62
277.494	81.62
277.726	80.62
277.957	68.62
278.189	75.62
278.421	89.62
278.652	84.62
278.884	85.62
279.115	85.62
279.347	84.62
279.579	87.62
279.81	79.62
280.042	89.62
280.273	74.62
280.505	81.62
280.736	86.62
280.968	80.62
281.199	86.62
281.431	98.62
281.662	82.62
281.894	86.62
282.125	79.62
282.356	96.62
282.588	88.62
282.819	100.62
283.051	77.62
283.282	83.62
283.513	91.62
283.745	83.62
283.976	87.62
284.207	93.62
284.439	82.62
284.67	71.62
284.901	92.62
285.132	97.62
285.364	76.62
285.595	85.62
285.826	81.62
286.057	94.62
286.288	94.62
286.52	96.62
286.751	84.62
286.982	89.62
287.213	93.62
287.444	97.62
287.675	93.62
287.906	89.62
288.138	87.62
288.369	90.62
288.6	85.62
288.831	87.62
289.062	80.62
289.293	79.62
289.524	72.62
289.755	87.62
289.986	96.62
290.217	79.62
290.448	69.62
290.679	74.62
290.91	67.62
291.141	98.62
291.371	87.62
291.602	85.62
291.833	87.62
292.064	84.62
292.295	81.62
292.526	79.62
292.757	89.62
292.987	93.62
293.218	98.62
293.449	86.62
293.68	87.62
293.91	81.62
294.141	78.62
294.372	82.62
294.603	91.62
294.833	99.62
295.064	85.62
295.295	66.62
295.525	99.62
295.756	84.62
295.987	93.62
296.217	83.62
296.448	77.62
296.679	98.62
296.909	85.62
297.14	87.62
297.37	82.62
297.601	78.62
297.831	82.62
298.062	102.62
298.292	75.62
298.523	81.62
298.753	80.62
298.984	78.62
299.214	104.62
299.445	93.62
299.675	88.62
299.905	80.62
300.136	86.62
300.366	75.62
300.597	77.62
300.827	87.62
301.057	78.62
301.288	94.62
301.518	93.62
301.748	83.62
301.979	85.62
302.209	74.62
302.439	92.62
302.669	90.62
302.9	89.62
303.13	89.62
303.36	85.62
303.59	93.62
303.82	85.62
304.051	74.62
304.281	96.62
304.511	80.62
304.741	76.62
304.971	91.62
305.201	98.62
305.431	87.62
305.661	85.62
305.891	81.62
306.121	106.62
306.352	79.62
306.582	74.62
306.812	73.62
307.042	79.62
307.272	95.62
307.502	97.62
307.731	87.62
307.961	82.62
308.191	80.62
308.421	88.62
308.651	89.62
308.881	102.62
309.111	87.62
309.341	93.62
309.571	89.62
309.8	87.62
310.03	97.62
310.26	103.62
310.49	92.62
310.72	92.62
310.949	74.62
311.179	72.62
311.409	91.62
311.639	76.62
311.868	85.62
312.098	94.62
312.328	87.62
312.557	73.62
312.787	85.62
313.017	82.62
313.246	92.62
313.476	92.62
313.706	80.62
313.935	89.62
314.165	77.62
314.394	82.62
314.624	93.62
314.853	74.62
315.083	70.62
315.312	88.62
315.542	74.62
315.771	82.62
316.001	75.62
316.23	87.62
316.46	89.62
316.689	80.62
316.919	82.62
317.148	87.62
317.377	79.62
317.607	79.62
317.836	94.62
318.065	78.62
318.295	87.62
318.524	91.62
318.753	77.62
318.983	74.62
319.212	100.62
319.441	92.62
319.67	80.62
319.9	86.62
320.129	99.62
320.358	86.62
320.587	94.62
320.816	99.62
321.046	90.62
321.275	87.62
321.504	90.62
321.733	89.62
321.962	83.62
322.191	83.62
322.42	103.62
322.649	92.62
322.878	80.62
323.108	84.62
323.337	78.62
323.566	83.62
323.795	89.62
324.024	81.62
324.253	94.62
324.482	80.62
324.71	79.62
324.939	80.62
325.168	75.62
325.397	80.62
325.626	75.62
325.855	98.62
326.084	94.62
326.313	85.62
326.542	88.62
326.77	78.62
326.999	98.62
327.228	88.62
327.457	96.62
327.686	88.62
327.914	94.62
328.143	91.62
328.372	92.62
328.6	80.62
328.829	79.62
329.058	71.62
329.287	81.62
329.515	88.62
329.744	101.62
329.972	91.62
330.201	81.62
330.43	73.62
330.658	90.62
330.887	84.62
331.115	89.62
331.344	96.62
331.572	103.62
331.801	100.62
332.03	89.62
332.258	80.62
332.486	74.62
332.715	82.62
332.943	86.62
333.172	89.62
333.4	87.62
333.629	87.62
333.857	93.62
334.085	95.62
334.314	84.62
334.542	89.62
334.771	79.62
334.999	87.62
335.227	79.62
335.455	92.62
335.684	94.62
335.912	107.62
336.14	98.62
336.369	87.62
336.597	94.62
336.825	91.62
337.053	95.62
337.281	82.62
337.51	77.62
337.738	88.62
337.966	79.62
338.194	97.62
338.422	80.62
338.65	88.62
338.878	85.62
339.106	72.62
339.334	80.62
339.562	85.62
339.79	96.62
340.018	77.62
340.246	89.62
340.474	87.62
340.702	84.62
340.93	87.62
341.158	92.62
341.386	95.62
341.614	87.62
341.842	84.62
342.07	65.62
342.298	85.62
342.526	92.62
342.754	78.62
342.981	79.62
343.209	84.62
343.437	77.62
343.665	88.62
343.893	99.62
344.12	75.62
344.348	89.62
344.576	83.62
344.804	85.62
345.031	79.62
345.259	87.62
345.487	75.62
345.714	85.62
345.942	87.62
346.17	76.62
346.397	82.62
346.625	88.62
346.853	91.62
347.08	86.62
347.308	71.62
347.535	86.62
347.763	85.62
347.99	77.62
348.218	86.62
348.445	87.62
348.673	101.62
348.9	78.62
349.128	82.62
349.355	82.62
349.583	89.62
349.81	80.62
350.037	70.62
350.265	82.62
350.492	91.62
350.72	92.62
350.947	88.62
351.174	76.62
351.402	84.62
351.629	91.62
351.856	76.62
352.083	101.62
352.311	91.62
352.538	78.62
352.765	92.62
352.992	96.62
353.22	88.62
353.447	84.62
353.674	89.62
353.901	89.62
354.128	99.62
354.355	89.62
354.583	87.62
354.81	87.62
355.037	85.62
355.264	82.62
355.491	81.62
355.718	85.62
355.945	92.62
356.172	86.62
356.399	95.62
356.626	77.62
356.853	78.62
357.08	93.62
357.307	79.62
357.534	90.62
357.761	84.62
357.988	66.62
358.215	94.62
358.441	79.62
358.668	88.62
358.895	86.62
359.122	96.62
359.349	80.62
359.576	86.62
359.802	79.62
360.029	78.62
360.256	95.62
360.483	93.62
360.709	84.62
360.936	104.62
361.163	78.62
361.39	77.62
361.616	86.62
361.843	89.62
362.07	78.62
362.296	82.62
362.523	89.62
362.749	87.62
362.976	81.62
363.203	101.62
363.429	79.62
363.656	103.62
363.882	80.62
364.109	89.62
364.335	75.62
364.562	77.62
364.788	79.62
365.015	87.62
365.241	95.62
365.468	92.62
365.694	90.62
365.92	88.62
366.147	89.62
366.373	87.62
366.599	97.62
366.826	77.62
367.052	81.62
367.278	95.62
367.505	99.62
367.731	78.62
367.957	93.62
368.184	81.62
368.41	80.62
368.636	88.62
368.862	100.62
369.089	85.62
369.315	76.62
369.541	92.62
369.767	95.62
369.993	89.62
370.219	83.62
370.445	91.62
370.672	92.62
370.898	81.62
371.124	88.62
371.35	101.62
371.576	68.62
371.802	95.62
372.028	91.62
372.254	86.62
372.48	90.62
372.706	96.62
372.932	89.62
373.158	97.62
373.384	89.62
373.61	95.62
373.835	89.62
374.061	66.62
374.287	80.62
374.513	70.62
374.739	81.62
374.965	85.62
375.191	85.62
375.416	94.62
375.642	82.62
375.868	95.62
376.094	86.62
376.319	97.62
376.545	93.62
376.771	86.62
376.997	82.62
377.222	82.62
377.448	91.62
377.674	82.62
377.899	87.62
378.125	75.62
378.35	84.62
378.576	98.62
378.802	89.62
379.027	84.62
379.253	89.62
379.478	79.62
379.704	84.62
379.929	92.62
380.155	89.62
380.38	80.62
380.606	81.62
380.831	97.62
381.057	86.62
381.282	87.62
381.507	78.62
381.733	96.62
381.958	86.62
382.184	95.62
382.409	85.62
382.634	74.62
382.86	79.62
383.085	99.62
383.31	87.62
383.535	88.62
383.761	93.62
383.986	92.62
384.211	79.62
384.436	71.62
384.662	92.62
384.887	94.62
385.112	83.62
385.337	91.62
385.562	85.62
385.787	71.62
386.013	89.62
386.238	79.62
386.463	88.62
386.688	78.62
386.913	81.62
387.138	92.62
387.363	86.62
387.588	95.62
387.813	91.62
388.038	87.62
388.263	90.62
388.488	97.62
388.713	83.62
388.938	78.62
389.163	87.62
389.387	75.62
389.612	82.62
389.837	93.62
390.062	84.62
390.287	74.62
390.512	84.62
390.736	82.62
390.961	78.62
391.186	85.62
391.411	84.62
391.636	94.62
391.86	89.62
392.085	80.62
392.31	81.62
392.534	65.62
392.759	89.62
392.984	94.62
393.208	84.62
393.433	91.62
393.658	92.62
393.882	89.62
394.107	101.62
394.331	90.62
394.556	97.62
394.78	79.62
395.005	85.62
395.229	96.62
395.454	77.62
395.678	83.62
395.903	84.62
396.127	83.62
396.352	83.62
396.576	91.62
396.801	71.62
397.025	88.62
397.249	79.62
397.474	71.62
397.698	86.62
397.922	83.62
398.147	89.62
398.371	74.62
398.595	85.62
398.82	76.62
399.044	79.62
399.268	91.62
399.492	83.62
399.717	91.62
399.941	82.62
400.165	88.62
400.389	83.62
400.613	84.62
400.837	89.62
401.062	81.62
401.286	91.62
401.51	89.62
401.734	67.62
401.958	81.62
402.182	80.62
402.406	88.62
402.63	77.62
402.854	73.62
403.078	79.62
403.302	83.62
403.526	85.62
403.75	84.62
403.974	108.62
404.198	82.62
404.422	72.62
404.645	99.62
404.869	100.62
405.093	92.62
405.317	96.62
405.541	91.62
405.765	93.62
405.988	86.62
406.212	86.62
406.436	94.62
406.66	96.62
406.883	84.62
407.107	94.62
407.331	91.62
407.555	86.62
407.778	96.62
408.002	94.62
408.226	87.62
408.449	95.62
408.673	86.62
408.896	87.62
409.12	89.62
409.344	87.62
409.567	90.62
409.791	82.62
410.014	83.62
410.238	83.62
410.461	85.62
410.685	95.62
410.908	77.62
411.132	92.62
411.355	91.62
411.578	97.62
411.802	88.62
412.025	78.62
412.249	88.62
412.472	70.62
412.695	77.62
412.919	88.62
413.142	91.62
413.365	76.62
413.589	89.62
413.812	88.62
414.035	89.62
414.258	91.62
414.482	89.62
414.705	92.62
414.928	76.62
415.151	96.62
415.374	76.62
415.597	80.62
415.821	103.62
416.044	96.62
416.267	95.62
416.49	87.62
416.713	99.62
416.936	95.62
417.159	92.62
417.382	81.62
417.605	77.62
417.828	75.62
418.051	86.62
418.274	88.62
418.497	87.62
418.72	100.62
418.943	86.62
419.166	87.62
419.389	93.62
419.611	95.62
419.834	94.62
420.057	101.62
420.28	93.62
420.503	77.62
420.726	99.62
420.948	98.62
421.171	91.62
421.394	91.62
421.617	88.62
421.839	83.62
422.062	101.62
422.285	85.62
422.507	77.62
422.73	95.62
422.953	87.62
423.175	96.62
423.398	79.62
423.621	99.62
423.843	93.62
424.066	102.62
424.288	88.62
424.511	81.62
424.733	92.62
424.956	100.62
425.178	87.62
425.401	93.62
425.623	86.62
425.846	75.62
426.068	115.62
426.291	105.62
426.513	83.62
426.735	99.62
426.958	95.62
427.18	79.62
427.402	87.62
427.625	88.62
427.847	84.62
428.069	107.62
428.292	95.62
428.514	86.62
428.736	80.62
428.958	89.62
429.181	93.62
429.403	83.62
429.625	96.62
429.847	81.62
430.069	96.62
430.292	87.62
430.514	83.62
430.736	105.62
430.958	95.62
431.18	72.62
431.402	81.62
431.624	88.62
431.846	81.62
432.068	80.62
432.29	96.62
432.512	96.62
432.734	89.62
432.956	93.62
433.178	79.62
433.4	83.62
433.622	109.62
433.844	88.62
434.066	92.62
434.287	84.62
434.509	104.62
434.731	81.62
434.953	85.62
435.175	86.62
435.397	89.62
435.618	90.62
435.84	85.62
436.062	106.62
436.284	86.62
436.505	94.62
436.727	105.62
436.949	82.62
437.17	92.62
437.392	94.62
437.614	95.62
437.835	74.62
438.057	87.62
438.278	95.62
438.5	92.62
438.721	76.62
438.943	85.62
439.165	94.62
439.386	85.62
439.608	95.62
439.829	103.62
440.05	96.62
440.272	79.62
440.493	80.62
440.715	89.62
440.936	94.62
441.158	87.62
441.379	82.62
441.6	78.62
441.822	101.62
442.043	87.62
442.264	96.62
442.486	87.62
442.707	92.62
442.928	97.62
443.149	88.62
443.371	96.62
443.592	96.62
443.813	94.62
444.034	86.62
444.255	93.62
444.476	101.62
444.698	86.62
444.919	93.62
445.14	205.62
445.361	159.62
445.582	93.62
445.803	93.62
446.024	91.62
446.245	101.62
446.466	108.62
446.687	93.62
446.908	88.62
447.129	92.62
447.35	79.62
447.571	96.62
447.792	75.62
448.013	99.62
448.234	101.62
448.455	95.62
448.675	86.62
448.896	90.62
449.117	84.62
449.338	97.62
449.559	97.62
449.779	95.62
450	97.62
450.221	95.62
450.442	83.62
450.662	92.62
450.883	99.62
451.104	91.62
451.324	69.62
451.545	92.62
451.766	85.62
451.986	101.62
452.207	93.62
452.428	78.62
452.648	85.62
452.869	95.62
453.089	78.62
453.31	86.62
453.53	86.62
453.751	78.62
453.971	90.62
454.192	84.62
454.412	91.62
454.633	78.62
454.853	82.62
455.073	84.62
455.294	77.62
455.514	85.62
455.734	90.62
455.955	93.62
456.175	85.62
456.395	89.62
456.616	92.62
456.836	86.62
457.056	84.62
457.276	80.62
457.497	80.62
457.717	87.62
457.937	95.62
458.157	105.62
458.377	89.62
458.598	83.62
458.818	91.62
459.038	93.62
459.258	76.62
459.478	88.62
459.698	80.62
459.918	82.62
460.138	95.62
460.358	97.62
460.578	76.62
460.798	83.62
461.018	97.62
461.238	87.62
461.458	91.62
461.678	99.62
461.898	83.62
462.118	82.62
462.338	87.62
462.558	78.62
462.777	104.62
462.997	90.62
463.217	97.62
463.437	96.62
463.657	87.62
463.876	84.62
464.096	72.62
464.316	97.62
464.536	93.62
464.755	86.62
464.975	87.62
465.195	89.62
465.414	96.62
465.634	86.62
465.854	89.62
466.073	85.62
466.293	95.62
466.512	95.62
466.732	82.62
466.951	87.62
467.171	80.62
467.391	85.62
467.61	92.62
467.829	89.62
468.049	84.62
468.268	95.62
468.488	85.62
468.707	87.62
468.927	89.62
469.146	70.62
469.365	92.62
469.585	104.62
469.804	103.62
470.023	99.62
470.243	101.62
470.462	99.62
470.681	90.62
470.901	87.62
471.12	88.62
471.339	88.62
471.558	91.62
471.777	92.62
471.997	97.62
472.216	92.62
472.435	92.62
472.654	102.62
472.873	87.62
473.092	94.62
473.311	94.62
473.53	100.62
473.749	96.62
473.968	94.62
474.187	97.62
474.406	93.62
474.625	91.62
474.844	87.62
475.063	85.62
475.282	94.62
475.501	88.62
475.72	90.62
475.939	74.62
476.158	96.62
476.377	95.62
476.596	87.62
476.814	82.62
477.033	94.62
477.252	81.62
477.471	83.62
477.69	92.62
477.908	95.62
478.127	91.62
478.346	96.62
478.564	104.62
478.783	91.62
479.002	97.62
479.22	91.62
479.439	97.62
479.658	107.62
479.876	94.62
480.095	77.62
480.313	99.62
480.532	84.62
480.751	78.62
480.969	88.62
481.188	75.62
481.406	86.62
481.624	81.62
481.843	85.62
482.061	97.62
482.28	83.62
482.498	82.62
482.717	75.62
482.935	72.62
483.153	90.62
483.372	109.62
483.59	94.62
483.808	91.62
484.027	96.62
484.245	87.62
484.463	106.62
484.681	104.62
484.9	89.62
485.118	94.62
485.336	78.62
485.554	97.62
485.772	79.62
485.99	76.62
486.209	92.62
486.427	96.62
486.645	94.62
486.863	90.62
487.081	86.62
487.299	93.62
487.517	97.62
487.735	105.62
487.953	105.62
488.171	100.62
488.389	92.62
488.607	84.62
488.825	97.62
489.043	96.62
489.261	89.62
489.479	94.62
489.696	95.62
489.914	90.62
490.132	88.62
490.35	99.62
490.568	106.62
490.786	104.62
491.003	102.62
491.221	104.62
491.439	112.62
491.657	116.62
491.874	109.62
492.092	115.62
492.31	103.62
492.527	110.62
492.745	100.62
492.963	95.62
493.18	119.62
493.398	98.62
493.615	99.62
493.833	106.62
494.05	97.62
494.268	93.62
494.485	101.62
494.703	102.62
494.92	97.62
495.138	111.62
495.355	104.62
495.573	99.62
495.79	96.62
496.008	101.62
496.225	101.62
496.442	104.62
496.66	105.62
496.877	99.62
497.094	104.62
497.312	103.62
497.529	85.62
497.746	88.62
497.963	103.62
498.181	100.62
498.398	93.62
498.615	95.62
498.832	81.62
499.049	97.62
499.267	96.62
499.484	76.62
499.701	85.62
499.918	102.62
500.135	99.62
500.352	98.62
500.569	98.62
500.786	121.62
501.003	102.62
501.22	95.62
501.437	87.62
501.654	101.62
501.871	90.62
502.088	91.62
502.305	95.62
502.522	93.62
502.739	90.62
502.956	96.62
503.172	91.62
503.389	83.62
503.606	91.62
503.823	102.62
504.04	98.62
504.256	99.62
504.473	96.62
504.69	93.62
504.907	82.62
505.123	92.62
505.34	91.62
505.557	102.62
505.773	86.62
505.99	95.62
506.207	86.62
506.423	94.62
506.64	82.62
506.856	86.62
507.073	97.62
507.289	99.62
507.506	86.62
507.722	91.62
507.939	95.62
508.155	101.62
508.372	91.62
508.588	95.62
508.805	76.62
509.021	87.62
509.238	81.62
509.454	80.62
509.67	96.62
509.887	84.62
510.103	106.62
510.319	86.62
510.536	92.62
510.752	83.62
510.968	81.62
511.184	94.62
511.401	80.62
511.617	105.62
511.833	109.62
512.049	90.62
512.265	78.62
512.481	95.62
512.698	84.62
512.914	100.62
513.13	75.62
513.346	80.62
513.562	88.62
513.778	89.62
513.994	93.62
514.21	79.62
514.426	78.62
514.642	86.62
514.858	89.62
515.074	87.62
515.29	100.62
515.506	75.62
515.721	78.62
515.937	96.62
516.153	93.62
516.369	84.62
516.585	91.62
516.801	96.62
517.016	90.62
517.232	85.62
517.448	90.62
517.664	82.62
517.879	93.62
518.095	95.62
