Data from Zn(NO3)2Standard.Agarose3%.GreenCap.LampEnergy5.5.E.O_HRD10591_15-03-17-768.txt Node
Date: Mon Jul 22 15:03:17 EDT 2019
User: cochatt
Spectrometer: HR+D1059
Trigger mode: 1
Integration Time (sec): 1.000000E-1
Scans to average: 1
Electric dark correction enabled: true
Nonlinearity correction enabled: false
Boxcar width: 0
XAxis mode: Wavelengths
Number of Pixels in Spectrum: 2048
>>>>>Begin Spectral Data<<<<<
223.165	-10.69
223.4	-10.69
223.635	-10.69
223.869	-15.69
224.104	-21.69
224.338	-18.69
224.573	-19.69
224.808	-12.69
225.042	-9.69
225.277	-5.69
225.511	1.31
225.746	12.31
225.98	19.31
226.215	5.31
226.449	6.31
226.683	20.31
226.918	33.31
227.152	16.31
227.387	24.31
227.621	50.31
227.856	44.31
228.09	39.31
228.324	58.31
228.559	61.31
228.793	70.31
229.027	64.31
229.262	59.31
229.496	72.31
229.73	66.31
229.964	78.31
230.199	68.31
230.433	70.31
230.667	72.31
230.901	79.31
231.136	80.31
231.37	83.31
231.604	70.31
231.838	68.31
232.072	75.31
232.306	76.31
232.541	90.31
232.775	86.31
233.009	86.31
233.243	71.31
233.477	81.31
233.711	75.31
233.945	73.31
234.179	67.31
234.413	81.31
234.647	84.31
234.881	72.31
235.115	82.31
235.349	92.31
235.583	72.31
235.817	70.31
236.051	73.31
236.285	67.31
236.519	85.31
236.753	82.31
236.987	61.31
237.221	77.31
237.455	78.31
237.689	72.31
237.922	54.31
238.156	82.31
238.39	76.31
238.624	83.31
238.858	87.31
239.091	67.31
239.325	69.31
239.559	76.31
239.793	68.31
240.027	74.31
240.26	82.31
240.494	85.31
240.728	88.31
240.961	67.31
241.195	74.31
241.429	75.31
241.662	89.31
241.896	72.31
242.13	63.31
242.363	63.31
242.597	82.31
242.83	72.31
243.064	87.31
243.298	83.31
243.531	57.31
243.765	69.31
243.998	76.31
244.232	70.31
244.465	76.31
244.699	83.31
244.932	85.31
245.166	64.31
245.399	82.31
245.633	64.31
245.866	86.31
246.099	67.31
246.333	61.31
246.566	84.31
246.8	73.31
247.033	90.31
247.266	75.31
247.5	92.31
247.733	87.31
247.966	71.31
248.2	66.31
248.433	86.31
248.666	85.31
248.899	70.31
249.133	83.31
249.366	68.31
249.599	80.31
249.832	77.31
250.066	73.31
250.299	69.31
250.532	74.31
250.765	79.31
250.998	83.31
251.231	86.31
251.465	77.31
251.698	83.31
251.931	62.31
252.164	84.31
252.397	82.31
252.63	79.31
252.863	84.31
253.096	75.31
253.329	81.31
253.562	72.31
253.795	88.31
254.028	78.31
254.261	73.31
254.494	86.31
254.727	88.31
254.96	71.31
255.193	91.31
255.426	79.31
255.659	86.31
255.892	76.31
256.124	59.31
256.357	65.31
256.59	58.31
256.823	79.31
257.056	79.31
257.289	79.31
257.521	85.31
257.754	76.31
257.987	74.31
258.22	75.31
258.452	81.31
258.685	82.31
258.918	80.31
259.151	74.31
259.383	81.31
259.616	74.31
259.849	78.31
260.081	96.31
260.314	73.31
260.547	67.31
260.779	69.31
261.012	83.31
261.244	63.31
261.477	86.31
261.71	79.31
261.942	92.31
262.175	88.31
262.407	87.31
262.64	77.31
262.872	87.31
263.105	88.31
263.337	86.31
263.57	73.31
263.802	95.31
264.035	78.31
264.267	80.31
264.499	84.31
264.732	80.31
264.964	73.31
265.197	73.31
265.429	75.31
265.661	73.31
265.894	87.31
266.126	79.31
266.358	87.31
266.591	72.31
266.823	70.31
267.055	82.31
267.287	76.31
267.52	78.31
267.752	84.31
267.984	82.31
268.216	87.31
268.448	83.31
268.681	75.31
268.913	72.31
269.145	77.31
269.377	83.31
269.609	72.31
269.841	84.31
270.073	80.31
270.306	74.31
270.538	80.31
270.77	74.31
271.002	70.31
271.234	93.31
271.466	85.31
271.698	85.31
271.93	84.31
272.162	86.31
272.394	80.31
272.626	92.31
272.858	89.31
273.09	91.31
273.322	87.31
273.553	83.31
273.785	90.31
274.017	89.31
274.249	83.31
274.481	88.31
274.713	70.31
274.945	81.31
275.176	79.31
275.408	92.31
275.64	80.31
275.872	86.31
276.104	81.31
276.335	84.31
276.567	78.31
276.799	86.31
277.031	76.31
277.262	72.31
277.494	105.31
277.726	93.31
277.957	83.31
278.189	69.31
278.421	96.31
278.652	87.31
278.884	74.31
279.115	84.31
279.347	85.31
279.579	96.31
279.81	82.31
280.042	68.31
280.273	88.31
280.505	102.31
280.736	75.31
280.968	74.31
281.199	93.31
281.431	75.31
281.662	98.31
281.894	83.31
282.125	71.31
282.356	82.31
282.588	78.31
282.819	74.31
283.051	80.31
283.282	82.31
283.513	78.31
283.745	78.31
283.976	74.31
284.207	83.31
284.439	78.31
284.67	78.31
284.901	74.31
285.132	107.31
285.364	88.31
285.595	93.31
285.826	87.31
286.057	96.31
286.288	87.31
286.52	81.31
286.751	86.31
286.982	71.31
287.213	83.31
287.444	81.31
287.675	81.31
287.906	87.31
288.138	85.31
288.369	74.31
288.6	81.31
288.831	70.31
289.062	81.31
289.293	92.31
289.524	81.31
289.755	82.31
289.986	75.31
290.217	85.31
290.448	72.31
290.679	97.31
290.91	81.31
291.141	85.31
291.371	80.31
291.602	83.31
291.833	79.31
292.064	89.31
292.295	86.31
292.526	83.31
292.757	89.31
292.987	80.31
293.218	67.31
293.449	78.31
293.68	79.31
293.91	83.31
294.141	85.31
294.372	84.31
294.603	84.31
294.833	89.31
295.064	89.31
295.295	83.31
295.525	88.31
295.756	81.31
295.987	76.31
296.217	71.31
296.448	86.31
296.679	78.31
296.909	74.31
297.14	72.31
297.37	83.31
297.601	83.31
297.831	67.31
298.062	90.31
298.292	77.31
298.523	81.31
298.753	79.31
298.984	80.31
299.214	79.31
299.445	78.31
299.675	84.31
299.905	82.31
300.136	91.31
300.366	81.31
300.597	83.31
300.827	81.31
301.057	83.31
301.288	92.31
301.518	70.31
301.748	88.31
301.979	80.31
302.209	81.31
302.439	76.31
302.669	87.31
302.9	76.31
303.13	91.31
303.36	95.31
303.59	63.31
303.82	76.31
304.051	94.31
304.281	87.31
304.511	82.31
304.741	81.31
304.971	81.31
305.201	89.31
305.431	71.31
305.661	92.31
305.891	103.31
306.121	86.31
306.352	83.31
306.582	80.31
306.812	73.31
307.042	76.31
307.272	81.31
307.502	80.31
307.731	96.31
307.961	69.31
308.191	90.31
308.421	94.31
308.651	74.31
308.881	80.31
309.111	67.31
309.341	68.31
309.571	73.31
309.8	71.31
310.03	93.31
310.26	86.31
310.49	75.31
310.72	91.31
310.949	85.31
311.179	79.31
311.409	76.31
311.639	83.31
311.868	91.31
312.098	85.31
312.328	99.31
312.557	87.31
312.787	85.31
313.017	94.31
313.246	86.31
313.476	67.31
313.706	75.31
313.935	71.31
314.165	84.31
314.394	88.31
314.624	79.31
314.853	96.31
315.083	102.31
315.312	80.31
315.542	89.31
315.771	95.31
316.001	76.31
316.23	83.31
316.46	91.31
316.689	95.31
316.919	80.31
317.148	88.31
317.377	84.31
317.607	75.31
317.836	85.31
318.065	71.31
318.295	87.31
318.524	77.31
318.753	82.31
318.983	81.31
319.212	87.31
319.441	87.31
319.67	69.31
319.9	91.31
320.129	80.31
320.358	88.31
320.587	98.31
320.816	88.31
321.046	89.31
321.275	81.31
321.504	97.31
321.733	65.31
321.962	78.31
322.191	93.31
322.42	80.31
322.649	93.31
322.878	74.31
323.108	87.31
323.337	79.31
323.566	85.31
323.795	79.31
324.024	85.31
324.253	96.31
324.482	82.31
324.71	78.31
324.939	92.31
325.168	76.31
325.397	85.31
325.626	76.31
325.855	79.31
326.084	70.31
326.313	84.31
326.542	74.31
326.77	92.31
326.999	87.31
327.228	94.31
327.457	83.31
327.686	77.31
327.914	74.31
328.143	85.31
328.372	82.31
328.6	85.31
328.829	77.31
329.058	86.31
329.287	83.31
329.515	71.31
329.744	75.31
329.972	82.31
330.201	91.31
330.43	89.31
330.658	83.31
330.887	80.31
331.115	82.31
331.344	89.31
331.572	104.31
331.801	94.31
332.03	89.31
332.258	87.31
332.486	76.31
332.715	89.31
332.943	84.31
333.172	90.31
333.4	79.31
333.629	72.31
333.857	82.31
334.085	87.31
334.314	100.31
334.542	76.31
334.771	65.31
334.999	80.31
335.227	82.31
335.455	80.31
335.684	79.31
335.912	82.31
336.14	79.31
336.369	86.31
336.597	69.31
336.825	78.31
337.053	85.31
337.281	76.31
337.51	83.31
337.738	82.31
337.966	93.31
338.194	71.31
338.422	86.31
338.65	78.31
338.878	85.31
339.106	82.31
339.334	73.31
339.562	71.31
339.79	71.31
340.018	85.31
340.246	62.31
340.474	87.31
340.702	86.31
340.93	88.31
341.158	67.31
341.386	83.31
341.614	71.31
341.842	86.31
342.07	87.31
342.298	88.31
342.526	84.31
342.754	84.31
342.981	89.31
343.209	73.31
343.437	87.31
343.665	87.31
343.893	78.31
344.12	82.31
344.348	69.31
344.576	82.31
344.804	80.31
345.031	81.31
345.259	80.31
345.487	76.31
345.714	73.31
345.942	75.31
346.17	83.31
346.397	85.31
346.625	82.31
346.853	86.31
347.08	80.31
347.308	94.31
347.535	75.31
347.763	67.31
347.99	82.31
348.218	91.31
348.445	72.31
348.673	86.31
348.9	84.31
349.128	73.31
349.355	80.31
349.583	73.31
349.81	80.31
350.037	92.31
350.265	67.31
350.492	67.31
350.72	81.31
350.947	76.31
351.174	80.31
351.402	75.31
351.629	95.31
351.856	85.31
352.083	69.31
352.311	95.31
352.538	86.31
352.765	71.31
352.992	67.31
353.22	89.31
353.447	76.31
353.674	83.31
353.901	86.31
354.128	79.31
354.355	83.31
354.583	71.31
354.81	67.31
355.037	70.31
355.264	80.31
355.491	79.31
355.718	86.31
355.945	89.31
356.172	74.31
356.399	85.31
356.626	85.31
356.853	86.31
357.08	84.31
357.307	91.31
357.534	97.31
357.761	88.31
357.988	76.31
358.215	97.31
358.441	72.31
358.668	75.31
358.895	64.31
359.122	88.31
359.349	78.31
359.576	68.31
359.802	88.31
360.029	88.31
360.256	83.31
360.483	81.31
360.709	70.31
360.936	80.31
361.163	90.31
361.39	88.31
361.616	79.31
361.843	76.31
362.07	75.31
362.296	87.31
362.523	83.31
362.749	82.31
362.976	83.31
363.203	83.31
363.429	78.31
363.656	82.31
363.882	75.31
364.109	82.31
364.335	74.31
364.562	89.31
364.788	84.31
365.015	73.31
365.241	70.31
365.468	96.31
365.694	68.31
365.92	66.31
366.147	82.31
366.373	77.31
366.599	79.31
366.826	98.31
367.052	94.31
367.278	73.31
367.505	80.31
367.731	83.31
367.957	85.31
368.184	80.31
368.41	78.31
368.636	80.31
368.862	66.31
369.089	93.31
369.315	78.31
369.541	76.31
369.767	91.31
369.993	90.31
370.219	75.31
370.445	84.31
370.672	89.31
370.898	87.31
371.124	78.31
371.35	70.31
371.576	74.31
371.802	70.31
372.028	89.31
372.254	86.31
372.48	82.31
372.706	86.31
372.932	83.31
373.158	91.31
373.384	95.31
373.61	79.31
373.835	83.31
374.061	85.31
374.287	66.31
374.513	72.31
374.739	81.31
374.965	72.31
375.191	69.31
375.416	88.31
375.642	76.31
375.868	77.31
376.094	80.31
376.319	78.31
376.545	86.31
376.771	88.31
376.997	70.31
377.222	82.31
377.448	82.31
377.674	75.31
377.899	74.31
378.125	74.31
378.35	80.31
378.576	80.31
378.802	91.31
379.027	72.31
379.253	72.31
379.478	86.31
379.704	89.31
379.929	71.31
380.155	78.31
380.38	83.31
380.606	80.31
380.831	66.31
381.057	76.31
381.282	76.31
381.507	89.31
381.733	82.31
381.958	85.31
382.184	70.31
382.409	84.31
382.634	80.31
382.86	75.31
383.085	84.31
383.31	68.31
383.535	74.31
383.761	88.31
383.986	68.31
384.211	77.31
384.436	89.31
384.662	88.31
384.887	73.31
385.112	80.31
385.337	79.31
385.562	81.31
385.787	84.31
386.013	81.31
386.238	66.31
386.463	77.31
386.688	87.31
386.913	75.31
387.138	84.31
387.363	79.31
387.588	78.31
387.813	81.31
388.038	88.31
388.263	96.31
388.488	75.31
388.713	80.31
388.938	81.31
389.163	76.31
389.387	92.31
389.612	92.31
389.837	84.31
390.062	75.31
390.287	71.31
390.512	77.31
390.736	70.31
390.961	66.31
391.186	83.31
391.411	78.31
391.636	89.31
391.86	80.31
392.085	87.31
392.31	76.31
392.534	89.31
392.759	99.31
392.984	91.31
393.208	85.31
393.433	79.31
393.658	71.31
393.882	80.31
394.107	75.31
394.331	79.31
394.556	85.31
394.78	65.31
395.005	86.31
395.229	86.31
395.454	88.31
395.678	81.31
395.903	95.31
396.127	97.31
396.352	67.31
396.576	94.31
396.801	95.31
397.025	80.31
397.249	80.31
397.474	96.31
397.698	78.31
397.922	100.31
398.147	88.31
398.371	72.31
398.595	105.31
398.82	86.31
399.044	91.31
399.268	81.31
399.492	79.31
399.717	88.31
399.941	86.31
400.165	97.31
400.389	75.31
400.613	80.31
400.837	83.31
401.062	88.31
401.286	87.31
401.51	79.31
401.734	88.31
401.958	74.31
402.182	74.31
402.406	71.31
402.63	93.31
402.854	75.31
403.078	91.31
403.302	88.31
403.526	84.31
403.75	80.31
403.974	82.31
404.198	88.31
404.422	100.31
404.645	80.31
404.869	81.31
405.093	60.31
405.317	74.31
405.541	63.31
405.765	81.31
405.988	83.31
406.212	90.31
406.436	93.31
406.66	79.31
406.883	83.31
407.107	74.31
407.331	80.31
407.555	73.31
407.778	83.31
408.002	86.31
408.226	88.31
408.449	89.31
408.673	80.31
408.896	94.31
409.12	78.31
409.344	74.31
409.567	82.31
409.791	82.31
410.014	82.31
410.238	93.31
410.461	76.31
410.685	77.31
410.908	97.31
411.132	95.31
411.355	86.31
411.578	76.31
411.802	96.31
412.025	79.31
412.249	87.31
412.472	81.31
412.695	86.31
412.919	84.31
413.142	95.31
413.365	82.31
413.589	85.31
413.812	89.31
414.035	92.31
414.258	89.31
414.482	91.31
414.705	79.31
414.928	81.31
415.151	106.31
415.374	84.31
415.597	81.31
415.821	75.31
416.044	79.31
416.267	81.31
416.49	87.31
416.713	90.31
416.936	99.31
417.159	75.31
417.382	68.31
417.605	83.31
417.828	74.31
418.051	85.31
418.274	90.31
418.497	82.31
418.72	76.31
418.943	97.31
419.166	81.31
419.389	94.31
419.611	87.31
419.834	72.31
420.057	76.31
420.28	102.31
420.503	91.31
420.726	94.31
420.948	82.31
421.171	83.31
421.394	88.31
421.617	103.31
421.839	87.31
422.062	96.31
422.285	82.31
422.507	74.31
422.73	84.31
422.953	103.31
423.175	99.31
423.398	81.31
423.621	86.31
423.843	80.31
424.066	78.31
424.288	75.31
424.511	98.31
424.733	78.31
424.956	92.31
425.178	84.31
425.401	90.31
425.623	74.31
425.846	95.31
426.068	88.31
426.291	98.31
426.513	98.31
426.735	101.31
426.958	73.31
427.18	97.31
427.402	77.31
427.625	83.31
427.847	91.31
428.069	91.31
428.292	77.31
428.514	90.31
428.736	82.31
428.958	91.31
429.181	85.31
429.403	86.31
429.625	86.31
429.847	83.31
430.069	82.31
430.292	91.31
430.514	87.31
430.736	85.31
430.958	89.31
431.18	88.31
431.402	81.31
431.624	79.31
431.846	76.31
432.068	75.31
432.29	94.31
432.512	100.31
432.734	88.31
432.956	83.31
433.178	91.31
433.4	98.31
433.622	86.31
433.844	89.31
434.066	91.31
434.287	81.31
434.509	80.31
434.731	80.31
434.953	82.31
435.175	89.31
435.397	75.31
435.618	90.31
435.84	85.31
436.062	82.31
436.284	79.31
436.505	80.31
436.727	81.31
436.949	86.31
437.17	95.31
437.392	95.31
437.614	81.31
437.835	74.31
438.057	93.31
438.278	77.31
438.5	89.31
438.721	91.31
438.943	71.31
439.165	88.31
439.386	86.31
439.608	95.31
439.829	87.31
440.05	88.31
440.272	81.31
440.493	90.31
440.715	88.31
440.936	94.31
441.158	99.31
441.379	91.31
441.6	91.31
441.822	91.31
442.043	94.31
442.264	88.31
442.486	80.31
442.707	84.31
442.928	89.31
443.149	91.31
443.371	89.31
443.592	84.31
443.813	93.31
444.034	86.31
444.255	87.31
444.476	87.31
444.698	76.31
444.919	83.31
445.14	220.31
445.361	140.31
445.582	77.31
445.803	85.31
446.024	81.31
446.245	86.31
446.466	104.31
446.687	91.31
446.908	92.31
447.129	103.31
447.35	97.31
447.571	92.31
447.792	87.31
448.013	89.31
448.234	84.31
448.455	92.31
448.675	83.31
448.896	87.31
449.117	92.31
449.338	79.31
449.559	69.31
449.779	88.31
450	85.31
450.221	86.31
450.442	91.31
450.662	103.31
450.883	87.31
451.104	80.31
451.324	85.31
451.545	97.31
451.766	85.31
451.986	87.31
452.207	83.31
452.428	85.31
452.648	75.31
452.869	80.31
453.089	82.31
453.31	74.31
453.53	86.31
453.751	68.31
453.971	89.31
454.192	83.31
454.412	84.31
454.633	90.31
454.853	65.31
455.073	82.31
455.294	75.31
455.514	82.31
455.734	74.31
455.955	77.31
456.175	80.31
456.395	69.31
456.616	93.31
456.836	82.31
457.056	82.31
457.276	84.31
457.497	72.31
457.717	87.31
457.937	85.31
458.157	90.31
458.377	81.31
458.598	94.31
458.818	80.31
459.038	85.31
459.258	90.31
459.478	77.31
459.698	85.31
459.918	85.31
460.138	92.31
460.358	93.31
460.578	100.31
460.798	87.31
461.018	91.31
461.238	95.31
461.458	94.31
461.678	80.31
461.898	83.31
462.118	79.31
462.338	76.31
462.558	90.31
462.777	69.31
462.997	73.31
463.217	83.31
463.437	82.31
463.657	79.31
463.876	84.31
464.096	79.31
464.316	75.31
464.536	91.31
464.755	83.31
464.975	89.31
465.195	86.31
465.414	75.31
465.634	88.31
465.854	92.31
466.073	96.31
466.293	91.31
466.512	91.31
466.732	78.31
466.951	92.31
467.171	75.31
467.391	87.31
467.61	106.31
467.829	68.31
468.049	90.31
468.268	83.31
468.488	98.31
468.707	75.31
468.927	81.31
469.146	86.31
469.365	94.31
469.585	84.31
469.804	89.31
470.023	88.31
470.243	96.31
470.462	89.31
470.681	81.31
470.901	80.31
471.12	93.31
471.339	89.31
471.558	73.31
471.777	102.31
471.997	88.31
472.216	102.31
472.435	82.31
472.654	88.31
472.873	97.31
473.092	85.31
473.311	85.31
473.53	88.31
473.749	91.31
473.968	88.31
474.187	82.31
474.406	82.31
474.625	89.31
474.844	65.31
475.063	91.31
475.282	94.31
475.501	79.31
475.72	76.31
475.939	75.31
476.158	82.31
476.377	73.31
476.596	87.31
476.814	81.31
477.033	74.31
477.252	90.31
477.471	94.31
477.69	100.31
477.908	97.31
478.127	95.31
478.346	78.31
478.564	76.31
478.783	78.31
479.002	93.31
479.22	83.31
479.439	80.31
479.658	88.31
479.876	75.31
480.095	84.31
480.313	98.31
480.532	81.31
480.751	82.31
480.969	82.31
481.188	78.31
481.406	77.31
481.624	87.31
481.843	91.31
482.061	91.31
482.28	95.31
482.498	88.31
482.717	82.31
482.935	87.31
483.153	91.31
483.372	88.31
483.59	96.31
483.808	83.31
484.027	84.31
484.245	75.31
484.463	76.31
484.681	104.31
484.9	90.31
485.118	90.31
485.336	75.31
485.554	76.31
485.772	97.31
485.99	96.31
486.209	80.31
486.427	94.31
486.645	71.31
486.863	91.31
487.081	78.31
487.299	87.31
487.517	86.31
487.735	92.31
487.953	88.31
488.171	90.31
488.389	98.31
488.607	88.31
488.825	72.31
489.043	78.31
489.261	83.31
489.479	93.31
489.696	96.31
489.914	94.31
490.132	78.31
490.35	73.31
490.568	82.31
490.786	90.31
491.003	111.31
491.221	105.31
491.439	105.31
491.657	111.31
491.874	95.31
492.092	114.31
492.31	112.31
492.527	99.31
492.745	98.31
492.963	113.31
493.18	100.31
493.398	98.31
493.615	100.31
493.833	102.31
494.05	95.31
494.268	101.31
494.485	86.31
494.703	92.31
494.92	81.31
495.138	99.31
495.355	87.31
495.573	82.31
495.79	99.31
496.008	97.31
496.225	100.31
496.442	103.31
496.66	94.31
496.877	91.31
497.094	89.31
497.312	72.31
497.529	88.31
497.746	91.31
497.963	73.31
498.181	105.31
498.398	91.31
498.615	84.31
498.832	93.31
499.049	104.31
499.267	90.31
499.484	86.31
499.701	97.31
499.918	83.31
500.135	84.31
500.352	99.31
500.569	92.31
500.786	99.31
501.003	101.31
501.22	102.31
501.437	87.31
501.654	96.31
501.871	98.31
502.088	96.31
502.305	91.31
502.522	79.31
502.739	88.31
502.956	87.31
503.172	95.31
503.389	88.31
503.606	93.31
503.823	89.31
504.04	87.31
504.256	85.31
504.473	89.31
504.69	92.31
504.907	95.31
505.123	94.31
505.34	96.31
505.557	90.31
505.773	80.31
505.99	73.31
506.207	77.31
506.423	81.31
506.64	90.31
506.856	100.31
507.073	80.31
507.289	93.31
507.506	91.31
507.722	83.31
507.939	86.31
508.155	81.31
508.372	77.31
508.588	90.31
508.805	103.31
509.021	75.31
509.238	92.31
509.454	94.31
509.67	82.31
509.887	86.31
510.103	65.31
510.319	84.31
510.536	81.31
510.752	76.31
510.968	85.31
511.184	85.31
511.401	71.31
511.617	77.31
511.833	89.31
512.049	89.31
512.265	78.31
512.481	88.31
512.698	84.31
512.914	95.31
513.13	98.31
513.346	90.31
513.562	91.31
513.778	76.31
513.994	90.31
514.21	83.31
514.426	92.31
514.642	72.31
514.858	70.31
515.074	84.31
515.29	81.31
515.506	82.31
515.721	74.31
515.937	82.31
516.153	70.31
516.369	101.31
516.585	87.31
516.801	84.31
517.016	79.31
517.232	92.31
517.448	87.31
517.664	87.31
517.879	80.31
518.095	87.31
518.311	82.31
518.527	70.31
518.742	92.31
