Data from Zn(NO3)2Standard.Agarose3%.GreenCap.LampEnergy5.5.E.O_HRD10591_15-03-15-768.txt Node
Date: Mon Jul 22 15:03:15 EDT 2019
User: cochatt
Spectrometer: HR+D1059
Trigger mode: 1
Integration Time (sec): 1.000000E-1
Scans to average: 1
Electric dark correction enabled: true
Nonlinearity correction enabled: false
Boxcar width: 0
XAxis mode: Wavelengths
Number of Pixels in Spectrum: 2048
>>>>>Begin Spectral Data<<<<<
223.165	-11.44
223.4	-11.44
223.635	-11.44
223.869	-17.44
224.104	-19.44
224.338	-36.44
224.573	-23.44
224.808	4.56
225.042	4.56
225.277	-6.44
225.511	-4.44
225.746	8.56
225.98	10.56
226.215	10.56
226.449	21.56
226.683	6.56
226.918	14.56
227.152	37.56
227.387	22.56
227.621	47.56
227.856	52.56
228.09	43.56
228.324	51.56
228.559	68.56
228.793	59.56
229.027	64.56
229.262	64.56
229.496	76.56
229.73	71.56
229.964	79.56
230.199	82.56
230.433	82.56
230.667	76.56
230.901	69.56
231.136	78.56
231.37	91.56
231.604	92.56
231.838	96.56
232.072	81.56
232.306	78.56
232.541	82.56
232.775	74.56
233.009	79.56
233.243	88.56
233.477	89.56
233.711	86.56
233.945	86.56
234.179	100.56
234.413	76.56
234.647	89.56
234.881	80.56
235.115	82.56
235.349	75.56
235.583	73.56
235.817	74.56
236.051	77.56
236.285	67.56
236.519	66.56
236.753	70.56
236.987	79.56
237.221	77.56
237.455	86.56
237.689	91.56
237.922	78.56
238.156	85.56
238.39	87.56
238.624	68.56
238.858	72.56
239.091	77.56
239.325	89.56
239.559	72.56
239.793	60.56
240.027	77.56
240.26	78.56
240.494	75.56
240.728	71.56
240.961	66.56
241.195	55.56
241.429	75.56
241.662	70.56
241.896	75.56
242.13	81.56
242.363	74.56
242.597	82.56
242.83	80.56
243.064	72.56
243.298	88.56
243.531	66.56
243.765	73.56
243.998	69.56
244.232	73.56
244.465	78.56
244.699	81.56
244.932	75.56
245.166	85.56
245.399	72.56
245.633	74.56
245.866	85.56
246.099	67.56
246.333	95.56
246.566	80.56
246.8	84.56
247.033	93.56
247.266	71.56
247.5	71.56
247.733	80.56
247.966	76.56
248.2	71.56
248.433	75.56
248.666	64.56
248.899	92.56
249.133	77.56
249.366	73.56
249.599	81.56
249.832	78.56
250.066	90.56
250.299	89.56
250.532	91.56
250.765	84.56
250.998	78.56
251.231	70.56
251.465	79.56
251.698	80.56
251.931	69.56
252.164	81.56
252.397	74.56
252.63	86.56
252.863	79.56
253.096	85.56
253.329	74.56
253.562	80.56
253.795	83.56
254.028	94.56
254.261	71.56
254.494	83.56
254.727	85.56
254.96	75.56
255.193	76.56
255.426	81.56
255.659	81.56
255.892	84.56
256.124	94.56
256.357	87.56
256.59	83.56
256.823	89.56
257.056	101.56
257.289	88.56
257.521	76.56
257.754	59.56
257.987	62.56
258.22	90.56
258.452	83.56
258.685	79.56
258.918	81.56
259.151	82.56
259.383	92.56
259.616	83.56
259.849	80.56
260.081	93.56
260.314	82.56
260.547	90.56
260.779	101.56
261.012	74.56
261.244	86.56
261.477	95.56
261.71	81.56
261.942	77.56
262.175	80.56
262.407	82.56
262.64	72.56
262.872	86.56
263.105	68.56
263.337	97.56
263.57	88.56
263.802	94.56
264.035	81.56
264.267	89.56
264.499	98.56
264.732	72.56
264.964	71.56
265.197	79.56
265.429	81.56
265.661	84.56
265.894	83.56
266.126	84.56
266.358	80.56
266.591	90.56
266.823	86.56
267.055	87.56
267.287	81.56
267.52	86.56
267.752	82.56
267.984	81.56
268.216	66.56
268.448	86.56
268.681	80.56
268.913	87.56
269.145	76.56
269.377	76.56
269.609	89.56
269.841	79.56
270.073	83.56
270.306	72.56
270.538	83.56
270.77	87.56
271.002	90.56
271.234	98.56
271.466	94.56
271.698	88.56
271.93	75.56
272.162	83.56
272.394	90.56
272.626	100.56
272.858	71.56
273.09	74.56
273.322	92.56
273.553	74.56
273.785	84.56
274.017	71.56
274.249	77.56
274.481	90.56
274.713	91.56
274.945	91.56
275.176	90.56
275.408	80.56
275.64	79.56
275.872	96.56
276.104	86.56
276.335	93.56
276.567	75.56
276.799	78.56
277.031	88.56
277.262	99.56
277.494	90.56
277.726	74.56
277.957	88.56
278.189	77.56
278.421	90.56
278.652	86.56
278.884	89.56
279.115	81.56
279.347	86.56
279.579	80.56
279.81	83.56
280.042	81.56
280.273	86.56
280.505	75.56
280.736	83.56
280.968	87.56
281.199	76.56
281.431	70.56
281.662	96.56
281.894	101.56
282.125	84.56
282.356	77.56
282.588	88.56
282.819	74.56
283.051	84.56
283.282	90.56
283.513	92.56
283.745	88.56
283.976	94.56
284.207	91.56
284.439	79.56
284.67	89.56
284.901	86.56
285.132	81.56
285.364	87.56
285.595	94.56
285.826	84.56
286.057	97.56
286.288	74.56
286.52	74.56
286.751	84.56
286.982	98.56
287.213	91.56
287.444	87.56
287.675	79.56
287.906	88.56
288.138	93.56
288.369	81.56
288.6	83.56
288.831	77.56
289.062	79.56
289.293	84.56
289.524	76.56
289.755	91.56
289.986	68.56
290.217	97.56
290.448	82.56
290.679	86.56
290.91	87.56
291.141	86.56
291.371	93.56
291.602	93.56
291.833	80.56
292.064	93.56
292.295	101.56
292.526	92.56
292.757	76.56
292.987	99.56
293.218	88.56
293.449	85.56
293.68	81.56
293.91	89.56
294.141	83.56
294.372	79.56
294.603	83.56
294.833	80.56
295.064	91.56
295.295	78.56
295.525	86.56
295.756	92.56
295.987	70.56
296.217	83.56
296.448	97.56
296.679	85.56
296.909	89.56
297.14	82.56
297.37	80.56
297.601	79.56
297.831	91.56
298.062	79.56
298.292	91.56
298.523	85.56
298.753	77.56
298.984	73.56
299.214	87.56
299.445	85.56
299.675	87.56
299.905	80.56
300.136	85.56
300.366	85.56
300.597	83.56
300.827	86.56
301.057	94.56
301.288	85.56
301.518	79.56
301.748	90.56
301.979	102.56
302.209	96.56
302.439	79.56
302.669	98.56
302.9	78.56
303.13	94.56
303.36	93.56
303.59	103.56
303.82	83.56
304.051	88.56
304.281	84.56
304.511	82.56
304.741	100.56
304.971	86.56
305.201	87.56
305.431	102.56
305.661	97.56
305.891	100.56
306.121	89.56
306.352	83.56
306.582	86.56
306.812	79.56
307.042	86.56
307.272	77.56
307.502	82.56
307.731	78.56
307.961	82.56
308.191	82.56
308.421	93.56
308.651	81.56
308.881	91.56
309.111	83.56
309.341	75.56
309.571	87.56
309.8	92.56
310.03	90.56
310.26	90.56
310.49	87.56
310.72	87.56
310.949	85.56
311.179	86.56
311.409	72.56
311.639	84.56
311.868	97.56
312.098	73.56
312.328	81.56
312.557	96.56
312.787	97.56
313.017	82.56
313.246	81.56
313.476	91.56
313.706	91.56
313.935	88.56
314.165	84.56
314.394	80.56
314.624	85.56
314.853	95.56
315.083	93.56
315.312	102.56
315.542	87.56
315.771	99.56
316.001	91.56
316.23	88.56
316.46	93.56
316.689	91.56
316.919	86.56
317.148	85.56
317.377	100.56
317.607	85.56
317.836	73.56
318.065	100.56
318.295	87.56
318.524	88.56
318.753	91.56
318.983	83.56
319.212	90.56
319.441	82.56
319.67	86.56
319.9	84.56
320.129	83.56
320.358	85.56
320.587	86.56
320.816	78.56
321.046	84.56
321.275	87.56
321.504	91.56
321.733	90.56
321.962	77.56
322.191	89.56
322.42	79.56
322.649	98.56
322.878	77.56
323.108	91.56
323.337	84.56
323.566	80.56
323.795	77.56
324.024	101.56
324.253	99.56
324.482	90.56
324.71	80.56
324.939	96.56
325.168	96.56
325.397	83.56
325.626	92.56
325.855	87.56
326.084	91.56
326.313	82.56
326.542	100.56
326.77	99.56
326.999	85.56
327.228	88.56
327.457	81.56
327.686	86.56
327.914	84.56
328.143	79.56
328.372	85.56
328.6	82.56
328.829	80.56
329.058	79.56
329.287	88.56
329.515	91.56
329.744	101.56
329.972	96.56
330.201	82.56
330.43	97.56
330.658	104.56
330.887	96.56
331.115	82.56
331.344	86.56
331.572	93.56
331.801	79.56
332.03	72.56
332.258	74.56
332.486	88.56
332.715	98.56
332.943	88.56
333.172	88.56
333.4	84.56
333.629	85.56
333.857	81.56
334.085	87.56
334.314	89.56
334.542	84.56
334.771	80.56
334.999	80.56
335.227	92.56
335.455	92.56
335.684	83.56
335.912	90.56
336.14	90.56
336.369	92.56
336.597	92.56
336.825	73.56
337.053	77.56
337.281	88.56
337.51	82.56
337.738	94.56
337.966	98.56
338.194	77.56
338.422	80.56
338.65	94.56
338.878	96.56
339.106	86.56
339.334	96.56
339.562	102.56
339.79	78.56
340.018	88.56
340.246	87.56
340.474	82.56
340.702	86.56
340.93	103.56
341.158	85.56
341.386	88.56
341.614	98.56
341.842	92.56
342.07	84.56
342.298	91.56
342.526	84.56
342.754	80.56
342.981	93.56
343.209	95.56
343.437	93.56
343.665	87.56
343.893	95.56
344.12	83.56
344.348	86.56
344.576	95.56
344.804	90.56
345.031	74.56
345.259	83.56
345.487	89.56
345.714	90.56
345.942	85.56
346.17	100.56
346.397	89.56
346.625	80.56
346.853	80.56
347.08	85.56
347.308	94.56
347.535	83.56
347.763	103.56
347.99	86.56
348.218	84.56
348.445	94.56
348.673	98.56
348.9	86.56
349.128	94.56
349.355	77.56
349.583	86.56
349.81	80.56
350.037	83.56
350.265	100.56
350.492	100.56
350.72	79.56
350.947	93.56
351.174	91.56
351.402	79.56
351.629	80.56
351.856	93.56
352.083	88.56
352.311	85.56
352.538	84.56
352.765	87.56
352.992	87.56
353.22	77.56
353.447	83.56
353.674	78.56
353.901	102.56
354.128	89.56
354.355	77.56
354.583	93.56
354.81	89.56
355.037	90.56
355.264	95.56
355.491	91.56
355.718	90.56
355.945	91.56
356.172	94.56
356.399	88.56
356.626	90.56
356.853	78.56
357.08	93.56
357.307	91.56
357.534	88.56
357.761	94.56
357.988	82.56
358.215	83.56
358.441	95.56
358.668	86.56
358.895	87.56
359.122	86.56
359.349	89.56
359.576	83.56
359.802	92.56
360.029	83.56
360.256	86.56
360.483	89.56
360.709	103.56
360.936	81.56
361.163	83.56
361.39	86.56
361.616	90.56
361.843	71.56
362.07	76.56
362.296	84.56
362.523	83.56
362.749	85.56
362.976	89.56
363.203	76.56
363.429	81.56
363.656	95.56
363.882	103.56
364.109	76.56
364.335	96.56
364.562	90.56
364.788	82.56
365.015	90.56
365.241	95.56
365.468	91.56
365.694	92.56
365.92	68.56
366.147	94.56
366.373	86.56
366.599	75.56
366.826	91.56
367.052	83.56
367.278	84.56
367.505	76.56
367.731	83.56
367.957	80.56
368.184	79.56
368.41	95.56
368.636	94.56
368.862	91.56
369.089	102.56
369.315	96.56
369.541	89.56
369.767	92.56
369.993	81.56
370.219	77.56
370.445	90.56
370.672	103.56
370.898	85.56
371.124	93.56
371.35	74.56
371.576	85.56
371.802	85.56
372.028	88.56
372.254	87.56
372.48	95.56
372.706	93.56
372.932	80.56
373.158	94.56
373.384	86.56
373.61	80.56
373.835	77.56
374.061	80.56
374.287	87.56
374.513	89.56
374.739	85.56
374.965	85.56
375.191	87.56
375.416	71.56
375.642	91.56
375.868	94.56
376.094	80.56
376.319	80.56
376.545	74.56
376.771	98.56
376.997	78.56
377.222	92.56
377.448	85.56
377.674	80.56
377.899	85.56
378.125	83.56
378.35	92.56
378.576	90.56
378.802	81.56
379.027	80.56
379.253	86.56
379.478	99.56
379.704	84.56
379.929	85.56
380.155	94.56
380.38	90.56
380.606	84.56
380.831	105.56
381.057	75.56
381.282	91.56
381.507	76.56
381.733	98.56
381.958	93.56
382.184	82.56
382.409	80.56
382.634	92.56
382.86	102.56
383.085	83.56
383.31	91.56
383.535	88.56
383.761	75.56
383.986	77.56
384.211	88.56
384.436	84.56
384.662	87.56
384.887	104.56
385.112	90.56
385.337	95.56
385.562	93.56
385.787	94.56
386.013	100.56
386.238	91.56
386.463	87.56
386.688	85.56
386.913	87.56
387.138	97.56
387.363	91.56
387.588	82.56
387.813	88.56
388.038	83.56
388.263	81.56
388.488	85.56
388.713	91.56
388.938	86.56
389.163	77.56
389.387	75.56
389.612	91.56
389.837	92.56
390.062	79.56
390.287	87.56
390.512	79.56
390.736	76.56
390.961	92.56
391.186	73.56
391.411	90.56
391.636	80.56
391.86	71.56
392.085	96.56
392.31	99.56
392.534	83.56
392.759	96.56
392.984	83.56
393.208	84.56
393.433	92.56
393.658	68.56
393.882	77.56
394.107	79.56
394.331	95.56
394.556	78.56
394.78	90.56
395.005	95.56
395.229	89.56
395.454	74.56
395.678	72.56
395.903	74.56
396.127	81.56
396.352	85.56
396.576	86.56
396.801	86.56
397.025	86.56
397.249	92.56
397.474	82.56
397.698	92.56
397.922	92.56
398.147	85.56
398.371	83.56
398.595	89.56
398.82	89.56
399.044	71.56
399.268	78.56
399.492	77.56
399.717	91.56
399.941	81.56
400.165	85.56
400.389	77.56
400.613	85.56
400.837	79.56
401.062	85.56
401.286	88.56
401.51	86.56
401.734	94.56
401.958	81.56
402.182	87.56
402.406	81.56
402.63	88.56
402.854	87.56
403.078	82.56
403.302	81.56
403.526	100.56
403.75	84.56
403.974	100.56
404.198	85.56
404.422	84.56
404.645	89.56
404.869	92.56
405.093	92.56
405.317	86.56
405.541	95.56
405.765	92.56
405.988	89.56
406.212	74.56
406.436	85.56
406.66	74.56
406.883	82.56
407.107	89.56
407.331	98.56
407.555	95.56
407.778	95.56
408.002	90.56
408.226	83.56
408.449	86.56
408.673	95.56
408.896	99.56
409.12	84.56
409.344	82.56
409.567	91.56
409.791	94.56
410.014	94.56
410.238	87.56
410.461	88.56
410.685	88.56
410.908	88.56
411.132	96.56
411.355	87.56
411.578	97.56
411.802	93.56
412.025	85.56
412.249	88.56
412.472	90.56
412.695	77.56
412.919	80.56
413.142	92.56
413.365	89.56
413.589	91.56
413.812	96.56
414.035	95.56
414.258	100.56
414.482	102.56
414.705	104.56
414.928	71.56
415.151	97.56
415.374	106.56
415.597	76.56
415.821	83.56
416.044	81.56
416.267	89.56
416.49	96.56
416.713	86.56
416.936	96.56
417.159	83.56
417.382	83.56
417.605	87.56
417.828	103.56
418.051	93.56
418.274	88.56
418.497	95.56
418.72	101.56
418.943	81.56
419.166	106.56
419.389	101.56
419.611	88.56
419.834	74.56
420.057	94.56
420.28	90.56
420.503	98.56
420.726	95.56
420.948	89.56
421.171	98.56
421.394	100.56
421.617	78.56
421.839	81.56
422.062	106.56
422.285	78.56
422.507	95.56
422.73	105.56
422.953	93.56
423.175	98.56
423.398	90.56
423.621	103.56
423.843	90.56
424.066	83.56
424.288	98.56
424.511	84.56
424.733	86.56
424.956	88.56
425.178	105.56
425.401	84.56
425.623	86.56
425.846	96.56
426.068	81.56
426.291	77.56
426.513	94.56
426.735	99.56
426.958	92.56
427.18	83.56
427.402	95.56
427.625	89.56
427.847	93.56
428.069	98.56
428.292	90.56
428.514	92.56
428.736	85.56
428.958	91.56
429.181	102.56
429.403	91.56
429.625	90.56
429.847	81.56
430.069	94.56
430.292	107.56
430.514	82.56
430.736	95.56
430.958	84.56
431.18	82.56
431.402	91.56
431.624	92.56
431.846	78.56
432.068	78.56
432.29	90.56
432.512	87.56
432.734	100.56
432.956	88.56
433.178	96.56
433.4	86.56
433.622	93.56
433.844	103.56
434.066	85.56
434.287	81.56
434.509	85.56
434.731	99.56
434.953	90.56
435.175	87.56
435.397	73.56
435.618	82.56
435.84	85.56
436.062	95.56
436.284	96.56
436.505	78.56
436.727	90.56
436.949	98.56
437.17	93.56
437.392	86.56
437.614	88.56
437.835	74.56
438.057	87.56
438.278	98.56
438.5	94.56
438.721	96.56
438.943	91.56
439.165	79.56
439.386	77.56
439.608	89.56
439.829	102.56
440.05	82.56
440.272	99.56
440.493	87.56
440.715	99.56
440.936	95.56
441.158	98.56
441.379	105.56
441.6	92.56
441.822	110.56
442.043	84.56
442.264	86.56
442.486	102.56
442.707	99.56
442.928	106.56
443.149	99.56
443.371	73.56
443.592	91.56
443.813	91.56
444.034	99.56
444.255	87.56
444.476	97.56
444.698	90.56
444.919	96.56
445.14	217.56
445.361	149.56
445.582	98.56
445.803	92.56
446.024	92.56
446.245	95.56
446.466	100.56
446.687	101.56
446.908	92.56
447.129	107.56
447.35	94.56
447.571	85.56
447.792	86.56
448.013	104.56
448.234	96.56
448.455	83.56
448.675	87.56
448.896	84.56
449.117	80.56
449.338	93.56
449.559	94.56
449.779	98.56
450	95.56
450.221	91.56
450.442	94.56
450.662	91.56
450.883	69.56
451.104	70.56
451.324	99.56
451.545	85.56
451.766	92.56
451.986	93.56
452.207	83.56
452.428	94.56
452.648	70.56
452.869	89.56
453.089	100.56
453.31	102.56
453.53	70.56
453.751	90.56
453.971	82.56
454.192	93.56
454.412	77.56
454.633	80.56
454.853	107.56
455.073	75.56
455.294	89.56
455.514	88.56
455.734	78.56
455.955	81.56
456.175	95.56
456.395	90.56
456.616	81.56
456.836	79.56
457.056	83.56
457.276	91.56
457.497	76.56
457.717	77.56
457.937	86.56
458.157	83.56
458.377	87.56
458.598	92.56
458.818	89.56
459.038	75.56
459.258	86.56
459.478	84.56
459.698	76.56
459.918	83.56
460.138	77.56
460.358	82.56
460.578	72.56
460.798	85.56
461.018	76.56
461.238	96.56
461.458	74.56
461.678	97.56
461.898	84.56
462.118	96.56
462.338	94.56
462.558	91.56
462.777	94.56
462.997	88.56
463.217	90.56
463.437	87.56
463.657	95.56
463.876	92.56
464.096	75.56
464.316	81.56
464.536	83.56
464.755	80.56
464.975	85.56
465.195	85.56
465.414	87.56
465.634	93.56
465.854	73.56
466.073	87.56
466.293	82.56
466.512	88.56
466.732	94.56
466.951	84.56
467.171	86.56
467.391	78.56
467.61	99.56
467.829	97.56
468.049	94.56
468.268	83.56
468.488	84.56
468.707	91.56
468.927	98.56
469.146	84.56
469.365	94.56
469.585	84.56
469.804	92.56
470.023	84.56
470.243	78.56
470.462	86.56
470.681	89.56
470.901	93.56
471.12	89.56
471.339	99.56
471.558	89.56
471.777	92.56
471.997	87.56
472.216	90.56
472.435	104.56
472.654	85.56
472.873	80.56
473.092	76.56
473.311	91.56
473.53	80.56
473.749	93.56
473.968	86.56
474.187	87.56
474.406	80.56
474.625	93.56
474.844	89.56
475.063	85.56
475.282	97.56
475.501	88.56
475.72	95.56
475.939	87.56
476.158	92.56
476.377	96.56
476.596	80.56
476.814	83.56
477.033	70.56
477.252	94.56
477.471	86.56
477.69	74.56
477.908	96.56
478.127	92.56
478.346	84.56
478.564	96.56
478.783	89.56
479.002	89.56
479.22	87.56
479.439	85.56
479.658	79.56
479.876	84.56
480.095	88.56
480.313	79.56
480.532	99.56
480.751	89.56
480.969	90.56
481.188	90.56
481.406	72.56
481.624	79.56
481.843	86.56
482.061	72.56
482.28	94.56
482.498	80.56
482.717	92.56
482.935	102.56
483.153	87.56
483.372	94.56
483.59	91.56
483.808	99.56
484.027	66.56
484.245	80.56
484.463	91.56
484.681	92.56
484.9	80.56
485.118	92.56
485.336	97.56
485.554	85.56
485.772	77.56
485.99	77.56
486.209	73.56
486.427	76.56
486.645	88.56
486.863	86.56
487.081	100.56
487.299	90.56
487.517	90.56
487.735	93.56
487.953	114.56
488.171	100.56
488.389	77.56
488.607	79.56
488.825	96.56
489.043	85.56
489.261	85.56
489.479	86.56
489.696	96.56
489.914	103.56
490.132	92.56
490.35	93.56
490.568	91.56
490.786	100.56
491.003	91.56
491.221	89.56
491.439	122.56
491.657	100.56
491.874	100.56
492.092	101.56
492.31	113.56
492.527	106.56
492.745	102.56
492.963	99.56
493.18	102.56
493.398	112.56
493.615	101.56
493.833	108.56
494.05	92.56
494.268	96.56
494.485	109.56
494.703	99.56
494.92	92.56
495.138	99.56
495.355	99.56
495.573	91.56
495.79	102.56
496.008	110.56
496.225	109.56
496.442	100.56
496.66	98.56
496.877	86.56
497.094	106.56
497.312	98.56
497.529	102.56
497.746	94.56
497.963	84.56
498.181	89.56
498.398	69.56
498.615	98.56
498.832	90.56
499.049	81.56
499.267	86.56
499.484	75.56
499.701	87.56
499.918	83.56
500.135	102.56
500.352	110.56
500.569	105.56
500.786	106.56
501.003	107.56
501.22	86.56
501.437	93.56
501.654	96.56
501.871	93.56
502.088	93.56
502.305	101.56
502.522	86.56
502.739	86.56
502.956	85.56
503.172	99.56
503.389	78.56
503.606	106.56
503.823	96.56
504.04	84.56
504.256	84.56
504.473	85.56
504.69	79.56
504.907	80.56
505.123	92.56
505.34	107.56
505.557	89.56
505.773	96.56
505.99	90.56
506.207	88.56
506.423	98.56
506.64	79.56
506.856	79.56
507.073	88.56
507.289	82.56
507.506	81.56
507.722	83.56
507.939	82.56
508.155	81.56
508.372	85.56
508.588	90.56
508.805	84.56
509.021	106.56
509.238	86.56
509.454	85.56
509.67	78.56
509.887	90.56
510.103	73.56
510.319	105.56
510.536	84.56
510.752	86.56
510.968	76.56
511.184	90.56
511.401	98.56
511.617	80.56
511.833	92.56
512.049	89.56
512.265	93.56
512.481	98.56
512.698	95.56
512.914	100.56
513.13	86.56
513.346	84.56
513.562	87.56
513.778	79.56
513.994	89.56
514.21	85.56
514.426	79.56
514.642	79.56
514.858	85.56
515.074	83.56
515.29	89.56
515.506	95.56
515.721	99.56
515.937	97.56
516.153	88.56
516.369	95.56
516.585	69.56
516.801	80.56
517.016	85.56
517.232	81.56
517.448	93.56
517.664	91.56
517.879	91.56
518.095	87.56
