Data from Zn(NO3)2Standard.Agarose3%.GreenCap.LampEnergy5.5.E.O_HRD10591_15-03-09-768.txt Node
Date: Mon Jul 22 15:03:09 EDT 2019
User: cochatt
Spectrometer: HR+D1059
Trigger mode: 1
Integration Time (sec): 1.000000E-1
Scans to average: 1
Electric dark correction enabled: true
Nonlinearity correction enabled: false
Boxcar width: 0
XAxis mode: Wavelengths
Number of Pixels in Spectrum: 2048
>>>>>Begin Spectral Data<<<<<
223.165	-16.69
223.4	-16.69
223.635	-16.69
223.869	-24.69
224.104	-18.69
224.338	-19.69
224.573	3.31
224.808	-3.69
225.042	0.31
225.277	-8.69
225.511	-8.69
225.746	-0.69
225.98	12.31
226.215	-1.69
226.449	14.31
226.683	24.31
226.918	23.31
227.152	25.31
227.387	30.31
227.621	40.31
227.856	38.31
228.09	46.31
228.324	39.31
228.559	62.31
228.793	60.31
229.027	58.31
229.262	64.31
229.496	54.31
229.73	55.31
229.964	86.31
230.199	72.31
230.433	80.31
230.667	91.31
230.901	74.31
231.136	76.31
231.37	85.31
231.604	73.31
231.838	87.31
232.072	75.31
232.306	79.31
232.541	82.31
232.775	85.31
233.009	87.31
233.243	72.31
233.477	84.31
233.711	87.31
233.945	93.31
234.179	87.31
234.413	76.31
234.647	95.31
234.881	91.31
235.115	64.31
235.349	69.31
235.583	80.31
235.817	104.31
236.051	79.31
236.285	76.31
236.519	78.31
236.753	70.31
236.987	84.31
237.221	84.31
237.455	84.31
237.689	88.31
237.922	69.31
238.156	73.31
238.39	81.31
238.624	72.31
238.858	84.31
239.091	86.31
239.325	93.31
239.559	73.31
239.793	67.31
240.027	71.31
240.26	87.31
240.494	85.31
240.728	78.31
240.961	87.31
241.195	75.31
241.429	76.31
241.662	79.31
241.896	72.31
242.13	81.31
242.363	73.31
242.597	79.31
242.83	71.31
243.064	85.31
243.298	101.31
243.531	81.31
243.765	70.31
243.998	72.31
244.232	74.31
244.465	83.31
244.699	78.31
244.932	82.31
245.166	71.31
245.399	84.31
245.633	74.31
245.866	84.31
246.099	73.31
246.333	87.31
246.566	73.31
246.8	77.31
247.033	60.31
247.266	85.31
247.5	89.31
247.733	80.31
247.966	83.31
248.2	79.31
248.433	77.31
248.666	84.31
248.899	73.31
249.133	76.31
249.366	82.31
249.599	89.31
249.832	78.31
250.066	85.31
250.299	78.31
250.532	72.31
250.765	65.31
250.998	79.31
251.231	87.31
251.465	80.31
251.698	82.31
251.931	76.31
252.164	79.31
252.397	81.31
252.63	77.31
252.863	81.31
253.096	67.31
253.329	85.31
253.562	77.31
253.795	78.31
254.028	93.31
254.261	80.31
254.494	87.31
254.727	88.31
254.96	71.31
255.193	68.31
255.426	88.31
255.659	73.31
255.892	69.31
256.124	79.31
256.357	79.31
256.59	76.31
256.823	88.31
257.056	78.31
257.289	78.31
257.521	73.31
257.754	70.31
257.987	88.31
258.22	88.31
258.452	73.31
258.685	87.31
258.918	86.31
259.151	84.31
259.383	78.31
259.616	95.31
259.849	77.31
260.081	90.31
260.314	91.31
260.547	73.31
260.779	95.31
261.012	71.31
261.244	71.31
261.477	80.31
261.71	80.31
261.942	85.31
262.175	82.31
262.407	95.31
262.64	80.31
262.872	87.31
263.105	81.31
263.337	79.31
263.57	90.31
263.802	79.31
264.035	74.31
264.267	67.31
264.499	71.31
264.732	71.31
264.964	86.31
265.197	65.31
265.429	80.31
265.661	84.31
265.894	87.31
266.126	100.31
266.358	76.31
266.591	91.31
266.823	77.31
267.055	82.31
267.287	98.31
267.52	86.31
267.752	73.31
267.984	76.31
268.216	85.31
268.448	86.31
268.681	91.31
268.913	75.31
269.145	100.31
269.377	95.31
269.609	77.31
269.841	84.31
270.073	78.31
270.306	83.31
270.538	90.31
270.77	82.31
271.002	89.31
271.234	78.31
271.466	89.31
271.698	84.31
271.93	95.31
272.162	86.31
272.394	80.31
272.626	68.31
272.858	83.31
273.09	86.31
273.322	78.31
273.553	83.31
273.785	82.31
274.017	77.31
274.249	72.31
274.481	95.31
274.713	80.31
274.945	87.31
275.176	75.31
275.408	78.31
275.64	95.31
275.872	91.31
276.104	91.31
276.335	92.31
276.567	87.31
276.799	82.31
277.031	84.31
277.262	89.31
277.494	85.31
277.726	71.31
277.957	88.31
278.189	90.31
278.421	69.31
278.652	96.31
278.884	91.31
279.115	104.31
279.347	69.31
279.579	81.31
279.81	78.31
280.042	91.31
280.273	90.31
280.505	79.31
280.736	95.31
280.968	94.31
281.199	98.31
281.431	76.31
281.662	79.31
281.894	91.31
282.125	101.31
282.356	86.31
282.588	68.31
282.819	78.31
283.051	85.31
283.282	96.31
283.513	90.31
283.745	90.31
283.976	86.31
284.207	80.31
284.439	91.31
284.67	94.31
284.901	91.31
285.132	84.31
285.364	84.31
285.595	94.31
285.826	74.31
286.057	79.31
286.288	87.31
286.52	83.31
286.751	75.31
286.982	76.31
287.213	85.31
287.444	78.31
287.675	94.31
287.906	85.31
288.138	81.31
288.369	86.31
288.6	88.31
288.831	91.31
289.062	82.31
289.293	76.31
289.524	87.31
289.755	89.31
289.986	73.31
290.217	87.31
290.448	79.31
290.679	86.31
290.91	81.31
291.141	82.31
291.371	91.31
291.602	91.31
291.833	93.31
292.064	70.31
292.295	94.31
292.526	83.31
292.757	81.31
292.987	83.31
293.218	96.31
293.449	91.31
293.68	94.31
293.91	88.31
294.141	87.31
294.372	80.31
294.603	78.31
294.833	91.31
295.064	85.31
295.295	86.31
295.525	71.31
295.756	78.31
295.987	90.31
296.217	80.31
296.448	87.31
296.679	92.31
296.909	86.31
297.14	84.31
297.37	84.31
297.601	90.31
297.831	76.31
298.062	77.31
298.292	71.31
298.523	89.31
298.753	86.31
298.984	82.31
299.214	77.31
299.445	93.31
299.675	78.31
299.905	86.31
300.136	79.31
300.366	91.31
300.597	77.31
300.827	99.31
301.057	92.31
301.288	86.31
301.518	91.31
301.748	107.31
301.979	84.31
302.209	67.31
302.439	68.31
302.669	79.31
302.9	85.31
303.13	84.31
303.36	82.31
303.59	88.31
303.82	88.31
304.051	86.31
304.281	109.31
304.511	85.31
304.741	85.31
304.971	89.31
305.201	88.31
305.431	77.31
305.661	102.31
305.891	84.31
306.121	83.31
306.352	79.31
306.582	75.31
306.812	91.31
307.042	78.31
307.272	99.31
307.502	84.31
307.731	95.31
307.961	74.31
308.191	83.31
308.421	71.31
308.651	82.31
308.881	69.31
309.111	79.31
309.341	83.31
309.571	94.31
309.8	93.31
310.03	87.31
310.26	77.31
310.49	81.31
310.72	83.31
310.949	73.31
311.179	89.31
311.409	75.31
311.639	90.31
311.868	89.31
312.098	86.31
312.328	81.31
312.557	93.31
312.787	71.31
313.017	93.31
313.246	90.31
313.476	88.31
313.706	79.31
313.935	84.31
314.165	87.31
314.394	93.31
314.624	87.31
314.853	85.31
315.083	95.31
315.312	95.31
315.542	91.31
315.771	88.31
316.001	74.31
316.23	81.31
316.46	74.31
316.689	76.31
316.919	98.31
317.148	97.31
317.377	95.31
317.607	96.31
317.836	76.31
318.065	78.31
318.295	84.31
318.524	86.31
318.753	88.31
318.983	79.31
319.212	93.31
319.441	100.31
319.67	74.31
319.9	87.31
320.129	94.31
320.358	82.31
320.587	78.31
320.816	84.31
321.046	83.31
321.275	84.31
321.504	98.31
321.733	90.31
321.962	95.31
322.191	87.31
322.42	85.31
322.649	90.31
322.878	86.31
323.108	79.31
323.337	84.31
323.566	95.31
323.795	87.31
324.024	108.31
324.253	91.31
324.482	87.31
324.71	76.31
324.939	91.31
325.168	81.31
325.397	96.31
325.626	87.31
325.855	85.31
326.084	81.31
326.313	87.31
326.542	79.31
326.77	78.31
326.999	97.31
327.228	94.31
327.457	86.31
327.686	76.31
327.914	86.31
328.143	94.31
328.372	88.31
328.6	86.31
328.829	84.31
329.058	74.31
329.287	83.31
329.515	82.31
329.744	85.31
329.972	90.31
330.201	80.31
330.43	79.31
330.658	95.31
330.887	87.31
331.115	78.31
331.344	81.31
331.572	101.31
331.801	77.31
332.03	77.31
332.258	68.31
332.486	80.31
332.715	77.31
332.943	81.31
333.172	91.31
333.4	81.31
333.629	88.31
333.857	84.31
334.085	81.31
334.314	79.31
334.542	80.31
334.771	72.31
334.999	80.31
335.227	72.31
335.455	91.31
335.684	85.31
335.912	75.31
336.14	84.31
336.369	77.31
336.597	88.31
336.825	77.31
337.053	95.31
337.281	88.31
337.51	77.31
337.738	86.31
337.966	86.31
338.194	78.31
338.422	77.31
338.65	75.31
338.878	88.31
339.106	82.31
339.334	90.31
339.562	76.31
339.79	81.31
340.018	104.31
340.246	89.31
340.474	92.31
340.702	91.31
340.93	86.31
341.158	83.31
341.386	86.31
341.614	85.31
341.842	76.31
342.07	87.31
342.298	91.31
342.526	84.31
342.754	84.31
342.981	80.31
343.209	72.31
343.437	83.31
343.665	87.31
343.893	78.31
344.12	90.31
344.348	85.31
344.576	75.31
344.804	76.31
345.031	78.31
345.259	80.31
345.487	83.31
345.714	84.31
345.942	79.31
346.17	79.31
346.397	91.31
346.625	94.31
346.853	87.31
347.08	74.31
347.308	77.31
347.535	78.31
347.763	91.31
347.99	65.31
348.218	92.31
348.445	94.31
348.673	86.31
348.9	78.31
349.128	75.31
349.355	82.31
349.583	86.31
349.81	87.31
350.037	80.31
350.265	86.31
350.492	84.31
350.72	74.31
350.947	85.31
351.174	91.31
351.402	78.31
351.629	86.31
351.856	89.31
352.083	85.31
352.311	93.31
352.538	75.31
352.765	84.31
352.992	95.31
353.22	108.31
353.447	86.31
353.674	81.31
353.901	98.31
354.128	84.31
354.355	85.31
354.583	83.31
354.81	89.31
355.037	78.31
355.264	86.31
355.491	85.31
355.718	71.31
355.945	92.31
356.172	72.31
356.399	90.31
356.626	82.31
356.853	86.31
357.08	85.31
357.307	82.31
357.534	84.31
357.761	81.31
357.988	90.31
358.215	80.31
358.441	85.31
358.668	91.31
358.895	93.31
359.122	72.31
359.349	82.31
359.576	86.31
359.802	89.31
360.029	80.31
360.256	87.31
360.483	83.31
360.709	87.31
360.936	76.31
361.163	84.31
361.39	93.31
361.616	69.31
361.843	92.31
362.07	88.31
362.296	87.31
362.523	85.31
362.749	81.31
362.976	84.31
363.203	84.31
363.429	83.31
363.656	88.31
363.882	85.31
364.109	98.31
364.335	93.31
364.562	94.31
364.788	99.31
365.015	80.31
365.241	83.31
365.468	96.31
365.694	83.31
365.92	82.31
366.147	76.31
366.373	89.31
366.599	78.31
366.826	99.31
367.052	86.31
367.278	74.31
367.505	73.31
367.731	75.31
367.957	94.31
368.184	88.31
368.41	96.31
368.636	92.31
368.862	84.31
369.089	85.31
369.315	92.31
369.541	88.31
369.767	84.31
369.993	95.31
370.219	74.31
370.445	81.31
370.672	91.31
370.898	87.31
371.124	88.31
371.35	77.31
371.576	81.31
371.802	82.31
372.028	76.31
372.254	91.31
372.48	83.31
372.706	83.31
372.932	93.31
373.158	74.31
373.384	72.31
373.61	71.31
373.835	80.31
374.061	85.31
374.287	74.31
374.513	83.31
374.739	93.31
374.965	86.31
375.191	88.31
375.416	84.31
375.642	81.31
375.868	84.31
376.094	85.31
376.319	92.31
376.545	94.31
376.771	78.31
376.997	73.31
377.222	72.31
377.448	78.31
377.674	96.31
377.899	79.31
378.125	86.31
378.35	80.31
378.576	80.31
378.802	90.31
379.027	89.31
379.253	86.31
379.478	76.31
379.704	84.31
379.929	92.31
380.155	79.31
380.38	83.31
380.606	82.31
380.831	75.31
381.057	81.31
381.282	76.31
381.507	86.31
381.733	84.31
381.958	84.31
382.184	77.31
382.409	76.31
382.634	88.31
382.86	103.31
383.085	87.31
383.31	93.31
383.535	83.31
383.761	78.31
383.986	90.31
384.211	84.31
384.436	86.31
384.662	95.31
384.887	89.31
385.112	81.31
385.337	82.31
385.562	72.31
385.787	87.31
386.013	87.31
386.238	79.31
386.463	85.31
386.688	82.31
386.913	80.31
387.138	80.31
387.363	85.31
387.588	89.31
387.813	90.31
388.038	90.31
388.263	81.31
388.488	80.31
388.713	80.31
388.938	95.31
389.163	73.31
389.387	90.31
389.612	65.31
389.837	77.31
390.062	79.31
390.287	83.31
390.512	88.31
390.736	75.31
390.961	94.31
391.186	81.31
391.411	81.31
391.636	82.31
391.86	80.31
392.085	94.31
392.31	75.31
392.534	87.31
392.759	81.31
392.984	80.31
393.208	74.31
393.433	74.31
393.658	92.31
393.882	89.31
394.107	100.31
394.331	92.31
394.556	70.31
394.78	75.31
395.005	91.31
395.229	82.31
395.454	89.31
395.678	90.31
395.903	73.31
396.127	100.31
396.352	91.31
396.576	86.31
396.801	82.31
397.025	82.31
397.249	73.31
397.474	90.31
397.698	91.31
397.922	102.31
398.147	94.31
398.371	89.31
398.595	75.31
398.82	84.31
399.044	95.31
399.268	90.31
399.492	88.31
399.717	92.31
399.941	91.31
400.165	95.31
400.389	93.31
400.613	82.31
400.837	86.31
401.062	82.31
401.286	67.31
401.51	92.31
401.734	82.31
401.958	84.31
402.182	84.31
402.406	91.31
402.63	83.31
402.854	80.31
403.078	80.31
403.302	87.31
403.526	82.31
403.75	73.31
403.974	74.31
404.198	72.31
404.422	79.31
404.645	75.31
404.869	77.31
405.093	81.31
405.317	88.31
405.541	88.31
405.765	77.31
405.988	87.31
406.212	79.31
406.436	95.31
406.66	87.31
406.883	96.31
407.107	78.31
407.331	89.31
407.555	103.31
407.778	81.31
408.002	100.31
408.226	71.31
408.449	85.31
408.673	74.31
408.896	86.31
409.12	91.31
409.344	81.31
409.567	103.31
409.791	82.31
410.014	86.31
410.238	76.31
410.461	100.31
410.685	94.31
410.908	80.31
411.132	78.31
411.355	86.31
411.578	85.31
411.802	103.31
412.025	73.31
412.249	82.31
412.472	75.31
412.695	83.31
412.919	80.31
413.142	96.31
413.365	89.31
413.589	72.31
413.812	83.31
414.035	93.31
414.258	101.31
414.482	87.31
414.705	98.31
414.928	96.31
415.151	96.31
415.374	84.31
415.597	100.31
415.821	89.31
416.044	81.31
416.267	103.31
416.49	93.31
416.713	85.31
416.936	92.31
417.159	90.31
417.382	80.31
417.605	83.31
417.828	90.31
418.051	82.31
418.274	79.31
418.497	99.31
418.72	87.31
418.943	76.31
419.166	82.31
419.389	88.31
419.611	92.31
419.834	91.31
420.057	83.31
420.28	79.31
420.503	86.31
420.726	90.31
420.948	88.31
421.171	92.31
421.394	87.31
421.617	86.31
421.839	93.31
422.062	92.31
422.285	87.31
422.507	85.31
422.73	79.31
422.953	79.31
423.175	103.31
423.398	104.31
423.621	95.31
423.843	79.31
424.066	95.31
424.288	101.31
424.511	92.31
424.733	83.31
424.956	91.31
425.178	103.31
425.401	106.31
425.623	104.31
425.846	85.31
426.068	84.31
426.291	98.31
426.513	91.31
426.735	96.31
426.958	80.31
427.18	93.31
427.402	86.31
427.625	92.31
427.847	89.31
428.069	83.31
428.292	95.31
428.514	86.31
428.736	89.31
428.958	86.31
429.181	81.31
429.403	76.31
429.625	68.31
429.847	94.31
430.069	86.31
430.292	91.31
430.514	79.31
430.736	75.31
430.958	73.31
431.18	88.31
431.402	102.31
431.624	99.31
431.846	86.31
432.068	90.31
432.29	79.31
432.512	94.31
432.734	87.31
432.956	91.31
433.178	86.31
433.4	93.31
433.622	86.31
433.844	102.31
434.066	87.31
434.287	82.31
434.509	99.31
434.731	85.31
434.953	79.31
435.175	84.31
435.397	85.31
435.618	81.31
435.84	102.31
436.062	79.31
436.284	69.31
436.505	91.31
436.727	96.31
436.949	80.31
437.17	84.31
437.392	104.31
437.614	81.31
437.835	90.31
438.057	82.31
438.278	72.31
438.5	105.31
438.721	82.31
438.943	89.31
439.165	90.31
439.386	86.31
439.608	86.31
439.829	88.31
440.05	91.31
440.272	89.31
440.493	96.31
440.715	103.31
440.936	103.31
441.158	105.31
441.379	89.31
441.6	91.31
441.822	88.31
442.043	95.31
442.264	96.31
442.486	80.31
442.707	84.31
442.928	94.31
443.149	92.31
443.371	82.31
443.592	85.31
443.813	102.31
444.034	102.31
444.255	103.31
444.476	89.31
444.698	91.31
444.919	85.31
445.14	206.31
445.361	145.31
445.582	99.31
445.803	106.31
446.024	99.31
446.245	81.31
446.466	87.31
446.687	92.31
446.908	102.31
447.129	94.31
447.35	88.31
447.571	105.31
447.792	95.31
448.013	98.31
448.234	89.31
448.455	86.31
448.675	93.31
448.896	99.31
449.117	94.31
449.338	83.31
449.559	86.31
449.779	99.31
450	91.31
450.221	102.31
450.442	86.31
450.662	94.31
450.883	84.31
451.104	77.31
451.324	90.31
451.545	90.31
451.766	83.31
451.986	71.31
452.207	95.31
452.428	83.31
452.648	90.31
452.869	91.31
453.089	93.31
453.31	86.31
453.53	84.31
453.751	84.31
453.971	83.31
454.192	76.31
454.412	75.31
454.633	85.31
454.853	88.31
455.073	87.31
455.294	67.31
455.514	78.31
455.734	75.31
455.955	83.31
456.175	83.31
456.395	96.31
456.616	93.31
456.836	93.31
457.056	94.31
457.276	87.31
457.497	83.31
457.717	91.31
457.937	95.31
458.157	86.31
458.377	66.31
458.598	91.31
458.818	74.31
459.038	76.31
459.258	71.31
459.478	91.31
459.698	86.31
459.918	72.31
460.138	90.31
460.358	99.31
460.578	89.31
460.798	92.31
461.018	92.31
461.238	91.31
461.458	88.31
461.678	87.31
461.898	93.31
462.118	76.31
462.338	75.31
462.558	91.31
462.777	89.31
462.997	84.31
463.217	94.31
463.437	91.31
463.657	88.31
463.876	87.31
464.096	86.31
464.316	57.31
464.536	88.31
464.755	83.31
464.975	81.31
465.195	81.31
465.414	83.31
465.634	100.31
465.854	87.31
466.073	84.31
466.293	76.31
466.512	91.31
466.732	97.31
466.951	95.31
467.171	91.31
467.391	91.31
467.61	99.31
467.829	83.31
468.049	90.31
468.268	69.31
468.488	83.31
468.707	81.31
468.927	84.31
469.146	101.31
469.365	107.31
469.585	89.31
469.804	88.31
470.023	103.31
470.243	87.31
470.462	87.31
470.681	104.31
470.901	86.31
471.12	87.31
471.339	89.31
471.558	90.31
471.777	89.31
471.997	89.31
472.216	91.31
472.435	97.31
472.654	83.31
472.873	92.31
473.092	93.31
473.311	81.31
473.53	92.31
473.749	83.31
473.968	77.31
474.187	78.31
474.406	74.31
474.625	77.31
474.844	87.31
475.063	94.31
475.282	93.31
475.501	99.31
475.72	97.31
475.939	92.31
476.158	90.31
476.377	88.31
476.596	91.31
476.814	76.31
477.033	83.31
477.252	87.31
477.471	84.31
477.69	76.31
477.908	91.31
478.127	93.31
478.346	89.31
478.564	100.31
478.783	99.31
479.002	90.31
479.22	78.31
479.439	97.31
479.658	76.31
479.876	77.31
480.095	79.31
480.313	85.31
480.532	94.31
480.751	92.31
480.969	86.31
481.188	91.31
481.406	94.31
481.624	86.31
481.843	92.31
482.061	79.31
482.28	85.31
482.498	88.31
482.717	79.31
482.935	100.31
483.153	84.31
483.372	81.31
483.59	97.31
483.808	90.31
484.027	88.31
484.245	92.31
484.463	92.31
484.681	95.31
484.9	98.31
485.118	85.31
485.336	79.31
485.554	89.31
485.772	93.31
485.99	77.31
486.209	78.31
486.427	93.31
486.645	88.31
486.863	90.31
487.081	106.31
487.299	89.31
487.517	86.31
487.735	98.31
487.953	87.31
488.171	96.31
488.389	94.31
488.607	90.31
488.825	98.31
489.043	92.31
489.261	87.31
489.479	77.31
489.696	80.31
489.914	85.31
490.132	87.31
490.35	82.31
490.568	89.31
490.786	100.31
491.003	101.31
491.221	104.31
491.439	111.31
491.657	107.31
491.874	118.31
492.092	109.31
492.31	110.31
492.527	108.31
492.745	107.31
492.963	101.31
493.18	110.31
493.398	84.31
493.615	96.31
493.833	95.31
494.05	98.31
494.268	104.31
494.485	112.31
494.703	85.31
494.92	109.31
495.138	92.31
495.355	114.31
495.573	111.31
495.79	104.31
496.008	103.31
496.225	102.31
496.442	110.31
496.66	80.31
496.877	99.31
497.094	85.31
497.312	74.31
497.529	91.31
497.746	91.31
497.963	99.31
498.181	94.31
498.398	88.31
498.615	94.31
498.832	97.31
499.049	86.31
499.267	96.31
499.484	94.31
499.701	105.31
499.918	105.31
500.135	105.31
500.352	85.31
500.569	79.31
500.786	94.31
501.003	95.31
501.22	85.31
501.437	90.31
501.654	80.31
501.871	79.31
502.088	89.31
502.305	108.31
502.522	91.31
502.739	83.31
502.956	98.31
503.172	82.31
503.389	96.31
503.606	77.31
503.823	95.31
504.04	90.31
504.256	86.31
504.473	90.31
504.69	88.31
504.907	91.31
505.123	81.31
505.34	95.31
505.557	75.31
505.773	86.31
505.99	84.31
506.207	85.31
506.423	92.31
506.64	88.31
506.856	96.31
507.073	98.31
507.289	87.31
507.506	94.31
507.722	95.31
507.939	85.31
508.155	90.31
508.372	79.31
508.588	99.31
508.805	86.31
509.021	90.31
509.238	88.31
509.454	80.31
509.67	87.31
509.887	90.31
510.103	83.31
510.319	87.31
510.536	75.31
510.752	80.31
510.968	75.31
511.184	87.31
511.401	93.31
511.617	80.31
511.833	76.31
512.049	74.31
512.265	82.31
512.481	104.31
512.698	81.31
512.914	84.31
513.13	84.31
513.346	77.31
513.562	78.31
513.778	83.31
513.994	64.31
514.21	71.31
514.426	90.31
514.642	87.31
514.858	84.31
515.074	87.31
515.29	82.31
515.506	75.31
515.721	71.31
515.937	87.31
516.153	75.31
516.369	86.31
516.585	84.31
516.801	88.31
517.016	83.31
517.232	80.31
517.448	94.31
517.664	106.31
517.879	111.31
518.095	84.31
518.311	85.31
