Data from Zn(NO3)2Standard.Agarose3%.GreenCap.LampEnergy5.5.E.O_HRD10591_15-03-58-768.txt Node
Date: Mon Jul 22 15:03:58 EDT 2019
User: cochatt
Spectrometer: HR+D1059
Trigger mode: 1
Integration Time (sec): 1.000000E-1
Scans to average: 1
Electric dark correction enabled: true
Nonlinearity correction enabled: false
Boxcar width: 0
XAxis mode: Wavelengths
Number of Pixels in Spectrum: 2048
>>>>>Begin Spectral Data<<<<<
223.165	-18.06
223.4	-18.06
223.635	-18.06
223.869	-4.06
224.104	-21.06
224.338	-2.06
224.573	-14.06
224.808	-20.06
225.042	-20.06
225.277	-6.06
225.511	-13.06
225.746	17.94
225.98	0.94
226.215	5.94
226.449	0.94
226.683	30.94
226.918	40.94
227.152	20.94
227.387	36.94
227.621	52.94
227.856	44.94
228.09	51.94
228.324	61.94
228.559	50.94
228.793	74.94
229.027	64.94
229.262	72.94
229.496	70.94
229.73	74.94
229.964	62.94
230.199	61.94
230.433	67.94
230.667	81.94
230.901	73.94
231.136	78.94
231.37	71.94
231.604	77.94
231.838	78.94
232.072	86.94
232.306	89.94
232.541	74.94
232.775	75.94
233.009	79.94
233.243	71.94
233.477	76.94
233.711	73.94
233.945	84.94
234.179	84.94
234.413	82.94
234.647	81.94
234.881	80.94
235.115	93.94
235.349	86.94
235.583	79.94
235.817	74.94
236.051	85.94
236.285	80.94
236.519	82.94
236.753	81.94
236.987	64.94
237.221	91.94
237.455	70.94
237.689	85.94
237.922	78.94
238.156	76.94
238.39	77.94
238.624	77.94
238.858	93.94
239.091	75.94
239.325	67.94
239.559	71.94
239.793	55.94
240.027	76.94
240.26	82.94
240.494	87.94
240.728	71.94
240.961	79.94
241.195	74.94
241.429	86.94
241.662	82.94
241.896	79.94
242.13	94.94
242.363	74.94
242.597	87.94
242.83	73.94
243.064	79.94
243.298	82.94
243.531	89.94
243.765	86.94
243.998	74.94
244.232	83.94
244.465	76.94
244.699	89.94
244.932	83.94
245.166	70.94
245.399	80.94
245.633	78.94
245.866	77.94
246.099	60.94
246.333	76.94
246.566	76.94
246.8	71.94
247.033	77.94
247.266	74.94
247.5	78.94
247.733	85.94
247.966	80.94
248.2	65.94
248.433	81.94
248.666	82.94
248.899	79.94
249.133	87.94
249.366	97.94
249.599	78.94
249.832	76.94
250.066	85.94
250.299	71.94
250.532	87.94
250.765	82.94
250.998	80.94
251.231	77.94
251.465	77.94
251.698	78.94
251.931	76.94
252.164	81.94
252.397	82.94
252.63	71.94
252.863	78.94
253.096	69.94
253.329	86.94
253.562	75.94
253.795	69.94
254.028	85.94
254.261	77.94
254.494	92.94
254.727	80.94
254.96	76.94
255.193	82.94
255.426	101.94
255.659	84.94
255.892	81.94
256.124	71.94
256.357	71.94
256.59	87.94
256.823	73.94
257.056	85.94
257.289	85.94
257.521	82.94
257.754	96.94
257.987	70.94
258.22	77.94
258.452	89.94
258.685	93.94
258.918	86.94
259.151	85.94
259.383	77.94
259.616	84.94
259.849	80.94
260.081	90.94
260.314	88.94
260.547	89.94
260.779	90.94
261.012	81.94
261.244	89.94
261.477	80.94
261.71	79.94
261.942	79.94
262.175	74.94
262.407	72.94
262.64	77.94
262.872	82.94
263.105	64.94
263.337	91.94
263.57	78.94
263.802	83.94
264.035	91.94
264.267	96.94
264.499	75.94
264.732	90.94
264.964	91.94
265.197	93.94
265.429	90.94
265.661	73.94
265.894	87.94
266.126	91.94
266.358	89.94
266.591	91.94
266.823	88.94
267.055	79.94
267.287	83.94
267.52	78.94
267.752	74.94
267.984	75.94
268.216	94.94
268.448	98.94
268.681	77.94
268.913	84.94
269.145	84.94
269.377	76.94
269.609	74.94
269.841	82.94
270.073	78.94
270.306	84.94
270.538	86.94
270.77	91.94
271.002	79.94
271.234	87.94
271.466	81.94
271.698	88.94
271.93	81.94
272.162	77.94
272.394	92.94
272.626	81.94
272.858	68.94
273.09	101.94
273.322	76.94
273.553	78.94
273.785	94.94
274.017	80.94
274.249	83.94
274.481	101.94
274.713	81.94
274.945	78.94
275.176	92.94
275.408	80.94
275.64	87.94
275.872	94.94
276.104	95.94
276.335	83.94
276.567	88.94
276.799	61.94
277.031	82.94
277.262	82.94
277.494	97.94
277.726	98.94
277.957	92.94
278.189	95.94
278.421	88.94
278.652	74.94
278.884	78.94
279.115	65.94
279.347	79.94
279.579	75.94
279.81	75.94
280.042	91.94
280.273	90.94
280.505	76.94
280.736	88.94
280.968	85.94
281.199	80.94
281.431	82.94
281.662	75.94
281.894	76.94
282.125	90.94
282.356	94.94
282.588	82.94
282.819	77.94
283.051	88.94
283.282	65.94
283.513	81.94
283.745	85.94
283.976	78.94
284.207	88.94
284.439	78.94
284.67	91.94
284.901	83.94
285.132	84.94
285.364	78.94
285.595	94.94
285.826	85.94
286.057	85.94
286.288	77.94
286.52	76.94
286.751	75.94
286.982	94.94
287.213	83.94
287.444	77.94
287.675	88.94
287.906	99.94
288.138	96.94
288.369	88.94
288.6	68.94
288.831	78.94
289.062	92.94
289.293	74.94
289.524	83.94
289.755	83.94
289.986	84.94
290.217	90.94
290.448	82.94
290.679	85.94
290.91	100.94
291.141	75.94
291.371	89.94
291.602	91.94
291.833	87.94
292.064	83.94
292.295	72.94
292.526	91.94
292.757	74.94
292.987	82.94
293.218	82.94
293.449	93.94
293.68	75.94
293.91	89.94
294.141	84.94
294.372	84.94
294.603	81.94
294.833	91.94
295.064	91.94
295.295	87.94
295.525	87.94
295.756	75.94
295.987	85.94
296.217	88.94
296.448	87.94
296.679	93.94
296.909	70.94
297.14	78.94
297.37	86.94
297.601	89.94
297.831	80.94
298.062	80.94
298.292	81.94
298.523	82.94
298.753	73.94
298.984	86.94
299.214	72.94
299.445	74.94
299.675	94.94
299.905	88.94
300.136	67.94
300.366	83.94
300.597	93.94
300.827	87.94
301.057	85.94
301.288	94.94
301.518	68.94
301.748	87.94
301.979	74.94
302.209	77.94
302.439	85.94
302.669	72.94
302.9	97.94
303.13	78.94
303.36	91.94
303.59	85.94
303.82	92.94
304.051	89.94
304.281	76.94
304.511	87.94
304.741	97.94
304.971	87.94
305.201	92.94
305.431	85.94
305.661	85.94
305.891	99.94
306.121	73.94
306.352	82.94
306.582	93.94
306.812	84.94
307.042	81.94
307.272	73.94
307.502	75.94
307.731	76.94
307.961	90.94
308.191	78.94
308.421	84.94
308.651	91.94
308.881	93.94
309.111	97.94
309.341	84.94
309.571	87.94
309.8	70.94
310.03	84.94
310.26	74.94
310.49	90.94
310.72	82.94
310.949	71.94
311.179	79.94
311.409	80.94
311.639	85.94
311.868	82.94
312.098	83.94
312.328	91.94
312.557	83.94
312.787	95.94
313.017	78.94
313.246	93.94
313.476	82.94
313.706	68.94
313.935	74.94
314.165	74.94
314.394	77.94
314.624	77.94
314.853	88.94
315.083	89.94
315.312	79.94
315.542	81.94
315.771	79.94
316.001	84.94
316.23	83.94
316.46	78.94
316.689	89.94
316.919	88.94
317.148	85.94
317.377	89.94
317.607	82.94
317.836	83.94
318.065	82.94
318.295	85.94
318.524	92.94
318.753	72.94
318.983	89.94
319.212	88.94
319.441	75.94
319.67	91.94
319.9	94.94
320.129	95.94
320.358	95.94
320.587	91.94
320.816	84.94
321.046	74.94
321.275	101.94
321.504	92.94
321.733	90.94
321.962	96.94
322.191	79.94
322.42	79.94
322.649	99.94
322.878	93.94
323.108	74.94
323.337	86.94
323.566	85.94
323.795	87.94
324.024	89.94
324.253	84.94
324.482	87.94
324.71	90.94
324.939	84.94
325.168	75.94
325.397	90.94
325.626	91.94
325.855	94.94
326.084	89.94
326.313	92.94
326.542	82.94
326.77	89.94
326.999	91.94
327.228	73.94
327.457	82.94
327.686	80.94
327.914	72.94
328.143	82.94
328.372	85.94
328.6	76.94
328.829	81.94
329.058	90.94
329.287	81.94
329.515	85.94
329.744	93.94
329.972	62.94
330.201	83.94
330.43	74.94
330.658	91.94
330.887	88.94
331.115	93.94
331.344	88.94
331.572	94.94
331.801	86.94
332.03	87.94
332.258	85.94
332.486	85.94
332.715	91.94
332.943	83.94
333.172	76.94
333.4	83.94
333.629	86.94
333.857	84.94
334.085	80.94
334.314	93.94
334.542	81.94
334.771	84.94
334.999	81.94
335.227	88.94
335.455	97.94
335.684	87.94
335.912	76.94
336.14	77.94
336.369	97.94
336.597	96.94
336.825	87.94
337.053	84.94
337.281	81.94
337.51	75.94
337.738	76.94
337.966	98.94
338.194	77.94
338.422	84.94
338.65	84.94
338.878	93.94
339.106	83.94
339.334	89.94
339.562	85.94
339.79	84.94
340.018	94.94
340.246	95.94
340.474	86.94
340.702	80.94
340.93	77.94
341.158	92.94
341.386	81.94
341.614	89.94
341.842	86.94
342.07	97.94
342.298	90.94
342.526	87.94
342.754	90.94
342.981	91.94
343.209	86.94
343.437	83.94
343.665	84.94
343.893	92.94
344.12	99.94
344.348	81.94
344.576	76.94
344.804	84.94
345.031	90.94
345.259	84.94
345.487	74.94
345.714	92.94
345.942	77.94
346.17	84.94
346.397	81.94
346.625	83.94
346.853	91.94
347.08	90.94
347.308	91.94
347.535	78.94
347.763	74.94
347.99	86.94
348.218	95.94
348.445	67.94
348.673	76.94
348.9	80.94
349.128	87.94
349.355	91.94
349.583	93.94
349.81	94.94
350.037	79.94
350.265	83.94
350.492	88.94
350.72	88.94
350.947	84.94
351.174	85.94
351.402	89.94
351.629	87.94
351.856	102.94
352.083	85.94
352.311	80.94
352.538	72.94
352.765	84.94
352.992	87.94
353.22	82.94
353.447	70.94
353.674	95.94
353.901	90.94
354.128	81.94
354.355	83.94
354.583	89.94
354.81	78.94
355.037	75.94
355.264	81.94
355.491	92.94
355.718	67.94
355.945	90.94
356.172	76.94
356.399	85.94
356.626	93.94
356.853	77.94
357.08	92.94
357.307	93.94
357.534	78.94
357.761	97.94
357.988	77.94
358.215	85.94
358.441	100.94
358.668	83.94
358.895	92.94
359.122	75.94
359.349	69.94
359.576	83.94
359.802	87.94
360.029	88.94
360.256	99.94
360.483	88.94
360.709	64.94
360.936	74.94
361.163	91.94
361.39	88.94
361.616	85.94
361.843	94.94
362.07	87.94
362.296	97.94
362.523	77.94
362.749	90.94
362.976	85.94
363.203	99.94
363.429	87.94
363.656	106.94
363.882	78.94
364.109	87.94
364.335	90.94
364.562	78.94
364.788	75.94
365.015	96.94
365.241	90.94
365.468	87.94
365.694	86.94
365.92	101.94
366.147	89.94
366.373	92.94
366.599	73.94
366.826	93.94
367.052	90.94
367.278	84.94
367.505	83.94
367.731	79.94
367.957	97.94
368.184	70.94
368.41	81.94
368.636	84.94
368.862	76.94
369.089	92.94
369.315	91.94
369.541	77.94
369.767	81.94
369.993	84.94
370.219	86.94
370.445	84.94
370.672	74.94
370.898	86.94
371.124	87.94
371.35	82.94
371.576	94.94
371.802	76.94
372.028	87.94
372.254	90.94
372.48	89.94
372.706	82.94
372.932	88.94
373.158	84.94
373.384	90.94
373.61	91.94
373.835	86.94
374.061	79.94
374.287	92.94
374.513	84.94
374.739	95.94
374.965	79.94
375.191	79.94
375.416	74.94
375.642	82.94
375.868	86.94
376.094	86.94
376.319	82.94
376.545	81.94
376.771	79.94
376.997	73.94
377.222	67.94
377.448	71.94
377.674	88.94
377.899	85.94
378.125	87.94
378.35	75.94
378.576	86.94
378.802	98.94
379.027	81.94
379.253	83.94
379.478	81.94
379.704	82.94
379.929	67.94
380.155	77.94
380.38	79.94
380.606	84.94
380.831	98.94
381.057	74.94
381.282	94.94
381.507	95.94
381.733	76.94
381.958	85.94
382.184	87.94
382.409	93.94
382.634	84.94
382.86	81.94
383.085	85.94
383.31	83.94
383.535	88.94
383.761	81.94
383.986	87.94
384.211	96.94
384.436	93.94
384.662	88.94
384.887	91.94
385.112	74.94
385.337	93.94
385.562	88.94
385.787	74.94
386.013	85.94
386.238	86.94
386.463	67.94
386.688	62.94
386.913	73.94
387.138	93.94
387.363	74.94
387.588	87.94
387.813	82.94
388.038	90.94
388.263	78.94
388.488	83.94
388.713	79.94
388.938	93.94
389.163	73.94
389.387	73.94
389.612	83.94
389.837	87.94
390.062	97.94
390.287	86.94
390.512	93.94
390.736	83.94
390.961	80.94
391.186	85.94
391.411	85.94
391.636	81.94
391.86	74.94
392.085	81.94
392.31	84.94
392.534	84.94
392.759	89.94
392.984	86.94
393.208	81.94
393.433	85.94
393.658	85.94
393.882	83.94
394.107	89.94
394.331	82.94
394.556	91.94
394.78	88.94
395.005	81.94
395.229	102.94
395.454	99.94
395.678	86.94
395.903	88.94
396.127	80.94
396.352	71.94
396.576	68.94
396.801	93.94
397.025	71.94
397.249	84.94
397.474	80.94
397.698	95.94
397.922	94.94
398.147	87.94
398.371	77.94
398.595	90.94
398.82	81.94
399.044	82.94
399.268	86.94
399.492	76.94
399.717	85.94
399.941	100.94
400.165	100.94
400.389	80.94
400.613	93.94
400.837	84.94
401.062	92.94
401.286	85.94
401.51	80.94
401.734	88.94
401.958	90.94
402.182	90.94
402.406	97.94
402.63	83.94
402.854	72.94
403.078	86.94
403.302	78.94
403.526	83.94
403.75	93.94
403.974	91.94
404.198	83.94
404.422	96.94
404.645	87.94
404.869	91.94
405.093	84.94
405.317	103.94
405.541	85.94
405.765	79.94
405.988	92.94
406.212	89.94
406.436	77.94
406.66	90.94
406.883	89.94
407.107	105.94
407.331	89.94
407.555	82.94
407.778	82.94
408.002	109.94
408.226	94.94
408.449	93.94
408.673	84.94
408.896	87.94
409.12	86.94
409.344	78.94
409.567	81.94
409.791	87.94
410.014	97.94
410.238	96.94
410.461	95.94
410.685	93.94
410.908	85.94
411.132	94.94
411.355	101.94
411.578	91.94
411.802	89.94
412.025	94.94
412.249	88.94
412.472	82.94
412.695	98.94
412.919	96.94
413.142	89.94
413.365	86.94
413.589	94.94
413.812	83.94
414.035	104.94
414.258	74.94
414.482	88.94
414.705	82.94
414.928	90.94
415.151	84.94
415.374	101.94
415.597	89.94
415.821	79.94
416.044	85.94
416.267	97.94
416.49	93.94
416.713	87.94
416.936	99.94
417.159	92.94
417.382	97.94
417.605	81.94
417.828	101.94
418.051	90.94
418.274	97.94
418.497	90.94
418.72	86.94
418.943	93.94
419.166	78.94
419.389	85.94
419.611	99.94
419.834	92.94
420.057	91.94
420.28	94.94
420.503	74.94
420.726	95.94
420.948	91.94
421.171	107.94
421.394	84.94
421.617	93.94
421.839	83.94
422.062	94.94
422.285	102.94
422.507	82.94
422.73	89.94
422.953	92.94
423.175	94.94
423.398	97.94
423.621	97.94
423.843	97.94
424.066	86.94
424.288	93.94
424.511	89.94
424.733	102.94
424.956	92.94
425.178	98.94
425.401	103.94
425.623	85.94
425.846	88.94
426.068	84.94
426.291	87.94
426.513	80.94
426.735	67.94
426.958	94.94
427.18	89.94
427.402	92.94
427.625	86.94
427.847	95.94
428.069	100.94
428.292	92.94
428.514	99.94
428.736	114.94
428.958	82.94
429.181	85.94
429.403	99.94
429.625	94.94
429.847	74.94
430.069	101.94
430.292	100.94
430.514	91.94
430.736	94.94
430.958	110.94
431.18	84.94
431.402	90.94
431.624	85.94
431.846	88.94
432.068	79.94
432.29	89.94
432.512	94.94
432.734	79.94
432.956	93.94
433.178	95.94
433.4	98.94
433.622	82.94
433.844	99.94
434.066	78.94
434.287	87.94
434.509	88.94
434.731	85.94
434.953	84.94
435.175	79.94
435.397	102.94
435.618	79.94
435.84	98.94
436.062	88.94
436.284	90.94
436.505	89.94
436.727	88.94
436.949	83.94
437.17	100.94
437.392	92.94
437.614	83.94
437.835	88.94
438.057	85.94
438.278	74.94
438.5	81.94
438.721	92.94
438.943	84.94
439.165	94.94
439.386	86.94
439.608	95.94
439.829	95.94
440.05	91.94
440.272	99.94
440.493	108.94
440.715	91.94
440.936	84.94
441.158	93.94
441.379	86.94
441.6	88.94
441.822	110.94
442.043	90.94
442.264	113.94
442.486	86.94
442.707	90.94
442.928	98.94
443.149	95.94
443.371	89.94
443.592	89.94
443.813	90.94
444.034	95.94
444.255	86.94
444.476	92.94
444.698	88.94
444.919	100.94
445.14	233.94
445.361	133.94
445.582	104.94
445.803	81.94
446.024	90.94
446.245	80.94
446.466	93.94
446.687	86.94
446.908	103.94
447.129	86.94
447.35	100.94
447.571	98.94
447.792	101.94
448.013	79.94
448.234	97.94
448.455	98.94
448.675	90.94
448.896	94.94
449.117	103.94
449.338	81.94
449.559	95.94
449.779	94.94
450	83.94
450.221	95.94
450.442	83.94
450.662	82.94
450.883	93.94
451.104	91.94
451.324	87.94
451.545	92.94
451.766	77.94
451.986	92.94
452.207	93.94
452.428	93.94
452.648	92.94
452.869	91.94
453.089	93.94
453.31	83.94
453.53	79.94
453.751	86.94
453.971	78.94
454.192	83.94
454.412	87.94
454.633	92.94
454.853	87.94
455.073	92.94
455.294	86.94
455.514	90.94
455.734	74.94
455.955	94.94
456.175	86.94
456.395	91.94
456.616	83.94
456.836	91.94
457.056	83.94
457.276	80.94
457.497	77.94
457.717	83.94
457.937	72.94
458.157	79.94
458.377	91.94
458.598	92.94
458.818	82.94
459.038	97.94
459.258	90.94
459.478	79.94
459.698	83.94
459.918	91.94
460.138	85.94
460.358	85.94
460.578	87.94
460.798	90.94
461.018	90.94
461.238	89.94
461.458	80.94
461.678	90.94
461.898	80.94
462.118	94.94
462.338	104.94
462.558	84.94
462.777	98.94
462.997	84.94
463.217	91.94
463.437	82.94
463.657	90.94
463.876	85.94
464.096	80.94
464.316	70.94
464.536	72.94
464.755	94.94
464.975	97.94
465.195	95.94
465.414	87.94
465.634	91.94
465.854	92.94
466.073	86.94
466.293	92.94
466.512	88.94
466.732	101.94
466.951	84.94
467.171	71.94
467.391	61.94
467.61	88.94
467.829	100.94
468.049	94.94
468.268	94.94
468.488	88.94
468.707	90.94
468.927	87.94
469.146	86.94
469.365	91.94
469.585	97.94
469.804	79.94
470.023	85.94
470.243	84.94
470.462	96.94
470.681	86.94
470.901	86.94
471.12	88.94
471.339	96.94
471.558	86.94
471.777	85.94
471.997	99.94
472.216	89.94
472.435	85.94
472.654	74.94
472.873	101.94
473.092	95.94
473.311	92.94
473.53	100.94
473.749	85.94
473.968	100.94
474.187	98.94
474.406	83.94
474.625	91.94
474.844	71.94
475.063	89.94
475.282	99.94
475.501	81.94
475.72	95.94
475.939	86.94
476.158	95.94
476.377	89.94
476.596	90.94
476.814	69.94
477.033	78.94
477.252	102.94
477.471	87.94
477.69	100.94
477.908	90.94
478.127	99.94
478.346	97.94
478.564	89.94
478.783	80.94
479.002	90.94
479.22	75.94
479.439	90.94
479.658	79.94
479.876	98.94
480.095	98.94
480.313	81.94
480.532	82.94
480.751	92.94
480.969	92.94
481.188	85.94
481.406	79.94
481.624	82.94
481.843	77.94
482.061	91.94
482.28	88.94
482.498	95.94
482.717	79.94
482.935	79.94
483.153	89.94
483.372	94.94
483.59	84.94
483.808	89.94
484.027	94.94
484.245	96.94
484.463	83.94
484.681	102.94
484.9	92.94
485.118	95.94
485.336	89.94
485.554	82.94
485.772	82.94
485.99	97.94
486.209	98.94
486.427	86.94
486.645	101.94
486.863	104.94
487.081	92.94
487.299	83.94
487.517	102.94
487.735	89.94
487.953	102.94
488.171	102.94
488.389	104.94
488.607	91.94
488.825	101.94
489.043	83.94
489.261	88.94
489.479	85.94
489.696	98.94
489.914	78.94
490.132	106.94
490.35	98.94
490.568	94.94
490.786	90.94
491.003	94.94
491.221	87.94
491.439	103.94
491.657	114.94
491.874	109.94
492.092	103.94
492.31	114.94
492.527	101.94
492.745	88.94
492.963	100.94
493.18	103.94
493.398	92.94
493.615	113.94
493.833	104.94
494.05	107.94
494.268	104.94
494.485	106.94
494.703	114.94
494.92	82.94
495.138	83.94
495.355	92.94
495.573	108.94
495.79	75.94
496.008	98.94
496.225	85.94
496.442	95.94
496.66	101.94
496.877	89.94
497.094	104.94
497.312	86.94
497.529	90.94
497.746	91.94
497.963	86.94
498.181	103.94
498.398	100.94
498.615	97.94
498.832	88.94
499.049	86.94
499.267	88.94
499.484	97.94
499.701	95.94
499.918	103.94
500.135	91.94
500.352	95.94
500.569	88.94
500.786	99.94
501.003	94.94
501.22	82.94
501.437	81.94
501.654	98.94
501.871	91.94
502.088	105.94
502.305	95.94
502.522	84.94
502.739	94.94
502.956	91.94
503.172	99.94
503.389	94.94
503.606	87.94
503.823	96.94
504.04	94.94
504.256	90.94
504.473	93.94
504.69	76.94
504.907	91.94
505.123	101.94
505.34	78.94
505.557	98.94
505.773	87.94
505.99	90.94
506.207	89.94
506.423	85.94
506.64	92.94
506.856	100.94
507.073	105.94
507.289	71.94
507.506	87.94
507.722	93.94
507.939	84.94
508.155	86.94
508.372	89.94
508.588	78.94
508.805	89.94
509.021	70.94
509.238	93.94
509.454	80.94
509.67	83.94
509.887	94.94
510.103	96.94
510.319	80.94
510.536	81.94
510.752	67.94
510.968	110.94
511.184	72.94
511.401	84.94
511.617	87.94
511.833	86.94
512.049	78.94
512.265	88.94
512.481	77.94
512.698	73.94
512.914	76.94
513.13	107.94
513.346	92.94
513.562	75.94
513.778	94.94
513.994	94.94
514.21	86.94
514.426	89.94
514.642	68.94
514.858	87.94
515.074	76.94
515.29	97.94
515.506	96.94
515.721	75.94
515.937	87.94
516.153	80.94
516.369	86.94
516.585	89.94
516.801	86.94
517.016	77.94
517.232	91.94
517.448	82.94
517.664	85.94
517.879	87.94
518.095	77.94
518.311	90.94
