Data from Zn(NO3)2Standard.Agarose3%.GreenCap.LampEnergy5.5.E.O_HRD10591_15-02-41-768.txt Node
Date: Mon Jul 22 15:02:41 EDT 2019
User: cochatt
Spectrometer: HR+D1059
Trigger mode: 1
Integration Time (sec): 1.000000E-1
Scans to average: 1
Electric dark correction enabled: true
Nonlinearity correction enabled: false
Boxcar width: 0
XAxis mode: Wavelengths
Number of Pixels in Spectrum: 2048
>>>>>Begin Spectral Data<<<<<
223.165	-10.94
223.4	-10.94
223.635	-10.94
223.869	-16.94
224.104	-9.94
224.338	0.06
224.573	-23.94
224.808	-12.94
225.042	-20.94
225.277	-12.94
225.511	3.06
225.746	-5.94
225.98	-1.94
226.215	16.06
226.449	36.06
226.683	19.06
226.918	13.06
227.152	29.06
227.387	28.06
227.621	24.06
227.856	46.06
228.09	39.06
228.324	44.06
228.559	66.06
228.793	56.06
229.027	57.06
229.262	49.06
229.496	71.06
229.73	75.06
229.964	67.06
230.199	72.06
230.433	58.06
230.667	76.06
230.901	71.06
231.136	91.06
231.37	82.06
231.604	90.06
231.838	68.06
232.072	80.06
232.306	73.06
232.541	103.06
232.775	84.06
233.009	77.06
233.243	81.06
233.477	87.06
233.711	76.06
233.945	64.06
234.179	80.06
234.413	91.06
234.647	80.06
234.881	84.06
235.115	78.06
235.349	72.06
235.583	76.06
235.817	87.06
236.051	83.06
236.285	72.06
236.519	73.06
236.753	77.06
236.987	84.06
237.221	83.06
237.455	80.06
237.689	80.06
237.922	72.06
238.156	73.06
238.39	74.06
238.624	68.06
238.858	60.06
239.091	77.06
239.325	73.06
239.559	82.06
239.793	78.06
240.027	77.06
240.26	75.06
240.494	76.06
240.728	79.06
240.961	66.06
241.195	58.06
241.429	81.06
241.662	68.06
241.896	82.06
242.13	76.06
242.363	71.06
242.597	84.06
242.83	92.06
243.064	91.06
243.298	84.06
243.531	76.06
243.765	66.06
243.998	88.06
244.232	87.06
244.465	74.06
244.699	66.06
244.932	81.06
245.166	69.06
245.399	79.06
245.633	75.06
245.866	80.06
246.099	78.06
246.333	74.06
246.566	69.06
246.8	76.06
247.033	85.06
247.266	72.06
247.5	79.06
247.733	74.06
247.966	62.06
248.2	81.06
248.433	81.06
248.666	85.06
248.899	85.06
249.133	74.06
249.366	83.06
249.599	77.06
249.832	80.06
250.066	72.06
250.299	73.06
250.532	86.06
250.765	70.06
250.998	86.06
251.231	80.06
251.465	97.06
251.698	81.06
251.931	81.06
252.164	96.06
252.397	84.06
252.63	85.06
252.863	81.06
253.096	78.06
253.329	69.06
253.562	73.06
253.795	74.06
254.028	91.06
254.261	78.06
254.494	79.06
254.727	87.06
254.96	71.06
255.193	65.06
255.426	77.06
255.659	93.06
255.892	77.06
256.124	69.06
256.357	87.06
256.59	84.06
256.823	76.06
257.056	78.06
257.289	65.06
257.521	84.06
257.754	75.06
257.987	95.06
258.22	102.06
258.452	70.06
258.685	71.06
258.918	82.06
259.151	74.06
259.383	82.06
259.616	71.06
259.849	74.06
260.081	79.06
260.314	93.06
260.547	73.06
260.779	71.06
261.012	81.06
261.244	67.06
261.477	81.06
261.71	77.06
261.942	73.06
262.175	85.06
262.407	65.06
262.64	82.06
262.872	81.06
263.105	83.06
263.337	86.06
263.57	74.06
263.802	87.06
264.035	84.06
264.267	75.06
264.499	91.06
264.732	88.06
264.964	72.06
265.197	83.06
265.429	90.06
265.661	89.06
265.894	96.06
266.126	71.06
266.358	76.06
266.591	84.06
266.823	80.06
267.055	91.06
267.287	86.06
267.52	97.06
267.752	92.06
267.984	74.06
268.216	94.06
268.448	77.06
268.681	93.06
268.913	84.06
269.145	85.06
269.377	64.06
269.609	71.06
269.841	85.06
270.073	87.06
270.306	91.06
270.538	76.06
270.77	74.06
271.002	86.06
271.234	89.06
271.466	89.06
271.698	74.06
271.93	72.06
272.162	72.06
272.394	85.06
272.626	84.06
272.858	87.06
273.09	78.06
273.322	87.06
273.553	90.06
273.785	87.06
274.017	66.06
274.249	96.06
274.481	95.06
274.713	72.06
274.945	79.06
275.176	73.06
275.408	72.06
275.64	80.06
275.872	80.06
276.104	80.06
276.335	95.06
276.567	81.06
276.799	76.06
277.031	82.06
277.262	86.06
277.494	75.06
277.726	82.06
277.957	85.06
278.189	73.06
278.421	81.06
278.652	71.06
278.884	77.06
279.115	68.06
279.347	79.06
279.579	92.06
279.81	86.06
280.042	86.06
280.273	89.06
280.505	95.06
280.736	84.06
280.968	95.06
281.199	92.06
281.431	100.06
281.662	85.06
281.894	81.06
282.125	79.06
282.356	84.06
282.588	92.06
282.819	89.06
283.051	61.06
283.282	71.06
283.513	91.06
283.745	85.06
283.976	92.06
284.207	89.06
284.439	77.06
284.67	91.06
284.901	61.06
285.132	95.06
285.364	91.06
285.595	88.06
285.826	83.06
286.057	85.06
286.288	90.06
286.52	86.06
286.751	79.06
286.982	92.06
287.213	80.06
287.444	91.06
287.675	83.06
287.906	87.06
288.138	79.06
288.369	88.06
288.6	81.06
288.831	85.06
289.062	98.06
289.293	88.06
289.524	80.06
289.755	67.06
289.986	80.06
290.217	79.06
290.448	85.06
290.679	81.06
290.91	84.06
291.141	87.06
291.371	90.06
291.602	93.06
291.833	79.06
292.064	65.06
292.295	84.06
292.526	88.06
292.757	89.06
292.987	84.06
293.218	84.06
293.449	94.06
293.68	87.06
293.91	88.06
294.141	72.06
294.372	92.06
294.603	95.06
294.833	88.06
295.064	71.06
295.295	77.06
295.525	86.06
295.756	79.06
295.987	82.06
296.217	78.06
296.448	81.06
296.679	88.06
296.909	83.06
297.14	82.06
297.37	88.06
297.601	79.06
297.831	83.06
298.062	82.06
298.292	77.06
298.523	67.06
298.753	96.06
298.984	85.06
299.214	74.06
299.445	97.06
299.675	83.06
299.905	82.06
300.136	87.06
300.366	78.06
300.597	95.06
300.827	85.06
301.057	77.06
301.288	72.06
301.518	65.06
301.748	83.06
301.979	87.06
302.209	74.06
302.439	88.06
302.669	92.06
302.9	79.06
303.13	89.06
303.36	88.06
303.59	79.06
303.82	96.06
304.051	80.06
304.281	84.06
304.511	92.06
304.741	80.06
304.971	85.06
305.201	76.06
305.431	78.06
305.661	81.06
305.891	81.06
306.121	88.06
306.352	95.06
306.582	72.06
306.812	73.06
307.042	89.06
307.272	75.06
307.502	81.06
307.731	89.06
307.961	80.06
308.191	90.06
308.421	71.06
308.651	103.06
308.881	90.06
309.111	85.06
309.341	75.06
309.571	64.06
309.8	87.06
310.03	69.06
310.26	85.06
310.49	79.06
310.72	80.06
310.949	81.06
311.179	96.06
311.409	77.06
311.639	92.06
311.868	91.06
312.098	83.06
312.328	86.06
312.557	90.06
312.787	83.06
313.017	94.06
313.246	89.06
313.476	88.06
313.706	80.06
313.935	79.06
314.165	80.06
314.394	88.06
314.624	76.06
314.853	84.06
315.083	95.06
315.312	92.06
315.542	87.06
315.771	88.06
316.001	83.06
316.23	81.06
316.46	89.06
316.689	66.06
316.919	72.06
317.148	86.06
317.377	74.06
317.607	74.06
317.836	88.06
318.065	87.06
318.295	83.06
318.524	84.06
318.753	76.06
318.983	97.06
319.212	63.06
319.441	75.06
319.67	80.06
319.9	88.06
320.129	87.06
320.358	86.06
320.587	91.06
320.816	69.06
321.046	91.06
321.275	81.06
321.504	77.06
321.733	74.06
321.962	83.06
322.191	73.06
322.42	95.06
322.649	101.06
322.878	76.06
323.108	84.06
323.337	92.06
323.566	86.06
323.795	87.06
324.024	80.06
324.253	90.06
324.482	90.06
324.71	95.06
324.939	78.06
325.168	81.06
325.397	75.06
325.626	87.06
325.855	65.06
326.084	84.06
326.313	85.06
326.542	72.06
326.77	87.06
326.999	81.06
327.228	89.06
327.457	83.06
327.686	84.06
327.914	93.06
328.143	88.06
328.372	81.06
328.6	85.06
328.829	90.06
329.058	80.06
329.287	85.06
329.515	84.06
329.744	75.06
329.972	84.06
330.201	74.06
330.43	100.06
330.658	80.06
330.887	76.06
331.115	84.06
331.344	89.06
331.572	84.06
331.801	99.06
332.03	76.06
332.258	87.06
332.486	86.06
332.715	93.06
332.943	79.06
333.172	82.06
333.4	70.06
333.629	91.06
333.857	92.06
334.085	94.06
334.314	77.06
334.542	95.06
334.771	84.06
334.999	82.06
335.227	84.06
335.455	87.06
335.684	85.06
335.912	87.06
336.14	92.06
336.369	81.06
336.597	87.06
336.825	76.06
337.053	77.06
337.281	82.06
337.51	81.06
337.738	81.06
337.966	81.06
338.194	75.06
338.422	79.06
338.65	88.06
338.878	86.06
339.106	100.06
339.334	82.06
339.562	83.06
339.79	76.06
340.018	85.06
340.246	76.06
340.474	69.06
340.702	86.06
340.93	73.06
341.158	92.06
341.386	91.06
341.614	84.06
341.842	72.06
342.07	81.06
342.298	81.06
342.526	72.06
342.754	81.06
342.981	82.06
343.209	81.06
343.437	89.06
343.665	97.06
343.893	70.06
344.12	77.06
344.348	84.06
344.576	69.06
344.804	79.06
345.031	79.06
345.259	66.06
345.487	68.06
345.714	92.06
345.942	80.06
346.17	90.06
346.397	80.06
346.625	87.06
346.853	92.06
347.08	101.06
347.308	106.06
347.535	87.06
347.763	78.06
347.99	82.06
348.218	91.06
348.445	89.06
348.673	68.06
348.9	86.06
349.128	85.06
349.355	90.06
349.583	73.06
349.81	87.06
350.037	97.06
350.265	80.06
350.492	85.06
350.72	77.06
350.947	77.06
351.174	89.06
351.402	77.06
351.629	77.06
351.856	69.06
352.083	77.06
352.311	74.06
352.538	74.06
352.765	80.06
352.992	75.06
353.22	83.06
353.447	79.06
353.674	71.06
353.901	95.06
354.128	68.06
354.355	63.06
354.583	88.06
354.81	82.06
355.037	76.06
355.264	80.06
355.491	76.06
355.718	84.06
355.945	83.06
356.172	82.06
356.399	87.06
356.626	83.06
356.853	82.06
357.08	75.06
357.307	93.06
357.534	80.06
357.761	68.06
357.988	76.06
358.215	67.06
358.441	77.06
358.668	72.06
358.895	86.06
359.122	85.06
359.349	77.06
359.576	74.06
359.802	84.06
360.029	85.06
360.256	80.06
360.483	80.06
360.709	88.06
360.936	85.06
361.163	78.06
361.39	80.06
361.616	87.06
361.843	89.06
362.07	84.06
362.296	84.06
362.523	74.06
362.749	77.06
362.976	83.06
363.203	82.06
363.429	74.06
363.656	84.06
363.882	80.06
364.109	85.06
364.335	87.06
364.562	81.06
364.788	73.06
365.015	91.06
365.241	84.06
365.468	86.06
365.694	79.06
365.92	97.06
366.147	90.06
366.373	90.06
366.599	73.06
366.826	76.06
367.052	88.06
367.278	88.06
367.505	86.06
367.731	85.06
367.957	73.06
368.184	74.06
368.41	68.06
368.636	91.06
368.862	88.06
369.089	79.06
369.315	85.06
369.541	84.06
369.767	86.06
369.993	87.06
370.219	86.06
370.445	87.06
370.672	90.06
370.898	74.06
371.124	81.06
371.35	86.06
371.576	92.06
371.802	83.06
372.028	83.06
372.254	86.06
372.48	78.06
372.706	83.06
372.932	78.06
373.158	84.06
373.384	90.06
373.61	69.06
373.835	82.06
374.061	89.06
374.287	75.06
374.513	78.06
374.739	77.06
374.965	85.06
375.191	77.06
375.416	88.06
375.642	90.06
375.868	85.06
376.094	81.06
376.319	72.06
376.545	75.06
376.771	88.06
376.997	70.06
377.222	91.06
377.448	87.06
377.674	98.06
377.899	77.06
378.125	74.06
378.35	78.06
378.576	84.06
378.802	80.06
379.027	71.06
379.253	86.06
379.478	76.06
379.704	77.06
379.929	83.06
380.155	78.06
380.38	66.06
380.606	76.06
380.831	78.06
381.057	98.06
381.282	90.06
381.507	75.06
381.733	86.06
381.958	84.06
382.184	89.06
382.409	74.06
382.634	84.06
382.86	92.06
383.085	85.06
383.31	81.06
383.535	76.06
383.761	74.06
383.986	101.06
384.211	84.06
384.436	92.06
384.662	78.06
384.887	82.06
385.112	79.06
385.337	85.06
385.562	67.06
385.787	90.06
386.013	79.06
386.238	86.06
386.463	84.06
386.688	89.06
386.913	94.06
387.138	88.06
387.363	86.06
387.588	85.06
387.813	79.06
388.038	89.06
388.263	74.06
388.488	77.06
388.713	88.06
388.938	79.06
389.163	78.06
389.387	76.06
389.612	80.06
389.837	82.06
390.062	84.06
390.287	80.06
390.512	89.06
390.736	92.06
390.961	68.06
391.186	87.06
391.411	90.06
391.636	79.06
391.86	80.06
392.085	81.06
392.31	73.06
392.534	80.06
392.759	87.06
392.984	81.06
393.208	82.06
393.433	83.06
393.658	72.06
393.882	72.06
394.107	89.06
394.331	76.06
394.556	69.06
394.78	95.06
395.005	96.06
395.229	83.06
395.454	85.06
395.678	76.06
395.903	83.06
396.127	89.06
396.352	78.06
396.576	86.06
396.801	95.06
397.025	72.06
397.249	79.06
397.474	90.06
397.698	77.06
397.922	79.06
398.147	94.06
398.371	81.06
398.595	80.06
398.82	85.06
399.044	81.06
399.268	80.06
399.492	74.06
399.717	84.06
399.941	81.06
400.165	74.06
400.389	85.06
400.613	79.06
400.837	76.06
401.062	67.06
401.286	86.06
401.51	78.06
401.734	80.06
401.958	85.06
402.182	94.06
402.406	78.06
402.63	75.06
402.854	84.06
403.078	73.06
403.302	79.06
403.526	77.06
403.75	75.06
403.974	71.06
404.198	84.06
404.422	73.06
404.645	85.06
404.869	72.06
405.093	84.06
405.317	91.06
405.541	85.06
405.765	90.06
405.988	88.06
406.212	83.06
406.436	86.06
406.66	81.06
406.883	79.06
407.107	88.06
407.331	86.06
407.555	79.06
407.778	84.06
408.002	59.06
408.226	88.06
408.449	94.06
408.673	90.06
408.896	85.06
409.12	88.06
409.344	71.06
409.567	66.06
409.791	90.06
410.014	75.06
410.238	89.06
410.461	98.06
410.685	85.06
410.908	82.06
411.132	91.06
411.355	73.06
411.578	81.06
411.802	84.06
412.025	76.06
412.249	58.06
412.472	81.06
412.695	83.06
412.919	91.06
413.142	107.06
413.365	85.06
413.589	100.06
413.812	72.06
414.035	76.06
414.258	81.06
414.482	88.06
414.705	88.06
414.928	81.06
415.151	86.06
415.374	87.06
415.597	89.06
415.821	89.06
416.044	96.06
416.267	61.06
416.49	89.06
416.713	86.06
416.936	76.06
417.159	83.06
417.382	75.06
417.605	82.06
417.828	85.06
418.051	97.06
418.274	99.06
418.497	83.06
418.72	92.06
418.943	93.06
419.166	96.06
419.389	86.06
419.611	95.06
419.834	87.06
420.057	81.06
420.28	86.06
420.503	77.06
420.726	82.06
420.948	95.06
421.171	80.06
421.394	86.06
421.617	85.06
421.839	80.06
422.062	104.06
422.285	83.06
422.507	87.06
422.73	82.06
422.953	87.06
423.175	74.06
423.398	90.06
423.621	92.06
423.843	85.06
424.066	95.06
424.288	84.06
424.511	78.06
424.733	93.06
424.956	85.06
425.178	94.06
425.401	82.06
425.623	101.06
425.846	84.06
426.068	95.06
426.291	77.06
426.513	87.06
426.735	88.06
426.958	89.06
427.18	90.06
427.402	92.06
427.625	89.06
427.847	77.06
428.069	90.06
428.292	80.06
428.514	75.06
428.736	86.06
428.958	77.06
429.181	89.06
429.403	96.06
429.625	80.06
429.847	78.06
430.069	85.06
430.292	76.06
430.514	80.06
430.736	85.06
430.958	87.06
431.18	79.06
431.402	100.06
431.624	95.06
431.846	84.06
432.068	81.06
432.29	79.06
432.512	96.06
432.734	83.06
432.956	94.06
433.178	79.06
433.4	89.06
433.622	80.06
433.844	76.06
434.066	91.06
434.287	83.06
434.509	83.06
434.731	88.06
434.953	74.06
435.175	82.06
435.397	99.06
435.618	83.06
435.84	87.06
436.062	74.06
436.284	87.06
436.505	88.06
436.727	88.06
436.949	80.06
437.17	83.06
437.392	74.06
437.614	93.06
437.835	74.06
438.057	76.06
438.278	86.06
438.5	79.06
438.721	96.06
438.943	86.06
439.165	78.06
439.386	95.06
439.608	91.06
439.829	83.06
440.05	91.06
440.272	92.06
440.493	92.06
440.715	77.06
440.936	90.06
441.158	79.06
441.379	90.06
441.6	85.06
441.822	84.06
442.043	89.06
442.264	93.06
442.486	100.06
442.707	97.06
442.928	89.06
443.149	95.06
443.371	101.06
443.592	101.06
443.813	77.06
444.034	91.06
444.255	95.06
444.476	89.06
444.698	88.06
444.919	90.06
445.14	231.06
445.361	128.06
445.582	97.06
445.803	84.06
446.024	87.06
446.245	94.06
446.466	92.06
446.687	96.06
446.908	91.06
447.129	94.06
447.35	87.06
447.571	68.06
447.792	105.06
448.013	92.06
448.234	89.06
448.455	80.06
448.675	90.06
448.896	81.06
449.117	89.06
449.338	77.06
449.559	90.06
449.779	85.06
450	92.06
450.221	81.06
450.442	65.06
450.662	93.06
450.883	78.06
451.104	89.06
451.324	90.06
451.545	105.06
451.766	89.06
451.986	80.06
452.207	93.06
452.428	84.06
452.648	99.06
452.869	82.06
453.089	89.06
453.31	78.06
453.53	86.06
453.751	90.06
453.971	83.06
454.192	71.06
454.412	81.06
454.633	85.06
454.853	99.06
455.073	85.06
455.294	87.06
455.514	84.06
455.734	76.06
455.955	72.06
456.175	80.06
456.395	86.06
456.616	83.06
456.836	89.06
457.056	75.06
457.276	97.06
457.497	79.06
457.717	73.06
457.937	89.06
458.157	85.06
458.377	82.06
458.598	71.06
458.818	69.06
459.038	83.06
459.258	73.06
459.478	76.06
459.698	69.06
459.918	88.06
460.138	80.06
460.358	76.06
460.578	89.06
460.798	91.06
461.018	87.06
461.238	92.06
461.458	89.06
461.678	85.06
461.898	77.06
462.118	77.06
462.338	82.06
462.558	73.06
462.777	79.06
462.997	80.06
463.217	83.06
463.437	84.06
463.657	77.06
463.876	77.06
464.096	91.06
464.316	86.06
464.536	80.06
464.755	90.06
464.975	82.06
465.195	90.06
465.414	90.06
465.634	81.06
465.854	92.06
466.073	77.06
466.293	91.06
466.512	66.06
466.732	85.06
466.951	76.06
467.171	97.06
467.391	106.06
467.61	85.06
467.829	94.06
468.049	96.06
468.268	90.06
468.488	95.06
468.707	90.06
468.927	101.06
469.146	82.06
469.365	98.06
469.585	75.06
469.804	83.06
470.023	82.06
470.243	96.06
470.462	88.06
470.681	86.06
470.901	82.06
471.12	97.06
471.339	91.06
471.558	88.06
471.777	84.06
471.997	83.06
472.216	103.06
472.435	80.06
472.654	79.06
472.873	68.06
473.092	87.06
473.311	91.06
473.53	101.06
473.749	95.06
473.968	96.06
474.187	81.06
474.406	94.06
474.625	89.06
474.844	89.06
475.063	68.06
475.282	84.06
475.501	80.06
475.72	85.06
475.939	85.06
476.158	82.06
476.377	84.06
476.596	102.06
476.814	91.06
477.033	83.06
477.252	80.06
477.471	84.06
477.69	94.06
477.908	103.06
478.127	86.06
478.346	91.06
478.564	95.06
478.783	89.06
479.002	79.06
479.22	81.06
479.439	96.06
479.658	76.06
479.876	87.06
480.095	78.06
480.313	89.06
480.532	81.06
480.751	80.06
480.969	91.06
481.188	79.06
481.406	81.06
481.624	84.06
481.843	79.06
482.061	83.06
482.28	84.06
482.498	79.06
482.717	76.06
482.935	92.06
483.153	98.06
483.372	92.06
483.59	83.06
483.808	95.06
484.027	63.06
484.245	87.06
484.463	97.06
484.681	105.06
484.9	87.06
485.118	81.06
485.336	86.06
485.554	76.06
485.772	87.06
485.99	81.06
486.209	85.06
486.427	92.06
486.645	80.06
486.863	75.06
487.081	92.06
487.299	87.06
487.517	88.06
487.735	95.06
487.953	97.06
488.171	97.06
488.389	84.06
488.607	90.06
488.825	95.06
489.043	86.06
489.261	77.06
489.479	81.06
489.696	72.06
489.914	93.06
490.132	88.06
490.35	93.06
490.568	98.06
490.786	111.06
491.003	91.06
491.221	97.06
491.439	94.06
491.657	96.06
491.874	108.06
492.092	84.06
492.31	107.06
492.527	98.06
492.745	101.06
492.963	97.06
493.18	107.06
493.398	90.06
493.615	91.06
493.833	104.06
494.05	95.06
494.268	92.06
494.485	101.06
494.703	104.06
494.92	83.06
495.138	98.06
495.355	92.06
495.573	91.06
495.79	96.06
496.008	90.06
496.225	96.06
496.442	97.06
496.66	89.06
496.877	99.06
497.094	101.06
497.312	102.06
497.529	96.06
497.746	90.06
497.963	91.06
498.181	92.06
498.398	80.06
498.615	88.06
498.832	72.06
499.049	75.06
499.267	86.06
499.484	93.06
499.701	87.06
499.918	98.06
500.135	83.06
500.352	101.06
500.569	80.06
500.786	85.06
501.003	96.06
501.22	76.06
501.437	96.06
501.654	86.06
501.871	101.06
502.088	95.06
502.305	110.06
502.522	79.06
502.739	75.06
502.956	75.06
503.172	67.06
503.389	79.06
503.606	91.06
503.823	89.06
504.04	90.06
504.256	87.06
504.473	71.06
504.69	76.06
504.907	85.06
505.123	95.06
505.34	92.06
505.557	88.06
505.773	93.06
505.99	95.06
506.207	79.06
506.423	88.06
506.64	79.06
506.856	91.06
507.073	95.06
507.289	87.06
507.506	90.06
507.722	84.06
507.939	97.06
508.155	87.06
508.372	84.06
508.588	87.06
508.805	83.06
509.021	95.06
509.238	83.06
509.454	76.06
509.67	83.06
509.887	73.06
510.103	99.06
510.319	75.06
510.536	85.06
510.752	85.06
510.968	82.06
511.184	88.06
511.401	75.06
511.617	84.06
511.833	70.06
512.049	89.06
512.265	82.06
512.481	82.06
512.698	88.06
512.914	80.06
513.13	105.06
513.346	85.06
513.562	78.06
513.778	75.06
513.994	75.06
514.21	82.06
514.426	73.06
514.642	88.06
514.858	89.06
515.074	82.06
515.29	75.06
515.506	82.06
515.721	70.06
515.937	79.06
516.153	90.06
516.369	80.06
516.585	91.06
516.801	73.06
517.016	79.06
517.232	85.06
517.448	79.06
517.664	78.06
517.879	81.06
518.095	85.06
518.311	95.06
518.527	82.06
518.742	96.06
518.958	76.06
