Data from Zn(NO3)2Standard.Agarose3%.GreenCap.LampEnergy5.5.E.O_HRD10591_15-03-14-768.txt Node
Date: Mon Jul 22 15:03:14 EDT 2019
User: cochatt
Spectrometer: HR+D1059
Trigger mode: 1
Integration Time (sec): 1.000000E-1
Scans to average: 1
Electric dark correction enabled: true
Nonlinearity correction enabled: false
Boxcar width: 0
XAxis mode: Wavelengths
Number of Pixels in Spectrum: 2048
>>>>>Begin Spectral Data<<<<<
223.165	-17.62
223.4	-17.62
223.635	-17.62
223.869	-20.62
224.104	-27.62
224.338	-17.62
224.573	-10.62
224.808	-3.62
225.042	-10.62
225.277	-7.62
225.511	-7.62
225.746	10.38
225.98	9.38
226.215	-5.62
226.449	8.38
226.683	38.38
226.918	33.38
227.152	29.38
227.387	34.38
227.621	31.38
227.856	59.38
228.09	54.38
228.324	49.38
228.559	30.38
228.793	56.38
229.027	66.38
229.262	67.38
229.496	71.38
229.73	77.38
229.964	70.38
230.199	48.38
230.433	64.38
230.667	86.38
230.901	78.38
231.136	85.38
231.37	76.38
231.604	82.38
231.838	76.38
232.072	76.38
232.306	67.38
232.541	74.38
232.775	78.38
233.009	76.38
233.243	72.38
233.477	86.38
233.711	74.38
233.945	86.38
234.179	81.38
234.413	79.38
234.647	74.38
234.881	81.38
235.115	78.38
235.349	82.38
235.583	85.38
235.817	81.38
236.051	66.38
236.285	73.38
236.519	79.38
236.753	75.38
236.987	87.38
237.221	79.38
237.455	84.38
237.689	72.38
237.922	67.38
238.156	84.38
238.39	78.38
238.624	74.38
238.858	76.38
239.091	90.38
239.325	74.38
239.559	83.38
239.793	83.38
240.027	66.38
240.26	65.38
240.494	77.38
240.728	74.38
240.961	79.38
241.195	76.38
241.429	75.38
241.662	57.38
241.896	71.38
242.13	85.38
242.363	92.38
242.597	85.38
242.83	73.38
243.064	68.38
243.298	91.38
243.531	66.38
243.765	73.38
243.998	75.38
244.232	68.38
244.465	82.38
244.699	69.38
244.932	81.38
245.166	88.38
245.399	88.38
245.633	60.38
245.866	87.38
246.099	86.38
246.333	71.38
246.566	68.38
246.8	82.38
247.033	76.38
247.266	77.38
247.5	67.38
247.733	75.38
247.966	85.38
248.2	88.38
248.433	84.38
248.666	77.38
248.899	92.38
249.133	75.38
249.366	87.38
249.599	74.38
249.832	78.38
250.066	77.38
250.299	74.38
250.532	88.38
250.765	82.38
250.998	77.38
251.231	101.38
251.465	85.38
251.698	75.38
251.931	83.38
252.164	83.38
252.397	64.38
252.63	86.38
252.863	73.38
253.096	77.38
253.329	85.38
253.562	74.38
253.795	84.38
254.028	83.38
254.261	77.38
254.494	88.38
254.727	67.38
254.96	74.38
255.193	69.38
255.426	86.38
255.659	56.38
255.892	84.38
256.124	89.38
256.357	75.38
256.59	103.38
256.823	73.38
257.056	74.38
257.289	72.38
257.521	91.38
257.754	75.38
257.987	77.38
258.22	90.38
258.452	75.38
258.685	74.38
258.918	83.38
259.151	103.38
259.383	85.38
259.616	70.38
259.849	77.38
260.081	76.38
260.314	85.38
260.547	85.38
260.779	102.38
261.012	69.38
261.244	88.38
261.477	82.38
261.71	90.38
261.942	86.38
262.175	85.38
262.407	81.38
262.64	78.38
262.872	78.38
263.105	76.38
263.337	90.38
263.57	82.38
263.802	99.38
264.035	89.38
264.267	76.38
264.499	90.38
264.732	93.38
264.964	77.38
265.197	85.38
265.429	87.38
265.661	82.38
265.894	80.38
266.126	85.38
266.358	89.38
266.591	75.38
266.823	82.38
267.055	86.38
267.287	110.38
267.52	89.38
267.752	96.38
267.984	98.38
268.216	77.38
268.448	82.38
268.681	80.38
268.913	81.38
269.145	88.38
269.377	66.38
269.609	72.38
269.841	92.38
270.073	74.38
270.306	99.38
270.538	68.38
270.77	73.38
271.002	101.38
271.234	76.38
271.466	96.38
271.698	88.38
271.93	87.38
272.162	85.38
272.394	76.38
272.626	68.38
272.858	69.38
273.09	66.38
273.322	88.38
273.553	77.38
273.785	76.38
274.017	87.38
274.249	96.38
274.481	80.38
274.713	86.38
274.945	94.38
275.176	84.38
275.408	77.38
275.64	77.38
275.872	101.38
276.104	91.38
276.335	76.38
276.567	83.38
276.799	66.38
277.031	81.38
277.262	91.38
277.494	81.38
277.726	84.38
277.957	82.38
278.189	84.38
278.421	77.38
278.652	89.38
278.884	75.38
279.115	83.38
279.347	95.38
279.579	85.38
279.81	89.38
280.042	90.38
280.273	86.38
280.505	95.38
280.736	82.38
280.968	79.38
281.199	92.38
281.431	85.38
281.662	92.38
281.894	88.38
282.125	97.38
282.356	80.38
282.588	87.38
282.819	70.38
283.051	74.38
283.282	68.38
283.513	80.38
283.745	84.38
283.976	84.38
284.207	89.38
284.439	89.38
284.67	84.38
284.901	89.38
285.132	86.38
285.364	73.38
285.595	79.38
285.826	70.38
286.057	83.38
286.288	96.38
286.52	81.38
286.751	93.38
286.982	86.38
287.213	74.38
287.444	78.38
287.675	84.38
287.906	80.38
288.138	85.38
288.369	78.38
288.6	84.38
288.831	90.38
289.062	92.38
289.293	91.38
289.524	81.38
289.755	74.38
289.986	76.38
290.217	92.38
290.448	86.38
290.679	91.38
290.91	92.38
291.141	83.38
291.371	83.38
291.602	75.38
291.833	70.38
292.064	82.38
292.295	75.38
292.526	91.38
292.757	88.38
292.987	89.38
293.218	85.38
293.449	78.38
293.68	82.38
293.91	91.38
294.141	84.38
294.372	90.38
294.603	102.38
294.833	86.38
295.064	88.38
295.295	78.38
295.525	77.38
295.756	91.38
295.987	90.38
296.217	98.38
296.448	90.38
296.679	89.38
296.909	83.38
297.14	76.38
297.37	98.38
297.601	61.38
297.831	93.38
298.062	92.38
298.292	84.38
298.523	101.38
298.753	85.38
298.984	96.38
299.214	88.38
299.445	88.38
299.675	82.38
299.905	83.38
300.136	83.38
300.366	91.38
300.597	83.38
300.827	95.38
301.057	83.38
301.288	77.38
301.518	96.38
301.748	81.38
301.979	86.38
302.209	92.38
302.439	97.38
302.669	76.38
302.9	77.38
303.13	82.38
303.36	69.38
303.59	85.38
303.82	81.38
304.051	97.38
304.281	87.38
304.511	90.38
304.741	90.38
304.971	92.38
305.201	86.38
305.431	83.38
305.661	90.38
305.891	93.38
306.121	86.38
306.352	96.38
306.582	86.38
306.812	86.38
307.042	91.38
307.272	96.38
307.502	68.38
307.731	81.38
307.961	82.38
308.191	88.38
308.421	99.38
308.651	76.38
308.881	89.38
309.111	94.38
309.341	96.38
309.571	72.38
309.8	69.38
310.03	76.38
310.26	92.38
310.49	95.38
310.72	88.38
310.949	91.38
311.179	83.38
311.409	89.38
311.639	72.38
311.868	83.38
312.098	86.38
312.328	72.38
312.557	93.38
312.787	98.38
313.017	87.38
313.246	84.38
313.476	73.38
313.706	89.38
313.935	83.38
314.165	86.38
314.394	81.38
314.624	90.38
314.853	96.38
315.083	85.38
315.312	91.38
315.542	83.38
315.771	97.38
316.001	91.38
316.23	85.38
316.46	87.38
316.689	92.38
316.919	85.38
317.148	82.38
317.377	98.38
317.607	91.38
317.836	86.38
318.065	78.38
318.295	100.38
318.524	82.38
318.753	93.38
318.983	87.38
319.212	78.38
319.441	99.38
319.67	80.38
319.9	84.38
320.129	85.38
320.358	81.38
320.587	80.38
320.816	82.38
321.046	84.38
321.275	97.38
321.504	79.38
321.733	93.38
321.962	79.38
322.191	73.38
322.42	93.38
322.649	85.38
322.878	82.38
323.108	78.38
323.337	82.38
323.566	94.38
323.795	86.38
324.024	94.38
324.253	83.38
324.482	78.38
324.71	80.38
324.939	78.38
325.168	84.38
325.397	82.38
325.626	84.38
325.855	87.38
326.084	105.38
326.313	87.38
326.542	96.38
326.77	91.38
326.999	82.38
327.228	87.38
327.457	85.38
327.686	74.38
327.914	98.38
328.143	89.38
328.372	81.38
328.6	88.38
328.829	86.38
329.058	87.38
329.287	80.38
329.515	72.38
329.744	93.38
329.972	86.38
330.201	90.38
330.43	85.38
330.658	81.38
330.887	83.38
331.115	73.38
331.344	83.38
331.572	97.38
331.801	78.38
332.03	96.38
332.258	84.38
332.486	100.38
332.715	94.38
332.943	91.38
333.172	87.38
333.4	92.38
333.629	73.38
333.857	73.38
334.085	79.38
334.314	94.38
334.542	88.38
334.771	78.38
334.999	78.38
335.227	65.38
335.455	78.38
335.684	80.38
335.912	81.38
336.14	93.38
336.369	82.38
336.597	75.38
336.825	92.38
337.053	79.38
337.281	77.38
337.51	82.38
337.738	76.38
337.966	74.38
338.194	85.38
338.422	96.38
338.65	86.38
338.878	99.38
339.106	96.38
339.334	86.38
339.562	90.38
339.79	83.38
340.018	85.38
340.246	72.38
340.474	73.38
340.702	96.38
340.93	94.38
341.158	73.38
341.386	87.38
341.614	82.38
341.842	81.38
342.07	64.38
342.298	71.38
342.526	75.38
342.754	78.38
342.981	74.38
343.209	77.38
343.437	81.38
343.665	83.38
343.893	89.38
344.12	81.38
344.348	81.38
344.576	85.38
344.804	72.38
345.031	94.38
345.259	100.38
345.487	66.38
345.714	96.38
345.942	77.38
346.17	75.38
346.397	97.38
346.625	72.38
346.853	77.38
347.08	83.38
347.308	76.38
347.535	78.38
347.763	92.38
347.99	74.38
348.218	70.38
348.445	85.38
348.673	78.38
348.9	88.38
349.128	88.38
349.355	98.38
349.583	79.38
349.81	82.38
350.037	77.38
350.265	80.38
350.492	78.38
350.72	67.38
350.947	86.38
351.174	75.38
351.402	92.38
351.629	89.38
351.856	83.38
352.083	80.38
352.311	88.38
352.538	77.38
352.765	77.38
352.992	73.38
353.22	92.38
353.447	86.38
353.674	74.38
353.901	86.38
354.128	92.38
354.355	83.38
354.583	78.38
354.81	91.38
355.037	84.38
355.264	79.38
355.491	75.38
355.718	81.38
355.945	94.38
356.172	89.38
356.399	91.38
356.626	77.38
356.853	82.38
357.08	80.38
357.307	74.38
357.534	93.38
357.761	74.38
357.988	69.38
358.215	83.38
358.441	71.38
358.668	89.38
358.895	99.38
359.122	78.38
359.349	79.38
359.576	93.38
359.802	83.38
360.029	82.38
360.256	85.38
360.483	82.38
360.709	84.38
360.936	78.38
361.163	83.38
361.39	78.38
361.616	91.38
361.843	95.38
362.07	88.38
362.296	91.38
362.523	86.38
362.749	80.38
362.976	96.38
363.203	86.38
363.429	79.38
363.656	76.38
363.882	72.38
364.109	76.38
364.335	77.38
364.562	86.38
364.788	85.38
365.015	88.38
365.241	91.38
365.468	87.38
365.694	89.38
365.92	87.38
366.147	83.38
366.373	85.38
366.599	80.38
366.826	78.38
367.052	85.38
367.278	75.38
367.505	78.38
367.731	95.38
367.957	76.38
368.184	74.38
368.41	78.38
368.636	79.38
368.862	77.38
369.089	90.38
369.315	92.38
369.541	66.38
369.767	82.38
369.993	80.38
370.219	90.38
370.445	64.38
370.672	79.38
370.898	71.38
371.124	85.38
371.35	73.38
371.576	82.38
371.802	88.38
372.028	83.38
372.254	80.38
372.48	83.38
372.706	76.38
372.932	70.38
373.158	91.38
373.384	76.38
373.61	81.38
373.835	80.38
374.061	93.38
374.287	69.38
374.513	86.38
374.739	78.38
374.965	71.38
375.191	88.38
375.416	90.38
375.642	83.38
375.868	90.38
376.094	84.38
376.319	82.38
376.545	72.38
376.771	73.38
376.997	90.38
377.222	97.38
377.448	91.38
377.674	84.38
377.899	91.38
378.125	88.38
378.35	81.38
378.576	83.38
378.802	79.38
379.027	92.38
379.253	76.38
379.478	78.38
379.704	76.38
379.929	91.38
380.155	88.38
380.38	66.38
380.606	80.38
380.831	76.38
381.057	81.38
381.282	73.38
381.507	83.38
381.733	96.38
381.958	92.38
382.184	90.38
382.409	84.38
382.634	73.38
382.86	84.38
383.085	88.38
383.31	90.38
383.535	78.38
383.761	83.38
383.986	76.38
384.211	91.38
384.436	78.38
384.662	70.38
384.887	82.38
385.112	76.38
385.337	102.38
385.562	73.38
385.787	76.38
386.013	84.38
386.238	81.38
386.463	90.38
386.688	85.38
386.913	90.38
387.138	90.38
387.363	85.38
387.588	96.38
387.813	82.38
388.038	83.38
388.263	96.38
388.488	74.38
388.713	69.38
388.938	81.38
389.163	84.38
389.387	81.38
389.612	81.38
389.837	87.38
390.062	73.38
390.287	78.38
390.512	75.38
390.736	87.38
390.961	77.38
391.186	87.38
391.411	83.38
391.636	97.38
391.86	95.38
392.085	77.38
392.31	72.38
392.534	80.38
392.759	86.38
392.984	78.38
393.208	80.38
393.433	75.38
393.658	80.38
393.882	91.38
394.107	73.38
394.331	84.38
394.556	70.38
394.78	70.38
395.005	83.38
395.229	85.38
395.454	84.38
395.678	89.38
395.903	93.38
396.127	84.38
396.352	104.38
396.576	79.38
396.801	84.38
397.025	86.38
397.249	79.38
397.474	80.38
397.698	72.38
397.922	77.38
398.147	67.38
398.371	86.38
398.595	80.38
398.82	75.38
399.044	80.38
399.268	92.38
399.492	94.38
399.717	89.38
399.941	73.38
400.165	80.38
400.389	81.38
400.613	83.38
400.837	78.38
401.062	85.38
401.286	77.38
401.51	93.38
401.734	90.38
401.958	86.38
402.182	82.38
402.406	75.38
402.63	86.38
402.854	83.38
403.078	80.38
403.302	77.38
403.526	81.38
403.75	97.38
403.974	83.38
404.198	75.38
404.422	85.38
404.645	88.38
404.869	83.38
405.093	87.38
405.317	88.38
405.541	84.38
405.765	93.38
405.988	82.38
406.212	85.38
406.436	93.38
406.66	87.38
406.883	92.38
407.107	81.38
407.331	80.38
407.555	77.38
407.778	78.38
408.002	78.38
408.226	81.38
408.449	103.38
408.673	97.38
408.896	100.38
409.12	89.38
409.344	93.38
409.567	74.38
409.791	86.38
410.014	68.38
410.238	66.38
410.461	79.38
410.685	85.38
410.908	80.38
411.132	97.38
411.355	93.38
411.578	93.38
411.802	94.38
412.025	92.38
412.249	87.38
412.472	91.38
412.695	89.38
412.919	74.38
413.142	83.38
413.365	84.38
413.589	87.38
413.812	82.38
414.035	95.38
414.258	85.38
414.482	77.38
414.705	65.38
414.928	86.38
415.151	86.38
415.374	89.38
415.597	67.38
415.821	79.38
416.044	92.38
416.267	82.38
416.49	100.38
416.713	95.38
416.936	84.38
417.159	79.38
417.382	83.38
417.605	83.38
417.828	88.38
418.051	93.38
418.274	90.38
418.497	100.38
418.72	89.38
418.943	93.38
419.166	93.38
419.389	91.38
419.611	92.38
419.834	92.38
420.057	91.38
420.28	78.38
420.503	87.38
420.726	79.38
420.948	94.38
421.171	96.38
421.394	84.38
421.617	92.38
421.839	92.38
422.062	100.38
422.285	85.38
422.507	84.38
422.73	77.38
422.953	95.38
423.175	87.38
423.398	87.38
423.621	102.38
423.843	90.38
424.066	79.38
424.288	98.38
424.511	92.38
424.733	82.38
424.956	89.38
425.178	83.38
425.401	82.38
425.623	82.38
425.846	91.38
426.068	107.38
426.291	87.38
426.513	84.38
426.735	78.38
426.958	91.38
427.18	81.38
427.402	102.38
427.625	87.38
427.847	88.38
428.069	80.38
428.292	98.38
428.514	89.38
428.736	90.38
428.958	98.38
429.181	86.38
429.403	87.38
429.625	90.38
429.847	75.38
430.069	82.38
430.292	92.38
430.514	82.38
430.736	96.38
430.958	82.38
431.18	88.38
431.402	90.38
431.624	98.38
431.846	88.38
432.068	82.38
432.29	69.38
432.512	82.38
432.734	90.38
432.956	80.38
433.178	97.38
433.4	97.38
433.622	86.38
433.844	99.38
434.066	94.38
434.287	71.38
434.509	87.38
434.731	76.38
434.953	80.38
435.175	88.38
435.397	99.38
435.618	93.38
435.84	88.38
436.062	92.38
436.284	78.38
436.505	88.38
436.727	93.38
436.949	94.38
437.17	91.38
437.392	77.38
437.614	95.38
437.835	92.38
438.057	90.38
438.278	81.38
438.5	84.38
438.721	89.38
438.943	87.38
439.165	92.38
439.386	86.38
439.608	92.38
439.829	106.38
440.05	96.38
440.272	75.38
440.493	83.38
440.715	85.38
440.936	93.38
441.158	94.38
441.379	90.38
441.6	88.38
441.822	96.38
442.043	96.38
442.264	79.38
442.486	98.38
442.707	92.38
442.928	94.38
443.149	86.38
443.371	85.38
443.592	85.38
443.813	62.38
444.034	87.38
444.255	95.38
444.476	103.38
444.698	95.38
444.919	91.38
445.14	221.38
445.361	124.38
445.582	97.38
445.803	88.38
446.024	86.38
446.245	99.38
446.466	88.38
446.687	90.38
446.908	76.38
447.129	89.38
447.35	70.38
447.571	102.38
447.792	93.38
448.013	89.38
448.234	81.38
448.455	90.38
448.675	90.38
448.896	87.38
449.117	90.38
449.338	103.38
449.559	86.38
449.779	98.38
450	91.38
450.221	82.38
450.442	106.38
450.662	90.38
450.883	85.38
451.104	87.38
451.324	88.38
451.545	89.38
451.766	98.38
451.986	80.38
452.207	99.38
452.428	80.38
452.648	95.38
452.869	102.38
453.089	95.38
453.31	72.38
453.53	90.38
453.751	77.38
453.971	80.38
454.192	78.38
454.412	102.38
454.633	89.38
454.853	85.38
455.073	87.38
455.294	93.38
455.514	86.38
455.734	73.38
455.955	79.38
456.175	92.38
456.395	81.38
456.616	78.38
456.836	88.38
457.056	85.38
457.276	74.38
457.497	85.38
457.717	82.38
457.937	87.38
458.157	94.38
458.377	89.38
458.598	86.38
458.818	74.38
459.038	83.38
459.258	66.38
459.478	70.38
459.698	87.38
459.918	80.38
460.138	89.38
460.358	78.38
460.578	84.38
460.798	80.38
461.018	83.38
461.238	82.38
461.458	86.38
461.678	89.38
461.898	84.38
462.118	98.38
462.338	85.38
462.558	86.38
462.777	90.38
462.997	89.38
463.217	72.38
463.437	79.38
463.657	87.38
463.876	94.38
464.096	101.38
464.316	83.38
464.536	83.38
464.755	89.38
464.975	84.38
465.195	91.38
465.414	77.38
465.634	88.38
465.854	98.38
466.073	75.38
466.293	90.38
466.512	96.38
466.732	83.38
466.951	86.38
467.171	81.38
467.391	99.38
467.61	98.38
467.829	97.38
468.049	95.38
468.268	86.38
468.488	92.38
468.707	80.38
468.927	100.38
469.146	63.38
469.365	85.38
469.585	97.38
469.804	81.38
470.023	85.38
470.243	89.38
470.462	91.38
470.681	86.38
470.901	96.38
471.12	97.38
471.339	89.38
471.558	94.38
471.777	99.38
471.997	86.38
472.216	89.38
472.435	88.38
472.654	91.38
472.873	90.38
473.092	70.38
473.311	87.38
473.53	96.38
473.749	95.38
473.968	98.38
474.187	93.38
474.406	93.38
474.625	71.38
474.844	88.38
475.063	81.38
475.282	87.38
475.501	98.38
475.72	78.38
475.939	86.38
476.158	96.38
476.377	92.38
476.596	72.38
476.814	82.38
477.033	83.38
477.252	83.38
477.471	69.38
477.69	106.38
477.908	98.38
478.127	89.38
478.346	92.38
478.564	89.38
478.783	89.38
479.002	78.38
479.22	89.38
479.439	105.38
479.658	83.38
479.876	103.38
480.095	88.38
480.313	99.38
480.532	94.38
480.751	94.38
480.969	84.38
481.188	86.38
481.406	83.38
481.624	92.38
481.843	77.38
482.061	80.38
482.28	72.38
482.498	96.38
482.717	91.38
482.935	74.38
483.153	95.38
483.372	95.38
483.59	96.38
483.808	89.38
484.027	93.38
484.245	87.38
484.463	92.38
484.681	97.38
484.9	86.38
485.118	97.38
485.336	74.38
485.554	84.38
485.772	86.38
485.99	90.38
486.209	94.38
486.427	77.38
486.645	84.38
486.863	92.38
487.081	96.38
487.299	83.38
487.517	88.38
487.735	91.38
487.953	81.38
488.171	91.38
488.389	96.38
488.607	93.38
488.825	89.38
489.043	86.38
489.261	86.38
489.479	91.38
489.696	82.38
489.914	85.38
490.132	92.38
490.35	104.38
490.568	86.38
490.786	73.38
491.003	103.38
491.221	115.38
491.439	98.38
491.657	100.38
491.874	88.38
492.092	100.38
492.31	112.38
492.527	107.38
492.745	112.38
492.963	103.38
493.18	95.38
493.398	104.38
493.615	93.38
493.833	92.38
494.05	104.38
494.268	102.38
494.485	102.38
494.703	83.38
494.92	103.38
495.138	113.38
495.355	94.38
495.573	97.38
495.79	92.38
496.008	105.38
496.225	107.38
496.442	89.38
496.66	97.38
496.877	100.38
497.094	114.38
497.312	85.38
497.529	101.38
497.746	108.38
497.963	87.38
498.181	93.38
498.398	86.38
498.615	86.38
498.832	85.38
499.049	81.38
499.267	83.38
499.484	100.38
499.701	92.38
499.918	92.38
500.135	75.38
500.352	103.38
500.569	80.38
500.786	97.38
501.003	92.38
501.22	79.38
501.437	87.38
501.654	90.38
501.871	87.38
502.088	105.38
502.305	89.38
502.522	81.38
502.739	91.38
502.956	96.38
503.172	82.38
503.389	93.38
503.606	97.38
503.823	100.38
504.04	99.38
504.256	107.38
504.473	89.38
504.69	95.38
504.907	92.38
505.123	91.38
505.34	74.38
505.557	97.38
505.773	100.38
505.99	67.38
506.207	88.38
506.423	95.38
506.64	91.38
506.856	94.38
507.073	97.38
507.289	86.38
507.506	95.38
507.722	94.38
507.939	81.38
508.155	83.38
508.372	91.38
508.588	99.38
508.805	92.38
509.021	93.38
509.238	77.38
509.454	83.38
509.67	94.38
509.887	76.38
510.103	71.38
510.319	88.38
510.536	77.38
510.752	84.38
510.968	83.38
511.184	72.38
511.401	83.38
511.617	71.38
511.833	88.38
512.049	85.38
512.265	79.38
512.481	78.38
512.698	99.38
512.914	80.38
513.13	89.38
513.346	79.38
513.562	86.38
513.778	92.38
513.994	76.38
514.21	93.38
514.426	85.38
514.642	84.38
514.858	98.38
515.074	83.38
515.29	83.38
515.506	65.38
515.721	75.38
515.937	78.38
516.153	92.38
516.369	84.38
516.585	90.38
516.801	91.38
517.016	86.38
517.232	75.38
517.448	101.38
517.664	80.38
517.879	92.38
518.095	91.38
518.311	85.38
518.527	85.38
