Data from Zn(NO3)2Standard.Agarose3%.GreenCap.LampEnergy10E.O_HRD10591_15-06-01-942.txt Node
Date: Mon Jul 22 15:06:01 EDT 2019
User: cochatt
Spectrometer: HR+D1059
Trigger mode: 1
Integration Time (sec): 1.000000E-1
Scans to average: 1
Electric dark correction enabled: true
Nonlinearity correction enabled: false
Boxcar width: 0
XAxis mode: Wavelengths
Number of Pixels in Spectrum: 2048
>>>>>Begin Spectral Data<<<<<
223.165	-26.19
223.4	-26.19
223.635	-26.19
223.869	-20.19
224.104	-21.19
224.338	-9.19
224.573	-7.19
224.808	2.81
225.042	1.81
225.277	-6.19
225.511	-4.19
225.746	11.81
225.98	-2.19
226.215	19.81
226.449	15.81
226.683	11.81
226.918	11.81
227.152	20.81
227.387	43.81
227.621	37.81
227.856	36.81
228.09	40.81
228.324	63.81
228.559	65.81
228.793	60.81
229.027	67.81
229.262	62.81
229.496	62.81
229.73	75.81
229.964	77.81
230.199	86.81
230.433	89.81
230.667	73.81
230.901	78.81
231.136	81.81
231.37	81.81
231.604	86.81
231.838	91.81
232.072	89.81
232.306	79.81
232.541	85.81
232.775	90.81
233.009	79.81
233.243	86.81
233.477	80.81
233.711	81.81
233.945	82.81
234.179	92.81
234.413	88.81
234.647	89.81
234.881	85.81
235.115	87.81
235.349	81.81
235.583	87.81
235.817	69.81
236.051	79.81
236.285	72.81
236.519	76.81
236.753	83.81
236.987	84.81
237.221	96.81
237.455	92.81
237.689	85.81
237.922	85.81
238.156	77.81
238.39	77.81
238.624	84.81
238.858	97.81
239.091	69.81
239.325	57.81
239.559	70.81
239.793	88.81
240.027	78.81
240.26	74.81
240.494	82.81
240.728	78.81
240.961	81.81
241.195	71.81
241.429	73.81
241.662	77.81
241.896	81.81
242.13	85.81
242.363	79.81
242.597	79.81
242.83	73.81
243.064	79.81
243.298	74.81
243.531	77.81
243.765	64.81
243.998	70.81
244.232	80.81
244.465	87.81
244.699	93.81
244.932	83.81
245.166	77.81
245.399	75.81
245.633	80.81
245.866	92.81
246.099	65.81
246.333	88.81
246.566	59.81
246.8	84.81
247.033	73.81
247.266	84.81
247.5	71.81
247.733	78.81
247.966	90.81
248.2	79.81
248.433	78.81
248.666	79.81
248.899	82.81
249.133	88.81
249.366	76.81
249.599	77.81
249.832	78.81
250.066	91.81
250.299	92.81
250.532	81.81
250.765	84.81
250.998	93.81
251.231	81.81
251.465	76.81
251.698	81.81
251.931	70.81
252.164	91.81
252.397	73.81
252.63	85.81
252.863	72.81
253.096	74.81
253.329	83.81
253.562	78.81
253.795	85.81
254.028	96.81
254.261	80.81
254.494	80.81
254.727	83.81
254.96	84.81
255.193	82.81
255.426	83.81
255.659	86.81
255.892	96.81
256.124	91.81
256.357	76.81
256.59	64.81
256.823	74.81
257.056	76.81
257.289	89.81
257.521	86.81
257.754	88.81
257.987	91.81
258.22	86.81
258.452	77.81
258.685	93.81
258.918	73.81
259.151	89.81
259.383	91.81
259.616	94.81
259.849	90.81
260.081	91.81
260.314	64.81
260.547	70.81
260.779	73.81
261.012	84.81
261.244	77.81
261.477	90.81
261.71	80.81
261.942	69.81
262.175	88.81
262.407	89.81
262.64	88.81
262.872	80.81
263.105	94.81
263.337	95.81
263.57	93.81
263.802	96.81
264.035	83.81
264.267	84.81
264.499	68.81
264.732	87.81
264.964	80.81
265.197	91.81
265.429	88.81
265.661	73.81
265.894	78.81
266.126	67.81
266.358	84.81
266.591	77.81
266.823	100.81
267.055	94.81
267.287	81.81
267.52	98.81
267.752	90.81
267.984	79.81
268.216	97.81
268.448	85.81
268.681	86.81
268.913	90.81
269.145	79.81
269.377	78.81
269.609	87.81
269.841	75.81
270.073	88.81
270.306	80.81
270.538	81.81
270.77	81.81
271.002	102.81
271.234	83.81
271.466	86.81
271.698	87.81
271.93	85.81
272.162	77.81
272.394	92.81
272.626	77.81
272.858	79.81
273.09	89.81
273.322	82.81
273.553	106.81
273.785	93.81
274.017	77.81
274.249	88.81
274.481	85.81
274.713	99.81
274.945	82.81
275.176	96.81
275.408	94.81
275.64	94.81
275.872	68.81
276.104	93.81
276.335	80.81
276.567	84.81
276.799	73.81
277.031	85.81
277.262	82.81
277.494	84.81
277.726	79.81
277.957	83.81
278.189	82.81
278.421	79.81
278.652	87.81
278.884	79.81
279.115	79.81
279.347	89.81
279.579	82.81
279.81	71.81
280.042	90.81
280.273	95.81
280.505	93.81
280.736	88.81
280.968	69.81
281.199	83.81
281.431	81.81
281.662	80.81
281.894	95.81
282.125	90.81
282.356	74.81
282.588	73.81
282.819	73.81
283.051	95.81
283.282	103.81
283.513	90.81
283.745	69.81
283.976	95.81
284.207	95.81
284.439	99.81
284.67	91.81
284.901	76.81
285.132	83.81
285.364	93.81
285.595	86.81
285.826	90.81
286.057	87.81
286.288	72.81
286.52	97.81
286.751	83.81
286.982	78.81
287.213	86.81
287.444	85.81
287.675	68.81
287.906	80.81
288.138	90.81
288.369	89.81
288.6	85.81
288.831	81.81
289.062	85.81
289.293	76.81
289.524	87.81
289.755	87.81
289.986	83.81
290.217	82.81
290.448	83.81
290.679	86.81
290.91	95.81
291.141	76.81
291.371	94.81
291.602	90.81
291.833	87.81
292.064	101.81
292.295	96.81
292.526	71.81
292.757	83.81
292.987	80.81
293.218	79.81
293.449	89.81
293.68	85.81
293.91	76.81
294.141	79.81
294.372	90.81
294.603	88.81
294.833	91.81
295.064	91.81
295.295	88.81
295.525	88.81
295.756	77.81
295.987	84.81
296.217	85.81
296.448	84.81
296.679	78.81
296.909	79.81
297.14	89.81
297.37	94.81
297.601	83.81
297.831	87.81
298.062	95.81
298.292	93.81
298.523	97.81
298.753	78.81
298.984	74.81
299.214	86.81
299.445	92.81
299.675	94.81
299.905	80.81
300.136	87.81
300.366	86.81
300.597	90.81
300.827	85.81
301.057	90.81
301.288	77.81
301.518	88.81
301.748	94.81
301.979	81.81
302.209	85.81
302.439	92.81
302.669	94.81
302.9	87.81
303.13	82.81
303.36	81.81
303.59	76.81
303.82	88.81
304.051	94.81
304.281	96.81
304.511	100.81
304.741	89.81
304.971	89.81
305.201	76.81
305.431	70.81
305.661	94.81
305.891	87.81
306.121	88.81
306.352	87.81
306.582	85.81
306.812	75.81
307.042	103.81
307.272	94.81
307.502	94.81
307.731	85.81
307.961	78.81
308.191	87.81
308.421	91.81
308.651	89.81
308.881	84.81
309.111	95.81
309.341	67.81
309.571	86.81
309.8	80.81
310.03	83.81
310.26	95.81
310.49	96.81
310.72	79.81
310.949	89.81
311.179	84.81
311.409	102.81
311.639	83.81
311.868	69.81
312.098	95.81
312.328	83.81
312.557	89.81
312.787	92.81
313.017	101.81
313.246	87.81
313.476	100.81
313.706	85.81
313.935	92.81
314.165	98.81
314.394	86.81
314.624	93.81
314.853	81.81
315.083	90.81
315.312	87.81
315.542	81.81
315.771	99.81
316.001	88.81
316.23	95.81
316.46	93.81
316.689	95.81
316.919	89.81
317.148	95.81
317.377	93.81
317.607	102.81
317.836	90.81
318.065	91.81
318.295	100.81
318.524	96.81
318.753	88.81
318.983	91.81
319.212	89.81
319.441	87.81
319.67	75.81
319.9	83.81
320.129	95.81
320.358	96.81
320.587	72.81
320.816	94.81
321.046	79.81
321.275	91.81
321.504	86.81
321.733	78.81
321.962	91.81
322.191	80.81
322.42	72.81
322.649	92.81
322.878	88.81
323.108	76.81
323.337	73.81
323.566	89.81
323.795	84.81
324.024	97.81
324.253	85.81
324.482	90.81
324.71	75.81
324.939	93.81
325.168	94.81
325.397	94.81
325.626	79.81
325.855	97.81
326.084	96.81
326.313	88.81
326.542	81.81
326.77	91.81
326.999	92.81
327.228	88.81
327.457	85.81
327.686	88.81
327.914	85.81
328.143	89.81
328.372	90.81
328.6	84.81
328.829	87.81
329.058	88.81
329.287	80.81
329.515	81.81
329.744	89.81
329.972	80.81
330.201	102.81
330.43	74.81
330.658	83.81
330.887	93.81
331.115	104.81
331.344	80.81
331.572	86.81
331.801	89.81
332.03	96.81
332.258	82.81
332.486	88.81
332.715	89.81
332.943	76.81
333.172	84.81
333.4	86.81
333.629	100.81
333.857	75.81
334.085	71.81
334.314	88.81
334.542	89.81
334.771	84.81
334.999	91.81
335.227	81.81
335.455	76.81
335.684	80.81
335.912	87.81
336.14	83.81
336.369	96.81
336.597	78.81
336.825	83.81
337.053	94.81
337.281	90.81
337.51	96.81
337.738	94.81
337.966	79.81
338.194	90.81
338.422	86.81
338.65	81.81
338.878	75.81
339.106	86.81
339.334	100.81
339.562	85.81
339.79	74.81
340.018	83.81
340.246	83.81
340.474	92.81
340.702	83.81
340.93	90.81
341.158	88.81
341.386	69.81
341.614	93.81
341.842	83.81
342.07	87.81
342.298	75.81
342.526	88.81
342.754	93.81
342.981	82.81
343.209	95.81
343.437	84.81
343.665	72.81
343.893	94.81
344.12	85.81
344.348	87.81
344.576	84.81
344.804	83.81
345.031	78.81
345.259	102.81
345.487	92.81
345.714	80.81
345.942	90.81
346.17	89.81
346.397	87.81
346.625	96.81
346.853	73.81
347.08	89.81
347.308	95.81
347.535	90.81
347.763	93.81
347.99	84.81
348.218	81.81
348.445	90.81
348.673	90.81
348.9	92.81
349.128	92.81
349.355	81.81
349.583	92.81
349.81	105.81
350.037	85.81
350.265	96.81
350.492	79.81
350.72	80.81
350.947	89.81
351.174	81.81
351.402	86.81
351.629	91.81
351.856	89.81
352.083	77.81
352.311	99.81
352.538	77.81
352.765	72.81
352.992	101.81
353.22	77.81
353.447	79.81
353.674	91.81
353.901	95.81
354.128	98.81
354.355	86.81
354.583	94.81
354.81	93.81
355.037	86.81
355.264	82.81
355.491	86.81
355.718	81.81
355.945	93.81
356.172	84.81
356.399	81.81
356.626	85.81
356.853	62.81
357.08	93.81
357.307	87.81
357.534	79.81
357.761	81.81
357.988	83.81
358.215	91.81
358.441	84.81
358.668	80.81
358.895	86.81
359.122	88.81
359.349	93.81
359.576	82.81
359.802	85.81
360.029	100.81
360.256	92.81
360.483	90.81
360.709	82.81
360.936	98.81
361.163	84.81
361.39	84.81
361.616	85.81
361.843	100.81
362.07	86.81
362.296	91.81
362.523	84.81
362.749	103.81
362.976	81.81
363.203	90.81
363.429	82.81
363.656	95.81
363.882	92.81
364.109	87.81
364.335	100.81
364.562	85.81
364.788	73.81
365.015	76.81
365.241	107.81
365.468	93.81
365.694	93.81
365.92	97.81
366.147	79.81
366.373	85.81
366.599	80.81
366.826	105.81
367.052	89.81
367.278	89.81
367.505	88.81
367.731	87.81
367.957	84.81
368.184	79.81
368.41	78.81
368.636	83.81
368.862	74.81
369.089	91.81
369.315	82.81
369.541	91.81
369.767	93.81
369.993	85.81
370.219	90.81
370.445	101.81
370.672	85.81
370.898	90.81
371.124	87.81
371.35	87.81
371.576	95.81
371.802	87.81
372.028	96.81
372.254	86.81
372.48	75.81
372.706	88.81
372.932	98.81
373.158	91.81
373.384	96.81
373.61	86.81
373.835	88.81
374.061	73.81
374.287	87.81
374.513	92.81
374.739	83.81
374.965	85.81
375.191	94.81
375.416	87.81
375.642	90.81
375.868	89.81
376.094	91.81
376.319	87.81
376.545	92.81
376.771	94.81
376.997	97.81
377.222	100.81
377.448	85.81
377.674	84.81
377.899	82.81
378.125	105.81
378.35	103.81
378.576	98.81
378.802	95.81
379.027	93.81
379.253	89.81
379.478	88.81
379.704	95.81
379.929	95.81
380.155	73.81
380.38	102.81
380.606	85.81
380.831	99.81
381.057	87.81
381.282	93.81
381.507	88.81
381.733	99.81
381.958	87.81
382.184	90.81
382.409	86.81
382.634	91.81
382.86	89.81
383.085	98.81
383.31	108.81
383.535	99.81
383.761	82.81
383.986	82.81
384.211	82.81
384.436	106.81
384.662	80.81
384.887	82.81
385.112	82.81
385.337	88.81
385.562	97.81
385.787	79.81
386.013	72.81
386.238	98.81
386.463	91.81
386.688	93.81
386.913	92.81
387.138	89.81
387.363	85.81
387.588	90.81
387.813	92.81
388.038	99.81
388.263	88.81
388.488	104.81
388.713	92.81
388.938	95.81
389.163	89.81
389.387	90.81
389.612	91.81
389.837	91.81
390.062	104.81
390.287	101.81
390.512	108.81
390.736	94.81
390.961	116.81
391.186	89.81
391.411	98.81
391.636	101.81
391.86	92.81
392.085	87.81
392.31	108.81
392.534	99.81
392.759	102.81
392.984	99.81
393.208	88.81
393.433	92.81
393.658	100.81
393.882	93.81
394.107	101.81
394.331	101.81
394.556	94.81
394.78	80.81
395.005	104.81
395.229	84.81
395.454	91.81
395.678	96.81
395.903	90.81
396.127	88.81
396.352	100.81
396.576	93.81
396.801	97.81
397.025	104.81
397.249	96.81
397.474	105.81
397.698	92.81
397.922	103.81
398.147	101.81
398.371	97.81
398.595	88.81
398.82	84.81
399.044	93.81
399.268	105.81
399.492	114.81
399.717	88.81
399.941	103.81
400.165	102.81
400.389	112.81
400.613	92.81
400.837	95.81
401.062	100.81
401.286	101.81
401.51	103.81
401.734	90.81
401.958	103.81
402.182	103.81
402.406	100.81
402.63	92.81
402.854	89.81
403.078	100.81
403.302	96.81
403.526	92.81
403.75	92.81
403.974	102.81
404.198	106.81
404.422	107.81
404.645	107.81
404.869	89.81
405.093	91.81
405.317	105.81
405.541	110.81
405.765	105.81
405.988	105.81
406.212	92.81
406.436	109.81
406.66	119.81
406.883	97.81
407.107	96.81
407.331	101.81
407.555	85.81
407.778	94.81
408.002	107.81
408.226	104.81
408.449	114.81
408.673	93.81
408.896	102.81
409.12	81.81
409.344	113.81
409.567	100.81
409.791	108.81
410.014	112.81
410.238	90.81
410.461	93.81
410.685	96.81
410.908	101.81
411.132	102.81
411.355	94.81
411.578	106.81
411.802	89.81
412.025	97.81
412.249	93.81
412.472	101.81
412.695	100.81
412.919	109.81
413.142	93.81
413.365	105.81
413.589	104.81
413.812	107.81
414.035	111.81
414.258	107.81
414.482	88.81
414.705	95.81
414.928	98.81
415.151	103.81
415.374	100.81
415.597	108.81
415.821	93.81
416.044	102.81
416.267	105.81
416.49	93.81
416.713	112.81
416.936	109.81
417.159	103.81
417.382	108.81
417.605	102.81
417.828	114.81
418.051	100.81
418.274	109.81
418.497	100.81
418.72	118.81
418.943	117.81
419.166	111.81
419.389	110.81
419.611	99.81
419.834	114.81
420.057	99.81
420.28	112.81
420.503	97.81
420.726	119.81
420.948	114.81
421.171	103.81
421.394	112.81
421.617	113.81
421.839	110.81
422.062	118.81
422.285	118.81
422.507	112.81
422.73	116.81
422.953	119.81
423.175	108.81
423.398	93.81
423.621	117.81
423.843	97.81
424.066	116.81
424.288	106.81
424.511	109.81
424.733	122.81
424.956	127.81
425.178	108.81
425.401	97.81
425.623	116.81
425.846	113.81
426.068	102.81
426.291	100.81
426.513	119.81
426.735	95.81
426.958	101.81
427.18	107.81
427.402	112.81
427.625	106.81
427.847	95.81
428.069	102.81
428.292	96.81
428.514	105.81
428.736	110.81
428.958	99.81
429.181	99.81
429.403	117.81
429.625	110.81
429.847	109.81
430.069	103.81
430.292	105.81
430.514	100.81
430.736	114.81
430.958	96.81
431.18	88.81
431.402	109.81
431.624	89.81
431.846	92.81
432.068	88.81
432.29	99.81
432.512	90.81
432.734	96.81
432.956	107.81
433.178	117.81
433.4	116.81
433.622	118.81
433.844	104.81
434.066	100.81
434.287	85.81
434.509	84.81
434.731	94.81
434.953	82.81
435.175	107.81
435.397	106.81
435.618	118.81
435.84	92.81
436.062	85.81
436.284	95.81
436.505	99.81
436.727	108.81
436.949	108.81
437.17	101.81
437.392	109.81
437.614	96.81
437.835	98.81
438.057	85.81
438.278	92.81
438.5	100.81
438.721	119.81
438.943	123.81
439.165	115.81
439.386	104.81
439.608	122.81
439.829	110.81
440.05	110.81
440.272	117.81
440.493	109.81
440.715	100.81
440.936	98.81
441.158	115.81
441.379	107.81
441.6	112.81
441.822	120.81
442.043	101.81
442.264	99.81
442.486	119.81
442.707	116.81
442.928	102.81
443.149	115.81
443.371	108.81
443.592	110.81
443.813	106.81
444.034	104.81
444.255	121.81
444.476	106.81
444.698	105.81
444.919	111.81
445.14	222.81
445.361	147.81
445.582	107.81
445.803	117.81
446.024	109.81
446.245	125.81
446.466	133.81
446.687	99.81
446.908	110.81
447.129	111.81
447.35	97.81
447.571	124.81
447.792	118.81
448.013	91.81
448.234	109.81
448.455	103.81
448.675	119.81
448.896	118.81
449.117	119.81
449.338	105.81
449.559	121.81
449.779	104.81
450	104.81
450.221	103.81
450.442	104.81
450.662	110.81
450.883	105.81
451.104	110.81
451.324	111.81
451.545	100.81
451.766	103.81
451.986	111.81
452.207	100.81
452.428	105.81
452.648	105.81
452.869	108.81
453.089	113.81
453.31	100.81
453.53	87.81
453.751	77.81
453.971	103.81
454.192	100.81
454.412	86.81
454.633	97.81
454.853	106.81
455.073	93.81
455.294	111.81
455.514	102.81
455.734	95.81
455.955	90.81
456.175	83.81
456.395	98.81
456.616	95.81
456.836	100.81
457.056	92.81
457.276	85.81
457.497	93.81
457.717	96.81
457.937	83.81
458.157	96.81
458.377	106.81
458.598	96.81
458.818	82.81
459.038	78.81
459.258	84.81
459.478	87.81
459.698	91.81
459.918	81.81
460.138	83.81
460.358	103.81
460.578	103.81
460.798	94.81
461.018	90.81
461.238	97.81
461.458	96.81
461.678	111.81
461.898	108.81
462.118	96.81
462.338	102.81
462.558	87.81
462.777	90.81
462.997	98.81
463.217	89.81
463.437	89.81
463.657	104.81
463.876	103.81
464.096	97.81
464.316	95.81
464.536	104.81
464.755	94.81
464.975	106.81
465.195	90.81
465.414	107.81
465.634	100.81
465.854	90.81
466.073	90.81
466.293	109.81
466.512	102.81
466.732	94.81
466.951	114.81
467.171	123.81
467.391	107.81
467.61	123.81
467.829	106.81
468.049	111.81
468.268	118.81
468.488	99.81
468.707	117.81
468.927	111.81
469.146	111.81
469.365	105.81
469.585	106.81
469.804	117.81
470.023	110.81
470.243	117.81
470.462	101.81
470.681	106.81
470.901	103.81
471.12	99.81
471.339	111.81
471.558	100.81
471.777	110.81
471.997	97.81
472.216	109.81
472.435	109.81
472.654	90.81
472.873	97.81
473.092	96.81
473.311	107.81
473.53	103.81
473.749	100.81
473.968	120.81
474.187	87.81
474.406	101.81
474.625	106.81
474.844	105.81
475.063	113.81
475.282	107.81
475.501	99.81
475.72	119.81
475.939	104.81
476.158	121.81
476.377	110.81
476.596	117.81
476.814	121.81
477.033	110.81
477.252	100.81
477.471	100.81
477.69	111.81
477.908	101.81
478.127	115.81
478.346	111.81
478.564	116.81
478.783	101.81
479.002	119.81
479.22	105.81
479.439	105.81
479.658	104.81
479.876	94.81
480.095	94.81
480.313	88.81
480.532	91.81
480.751	94.81
480.969	97.81
481.188	60.81
481.406	91.81
481.624	88.81
481.843	96.81
482.061	91.81
482.28	111.81
482.498	95.81
482.717	102.81
482.935	104.81
483.153	124.81
483.372	115.81
483.59	118.81
483.808	103.81
484.027	107.81
484.245	104.81
484.463	110.81
484.681	128.81
484.9	123.81
485.118	106.81
485.336	98.81
485.554	101.81
485.772	95.81
485.99	100.81
486.209	97.81
486.427	81.81
486.645	100.81
486.863	127.81
487.081	111.81
487.299	126.81
487.517	117.81
487.735	131.81
487.953	124.81
488.171	125.81
488.389	122.81
488.607	117.81
488.825	113.81
489.043	101.81
489.261	119.81
489.479	113.81
489.696	126.81
489.914	110.81
490.132	114.81
490.35	107.81
490.568	116.81
490.786	117.81
491.003	123.81
491.221	130.81
491.439	133.81
491.657	144.81
491.874	136.81
492.092	152.81
492.31	154.81
492.527	153.81
492.745	137.81
492.963	135.81
493.18	132.81
493.398	130.81
493.615	129.81
493.833	133.81
494.05	134.81
494.268	129.81
494.485	121.81
494.703	122.81
494.92	120.81
495.138	112.81
495.355	130.81
495.573	135.81
495.79	121.81
496.008	143.81
496.225	120.81
496.442	120.81
496.66	128.81
496.877	120.81
497.094	129.81
497.312	133.81
497.529	111.81
497.746	135.81
497.963	104.81
498.181	108.81
498.398	107.81
498.615	106.81
498.832	89.81
499.049	108.81
499.267	107.81
499.484	106.81
499.701	116.81
499.918	116.81
500.135	116.81
500.352	108.81
500.569	112.81
500.786	103.81
501.003	97.81
501.22	101.81
501.437	129.81
501.654	124.81
501.871	113.81
502.088	108.81
502.305	99.81
502.522	92.81
502.739	115.81
502.956	99.81
503.172	103.81
503.389	108.81
503.606	95.81
503.823	95.81
504.04	108.81
504.256	104.81
504.473	107.81
504.69	107.81
504.907	110.81
505.123	115.81
505.34	96.81
505.557	125.81
505.773	112.81
505.99	98.81
506.207	100.81
506.423	105.81
506.64	95.81
506.856	99.81
507.073	113.81
507.289	102.81
507.506	121.81
507.722	99.81
507.939	102.81
508.155	103.81
508.372	100.81
508.588	97.81
508.805	108.81
509.021	96.81
509.238	106.81
509.454	93.81
509.67	100.81
509.887	101.81
510.103	94.81
510.319	87.81
510.536	77.81
510.752	101.81
510.968	92.81
511.184	82.81
511.401	92.81
511.617	82.81
511.833	83.81
512.049	81.81
512.265	95.81
512.481	70.81
512.698	89.81
512.914	95.81
513.13	83.81
513.346	83.81
513.562	79.81
513.778	93.81
