Data from Zn(NO3)2Standard.Agarose3%.GreenCap.LampEnergy10E.O_HRD10591_15-06-32-942.txt Node
Date: Mon Jul 22 15:06:32 EDT 2019
User: cochatt
Spectrometer: HR+D1059
Trigger mode: 1
Integration Time (sec): 1.000000E-1
Scans to average: 1
Electric dark correction enabled: true
Nonlinearity correction enabled: false
Boxcar width: 0
XAxis mode: Wavelengths
Number of Pixels in Spectrum: 2048
>>>>>Begin Spectral Data<<<<<
223.165	3.94
223.4	3.94
223.635	3.94
223.869	-20.06
224.104	-29.06
224.338	-12.06
224.573	-21.06
224.808	3.94
225.042	-9.06
225.277	-1.06
225.511	-12.06
225.746	-0.06
225.98	-5.06
226.215	9.94
226.449	20.94
226.683	22.94
226.918	21.94
227.152	25.94
227.387	23.94
227.621	40.94
227.856	52.94
228.09	42.94
228.324	32.94
228.559	38.94
228.793	52.94
229.027	42.94
229.262	45.94
229.496	70.94
229.73	71.94
229.964	79.94
230.199	71.94
230.433	71.94
230.667	78.94
230.901	70.94
231.136	67.94
231.37	67.94
231.604	83.94
231.838	72.94
232.072	74.94
232.306	96.94
232.541	75.94
232.775	82.94
233.009	77.94
233.243	74.94
233.477	88.94
233.711	78.94
233.945	64.94
234.179	92.94
234.413	84.94
234.647	74.94
234.881	89.94
235.115	94.94
235.349	81.94
235.583	86.94
235.817	63.94
236.051	82.94
236.285	86.94
236.519	80.94
236.753	76.94
236.987	85.94
237.221	69.94
237.455	68.94
237.689	75.94
237.922	85.94
238.156	61.94
238.39	64.94
238.624	79.94
238.858	66.94
239.091	66.94
239.325	71.94
239.559	76.94
239.793	76.94
240.027	77.94
240.26	73.94
240.494	73.94
240.728	78.94
240.961	71.94
241.195	71.94
241.429	80.94
241.662	71.94
241.896	77.94
242.13	81.94
242.363	85.94
242.597	83.94
242.83	84.94
243.064	91.94
243.298	79.94
243.531	70.94
243.765	83.94
243.998	69.94
244.232	73.94
244.465	80.94
244.699	84.94
244.932	66.94
245.166	85.94
245.399	82.94
245.633	78.94
245.866	86.94
246.099	69.94
246.333	67.94
246.566	69.94
246.8	64.94
247.033	75.94
247.266	69.94
247.5	67.94
247.733	85.94
247.966	88.94
248.2	77.94
248.433	78.94
248.666	72.94
248.899	93.94
249.133	89.94
249.366	78.94
249.599	76.94
249.832	74.94
250.066	75.94
250.299	70.94
250.532	72.94
250.765	75.94
250.998	80.94
251.231	73.94
251.465	62.94
251.698	73.94
251.931	81.94
252.164	65.94
252.397	79.94
252.63	79.94
252.863	54.94
253.096	85.94
253.329	66.94
253.562	86.94
253.795	79.94
254.028	73.94
254.261	75.94
254.494	82.94
254.727	85.94
254.96	89.94
255.193	74.94
255.426	82.94
255.659	76.94
255.892	85.94
256.124	88.94
256.357	78.94
256.59	80.94
256.823	75.94
257.056	75.94
257.289	73.94
257.521	81.94
257.754	66.94
257.987	78.94
258.22	83.94
258.452	81.94
258.685	77.94
258.918	86.94
259.151	74.94
259.383	75.94
259.616	59.94
259.849	74.94
260.081	76.94
260.314	86.94
260.547	86.94
260.779	83.94
261.012	67.94
261.244	70.94
261.477	78.94
261.71	73.94
261.942	70.94
262.175	83.94
262.407	76.94
262.64	80.94
262.872	81.94
263.105	91.94
263.337	87.94
263.57	77.94
263.802	72.94
264.035	78.94
264.267	79.94
264.499	82.94
264.732	78.94
264.964	86.94
265.197	79.94
265.429	88.94
265.661	77.94
265.894	85.94
266.126	81.94
266.358	75.94
266.591	73.94
266.823	69.94
267.055	77.94
267.287	78.94
267.52	79.94
267.752	83.94
267.984	73.94
268.216	71.94
268.448	82.94
268.681	80.94
268.913	76.94
269.145	82.94
269.377	85.94
269.609	81.94
269.841	85.94
270.073	86.94
270.306	72.94
270.538	86.94
270.77	71.94
271.002	80.94
271.234	87.94
271.466	99.94
271.698	89.94
271.93	79.94
272.162	72.94
272.394	94.94
272.626	76.94
272.858	72.94
273.09	89.94
273.322	82.94
273.553	83.94
273.785	72.94
274.017	77.94
274.249	74.94
274.481	82.94
274.713	69.94
274.945	83.94
275.176	77.94
275.408	83.94
275.64	92.94
275.872	71.94
276.104	71.94
276.335	90.94
276.567	66.94
276.799	75.94
277.031	94.94
277.262	88.94
277.494	76.94
277.726	69.94
277.957	79.94
278.189	84.94
278.421	74.94
278.652	84.94
278.884	80.94
279.115	96.94
279.347	88.94
279.579	84.94
279.81	70.94
280.042	95.94
280.273	80.94
280.505	86.94
280.736	77.94
280.968	75.94
281.199	96.94
281.431	75.94
281.662	84.94
281.894	87.94
282.125	88.94
282.356	86.94
282.588	81.94
282.819	74.94
283.051	96.94
283.282	90.94
283.513	85.94
283.745	65.94
283.976	81.94
284.207	76.94
284.439	81.94
284.67	80.94
284.901	93.94
285.132	77.94
285.364	91.94
285.595	79.94
285.826	81.94
286.057	94.94
286.288	79.94
286.52	83.94
286.751	105.94
286.982	83.94
287.213	81.94
287.444	98.94
287.675	96.94
287.906	86.94
288.138	89.94
288.369	80.94
288.6	79.94
288.831	74.94
289.062	80.94
289.293	93.94
289.524	70.94
289.755	86.94
289.986	73.94
290.217	92.94
290.448	88.94
290.679	78.94
290.91	89.94
291.141	86.94
291.371	74.94
291.602	76.94
291.833	87.94
292.064	90.94
292.295	78.94
292.526	84.94
292.757	78.94
292.987	76.94
293.218	85.94
293.449	87.94
293.68	95.94
293.91	83.94
294.141	78.94
294.372	77.94
294.603	80.94
294.833	71.94
295.064	75.94
295.295	85.94
295.525	81.94
295.756	84.94
295.987	76.94
296.217	94.94
296.448	87.94
296.679	65.94
296.909	81.94
297.14	91.94
297.37	86.94
297.601	98.94
297.831	85.94
298.062	88.94
298.292	83.94
298.523	76.94
298.753	87.94
298.984	67.94
299.214	73.94
299.445	65.94
299.675	86.94
299.905	70.94
300.136	89.94
300.366	70.94
300.597	77.94
300.827	98.94
301.057	97.94
301.288	73.94
301.518	85.94
301.748	85.94
301.979	85.94
302.209	95.94
302.439	69.94
302.669	83.94
302.9	87.94
303.13	85.94
303.36	87.94
303.59	93.94
303.82	80.94
304.051	74.94
304.281	85.94
304.511	85.94
304.741	81.94
304.971	79.94
305.201	83.94
305.431	77.94
305.661	81.94
305.891	98.94
306.121	76.94
306.352	89.94
306.582	98.94
306.812	74.94
307.042	69.94
307.272	83.94
307.502	83.94
307.731	85.94
307.961	89.94
308.191	75.94
308.421	87.94
308.651	77.94
308.881	85.94
309.111	80.94
309.341	80.94
309.571	73.94
309.8	91.94
310.03	79.94
310.26	76.94
310.49	88.94
310.72	89.94
310.949	84.94
311.179	80.94
311.409	92.94
311.639	89.94
311.868	68.94
312.098	90.94
312.328	79.94
312.557	88.94
312.787	78.94
313.017	86.94
313.246	92.94
313.476	97.94
313.706	77.94
313.935	80.94
314.165	81.94
314.394	81.94
314.624	74.94
314.853	89.94
315.083	85.94
315.312	84.94
315.542	73.94
315.771	70.94
316.001	76.94
316.23	71.94
316.46	86.94
316.689	97.94
316.919	82.94
317.148	88.94
317.377	76.94
317.607	89.94
317.836	87.94
318.065	100.94
318.295	85.94
318.524	76.94
318.753	83.94
318.983	82.94
319.212	87.94
319.441	86.94
319.67	83.94
319.9	89.94
320.129	80.94
320.358	86.94
320.587	90.94
320.816	86.94
321.046	90.94
321.275	86.94
321.504	80.94
321.733	80.94
321.962	93.94
322.191	86.94
322.42	87.94
322.649	73.94
322.878	96.94
323.108	88.94
323.337	89.94
323.566	101.94
323.795	85.94
324.024	71.94
324.253	72.94
324.482	81.94
324.71	76.94
324.939	96.94
325.168	79.94
325.397	79.94
325.626	88.94
325.855	75.94
326.084	70.94
326.313	90.94
326.542	85.94
326.77	78.94
326.999	97.94
327.228	74.94
327.457	82.94
327.686	86.94
327.914	85.94
328.143	69.94
328.372	81.94
328.6	80.94
328.829	89.94
329.058	96.94
329.287	89.94
329.515	72.94
329.744	78.94
329.972	74.94
330.201	75.94
330.43	83.94
330.658	74.94
330.887	90.94
331.115	90.94
331.344	93.94
331.572	88.94
331.801	93.94
332.03	104.94
332.258	85.94
332.486	88.94
332.715	89.94
332.943	86.94
333.172	81.94
333.4	69.94
333.629	76.94
333.857	89.94
334.085	81.94
334.314	81.94
334.542	79.94
334.771	94.94
334.999	81.94
335.227	81.94
335.455	83.94
335.684	90.94
335.912	85.94
336.14	84.94
336.369	83.94
336.597	86.94
336.825	75.94
337.053	96.94
337.281	83.94
337.51	87.94
337.738	71.94
337.966	84.94
338.194	66.94
338.422	87.94
338.65	85.94
338.878	89.94
339.106	77.94
339.334	79.94
339.562	86.94
339.79	81.94
340.018	85.94
340.246	74.94
340.474	87.94
340.702	83.94
340.93	94.94
341.158	92.94
341.386	93.94
341.614	88.94
341.842	70.94
342.07	89.94
342.298	89.94
342.526	75.94
342.754	73.94
342.981	88.94
343.209	84.94
343.437	93.94
343.665	70.94
343.893	77.94
344.12	89.94
344.348	88.94
344.576	89.94
344.804	72.94
345.031	98.94
345.259	70.94
345.487	71.94
345.714	75.94
345.942	83.94
346.17	95.94
346.397	95.94
346.625	90.94
346.853	87.94
347.08	72.94
347.308	69.94
347.535	88.94
347.763	77.94
347.99	75.94
348.218	82.94
348.445	87.94
348.673	79.94
348.9	75.94
349.128	88.94
349.355	78.94
349.583	79.94
349.81	87.94
350.037	69.94
350.265	87.94
350.492	82.94
350.72	72.94
350.947	101.94
351.174	73.94
351.402	76.94
351.629	70.94
351.856	82.94
352.083	76.94
352.311	81.94
352.538	69.94
352.765	86.94
352.992	91.94
353.22	74.94
353.447	94.94
353.674	85.94
353.901	86.94
354.128	93.94
354.355	82.94
354.583	83.94
354.81	85.94
355.037	75.94
355.264	90.94
355.491	87.94
355.718	93.94
355.945	82.94
356.172	86.94
356.399	82.94
356.626	85.94
356.853	73.94
357.08	81.94
357.307	91.94
357.534	80.94
357.761	91.94
357.988	88.94
358.215	83.94
358.441	70.94
358.668	80.94
358.895	82.94
359.122	76.94
359.349	75.94
359.576	74.94
359.802	79.94
360.029	87.94
360.256	81.94
360.483	75.94
360.709	81.94
360.936	75.94
361.163	68.94
361.39	68.94
361.616	84.94
361.843	81.94
362.07	73.94
362.296	79.94
362.523	92.94
362.749	91.94
362.976	88.94
363.203	87.94
363.429	85.94
363.656	78.94
363.882	70.94
364.109	79.94
364.335	81.94
364.562	98.94
364.788	102.94
365.015	99.94
365.241	89.94
365.468	81.94
365.694	74.94
365.92	69.94
366.147	94.94
366.373	78.94
366.599	73.94
366.826	84.94
367.052	73.94
367.278	86.94
367.505	83.94
367.731	90.94
367.957	83.94
368.184	84.94
368.41	78.94
368.636	93.94
368.862	83.94
369.089	77.94
369.315	76.94
369.541	80.94
369.767	94.94
369.993	86.94
370.219	79.94
370.445	72.94
370.672	89.94
370.898	81.94
371.124	82.94
371.35	88.94
371.576	98.94
371.802	83.94
372.028	65.94
372.254	75.94
372.48	84.94
372.706	86.94
372.932	88.94
373.158	89.94
373.384	107.94
373.61	88.94
373.835	93.94
374.061	64.94
374.287	86.94
374.513	98.94
374.739	83.94
374.965	82.94
375.191	77.94
375.416	93.94
375.642	91.94
375.868	98.94
376.094	81.94
376.319	94.94
376.545	99.94
376.771	73.94
376.997	78.94
377.222	84.94
377.448	84.94
377.674	83.94
377.899	84.94
378.125	97.94
378.35	84.94
378.576	97.94
378.802	87.94
379.027	82.94
379.253	76.94
379.478	74.94
379.704	77.94
379.929	95.94
380.155	88.94
380.38	86.94
380.606	88.94
380.831	86.94
381.057	93.94
381.282	89.94
381.507	72.94
381.733	93.94
381.958	96.94
382.184	83.94
382.409	78.94
382.634	86.94
382.86	92.94
383.085	89.94
383.31	90.94
383.535	87.94
383.761	81.94
383.986	95.94
384.211	77.94
384.436	98.94
384.662	87.94
384.887	86.94
385.112	91.94
385.337	101.94
385.562	95.94
385.787	86.94
386.013	94.94
386.238	78.94
386.463	76.94
386.688	92.94
386.913	97.94
387.138	84.94
387.363	81.94
387.588	102.94
387.813	99.94
388.038	85.94
388.263	85.94
388.488	88.94
388.713	94.94
388.938	95.94
389.163	72.94
389.387	71.94
389.612	93.94
389.837	85.94
390.062	94.94
390.287	92.94
390.512	76.94
390.736	102.94
390.961	86.94
391.186	100.94
391.411	91.94
391.636	86.94
391.86	89.94
392.085	87.94
392.31	94.94
392.534	92.94
392.759	98.94
392.984	93.94
393.208	78.94
393.433	91.94
393.658	97.94
393.882	98.94
394.107	82.94
394.331	86.94
394.556	98.94
394.78	99.94
395.005	83.94
395.229	79.94
395.454	88.94
395.678	93.94
395.903	99.94
396.127	91.94
396.352	95.94
396.576	94.94
396.801	93.94
397.025	83.94
397.249	90.94
397.474	92.94
397.698	90.94
397.922	93.94
398.147	85.94
398.371	98.94
398.595	89.94
398.82	96.94
399.044	88.94
399.268	87.94
399.492	89.94
399.717	79.94
399.941	84.94
400.165	97.94
400.389	93.94
400.613	93.94
400.837	105.94
401.062	74.94
401.286	95.94
401.51	106.94
401.734	82.94
401.958	72.94
402.182	91.94
402.406	90.94
402.63	94.94
402.854	110.94
403.078	92.94
403.302	94.94
403.526	91.94
403.75	86.94
403.974	102.94
404.198	103.94
404.422	91.94
404.645	95.94
404.869	106.94
405.093	100.94
405.317	90.94
405.541	85.94
405.765	98.94
405.988	100.94
406.212	96.94
406.436	90.94
406.66	90.94
406.883	96.94
407.107	82.94
407.331	104.94
407.555	96.94
407.778	85.94
408.002	95.94
408.226	90.94
408.449	88.94
408.673	95.94
408.896	89.94
409.12	101.94
409.344	102.94
409.567	96.94
409.791	93.94
410.014	95.94
410.238	108.94
410.461	89.94
410.685	98.94
410.908	89.94
411.132	112.94
411.355	100.94
411.578	86.94
411.802	100.94
412.025	101.94
412.249	105.94
412.472	96.94
412.695	103.94
412.919	89.94
413.142	100.94
413.365	98.94
413.589	102.94
413.812	107.94
414.035	95.94
414.258	101.94
414.482	109.94
414.705	93.94
414.928	85.94
415.151	97.94
415.374	84.94
415.597	98.94
415.821	101.94
416.044	106.94
416.267	104.94
416.49	111.94
416.713	95.94
416.936	96.94
417.159	102.94
417.382	108.94
417.605	90.94
417.828	93.94
418.051	85.94
418.274	87.94
418.497	109.94
418.72	90.94
418.943	83.94
419.166	93.94
419.389	100.94
419.611	92.94
419.834	111.94
420.057	105.94
420.28	97.94
420.503	100.94
420.726	110.94
420.948	100.94
421.171	95.94
421.394	85.94
421.617	97.94
421.839	123.94
422.062	101.94
422.285	103.94
422.507	114.94
422.73	103.94
422.953	84.94
423.175	105.94
423.398	109.94
423.621	103.94
423.843	89.94
424.066	94.94
424.288	106.94
424.511	99.94
424.733	117.94
424.956	100.94
425.178	105.94
425.401	104.94
425.623	106.94
425.846	105.94
426.068	101.94
426.291	102.94
426.513	111.94
426.735	109.94
426.958	100.94
427.18	106.94
427.402	104.94
427.625	110.94
427.847	95.94
428.069	95.94
428.292	106.94
428.514	102.94
428.736	104.94
428.958	90.94
429.181	105.94
429.403	108.94
429.625	90.94
429.847	99.94
430.069	100.94
430.292	99.94
430.514	98.94
430.736	97.94
430.958	107.94
431.18	98.94
431.402	79.94
431.624	102.94
431.846	98.94
432.068	91.94
432.29	91.94
432.512	105.94
432.734	101.94
432.956	107.94
433.178	112.94
433.4	94.94
433.622	96.94
433.844	106.94
434.066	88.94
434.287	101.94
434.509	88.94
434.731	76.94
434.953	98.94
435.175	105.94
435.397	106.94
435.618	98.94
435.84	94.94
436.062	111.94
436.284	81.94
436.505	96.94
436.727	104.94
436.949	97.94
437.17	92.94
437.392	110.94
437.614	99.94
437.835	99.94
438.057	90.94
438.278	81.94
438.5	95.94
438.721	112.94
438.943	111.94
439.165	110.94
439.386	110.94
439.608	110.94
439.829	109.94
440.05	114.94
440.272	101.94
440.493	109.94
440.715	99.94
440.936	111.94
441.158	117.94
441.379	124.94
441.6	98.94
441.822	119.94
442.043	107.94
442.264	98.94
442.486	111.94
442.707	127.94
442.928	104.94
443.149	115.94
443.371	109.94
443.592	105.94
443.813	106.94
444.034	92.94
444.255	107.94
444.476	111.94
444.698	114.94
444.919	112.94
445.14	233.94
445.361	157.94
445.582	109.94
445.803	126.94
446.024	104.94
446.245	109.94
446.466	113.94
446.687	120.94
446.908	120.94
447.129	116.94
447.35	109.94
447.571	100.94
447.792	113.94
448.013	115.94
448.234	100.94
448.455	108.94
448.675	106.94
448.896	99.94
449.117	115.94
449.338	102.94
449.559	97.94
449.779	92.94
450	95.94
450.221	102.94
450.442	93.94
450.662	109.94
450.883	100.94
451.104	116.94
451.324	113.94
451.545	89.94
451.766	101.94
451.986	105.94
452.207	99.94
452.428	98.94
452.648	91.94
452.869	96.94
453.089	87.94
453.31	85.94
453.53	87.94
453.751	78.94
453.971	95.94
454.192	90.94
454.412	85.94
454.633	101.94
454.853	99.94
455.073	105.94
455.294	96.94
455.514	95.94
455.734	81.94
455.955	91.94
456.175	101.94
456.395	114.94
456.616	91.94
456.836	84.94
457.056	87.94
457.276	97.94
457.497	88.94
457.717	87.94
457.937	102.94
458.157	89.94
458.377	93.94
458.598	85.94
458.818	88.94
459.038	75.94
459.258	88.94
459.478	79.94
459.698	86.94
459.918	90.94
460.138	95.94
460.358	95.94
460.578	98.94
460.798	97.94
461.018	85.94
461.238	104.94
461.458	93.94
461.678	109.94
461.898	91.94
462.118	97.94
462.338	104.94
462.558	89.94
462.777	95.94
462.997	100.94
463.217	83.94
463.437	86.94
463.657	79.94
463.876	102.94
464.096	88.94
464.316	109.94
464.536	93.94
464.755	85.94
464.975	99.94
465.195	106.94
465.414	99.94
465.634	110.94
465.854	98.94
466.073	80.94
466.293	98.94
466.512	93.94
466.732	109.94
466.951	99.94
467.171	95.94
467.391	108.94
467.61	86.94
467.829	103.94
468.049	115.94
468.268	106.94
468.488	90.94
468.707	93.94
468.927	103.94
469.146	92.94
469.365	122.94
469.585	114.94
469.804	100.94
470.023	97.94
470.243	102.94
470.462	99.94
470.681	120.94
470.901	104.94
471.12	99.94
471.339	87.94
471.558	80.94
471.777	105.94
471.997	88.94
472.216	104.94
472.435	110.94
472.654	110.94
472.873	85.94
473.092	102.94
473.311	104.94
473.53	99.94
473.749	91.94
473.968	111.94
474.187	101.94
474.406	100.94
474.625	98.94
474.844	106.94
475.063	113.94
475.282	109.94
475.501	94.94
475.72	112.94
475.939	102.94
476.158	89.94
476.377	99.94
476.596	93.94
476.814	89.94
477.033	80.94
477.252	86.94
477.471	107.94
477.69	104.94
477.908	102.94
478.127	104.94
478.346	100.94
478.564	102.94
478.783	103.94
479.002	106.94
479.22	102.94
479.439	122.94
479.658	102.94
479.876	86.94
480.095	102.94
480.313	110.94
480.532	89.94
480.751	85.94
480.969	97.94
481.188	82.94
481.406	90.94
481.624	79.94
481.843	81.94
482.061	91.94
482.28	96.94
482.498	91.94
482.717	82.94
482.935	114.94
483.153	109.94
483.372	116.94
483.59	127.94
483.808	117.94
484.027	101.94
484.245	82.94
484.463	134.94
484.681	99.94
484.9	121.94
485.118	102.94
485.336	91.94
485.554	111.94
485.772	99.94
485.99	94.94
486.209	79.94
486.427	89.94
486.645	96.94
486.863	108.94
487.081	98.94
487.299	95.94
487.517	108.94
487.735	117.94
487.953	120.94
488.171	119.94
488.389	110.94
488.607	121.94
488.825	116.94
489.043	92.94
489.261	108.94
489.479	105.94
489.696	98.94
489.914	103.94
490.132	116.94
490.35	117.94
490.568	126.94
490.786	130.94
491.003	120.94
491.221	117.94
491.439	146.94
491.657	125.94
491.874	129.94
492.092	150.94
492.31	161.94
492.527	138.94
492.745	138.94
492.963	118.94
493.18	135.94
493.398	137.94
493.615	119.94
493.833	125.94
494.05	127.94
494.268	130.94
494.485	125.94
494.703	120.94
494.92	126.94
495.138	132.94
495.355	118.94
495.573	128.94
495.79	129.94
496.008	114.94
496.225	118.94
496.442	113.94
496.66	138.94
496.877	123.94
497.094	121.94
497.312	115.94
497.529	113.94
497.746	114.94
497.963	104.94
498.181	110.94
498.398	114.94
498.615	101.94
498.832	95.94
499.049	92.94
499.267	97.94
499.484	106.94
499.701	112.94
499.918	115.94
500.135	99.94
500.352	111.94
500.569	99.94
500.786	116.94
501.003	107.94
501.22	105.94
501.437	110.94
501.654	111.94
501.871	111.94
502.088	118.94
502.305	106.94
502.522	103.94
502.739	99.94
502.956	106.94
503.172	103.94
503.389	93.94
503.606	110.94
503.823	98.94
504.04	101.94
504.256	95.94
504.473	91.94
504.69	91.94
504.907	107.94
505.123	108.94
505.34	115.94
505.557	103.94
505.773	94.94
505.99	93.94
506.207	83.94
506.423	82.94
506.64	111.94
506.856	99.94
507.073	103.94
507.289	102.94
507.506	103.94
507.722	100.94
507.939	98.94
508.155	113.94
508.372	89.94
508.588	110.94
508.805	93.94
509.021	82.94
509.238	90.94
509.454	99.94
509.67	102.94
509.887	80.94
510.103	98.94
510.319	70.94
510.536	75.94
510.752	91.94
510.968	95.94
511.184	82.94
511.401	88.94
511.617	88.94
511.833	86.94
512.049	79.94
512.265	88.94
512.481	99.94
512.698	81.94
512.914	90.94
513.13	95.94
513.346	80.94
513.562	98.94
513.778	98.94
513.994	96.94
514.21	84.94
514.426	94.94
514.642	92.94
514.858	76.94
515.074	86.94
515.29	76.94
515.506	72.94
