Data from Zn(NO3)2Standard.Agarose3%.GreenCap.LampEnergy10E.O_HRD10591_15-07-20-943.txt Node
Date: Mon Jul 22 15:07:20 EDT 2019
User: cochatt
Spectrometer: HR+D1059
Trigger mode: 1
Integration Time (sec): 1.000000E-1
Scans to average: 1
Electric dark correction enabled: true
Nonlinearity correction enabled: false
Boxcar width: 0
XAxis mode: Wavelengths
Number of Pixels in Spectrum: 2048
>>>>>Begin Spectral Data<<<<<
223.165	-5.75
223.4	-5.75
223.635	-5.75
223.869	1.25
224.104	-14.75
224.338	-18.75
224.573	-10.75
224.808	-22.75
225.042	-15.75
225.277	-7.75
225.511	5.25
225.746	16.25
225.98	13.25
226.215	6.25
226.449	3.25
226.683	12.25
226.918	9.25
227.152	29.25
227.387	32.25
227.621	50.25
227.856	30.25
228.09	42.25
228.324	52.25
228.559	54.25
228.793	58.25
229.027	67.25
229.262	72.25
229.496	71.25
229.73	67.25
229.964	50.25
230.199	61.25
230.433	67.25
230.667	83.25
230.901	79.25
231.136	75.25
231.37	82.25
231.604	74.25
231.838	80.25
232.072	89.25
232.306	84.25
232.541	73.25
232.775	74.25
233.009	89.25
233.243	76.25
233.477	87.25
233.711	82.25
233.945	73.25
234.179	84.25
234.413	86.25
234.647	86.25
234.881	73.25
235.115	86.25
235.349	75.25
235.583	75.25
235.817	85.25
236.051	70.25
236.285	90.25
236.519	64.25
236.753	81.25
236.987	77.25
237.221	70.25
237.455	70.25
237.689	85.25
237.922	71.25
238.156	75.25
238.39	77.25
238.624	58.25
238.858	64.25
239.091	77.25
239.325	68.25
239.559	85.25
239.793	80.25
240.027	85.25
240.26	69.25
240.494	95.25
240.728	69.25
240.961	70.25
241.195	69.25
241.429	82.25
241.662	66.25
241.896	67.25
242.13	92.25
242.363	71.25
242.597	84.25
242.83	73.25
243.064	69.25
243.298	93.25
243.531	83.25
243.765	97.25
243.998	81.25
244.232	86.25
244.465	77.25
244.699	77.25
244.932	76.25
245.166	77.25
245.399	70.25
245.633	90.25
245.866	73.25
246.099	73.25
246.333	78.25
246.566	76.25
246.8	82.25
247.033	70.25
247.266	68.25
247.5	72.25
247.733	76.25
247.966	81.25
248.2	79.25
248.433	83.25
248.666	81.25
248.899	83.25
249.133	85.25
249.366	77.25
249.599	82.25
249.832	83.25
250.066	77.25
250.299	81.25
250.532	86.25
250.765	85.25
250.998	85.25
251.231	86.25
251.465	77.25
251.698	71.25
251.931	84.25
252.164	77.25
252.397	90.25
252.63	91.25
252.863	71.25
253.096	83.25
253.329	82.25
253.562	73.25
253.795	78.25
254.028	75.25
254.261	77.25
254.494	82.25
254.727	90.25
254.96	76.25
255.193	84.25
255.426	86.25
255.659	70.25
255.892	77.25
256.124	82.25
256.357	82.25
256.59	93.25
256.823	77.25
257.056	84.25
257.289	85.25
257.521	88.25
257.754	77.25
257.987	84.25
258.22	83.25
258.452	85.25
258.685	84.25
258.918	78.25
259.151	78.25
259.383	73.25
259.616	79.25
259.849	76.25
260.081	89.25
260.314	93.25
260.547	86.25
260.779	79.25
261.012	84.25
261.244	84.25
261.477	73.25
261.71	78.25
261.942	79.25
262.175	79.25
262.407	75.25
262.64	90.25
262.872	74.25
263.105	83.25
263.337	85.25
263.57	65.25
263.802	84.25
264.035	74.25
264.267	74.25
264.499	99.25
264.732	84.25
264.964	98.25
265.197	81.25
265.429	90.25
265.661	86.25
265.894	78.25
266.126	88.25
266.358	76.25
266.591	85.25
266.823	85.25
267.055	85.25
267.287	72.25
267.52	93.25
267.752	85.25
267.984	76.25
268.216	77.25
268.448	76.25
268.681	79.25
268.913	81.25
269.145	69.25
269.377	82.25
269.609	92.25
269.841	68.25
270.073	78.25
270.306	78.25
270.538	76.25
270.77	91.25
271.002	82.25
271.234	72.25
271.466	76.25
271.698	68.25
271.93	90.25
272.162	80.25
272.394	84.25
272.626	82.25
272.858	80.25
273.09	65.25
273.322	73.25
273.553	94.25
273.785	77.25
274.017	73.25
274.249	90.25
274.481	72.25
274.713	81.25
274.945	106.25
275.176	84.25
275.408	85.25
275.64	89.25
275.872	83.25
276.104	83.25
276.335	83.25
276.567	78.25
276.799	79.25
277.031	73.25
277.262	77.25
277.494	98.25
277.726	90.25
277.957	73.25
278.189	69.25
278.421	93.25
278.652	97.25
278.884	80.25
279.115	85.25
279.347	81.25
279.579	77.25
279.81	76.25
280.042	77.25
280.273	74.25
280.505	83.25
280.736	82.25
280.968	74.25
281.199	94.25
281.431	88.25
281.662	84.25
281.894	70.25
282.125	94.25
282.356	85.25
282.588	81.25
282.819	72.25
283.051	83.25
283.282	91.25
283.513	81.25
283.745	79.25
283.976	92.25
284.207	88.25
284.439	79.25
284.67	84.25
284.901	78.25
285.132	81.25
285.364	85.25
285.595	86.25
285.826	76.25
286.057	78.25
286.288	75.25
286.52	67.25
286.751	73.25
286.982	65.25
287.213	77.25
287.444	92.25
287.675	82.25
287.906	100.25
288.138	91.25
288.369	98.25
288.6	84.25
288.831	79.25
289.062	92.25
289.293	72.25
289.524	89.25
289.755	93.25
289.986	101.25
290.217	85.25
290.448	83.25
290.679	90.25
290.91	90.25
291.141	77.25
291.371	77.25
291.602	108.25
291.833	90.25
292.064	88.25
292.295	80.25
292.526	86.25
292.757	74.25
292.987	77.25
293.218	85.25
293.449	88.25
293.68	89.25
293.91	90.25
294.141	83.25
294.372	84.25
294.603	82.25
294.833	91.25
295.064	80.25
295.295	81.25
295.525	84.25
295.756	93.25
295.987	96.25
296.217	86.25
296.448	83.25
296.679	82.25
296.909	75.25
297.14	87.25
297.37	94.25
297.601	81.25
297.831	76.25
298.062	88.25
298.292	89.25
298.523	85.25
298.753	82.25
298.984	94.25
299.214	87.25
299.445	83.25
299.675	89.25
299.905	75.25
300.136	83.25
300.366	84.25
300.597	83.25
300.827	81.25
301.057	71.25
301.288	85.25
301.518	91.25
301.748	74.25
301.979	78.25
302.209	86.25
302.439	84.25
302.669	81.25
302.9	91.25
303.13	82.25
303.36	78.25
303.59	84.25
303.82	89.25
304.051	73.25
304.281	92.25
304.511	81.25
304.741	91.25
304.971	93.25
305.201	97.25
305.431	90.25
305.661	93.25
305.891	85.25
306.121	83.25
306.352	71.25
306.582	87.25
306.812	80.25
307.042	83.25
307.272	83.25
307.502	81.25
307.731	76.25
307.961	97.25
308.191	101.25
308.421	83.25
308.651	89.25
308.881	81.25
309.111	74.25
309.341	91.25
309.571	86.25
309.8	87.25
310.03	69.25
310.26	76.25
310.49	94.25
310.72	91.25
310.949	78.25
311.179	91.25
311.409	78.25
311.639	81.25
311.868	77.25
312.098	94.25
312.328	81.25
312.557	90.25
312.787	85.25
313.017	77.25
313.246	78.25
313.476	85.25
313.706	64.25
313.935	80.25
314.165	85.25
314.394	91.25
314.624	84.25
314.853	86.25
315.083	81.25
315.312	94.25
315.542	84.25
315.771	91.25
316.001	88.25
316.23	77.25
316.46	85.25
316.689	78.25
316.919	77.25
317.148	71.25
317.377	88.25
317.607	85.25
317.836	83.25
318.065	94.25
318.295	88.25
318.524	67.25
318.753	76.25
318.983	86.25
319.212	79.25
319.441	87.25
319.67	83.25
319.9	77.25
320.129	89.25
320.358	83.25
320.587	81.25
320.816	77.25
321.046	92.25
321.275	87.25
321.504	97.25
321.733	77.25
321.962	79.25
322.191	88.25
322.42	106.25
322.649	91.25
322.878	87.25
323.108	85.25
323.337	77.25
323.566	100.25
323.795	88.25
324.024	82.25
324.253	80.25
324.482	88.25
324.71	94.25
324.939	75.25
325.168	90.25
325.397	73.25
325.626	80.25
325.855	91.25
326.084	93.25
326.313	82.25
326.542	93.25
326.77	86.25
326.999	92.25
327.228	73.25
327.457	78.25
327.686	92.25
327.914	89.25
328.143	96.25
328.372	81.25
328.6	85.25
328.829	81.25
329.058	81.25
329.287	85.25
329.515	69.25
329.744	83.25
329.972	78.25
330.201	83.25
330.43	78.25
330.658	78.25
330.887	86.25
331.115	87.25
331.344	88.25
331.572	83.25
331.801	84.25
332.03	67.25
332.258	77.25
332.486	81.25
332.715	82.25
332.943	88.25
333.172	85.25
333.4	75.25
333.629	92.25
333.857	88.25
334.085	69.25
334.314	75.25
334.542	86.25
334.771	77.25
334.999	69.25
335.227	80.25
335.455	77.25
335.684	81.25
335.912	79.25
336.14	85.25
336.369	92.25
336.597	89.25
336.825	90.25
337.053	85.25
337.281	83.25
337.51	86.25
337.738	92.25
337.966	78.25
338.194	74.25
338.422	91.25
338.65	88.25
338.878	92.25
339.106	90.25
339.334	76.25
339.562	93.25
339.79	88.25
340.018	73.25
340.246	89.25
340.474	102.25
340.702	91.25
340.93	97.25
341.158	90.25
341.386	97.25
341.614	87.25
341.842	94.25
342.07	73.25
342.298	81.25
342.526	77.25
342.754	84.25
342.981	82.25
343.209	83.25
343.437	88.25
343.665	84.25
343.893	67.25
344.12	84.25
344.348	85.25
344.576	87.25
344.804	78.25
345.031	78.25
345.259	86.25
345.487	84.25
345.714	84.25
345.942	93.25
346.17	92.25
346.397	93.25
346.625	84.25
346.853	89.25
347.08	94.25
347.308	84.25
347.535	82.25
347.763	90.25
347.99	76.25
348.218	82.25
348.445	82.25
348.673	91.25
348.9	81.25
349.128	101.25
349.355	86.25
349.583	83.25
349.81	83.25
350.037	72.25
350.265	77.25
350.492	104.25
350.72	91.25
350.947	89.25
351.174	86.25
351.402	88.25
351.629	83.25
351.856	90.25
352.083	88.25
352.311	86.25
352.538	84.25
352.765	90.25
352.992	82.25
353.22	93.25
353.447	87.25
353.674	95.25
353.901	74.25
354.128	90.25
354.355	87.25
354.583	83.25
354.81	84.25
355.037	88.25
355.264	89.25
355.491	74.25
355.718	74.25
355.945	79.25
356.172	75.25
356.399	79.25
356.626	81.25
356.853	84.25
357.08	82.25
357.307	88.25
357.534	80.25
357.761	81.25
357.988	78.25
358.215	72.25
358.441	81.25
358.668	77.25
358.895	90.25
359.122	74.25
359.349	84.25
359.576	84.25
359.802	74.25
360.029	87.25
360.256	78.25
360.483	94.25
360.709	75.25
360.936	100.25
361.163	92.25
361.39	81.25
361.616	92.25
361.843	60.25
362.07	66.25
362.296	75.25
362.523	82.25
362.749	90.25
362.976	74.25
363.203	79.25
363.429	83.25
363.656	83.25
363.882	74.25
364.109	79.25
364.335	88.25
364.562	83.25
364.788	87.25
365.015	91.25
365.241	81.25
365.468	83.25
365.694	84.25
365.92	85.25
366.147	84.25
366.373	91.25
366.599	92.25
366.826	75.25
367.052	85.25
367.278	82.25
367.505	80.25
367.731	82.25
367.957	80.25
368.184	83.25
368.41	96.25
368.636	81.25
368.862	82.25
369.089	85.25
369.315	93.25
369.541	87.25
369.767	87.25
369.993	93.25
370.219	83.25
370.445	82.25
370.672	89.25
370.898	78.25
371.124	100.25
371.35	76.25
371.576	74.25
371.802	82.25
372.028	86.25
372.254	77.25
372.48	90.25
372.706	88.25
372.932	90.25
373.158	95.25
373.384	78.25
373.61	75.25
373.835	91.25
374.061	107.25
374.287	99.25
374.513	91.25
374.739	87.25
374.965	83.25
375.191	102.25
375.416	82.25
375.642	84.25
375.868	82.25
376.094	81.25
376.319	89.25
376.545	83.25
376.771	78.25
376.997	77.25
377.222	85.25
377.448	101.25
377.674	79.25
377.899	83.25
378.125	89.25
378.35	87.25
378.576	83.25
378.802	88.25
379.027	93.25
379.253	97.25
379.478	100.25
379.704	87.25
379.929	72.25
380.155	82.25
380.38	88.25
380.606	87.25
380.831	90.25
381.057	96.25
381.282	79.25
381.507	84.25
381.733	81.25
381.958	84.25
382.184	86.25
382.409	93.25
382.634	87.25
382.86	90.25
383.085	87.25
383.31	95.25
383.535	97.25
383.761	85.25
383.986	103.25
384.211	84.25
384.436	83.25
384.662	114.25
384.887	93.25
385.112	89.25
385.337	84.25
385.562	91.25
385.787	83.25
386.013	86.25
386.238	90.25
386.463	82.25
386.688	89.25
386.913	77.25
387.138	93.25
387.363	95.25
387.588	96.25
387.813	86.25
388.038	84.25
388.263	98.25
388.488	94.25
388.713	102.25
388.938	80.25
389.163	92.25
389.387	71.25
389.612	83.25
389.837	87.25
390.062	102.25
390.287	112.25
390.512	96.25
390.736	96.25
390.961	98.25
391.186	88.25
391.411	86.25
391.636	94.25
391.86	93.25
392.085	89.25
392.31	98.25
392.534	94.25
392.759	89.25
392.984	102.25
393.208	81.25
393.433	99.25
393.658	101.25
393.882	84.25
394.107	102.25
394.331	91.25
394.556	96.25
394.78	85.25
395.005	84.25
395.229	83.25
395.454	90.25
395.678	90.25
395.903	96.25
396.127	92.25
396.352	100.25
396.576	87.25
396.801	90.25
397.025	103.25
397.249	112.25
397.474	92.25
397.698	94.25
397.922	97.25
398.147	102.25
398.371	74.25
398.595	104.25
398.82	93.25
399.044	97.25
399.268	87.25
399.492	91.25
399.717	101.25
399.941	79.25
400.165	83.25
400.389	81.25
400.613	94.25
400.837	94.25
401.062	82.25
401.286	91.25
401.51	83.25
401.734	96.25
401.958	88.25
402.182	89.25
402.406	86.25
402.63	102.25
402.854	93.25
403.078	80.25
403.302	85.25
403.526	101.25
403.75	86.25
403.974	89.25
404.198	94.25
404.422	103.25
404.645	93.25
404.869	80.25
405.093	85.25
405.317	105.25
405.541	91.25
405.765	93.25
405.988	93.25
406.212	105.25
406.436	116.25
406.66	97.25
406.883	93.25
407.107	116.25
407.331	93.25
407.555	88.25
407.778	102.25
408.002	96.25
408.226	102.25
408.449	89.25
408.673	83.25
408.896	97.25
409.12	99.25
409.344	100.25
409.567	100.25
409.791	101.25
410.014	92.25
410.238	90.25
410.461	89.25
410.685	92.25
410.908	94.25
411.132	106.25
411.355	108.25
411.578	83.25
411.802	84.25
412.025	107.25
412.249	109.25
412.472	105.25
412.695	104.25
412.919	105.25
413.142	79.25
413.365	105.25
413.589	96.25
413.812	98.25
414.035	106.25
414.258	113.25
414.482	97.25
414.705	108.25
414.928	100.25
415.151	113.25
415.374	96.25
415.597	104.25
415.821	107.25
416.044	109.25
416.267	96.25
416.49	112.25
416.713	101.25
416.936	92.25
417.159	102.25
417.382	99.25
417.605	102.25
417.828	106.25
418.051	106.25
418.274	77.25
418.497	93.25
418.72	101.25
418.943	107.25
419.166	100.25
419.389	115.25
419.611	98.25
419.834	102.25
420.057	109.25
420.28	107.25
420.503	105.25
420.726	88.25
420.948	108.25
421.171	112.25
421.394	99.25
421.617	114.25
421.839	105.25
422.062	107.25
422.285	102.25
422.507	122.25
422.73	114.25
422.953	113.25
423.175	108.25
423.398	107.25
423.621	116.25
423.843	96.25
424.066	107.25
424.288	109.25
424.511	105.25
424.733	114.25
424.956	114.25
425.178	99.25
425.401	93.25
425.623	113.25
425.846	112.25
426.068	99.25
426.291	97.25
426.513	116.25
426.735	98.25
426.958	112.25
427.18	112.25
427.402	97.25
427.625	97.25
427.847	104.25
428.069	109.25
428.292	106.25
428.514	105.25
428.736	108.25
428.958	108.25
429.181	103.25
429.403	107.25
429.625	100.25
429.847	98.25
430.069	105.25
430.292	109.25
430.514	103.25
430.736	122.25
430.958	118.25
431.18	99.25
431.402	100.25
431.624	97.25
431.846	98.25
432.068	91.25
432.29	86.25
432.512	102.25
432.734	93.25
432.956	114.25
433.178	126.25
433.4	113.25
433.622	113.25
433.844	105.25
434.066	112.25
434.287	91.25
434.509	90.25
434.731	86.25
434.953	102.25
435.175	110.25
435.397	107.25
435.618	96.25
435.84	97.25
436.062	86.25
436.284	90.25
436.505	104.25
436.727	116.25
436.949	105.25
437.17	98.25
437.392	104.25
437.614	119.25
437.835	98.25
438.057	97.25
438.278	95.25
438.5	106.25
438.721	109.25
438.943	117.25
439.165	107.25
439.386	108.25
439.608	119.25
439.829	101.25
440.05	98.25
440.272	118.25
440.493	120.25
440.715	89.25
440.936	117.25
441.158	128.25
441.379	112.25
441.6	117.25
441.822	111.25
442.043	114.25
442.264	112.25
442.486	96.25
442.707	113.25
442.928	104.25
443.149	118.25
443.371	120.25
443.592	98.25
443.813	106.25
444.034	94.25
444.255	105.25
444.476	101.25
444.698	100.25
444.919	108.25
445.14	228.25
445.361	157.25
445.582	112.25
445.803	120.25
446.024	113.25
446.245	119.25
446.466	113.25
446.687	118.25
446.908	123.25
447.129	120.25
447.35	118.25
447.571	122.25
447.792	121.25
448.013	114.25
448.234	114.25
448.455	108.25
448.675	118.25
448.896	111.25
449.117	127.25
449.338	107.25
449.559	122.25
449.779	117.25
450	103.25
450.221	109.25
450.442	109.25
450.662	99.25
450.883	119.25
451.104	114.25
451.324	106.25
451.545	112.25
451.766	84.25
451.986	92.25
452.207	91.25
452.428	108.25
452.648	107.25
452.869	99.25
453.089	95.25
453.31	109.25
453.53	76.25
453.751	92.25
453.971	94.25
454.192	101.25
454.412	102.25
454.633	95.25
454.853	97.25
455.073	109.25
455.294	113.25
455.514	101.25
455.734	104.25
455.955	113.25
456.175	105.25
456.395	92.25
456.616	93.25
456.836	93.25
457.056	94.25
457.276	86.25
457.497	83.25
457.717	89.25
457.937	89.25
458.157	106.25
458.377	100.25
458.598	96.25
458.818	91.25
459.038	81.25
459.258	80.25
459.478	90.25
459.698	94.25
459.918	88.25
460.138	93.25
460.358	104.25
460.578	115.25
460.798	92.25
461.018	79.25
461.238	107.25
461.458	105.25
461.678	91.25
461.898	110.25
462.118	108.25
462.338	108.25
462.558	87.25
462.777	88.25
462.997	96.25
463.217	92.25
463.437	100.25
463.657	103.25
463.876	92.25
464.096	108.25
464.316	96.25
464.536	84.25
464.755	91.25
464.975	82.25
465.195	92.25
465.414	101.25
465.634	108.25
465.854	105.25
466.073	108.25
466.293	102.25
466.512	115.25
466.732	104.25
466.951	97.25
467.171	118.25
467.391	120.25
467.61	104.25
467.829	108.25
468.049	100.25
468.268	117.25
468.488	98.25
468.707	102.25
468.927	100.25
469.146	93.25
469.365	113.25
469.585	101.25
469.804	106.25
470.023	97.25
470.243	115.25
470.462	109.25
470.681	123.25
470.901	112.25
471.12	105.25
471.339	114.25
471.558	110.25
471.777	120.25
471.997	104.25
472.216	102.25
472.435	109.25
472.654	97.25
472.873	105.25
473.092	108.25
473.311	85.25
473.53	96.25
473.749	128.25
473.968	99.25
474.187	117.25
474.406	117.25
474.625	113.25
474.844	98.25
475.063	113.25
475.282	92.25
475.501	86.25
475.72	97.25
475.939	91.25
476.158	92.25
476.377	101.25
476.596	98.25
476.814	105.25
477.033	87.25
477.252	91.25
477.471	104.25
477.69	110.25
477.908	109.25
478.127	113.25
478.346	105.25
478.564	117.25
478.783	100.25
479.002	105.25
479.22	114.25
479.439	116.25
479.658	109.25
479.876	95.25
480.095	103.25
480.313	102.25
480.532	113.25
480.751	99.25
480.969	88.25
481.188	80.25
481.406	94.25
481.624	98.25
481.843	92.25
482.061	93.25
482.28	101.25
482.498	90.25
482.717	95.25
482.935	102.25
483.153	119.25
483.372	118.25
483.59	106.25
483.808	102.25
484.027	112.25
484.245	125.25
484.463	106.25
484.681	126.25
484.9	101.25
485.118	119.25
485.336	104.25
485.554	110.25
485.772	77.25
485.99	104.25
486.209	87.25
486.427	83.25
486.645	105.25
486.863	103.25
487.081	104.25
487.299	109.25
487.517	115.25
487.735	118.25
487.953	145.25
488.171	133.25
488.389	113.25
488.607	104.25
488.825	112.25
489.043	132.25
489.261	108.25
489.479	107.25
489.696	114.25
489.914	116.25
490.132	99.25
490.35	116.25
490.568	116.25
490.786	139.25
491.003	123.25
491.221	140.25
491.439	142.25
491.657	136.25
491.874	142.25
492.092	161.25
492.31	148.25
492.527	151.25
492.745	136.25
492.963	145.25
493.18	156.25
493.398	137.25
493.615	139.25
493.833	131.25
494.05	124.25
494.268	113.25
494.485	134.25
494.703	132.25
494.92	140.25
495.138	128.25
495.355	125.25
495.573	131.25
495.79	136.25
496.008	121.25
496.225	122.25
496.442	121.25
496.66	142.25
496.877	139.25
497.094	137.25
497.312	132.25
497.529	126.25
497.746	126.25
497.963	104.25
498.181	97.25
498.398	103.25
498.615	112.25
498.832	112.25
499.049	114.25
499.267	106.25
499.484	114.25
499.701	104.25
499.918	110.25
500.135	109.25
500.352	125.25
500.569	107.25
500.786	105.25
501.003	111.25
501.22	115.25
501.437	105.25
501.654	112.25
501.871	99.25
502.088	107.25
502.305	107.25
502.522	116.25
502.739	102.25
502.956	113.25
503.172	103.25
503.389	107.25
503.606	104.25
503.823	92.25
504.04	99.25
504.256	101.25
504.473	102.25
504.69	113.25
504.907	112.25
505.123	98.25
505.34	100.25
505.557	83.25
505.773	116.25
505.99	100.25
506.207	93.25
506.423	96.25
506.64	113.25
506.856	109.25
507.073	104.25
507.289	106.25
507.506	95.25
507.722	93.25
507.939	106.25
508.155	103.25
508.372	112.25
508.588	102.25
508.805	99.25
509.021	103.25
509.238	102.25
509.454	95.25
509.67	107.25
509.887	96.25
510.103	89.25
510.319	96.25
510.536	89.25
510.752	78.25
510.968	87.25
511.184	80.25
511.401	83.25
511.617	85.25
511.833	99.25
512.049	101.25
512.265	85.25
512.481	85.25
512.698	84.25
512.914	90.25
513.13	94.25
513.346	85.25
513.562	93.25
513.778	89.25
513.994	86.25
514.21	91.25
514.426	91.25
