Data from Zn(NO3)2Standard.Agarose3%.GreenCap.LampEnergy5.5.E.O_HRD10591_15-01-07-767.txt Node
Date: Mon Jul 22 15:01:07 EDT 2019
User: cochatt
Spectrometer: HR+D1059
Trigger mode: 1
Integration Time (sec): 1.000000E-1
Scans to average: 1
Electric dark correction enabled: true
Nonlinearity correction enabled: false
Boxcar width: 0
XAxis mode: Wavelengths
Number of Pixels in Spectrum: 2048
>>>>>Begin Spectral Data<<<<<
223.165	-20.62
223.4	-20.62
223.635	-20.62
223.869	-14.62
224.104	-19.62
224.338	-4.62
224.573	-23.62
224.808	-31.62
225.042	-0.62
225.277	-4.62
225.511	-1.62
225.746	3.38
225.98	21.38
226.215	11.38
226.449	9.38
226.683	27.38
226.918	23.38
227.152	25.38
227.387	28.38
227.621	51.38
227.856	47.38
228.09	49.38
228.324	51.38
228.559	50.38
228.793	56.38
229.027	66.38
229.262	49.38
229.496	53.38
229.73	74.38
229.964	73.38
230.199	83.38
230.433	76.38
230.667	85.38
230.901	79.38
231.136	72.38
231.37	86.38
231.604	84.38
231.838	91.38
232.072	75.38
232.306	69.38
232.541	77.38
232.775	75.38
233.009	77.38
233.243	66.38
233.477	76.38
233.711	89.38
233.945	89.38
234.179	83.38
234.413	62.38
234.647	76.38
234.881	84.38
235.115	79.38
235.349	79.38
235.583	88.38
235.817	87.38
236.051	96.38
236.285	89.38
236.519	70.38
236.753	84.38
236.987	76.38
237.221	74.38
237.455	89.38
237.689	75.38
237.922	67.38
238.156	83.38
238.39	82.38
238.624	76.38
238.858	75.38
239.091	71.38
239.325	84.38
239.559	94.38
239.793	93.38
240.027	62.38
240.26	80.38
240.494	77.38
240.728	61.38
240.961	55.38
241.195	88.38
241.429	54.38
241.662	86.38
241.896	76.38
242.13	70.38
242.363	83.38
242.597	77.38
242.83	83.38
243.064	76.38
243.298	68.38
243.531	79.38
243.765	91.38
243.998	90.38
244.232	65.38
244.465	84.38
244.699	65.38
244.932	62.38
245.166	67.38
245.399	79.38
245.633	65.38
245.866	81.38
246.099	75.38
246.333	70.38
246.566	85.38
246.8	76.38
247.033	72.38
247.266	75.38
247.5	71.38
247.733	76.38
247.966	81.38
248.2	73.38
248.433	87.38
248.666	83.38
248.899	86.38
249.133	70.38
249.366	87.38
249.599	63.38
249.832	71.38
250.066	68.38
250.299	68.38
250.532	82.38
250.765	78.38
250.998	88.38
251.231	72.38
251.465	84.38
251.698	79.38
251.931	75.38
252.164	75.38
252.397	83.38
252.63	79.38
252.863	81.38
253.096	77.38
253.329	68.38
253.562	91.38
253.795	81.38
254.028	75.38
254.261	67.38
254.494	102.38
254.727	88.38
254.96	77.38
255.193	87.38
255.426	79.38
255.659	84.38
255.892	71.38
256.124	75.38
256.357	84.38
256.59	77.38
256.823	87.38
257.056	85.38
257.289	73.38
257.521	87.38
257.754	88.38
257.987	76.38
258.22	74.38
258.452	87.38
258.685	80.38
258.918	80.38
259.151	89.38
259.383	76.38
259.616	64.38
259.849	81.38
260.081	95.38
260.314	79.38
260.547	61.38
260.779	85.38
261.012	72.38
261.244	87.38
261.477	84.38
261.71	69.38
261.942	84.38
262.175	72.38
262.407	76.38
262.64	76.38
262.872	70.38
263.105	69.38
263.337	79.38
263.57	83.38
263.802	74.38
264.035	79.38
264.267	83.38
264.499	101.38
264.732	80.38
264.964	88.38
265.197	91.38
265.429	86.38
265.661	72.38
265.894	67.38
266.126	90.38
266.358	79.38
266.591	83.38
266.823	85.38
267.055	85.38
267.287	89.38
267.52	82.38
267.752	75.38
267.984	91.38
268.216	80.38
268.448	88.38
268.681	87.38
268.913	73.38
269.145	82.38
269.377	70.38
269.609	71.38
269.841	77.38
270.073	81.38
270.306	78.38
270.538	100.38
270.77	78.38
271.002	79.38
271.234	87.38
271.466	89.38
271.698	65.38
271.93	80.38
272.162	58.38
272.394	83.38
272.626	84.38
272.858	77.38
273.09	73.38
273.322	87.38
273.553	78.38
273.785	66.38
274.017	82.38
274.249	86.38
274.481	85.38
274.713	82.38
274.945	88.38
275.176	84.38
275.408	78.38
275.64	81.38
275.872	66.38
276.104	84.38
276.335	88.38
276.567	99.38
276.799	83.38
277.031	68.38
277.262	77.38
277.494	88.38
277.726	76.38
277.957	90.38
278.189	77.38
278.421	78.38
278.652	95.38
278.884	75.38
279.115	91.38
279.347	86.38
279.579	82.38
279.81	70.38
280.042	72.38
280.273	75.38
280.505	83.38
280.736	71.38
280.968	69.38
281.199	78.38
281.431	89.38
281.662	98.38
281.894	87.38
282.125	76.38
282.356	75.38
282.588	72.38
282.819	84.38
283.051	83.38
283.282	71.38
283.513	83.38
283.745	91.38
283.976	91.38
284.207	82.38
284.439	81.38
284.67	76.38
284.901	94.38
285.132	99.38
285.364	86.38
285.595	91.38
285.826	87.38
286.057	83.38
286.288	78.38
286.52	91.38
286.751	88.38
286.982	78.38
287.213	72.38
287.444	78.38
287.675	91.38
287.906	66.38
288.138	79.38
288.369	83.38
288.6	81.38
288.831	75.38
289.062	105.38
289.293	81.38
289.524	84.38
289.755	91.38
289.986	76.38
290.217	87.38
290.448	89.38
290.679	79.38
290.91	77.38
291.141	101.38
291.371	79.38
291.602	85.38
291.833	77.38
292.064	80.38
292.295	74.38
292.526	77.38
292.757	76.38
292.987	74.38
293.218	84.38
293.449	94.38
293.68	100.38
293.91	91.38
294.141	76.38
294.372	92.38
294.603	66.38
294.833	89.38
295.064	80.38
295.295	97.38
295.525	83.38
295.756	85.38
295.987	72.38
296.217	83.38
296.448	92.38
296.679	87.38
296.909	76.38
297.14	83.38
297.37	86.38
297.601	84.38
297.831	76.38
298.062	75.38
298.292	85.38
298.523	89.38
298.753	83.38
298.984	86.38
299.214	88.38
299.445	86.38
299.675	75.38
299.905	78.38
300.136	87.38
300.366	76.38
300.597	81.38
300.827	82.38
301.057	77.38
301.288	86.38
301.518	80.38
301.748	81.38
301.979	98.38
302.209	87.38
302.439	81.38
302.669	80.38
302.9	77.38
303.13	93.38
303.36	69.38
303.59	77.38
303.82	72.38
304.051	70.38
304.281	81.38
304.511	81.38
304.741	77.38
304.971	77.38
305.201	75.38
305.431	89.38
305.661	82.38
305.891	92.38
306.121	76.38
306.352	87.38
306.582	83.38
306.812	82.38
307.042	77.38
307.272	83.38
307.502	89.38
307.731	84.38
307.961	76.38
308.191	84.38
308.421	83.38
308.651	100.38
308.881	94.38
309.111	63.38
309.341	84.38
309.571	86.38
309.8	83.38
310.03	82.38
310.26	78.38
310.49	76.38
310.72	97.38
310.949	93.38
311.179	88.38
311.409	86.38
311.639	88.38
311.868	87.38
312.098	88.38
312.328	78.38
312.557	75.38
312.787	95.38
313.017	84.38
313.246	77.38
313.476	83.38
313.706	89.38
313.935	91.38
314.165	79.38
314.394	76.38
314.624	95.38
314.853	97.38
315.083	83.38
315.312	73.38
315.542	79.38
315.771	88.38
316.001	79.38
316.23	82.38
316.46	96.38
316.689	79.38
316.919	67.38
317.148	97.38
317.377	80.38
317.607	81.38
317.836	78.38
318.065	78.38
318.295	74.38
318.524	92.38
318.753	85.38
318.983	77.38
319.212	89.38
319.441	87.38
319.67	87.38
319.9	82.38
320.129	92.38
320.358	90.38
320.587	89.38
320.816	77.38
321.046	89.38
321.275	91.38
321.504	83.38
321.733	81.38
321.962	93.38
322.191	89.38
322.42	77.38
322.649	78.38
322.878	74.38
323.108	84.38
323.337	79.38
323.566	78.38
323.795	78.38
324.024	79.38
324.253	90.38
324.482	87.38
324.71	88.38
324.939	84.38
325.168	86.38
325.397	80.38
325.626	93.38
325.855	87.38
326.084	76.38
326.313	84.38
326.542	78.38
326.77	89.38
326.999	84.38
327.228	75.38
327.457	96.38
327.686	83.38
327.914	94.38
328.143	68.38
328.372	84.38
328.6	76.38
328.829	85.38
329.058	67.38
329.287	83.38
329.515	88.38
329.744	81.38
329.972	84.38
330.201	84.38
330.43	69.38
330.658	78.38
330.887	83.38
331.115	83.38
331.344	82.38
331.572	96.38
331.801	79.38
332.03	86.38
332.258	83.38
332.486	80.38
332.715	76.38
332.943	90.38
333.172	81.38
333.4	68.38
333.629	77.38
333.857	81.38
334.085	95.38
334.314	88.38
334.542	83.38
334.771	92.38
334.999	69.38
335.227	78.38
335.455	71.38
335.684	91.38
335.912	74.38
336.14	82.38
336.369	73.38
336.597	83.38
336.825	96.38
337.053	80.38
337.281	79.38
337.51	82.38
337.738	71.38
337.966	80.38
338.194	93.38
338.422	84.38
338.65	95.38
338.878	67.38
339.106	82.38
339.334	93.38
339.562	90.38
339.79	105.38
340.018	94.38
340.246	71.38
340.474	80.38
340.702	106.38
340.93	92.38
341.158	81.38
341.386	82.38
341.614	67.38
341.842	84.38
342.07	84.38
342.298	98.38
342.526	73.38
342.754	86.38
342.981	73.38
343.209	81.38
343.437	91.38
343.665	83.38
343.893	68.38
344.12	88.38
344.348	78.38
344.576	99.38
344.804	92.38
345.031	84.38
345.259	80.38
345.487	89.38
345.714	99.38
345.942	84.38
346.17	77.38
346.397	88.38
346.625	61.38
346.853	85.38
347.08	84.38
347.308	94.38
347.535	89.38
347.763	86.38
347.99	85.38
348.218	86.38
348.445	92.38
348.673	88.38
348.9	76.38
349.128	80.38
349.355	87.38
349.583	78.38
349.81	76.38
350.037	78.38
350.265	88.38
350.492	80.38
350.72	76.38
350.947	84.38
351.174	80.38
351.402	80.38
351.629	81.38
351.856	72.38
352.083	76.38
352.311	71.38
352.538	75.38
352.765	74.38
352.992	83.38
353.22	77.38
353.447	89.38
353.674	82.38
353.901	82.38
354.128	86.38
354.355	80.38
354.583	74.38
354.81	79.38
355.037	92.38
355.264	68.38
355.491	80.38
355.718	86.38
355.945	89.38
356.172	101.38
356.399	101.38
356.626	76.38
356.853	77.38
357.08	84.38
357.307	97.38
357.534	82.38
357.761	79.38
357.988	82.38
358.215	74.38
358.441	83.38
358.668	81.38
358.895	66.38
359.122	81.38
359.349	89.38
359.576	85.38
359.802	77.38
360.029	87.38
360.256	75.38
360.483	74.38
360.709	103.38
360.936	90.38
361.163	61.38
361.39	76.38
361.616	96.38
361.843	79.38
362.07	96.38
362.296	73.38
362.523	77.38
362.749	95.38
362.976	89.38
363.203	81.38
363.429	90.38
363.656	76.38
363.882	81.38
364.109	92.38
364.335	89.38
364.562	70.38
364.788	72.38
365.015	85.38
365.241	80.38
365.468	88.38
365.694	82.38
365.92	95.38
366.147	66.38
366.373	80.38
366.599	81.38
366.826	79.38
367.052	82.38
367.278	72.38
367.505	71.38
367.731	79.38
367.957	71.38
368.184	83.38
368.41	76.38
368.636	66.38
368.862	75.38
369.089	77.38
369.315	81.38
369.541	75.38
369.767	82.38
369.993	84.38
370.219	70.38
370.445	88.38
370.672	90.38
370.898	92.38
371.124	81.38
371.35	68.38
371.576	76.38
371.802	68.38
372.028	94.38
372.254	92.38
372.48	82.38
372.706	98.38
372.932	72.38
373.158	79.38
373.384	84.38
373.61	73.38
373.835	78.38
374.061	91.38
374.287	78.38
374.513	80.38
374.739	83.38
374.965	81.38
375.191	76.38
375.416	89.38
375.642	82.38
375.868	80.38
376.094	76.38
376.319	85.38
376.545	91.38
376.771	76.38
376.997	78.38
377.222	85.38
377.448	86.38
377.674	89.38
377.899	66.38
378.125	77.38
378.35	92.38
378.576	81.38
378.802	77.38
379.027	82.38
379.253	98.38
379.478	84.38
379.704	90.38
379.929	92.38
380.155	74.38
380.38	80.38
380.606	87.38
380.831	92.38
381.057	81.38
381.282	80.38
381.507	80.38
381.733	88.38
381.958	72.38
382.184	84.38
382.409	88.38
382.634	96.38
382.86	84.38
383.085	86.38
383.31	76.38
383.535	68.38
383.761	79.38
383.986	89.38
384.211	88.38
384.436	85.38
384.662	82.38
384.887	72.38
385.112	77.38
385.337	74.38
385.562	85.38
385.787	82.38
386.013	87.38
386.238	88.38
386.463	82.38
386.688	91.38
386.913	96.38
387.138	75.38
387.363	77.38
387.588	85.38
387.813	75.38
388.038	92.38
388.263	78.38
388.488	93.38
388.713	80.38
388.938	77.38
389.163	88.38
389.387	71.38
389.612	80.38
389.837	76.38
390.062	89.38
390.287	81.38
390.512	67.38
390.736	83.38
390.961	81.38
391.186	83.38
391.411	88.38
391.636	87.38
391.86	96.38
392.085	95.38
392.31	98.38
392.534	85.38
392.759	84.38
392.984	77.38
393.208	88.38
393.433	88.38
393.658	77.38
393.882	87.38
394.107	74.38
394.331	71.38
394.556	87.38
394.78	85.38
395.005	83.38
395.229	90.38
395.454	85.38
395.678	81.38
395.903	90.38
396.127	83.38
396.352	97.38
396.576	76.38
396.801	79.38
397.025	74.38
397.249	69.38
397.474	86.38
397.698	81.38
397.922	77.38
398.147	79.38
398.371	81.38
398.595	74.38
398.82	91.38
399.044	84.38
399.268	73.38
399.492	85.38
399.717	76.38
399.941	75.38
400.165	86.38
400.389	74.38
400.613	93.38
400.837	74.38
401.062	87.38
401.286	74.38
401.51	87.38
401.734	73.38
401.958	87.38
402.182	76.38
402.406	78.38
402.63	97.38
402.854	85.38
403.078	72.38
403.302	86.38
403.526	79.38
403.75	81.38
403.974	85.38
404.198	90.38
404.422	93.38
404.645	90.38
404.869	94.38
405.093	74.38
405.317	80.38
405.541	81.38
405.765	82.38
405.988	77.38
406.212	94.38
406.436	96.38
406.66	91.38
406.883	84.38
407.107	86.38
407.331	81.38
407.555	83.38
407.778	84.38
408.002	85.38
408.226	97.38
408.449	84.38
408.673	72.38
408.896	83.38
409.12	95.38
409.344	83.38
409.567	87.38
409.791	82.38
410.014	85.38
410.238	93.38
410.461	87.38
410.685	87.38
410.908	79.38
411.132	69.38
411.355	82.38
411.578	79.38
411.802	87.38
412.025	91.38
412.249	91.38
412.472	84.38
412.695	81.38
412.919	83.38
413.142	79.38
413.365	74.38
413.589	91.38
413.812	96.38
414.035	95.38
414.258	92.38
414.482	77.38
414.705	81.38
414.928	90.38
415.151	94.38
415.374	89.38
415.597	88.38
415.821	74.38
416.044	95.38
416.267	95.38
416.49	82.38
416.713	91.38
416.936	99.38
417.159	95.38
417.382	73.38
417.605	87.38
417.828	92.38
418.051	93.38
418.274	91.38
418.497	91.38
418.72	80.38
418.943	95.38
419.166	83.38
419.389	86.38
419.611	83.38
419.834	90.38
420.057	79.38
420.28	88.38
420.503	93.38
420.726	75.38
420.948	93.38
421.171	83.38
421.394	84.38
421.617	92.38
421.839	80.38
422.062	82.38
422.285	90.38
422.507	89.38
422.73	72.38
422.953	92.38
423.175	88.38
423.398	75.38
423.621	91.38
423.843	96.38
424.066	85.38
424.288	83.38
424.511	87.38
424.733	81.38
424.956	84.38
425.178	88.38
425.401	76.38
425.623	86.38
425.846	88.38
426.068	95.38
426.291	84.38
426.513	87.38
426.735	74.38
426.958	105.38
427.18	89.38
427.402	102.38
427.625	84.38
427.847	82.38
428.069	76.38
428.292	76.38
428.514	87.38
428.736	83.38
428.958	87.38
429.181	106.38
429.403	89.38
429.625	91.38
429.847	84.38
430.069	83.38
430.292	97.38
430.514	91.38
430.736	97.38
430.958	91.38
431.18	79.38
431.402	90.38
431.624	81.38
431.846	74.38
432.068	84.38
432.29	76.38
432.512	75.38
432.734	92.38
432.956	95.38
433.178	104.38
433.4	85.38
433.622	89.38
433.844	85.38
434.066	79.38
434.287	87.38
434.509	81.38
434.731	78.38
434.953	91.38
435.175	82.38
435.397	99.38
435.618	79.38
435.84	95.38
436.062	85.38
436.284	99.38
436.505	87.38
436.727	95.38
436.949	82.38
437.17	90.38
437.392	83.38
437.614	73.38
437.835	77.38
438.057	85.38
438.278	83.38
438.5	91.38
438.721	69.38
438.943	72.38
439.165	91.38
439.386	83.38
439.608	100.38
439.829	90.38
440.05	95.38
440.272	97.38
440.493	106.38
440.715	96.38
440.936	75.38
441.158	85.38
441.379	83.38
441.6	85.38
441.822	90.38
442.043	105.38
442.264	95.38
442.486	95.38
442.707	87.38
442.928	84.38
443.149	80.38
443.371	87.38
443.592	93.38
443.813	86.38
444.034	93.38
444.255	87.38
444.476	85.38
444.698	98.38
444.919	105.38
445.14	190.38
445.361	135.38
445.582	94.38
445.803	102.38
446.024	80.38
446.245	105.38
446.466	84.38
446.687	88.38
446.908	70.38
447.129	96.38
447.35	71.38
447.571	91.38
447.792	90.38
448.013	90.38
448.234	85.38
448.455	92.38
448.675	85.38
448.896	90.38
449.117	102.38
449.338	83.38
449.559	97.38
449.779	90.38
450	86.38
450.221	100.38
450.442	85.38
450.662	89.38
450.883	82.38
451.104	98.38
451.324	72.38
451.545	77.38
451.766	79.38
451.986	95.38
452.207	66.38
452.428	78.38
452.648	90.38
452.869	95.38
453.089	92.38
453.31	93.38
453.53	77.38
453.751	95.38
453.971	81.38
454.192	77.38
454.412	83.38
454.633	91.38
454.853	83.38
455.073	89.38
455.294	82.38
455.514	87.38
455.734	82.38
455.955	86.38
456.175	86.38
456.395	88.38
456.616	73.38
456.836	71.38
457.056	82.38
457.276	71.38
457.497	80.38
457.717	78.38
457.937	82.38
458.157	86.38
458.377	87.38
458.598	86.38
458.818	88.38
459.038	84.38
459.258	65.38
459.478	88.38
459.698	96.38
459.918	79.38
460.138	87.38
460.358	72.38
460.578	94.38
460.798	78.38
461.018	91.38
461.238	89.38
461.458	89.38
461.678	76.38
461.898	95.38
462.118	77.38
462.338	82.38
462.558	105.38
462.777	96.38
462.997	98.38
463.217	76.38
463.437	88.38
463.657	77.38
463.876	92.38
464.096	78.38
464.316	91.38
464.536	84.38
464.755	73.38
464.975	82.38
465.195	82.38
465.414	93.38
465.634	83.38
465.854	86.38
466.073	91.38
466.293	81.38
466.512	86.38
466.732	96.38
466.951	88.38
467.171	88.38
467.391	73.38
467.61	85.38
467.829	86.38
468.049	88.38
468.268	86.38
468.488	90.38
468.707	97.38
468.927	92.38
469.146	81.38
469.365	91.38
469.585	79.38
469.804	84.38
470.023	89.38
470.243	91.38
470.462	89.38
470.681	82.38
470.901	81.38
471.12	91.38
471.339	67.38
471.558	88.38
471.777	89.38
471.997	85.38
472.216	92.38
472.435	90.38
472.654	73.38
472.873	96.38
473.092	82.38
473.311	84.38
473.53	91.38
473.749	87.38
473.968	79.38
474.187	75.38
474.406	88.38
474.625	88.38
474.844	88.38
475.063	93.38
475.282	92.38
475.501	90.38
475.72	98.38
475.939	85.38
476.158	92.38
476.377	90.38
476.596	86.38
476.814	89.38
477.033	74.38
477.252	76.38
477.471	88.38
477.69	84.38
477.908	84.38
478.127	102.38
478.346	87.38
478.564	92.38
478.783	104.38
479.002	94.38
479.22	77.38
479.439	96.38
479.658	87.38
479.876	81.38
480.095	68.38
480.313	93.38
480.532	72.38
480.751	82.38
480.969	87.38
481.188	76.38
481.406	91.38
481.624	91.38
481.843	85.38
482.061	86.38
482.28	89.38
482.498	81.38
482.717	83.38
482.935	90.38
483.153	95.38
483.372	101.38
483.59	83.38
483.808	104.38
484.027	88.38
484.245	90.38
484.463	75.38
484.681	90.38
484.9	79.38
485.118	85.38
485.336	85.38
485.554	91.38
485.772	78.38
485.99	80.38
486.209	90.38
486.427	73.38
486.645	79.38
486.863	86.38
487.081	105.38
487.299	77.38
487.517	103.38
487.735	88.38
487.953	90.38
488.171	79.38
488.389	114.38
488.607	89.38
488.825	91.38
489.043	87.38
489.261	83.38
489.479	83.38
489.696	86.38
489.914	96.38
490.132	78.38
490.35	86.38
490.568	96.38
490.786	89.38
491.003	102.38
491.221	93.38
491.439	92.38
491.657	107.38
491.874	93.38
492.092	107.38
492.31	113.38
492.527	115.38
492.745	110.38
492.963	91.38
493.18	100.38
493.398	103.38
493.615	96.38
493.833	84.38
494.05	88.38
494.268	90.38
494.485	98.38
494.703	106.38
494.92	91.38
495.138	98.38
495.355	111.38
495.573	88.38
495.79	90.38
496.008	98.38
496.225	93.38
496.442	92.38
496.66	91.38
496.877	95.38
497.094	91.38
497.312	92.38
497.529	79.38
497.746	103.38
497.963	99.38
498.181	96.38
498.398	76.38
498.615	69.38
498.832	82.38
499.049	75.38
499.267	88.38
499.484	89.38
499.701	97.38
499.918	84.38
500.135	89.38
500.352	81.38
500.569	101.38
500.786	96.38
501.003	96.38
501.22	91.38
501.437	93.38
501.654	87.38
501.871	87.38
502.088	90.38
502.305	92.38
502.522	90.38
502.739	98.38
502.956	90.38
503.172	90.38
503.389	88.38
503.606	74.38
503.823	92.38
504.04	90.38
504.256	88.38
504.473	82.38
504.69	90.38
504.907	91.38
505.123	84.38
505.34	90.38
505.557	85.38
505.773	94.38
505.99	81.38
506.207	87.38
506.423	91.38
506.64	105.38
506.856	90.38
507.073	68.38
507.289	90.38
507.506	87.38
507.722	80.38
507.939	80.38
508.155	93.38
508.372	96.38
508.588	77.38
508.805	84.38
509.021	67.38
509.238	71.38
509.454	70.38
509.67	89.38
509.887	76.38
510.103	77.38
510.319	76.38
510.536	93.38
510.752	75.38
510.968	81.38
511.184	80.38
511.401	90.38
511.617	77.38
511.833	85.38
512.049	82.38
512.265	69.38
512.481	86.38
512.698	86.38
512.914	88.38
513.13	67.38
513.346	86.38
513.562	78.38
513.778	81.38
513.994	97.38
514.21	84.38
514.426	84.38
514.642	82.38
514.858	78.38
515.074	87.38
515.29	97.38
515.506	49.38
515.721	77.38
515.937	82.38
516.153	78.38
516.369	88.38
516.585	91.38
516.801	67.38
517.016	71.38
517.232	81.38
517.448	82.38
517.664	82.38
517.879	90.38
518.095	92.38
518.311	83.38
518.527	89.38
518.742	73.38
