Data from Zn(NO3)2Standard.Agarose3%.GreenCap.LampEnergy10E.O_HRD10591_15-09-07-952.txt Node
Date: Mon Jul 22 15:09:07 EDT 2019
User: cochatt
Spectrometer: HR+D1059
Trigger mode: 1
Integration Time (sec): 1.000000E-1
Scans to average: 1
Electric dark correction enabled: true
Nonlinearity correction enabled: false
Boxcar width: 0
XAxis mode: Wavelengths
Number of Pixels in Spectrum: 2048
>>>>>Begin Spectral Data<<<<<
223.165	-17.81
223.4	-17.81
223.635	-17.81
223.869	-25.81
224.104	-1.81
224.338	-10.81
224.573	-8.81
224.808	-19.81
225.042	-9.81
225.277	-20.81
225.511	-8.81
225.746	0.19
225.98	-1.81
226.215	5.19
226.449	23.19
226.683	38.19
226.918	23.19
227.152	36.19
227.387	34.19
227.621	33.19
227.856	31.19
228.09	55.19
228.324	48.19
228.559	48.19
228.793	52.19
229.027	63.19
229.262	67.19
229.496	75.19
229.73	69.19
229.964	76.19
230.199	65.19
230.433	67.19
230.667	76.19
230.901	78.19
231.136	79.19
231.37	106.19
231.604	83.19
231.838	89.19
232.072	85.19
232.306	75.19
232.541	80.19
232.775	90.19
233.009	85.19
233.243	86.19
233.477	97.19
233.711	90.19
233.945	86.19
234.179	84.19
234.413	93.19
234.647	92.19
234.881	84.19
235.115	86.19
235.349	75.19
235.583	67.19
235.817	69.19
236.051	95.19
236.285	69.19
236.519	71.19
236.753	75.19
236.987	69.19
237.221	78.19
237.455	75.19
237.689	81.19
237.922	70.19
238.156	76.19
238.39	78.19
238.624	72.19
238.858	78.19
239.091	75.19
239.325	75.19
239.559	78.19
239.793	97.19
240.027	81.19
240.26	80.19
240.494	91.19
240.728	79.19
240.961	75.19
241.195	86.19
241.429	76.19
241.662	77.19
241.896	93.19
242.13	80.19
242.363	78.19
242.597	72.19
242.83	63.19
243.064	83.19
243.298	73.19
243.531	78.19
243.765	85.19
243.998	95.19
244.232	90.19
244.465	85.19
244.699	64.19
244.932	66.19
245.166	79.19
245.399	73.19
245.633	78.19
245.866	77.19
246.099	65.19
246.333	79.19
246.566	84.19
246.8	101.19
247.033	95.19
247.266	79.19
247.5	75.19
247.733	79.19
247.966	84.19
248.2	83.19
248.433	89.19
248.666	81.19
248.899	84.19
249.133	92.19
249.366	78.19
249.599	97.19
249.832	75.19
250.066	76.19
250.299	94.19
250.532	99.19
250.765	94.19
250.998	78.19
251.231	68.19
251.465	88.19
251.698	82.19
251.931	89.19
252.164	75.19
252.397	74.19
252.63	90.19
252.863	74.19
253.096	80.19
253.329	84.19
253.562	77.19
253.795	80.19
254.028	84.19
254.261	104.19
254.494	87.19
254.727	72.19
254.96	76.19
255.193	76.19
255.426	77.19
255.659	83.19
255.892	74.19
256.124	77.19
256.357	79.19
256.59	79.19
256.823	84.19
257.056	85.19
257.289	84.19
257.521	71.19
257.754	83.19
257.987	76.19
258.22	94.19
258.452	90.19
258.685	75.19
258.918	79.19
259.151	81.19
259.383	91.19
259.616	87.19
259.849	74.19
260.081	82.19
260.314	81.19
260.547	86.19
260.779	67.19
261.012	85.19
261.244	63.19
261.477	85.19
261.71	92.19
261.942	92.19
262.175	91.19
262.407	87.19
262.64	77.19
262.872	77.19
263.105	84.19
263.337	76.19
263.57	79.19
263.802	87.19
264.035	95.19
264.267	71.19
264.499	83.19
264.732	69.19
264.964	82.19
265.197	81.19
265.429	89.19
265.661	93.19
265.894	92.19
266.126	81.19
266.358	81.19
266.591	103.19
266.823	84.19
267.055	78.19
267.287	82.19
267.52	82.19
267.752	88.19
267.984	76.19
268.216	88.19
268.448	100.19
268.681	90.19
268.913	74.19
269.145	76.19
269.377	91.19
269.609	80.19
269.841	87.19
270.073	88.19
270.306	80.19
270.538	86.19
270.77	89.19
271.002	82.19
271.234	93.19
271.466	87.19
271.698	87.19
271.93	81.19
272.162	87.19
272.394	80.19
272.626	86.19
272.858	90.19
273.09	80.19
273.322	77.19
273.553	74.19
273.785	91.19
274.017	87.19
274.249	86.19
274.481	81.19
274.713	85.19
274.945	71.19
275.176	92.19
275.408	91.19
275.64	78.19
275.872	78.19
276.104	77.19
276.335	89.19
276.567	80.19
276.799	83.19
277.031	90.19
277.262	92.19
277.494	79.19
277.726	95.19
277.957	78.19
278.189	87.19
278.421	89.19
278.652	88.19
278.884	81.19
279.115	85.19
279.347	80.19
279.579	67.19
279.81	95.19
280.042	94.19
280.273	79.19
280.505	94.19
280.736	92.19
280.968	87.19
281.199	87.19
281.431	85.19
281.662	81.19
281.894	86.19
282.125	85.19
282.356	92.19
282.588	80.19
282.819	90.19
283.051	87.19
283.282	87.19
283.513	77.19
283.745	84.19
283.976	81.19
284.207	97.19
284.439	90.19
284.67	92.19
284.901	93.19
285.132	93.19
285.364	85.19
285.595	96.19
285.826	71.19
286.057	83.19
286.288	79.19
286.52	85.19
286.751	67.19
286.982	83.19
287.213	75.19
287.444	89.19
287.675	70.19
287.906	96.19
288.138	87.19
288.369	96.19
288.6	85.19
288.831	87.19
289.062	86.19
289.293	74.19
289.524	89.19
289.755	84.19
289.986	84.19
290.217	82.19
290.448	86.19
290.679	90.19
290.91	89.19
291.141	85.19
291.371	81.19
291.602	87.19
291.833	90.19
292.064	85.19
292.295	89.19
292.526	86.19
292.757	81.19
292.987	85.19
293.218	90.19
293.449	92.19
293.68	99.19
293.91	78.19
294.141	87.19
294.372	87.19
294.603	77.19
294.833	83.19
295.064	87.19
295.295	76.19
295.525	80.19
295.756	83.19
295.987	78.19
296.217	67.19
296.448	88.19
296.679	95.19
296.909	82.19
297.14	87.19
297.37	100.19
297.601	81.19
297.831	87.19
298.062	92.19
298.292	83.19
298.523	85.19
298.753	88.19
298.984	81.19
299.214	85.19
299.445	107.19
299.675	92.19
299.905	83.19
300.136	84.19
300.366	79.19
300.597	89.19
300.827	90.19
301.057	92.19
301.288	78.19
301.518	87.19
301.748	89.19
301.979	81.19
302.209	82.19
302.439	95.19
302.669	94.19
302.9	82.19
303.13	88.19
303.36	97.19
303.59	83.19
303.82	84.19
304.051	87.19
304.281	89.19
304.511	92.19
304.741	95.19
304.971	91.19
305.201	78.19
305.431	92.19
305.661	69.19
305.891	87.19
306.121	92.19
306.352	92.19
306.582	101.19
306.812	81.19
307.042	77.19
307.272	88.19
307.502	87.19
307.731	91.19
307.961	93.19
308.191	75.19
308.421	93.19
308.651	81.19
308.881	89.19
309.111	96.19
309.341	99.19
309.571	87.19
309.8	92.19
310.03	83.19
310.26	76.19
310.49	94.19
310.72	86.19
310.949	77.19
311.179	85.19
311.409	86.19
311.639	84.19
311.868	91.19
312.098	86.19
312.328	69.19
312.557	101.19
312.787	81.19
313.017	91.19
313.246	90.19
313.476	89.19
313.706	89.19
313.935	77.19
314.165	96.19
314.394	95.19
314.624	83.19
314.853	89.19
315.083	91.19
315.312	101.19
315.542	99.19
315.771	88.19
316.001	90.19
316.23	82.19
316.46	76.19
316.689	80.19
316.919	86.19
317.148	86.19
317.377	92.19
317.607	84.19
317.836	72.19
318.065	99.19
318.295	86.19
318.524	73.19
318.753	89.19
318.983	88.19
319.212	83.19
319.441	80.19
319.67	103.19
319.9	85.19
320.129	90.19
320.358	84.19
320.587	81.19
320.816	74.19
321.046	73.19
321.275	97.19
321.504	90.19
321.733	74.19
321.962	100.19
322.191	79.19
322.42	79.19
322.649	77.19
322.878	89.19
323.108	80.19
323.337	83.19
323.566	91.19
323.795	88.19
324.024	99.19
324.253	83.19
324.482	89.19
324.71	86.19
324.939	88.19
325.168	71.19
325.397	88.19
325.626	74.19
325.855	83.19
326.084	81.19
326.313	99.19
326.542	83.19
326.77	81.19
326.999	81.19
327.228	75.19
327.457	91.19
327.686	87.19
327.914	72.19
328.143	83.19
328.372	91.19
328.6	89.19
328.829	87.19
329.058	87.19
329.287	83.19
329.515	95.19
329.744	94.19
329.972	92.19
330.201	84.19
330.43	84.19
330.658	97.19
330.887	95.19
331.115	97.19
331.344	92.19
331.572	93.19
331.801	98.19
332.03	85.19
332.258	104.19
332.486	80.19
332.715	87.19
332.943	77.19
333.172	87.19
333.4	112.19
333.629	89.19
333.857	81.19
334.085	95.19
334.314	87.19
334.542	92.19
334.771	86.19
334.999	93.19
335.227	84.19
335.455	92.19
335.684	78.19
335.912	83.19
336.14	87.19
336.369	79.19
336.597	97.19
336.825	80.19
337.053	87.19
337.281	79.19
337.51	91.19
337.738	92.19
337.966	93.19
338.194	84.19
338.422	87.19
338.65	90.19
338.878	87.19
339.106	78.19
339.334	89.19
339.562	90.19
339.79	79.19
340.018	81.19
340.246	84.19
340.474	88.19
340.702	80.19
340.93	87.19
341.158	91.19
341.386	94.19
341.614	97.19
341.842	90.19
342.07	80.19
342.298	88.19
342.526	92.19
342.754	96.19
342.981	88.19
343.209	73.19
343.437	78.19
343.665	79.19
343.893	92.19
344.12	92.19
344.348	77.19
344.576	92.19
344.804	94.19
345.031	87.19
345.259	81.19
345.487	92.19
345.714	75.19
345.942	91.19
346.17	77.19
346.397	77.19
346.625	94.19
346.853	87.19
347.08	90.19
347.308	78.19
347.535	93.19
347.763	96.19
347.99	88.19
348.218	100.19
348.445	90.19
348.673	69.19
348.9	69.19
349.128	86.19
349.355	87.19
349.583	93.19
349.81	103.19
350.037	68.19
350.265	79.19
350.492	76.19
350.72	77.19
350.947	84.19
351.174	92.19
351.402	95.19
351.629	75.19
351.856	103.19
352.083	81.19
352.311	83.19
352.538	81.19
352.765	94.19
352.992	81.19
353.22	88.19
353.447	87.19
353.674	89.19
353.901	78.19
354.128	79.19
354.355	82.19
354.583	87.19
354.81	85.19
355.037	85.19
355.264	85.19
355.491	77.19
355.718	82.19
355.945	86.19
356.172	91.19
356.399	96.19
356.626	83.19
356.853	86.19
357.08	92.19
357.307	87.19
357.534	93.19
357.761	84.19
357.988	81.19
358.215	87.19
358.441	93.19
358.668	100.19
358.895	85.19
359.122	84.19
359.349	93.19
359.576	89.19
359.802	92.19
360.029	68.19
360.256	82.19
360.483	87.19
360.709	93.19
360.936	87.19
361.163	93.19
361.39	90.19
361.616	81.19
361.843	79.19
362.07	97.19
362.296	89.19
362.523	100.19
362.749	96.19
362.976	79.19
363.203	102.19
363.429	71.19
363.656	83.19
363.882	85.19
364.109	92.19
364.335	92.19
364.562	83.19
364.788	84.19
365.015	95.19
365.241	81.19
365.468	93.19
365.694	86.19
365.92	86.19
366.147	80.19
366.373	94.19
366.599	92.19
366.826	82.19
367.052	103.19
367.278	78.19
367.505	83.19
367.731	85.19
367.957	84.19
368.184	83.19
368.41	98.19
368.636	100.19
368.862	77.19
369.089	96.19
369.315	82.19
369.541	79.19
369.767	94.19
369.993	91.19
370.219	92.19
370.445	94.19
370.672	100.19
370.898	81.19
371.124	89.19
371.35	91.19
371.576	89.19
371.802	92.19
372.028	95.19
372.254	74.19
372.48	85.19
372.706	101.19
372.932	94.19
373.158	76.19
373.384	89.19
373.61	100.19
373.835	90.19
374.061	88.19
374.287	80.19
374.513	91.19
374.739	94.19
374.965	95.19
375.191	97.19
375.416	86.19
375.642	87.19
375.868	102.19
376.094	101.19
376.319	86.19
376.545	83.19
376.771	79.19
376.997	76.19
377.222	99.19
377.448	103.19
377.674	99.19
377.899	94.19
378.125	97.19
378.35	89.19
378.576	86.19
378.802	75.19
379.027	91.19
379.253	95.19
379.478	87.19
379.704	86.19
379.929	77.19
380.155	84.19
380.38	90.19
380.606	97.19
380.831	91.19
381.057	105.19
381.282	81.19
381.507	93.19
381.733	85.19
381.958	87.19
382.184	105.19
382.409	100.19
382.634	84.19
382.86	77.19
383.085	96.19
383.31	84.19
383.535	97.19
383.761	97.19
383.986	88.19
384.211	90.19
384.436	104.19
384.662	89.19
384.887	102.19
385.112	88.19
385.337	92.19
385.562	81.19
385.787	75.19
386.013	102.19
386.238	88.19
386.463	91.19
386.688	104.19
386.913	103.19
387.138	96.19
387.363	97.19
387.588	89.19
387.813	95.19
388.038	93.19
388.263	102.19
388.488	94.19
388.713	102.19
388.938	92.19
389.163	86.19
389.387	91.19
389.612	90.19
389.837	91.19
390.062	112.19
390.287	103.19
390.512	111.19
390.736	87.19
390.961	88.19
391.186	86.19
391.411	94.19
391.636	79.19
391.86	96.19
392.085	94.19
392.31	101.19
392.534	107.19
392.759	90.19
392.984	108.19
393.208	98.19
393.433	84.19
393.658	97.19
393.882	95.19
394.107	93.19
394.331	102.19
394.556	93.19
394.78	92.19
395.005	105.19
395.229	89.19
395.454	89.19
395.678	97.19
395.903	103.19
396.127	106.19
396.352	95.19
396.576	104.19
396.801	107.19
397.025	89.19
397.249	81.19
397.474	104.19
397.698	87.19
397.922	108.19
398.147	87.19
398.371	92.19
398.595	101.19
398.82	93.19
399.044	110.19
399.268	98.19
399.492	99.19
399.717	99.19
399.941	105.19
400.165	99.19
400.389	97.19
400.613	85.19
400.837	104.19
401.062	102.19
401.286	97.19
401.51	103.19
401.734	94.19
401.958	106.19
402.182	89.19
402.406	91.19
402.63	79.19
402.854	103.19
403.078	104.19
403.302	112.19
403.526	87.19
403.75	104.19
403.974	100.19
404.198	94.19
404.422	92.19
404.645	96.19
404.869	97.19
405.093	110.19
405.317	101.19
405.541	112.19
405.765	107.19
405.988	105.19
406.212	107.19
406.436	94.19
406.66	108.19
406.883	102.19
407.107	97.19
407.331	94.19
407.555	98.19
407.778	102.19
408.002	93.19
408.226	102.19
408.449	101.19
408.673	109.19
408.896	104.19
409.12	113.19
409.344	93.19
409.567	99.19
409.791	92.19
410.014	96.19
410.238	95.19
410.461	100.19
410.685	102.19
410.908	103.19
411.132	99.19
411.355	89.19
411.578	109.19
411.802	103.19
412.025	102.19
412.249	105.19
412.472	116.19
412.695	115.19
412.919	111.19
413.142	119.19
413.365	110.19
413.589	99.19
413.812	108.19
414.035	104.19
414.258	99.19
414.482	104.19
414.705	114.19
414.928	108.19
415.151	106.19
415.374	97.19
415.597	101.19
415.821	107.19
416.044	104.19
416.267	93.19
416.49	111.19
416.713	96.19
416.936	105.19
417.159	103.19
417.382	105.19
417.605	115.19
417.828	115.19
418.051	93.19
418.274	120.19
418.497	111.19
418.72	105.19
418.943	116.19
419.166	100.19
419.389	113.19
419.611	102.19
419.834	104.19
420.057	102.19
420.28	108.19
420.503	119.19
420.726	119.19
420.948	110.19
421.171	93.19
421.394	111.19
421.617	115.19
421.839	113.19
422.062	114.19
422.285	96.19
422.507	104.19
422.73	104.19
422.953	107.19
423.175	94.19
423.398	110.19
423.621	121.19
423.843	117.19
424.066	100.19
424.288	95.19
424.511	108.19
424.733	114.19
424.956	108.19
425.178	108.19
425.401	98.19
425.623	102.19
425.846	103.19
426.068	104.19
426.291	119.19
426.513	118.19
426.735	115.19
426.958	88.19
427.18	105.19
427.402	107.19
427.625	114.19
427.847	111.19
428.069	102.19
428.292	119.19
428.514	109.19
428.736	91.19
428.958	103.19
429.181	123.19
429.403	121.19
429.625	116.19
429.847	120.19
430.069	121.19
430.292	125.19
430.514	118.19
430.736	103.19
430.958	104.19
431.18	108.19
431.402	111.19
431.624	100.19
431.846	96.19
432.068	94.19
432.29	94.19
432.512	106.19
432.734	100.19
432.956	112.19
433.178	116.19
433.4	112.19
433.622	117.19
433.844	100.19
434.066	100.19
434.287	100.19
434.509	103.19
434.731	96.19
434.953	89.19
435.175	112.19
435.397	112.19
435.618	108.19
435.84	104.19
436.062	93.19
436.284	101.19
436.505	112.19
436.727	116.19
436.949	99.19
437.17	118.19
437.392	115.19
437.614	107.19
437.835	92.19
438.057	96.19
438.278	106.19
438.5	107.19
438.721	113.19
438.943	96.19
439.165	106.19
439.386	100.19
439.608	116.19
439.829	94.19
440.05	105.19
440.272	126.19
440.493	117.19
440.715	112.19
440.936	113.19
441.158	122.19
441.379	115.19
441.6	105.19
441.822	112.19
442.043	116.19
442.264	125.19
442.486	107.19
442.707	112.19
442.928	103.19
443.149	99.19
443.371	125.19
443.592	115.19
443.813	130.19
444.034	113.19
444.255	117.19
444.476	112.19
444.698	110.19
444.919	122.19
445.14	253.19
445.361	179.19
445.582	127.19
445.803	126.19
446.024	115.19
446.245	112.19
446.466	109.19
446.687	115.19
446.908	122.19
447.129	109.19
447.35	125.19
447.571	108.19
447.792	110.19
448.013	116.19
448.234	125.19
448.455	116.19
448.675	120.19
448.896	124.19
449.117	126.19
449.338	112.19
449.559	109.19
449.779	99.19
450	110.19
450.221	111.19
450.442	106.19
450.662	116.19
450.883	104.19
451.104	110.19
451.324	124.19
451.545	121.19
451.766	114.19
451.986	106.19
452.207	110.19
452.428	116.19
452.648	109.19
452.869	94.19
453.089	92.19
453.31	100.19
453.53	89.19
453.751	89.19
453.971	100.19
454.192	96.19
454.412	91.19
454.633	111.19
454.853	105.19
455.073	99.19
455.294	102.19
455.514	108.19
455.734	93.19
455.955	95.19
456.175	101.19
456.395	90.19
456.616	89.19
456.836	81.19
457.056	107.19
457.276	89.19
457.497	78.19
457.717	96.19
457.937	101.19
458.157	103.19
458.377	100.19
458.598	106.19
458.818	89.19
459.038	79.19
459.258	93.19
459.478	93.19
459.698	86.19
459.918	100.19
460.138	92.19
460.358	86.19
460.578	104.19
460.798	91.19
461.018	105.19
461.238	107.19
461.458	110.19
461.678	97.19
461.898	117.19
462.118	106.19
462.338	111.19
462.558	104.19
462.777	102.19
462.997	95.19
463.217	104.19
463.437	88.19
463.657	100.19
463.876	104.19
464.096	102.19
464.316	83.19
464.536	108.19
464.755	102.19
464.975	101.19
465.195	95.19
465.414	113.19
465.634	90.19
465.854	104.19
466.073	88.19
466.293	98.19
466.512	117.19
466.732	95.19
466.951	93.19
467.171	117.19
467.391	118.19
467.61	111.19
467.829	126.19
468.049	106.19
468.268	96.19
468.488	113.19
468.707	119.19
468.927	103.19
469.146	126.19
469.365	133.19
469.585	103.19
469.804	112.19
470.023	121.19
470.243	105.19
470.462	119.19
470.681	127.19
470.901	113.19
471.12	116.19
471.339	106.19
471.558	119.19
471.777	110.19
471.997	115.19
472.216	111.19
472.435	94.19
472.654	93.19
472.873	104.19
473.092	103.19
473.311	97.19
473.53	116.19
473.749	112.19
473.968	102.19
474.187	118.19
474.406	100.19
474.625	118.19
474.844	108.19
475.063	96.19
475.282	110.19
475.501	98.19
475.72	115.19
475.939	111.19
476.158	103.19
476.377	116.19
476.596	99.19
476.814	105.19
477.033	90.19
477.252	101.19
477.471	90.19
477.69	105.19
477.908	110.19
478.127	134.19
478.346	104.19
478.564	104.19
478.783	118.19
479.002	107.19
479.22	106.19
479.439	122.19
479.658	101.19
479.876	115.19
480.095	117.19
480.313	107.19
480.532	109.19
480.751	99.19
480.969	94.19
481.188	85.19
481.406	91.19
481.624	77.19
481.843	93.19
482.061	83.19
482.28	89.19
482.498	89.19
482.717	97.19
482.935	100.19
483.153	117.19
483.372	116.19
483.59	119.19
483.808	124.19
484.027	111.19
484.245	105.19
484.463	102.19
484.681	106.19
484.9	105.19
485.118	114.19
485.336	112.19
485.554	98.19
485.772	80.19
485.99	79.19
486.209	87.19
486.427	97.19
486.645	97.19
486.863	113.19
487.081	118.19
487.299	119.19
487.517	123.19
487.735	126.19
487.953	150.19
488.171	141.19
488.389	125.19
488.607	142.19
488.825	123.19
489.043	125.19
489.261	121.19
489.479	116.19
489.696	113.19
489.914	125.19
490.132	112.19
490.35	137.19
490.568	127.19
490.786	132.19
491.003	142.19
491.221	123.19
491.439	121.19
491.657	131.19
491.874	151.19
492.092	135.19
492.31	155.19
492.527	152.19
492.745	158.19
492.963	154.19
493.18	134.19
493.398	136.19
493.615	131.19
493.833	131.19
494.05	125.19
494.268	132.19
494.485	131.19
494.703	119.19
494.92	133.19
495.138	121.19
495.355	133.19
495.573	133.19
495.79	137.19
496.008	125.19
496.225	131.19
496.442	131.19
496.66	138.19
496.877	131.19
497.094	127.19
497.312	127.19
497.529	123.19
497.746	109.19
497.963	127.19
498.181	101.19
498.398	127.19
498.615	120.19
498.832	103.19
499.049	103.19
499.267	105.19
499.484	107.19
499.701	115.19
499.918	123.19
500.135	112.19
500.352	119.19
500.569	105.19
500.786	111.19
501.003	127.19
501.22	108.19
501.437	118.19
501.654	120.19
501.871	116.19
502.088	101.19
502.305	124.19
502.522	111.19
502.739	124.19
502.956	120.19
503.172	115.19
503.389	111.19
503.606	116.19
503.823	108.19
504.04	112.19
504.256	103.19
504.473	107.19
504.69	107.19
504.907	114.19
505.123	99.19
505.34	107.19
505.557	102.19
505.773	100.19
505.99	93.19
506.207	101.19
506.423	100.19
506.64	104.19
506.856	109.19
507.073	96.19
507.289	110.19
507.506	100.19
507.722	91.19
507.939	112.19
508.155	103.19
508.372	99.19
508.588	87.19
508.805	105.19
509.021	106.19
509.238	108.19
509.454	93.19
509.67	94.19
509.887	92.19
510.103	97.19
510.319	95.19
510.536	91.19
510.752	73.19
510.968	86.19
511.184	75.19
511.401	78.19
511.617	88.19
511.833	83.19
512.049	96.19
512.265	90.19
512.481	94.19
512.698	81.19
512.914	87.19
513.13	88.19
